Dividing Wavelength (nm)	Counts (n)	Blue Motor Position (mm): 39.000000	Red Motor Position (mm): 0.000000	
326.493990	2052.009235
326.888308	2052.009235
327.282561	2052.009235
327.676750	2026.082581
328.070874	2027.957890
328.464933	2033.800587
328.858929	2041.584129
329.252859	2053.571993
329.646726	2067.019270
330.040528	2081.505026
330.434265	2097.931626
330.827938	2119.613628
331.221547	2142.288738
331.615091	2161.079639
332.008571	2181.536642
332.401986	2204.267204
332.795338	2224.724207
333.188625	2242.141393
333.581847	2262.255597
333.975006	2277.253030
334.368100	2294.821451
334.761129	2310.748977
335.154095	2328.561894
335.546996	2379.142311
335.939833	2489.712459
336.332606	2496.001298
336.725315	2511.565861
337.117960	2522.754702
337.510540	2531.853984
337.903056	2539.103163
338.295508	2546.929555
338.687896	2555.068498
339.080220	2560.833057
339.472480	2565.216340
339.864676	2567.376475
340.256807	2571.343863
340.648875	2572.664645
341.040879	2572.105077
341.432818	2576.115315
341.824694	2577.058011
342.216506	2574.829821
342.608253	2575.349060
342.999937	2573.907290
343.391557	2571.777402
343.783113	2572.773030
344.174605	2571.893349
344.566033	2568.152812
344.957397	2568.838409
345.348697	2563.635939
345.739934	2563.696432
346.131106	2561.233829
346.522215	2560.979251
346.913260	2560.026472
347.304241	2557.301729
347.695159	2555.423899
348.086012	2556.568241
348.476802	2550.634803
348.867528	2551.433826
349.258191	2545.185316
349.648789	2547.360573
350.039324	2543.430994
350.429796	2547.786551
350.820203	2549.324103
351.210548	2544.149358
351.600828	2545.485264
351.991045	2542.770603
352.381198	2543.241951
352.771288	2542.715150
353.161314	2542.137938
353.551276	2542.165664
353.941175	2540.202135
354.331010	2542.989893
354.720782	2547.136242
355.110490	2548.545245
355.500135	2540.897814
355.889717	2544.361087
356.279235	2543.327650
356.668689	2544.406457
357.058080	2544.308155
357.447408	2543.753628
357.836672	2543.403268
358.225873	2545.094575
358.615010	2545.830583
359.004084	2548.847714
359.393095	2548.799823
359.782043	2546.899308
360.170927	2548.376366
360.559748	2549.377035
360.948505	2548.756973
361.337199	2550.997766
361.725830	2550.917107
362.114398	2550.024823
362.502903	2553.457849
362.891344	2553.828374
363.279722	2553.152859
363.668037	2553.505740
364.056289	2552.588250
364.444478	2555.948179
364.832603	2555.315514
365.220665	2554.524053
365.608665	2553.856100
365.996601	2556.346430
366.384474	2554.715617
366.772284	2556.888354
367.160031	2557.311811
367.547715	2558.410783
367.935336	2553.737633
368.322893	2555.330638
368.710388	2555.933056
369.097820	2555.091183
369.485189	2555.131512
369.872495	2559.892882
370.259738	2560.041596
370.646918	2560.283571
371.034035	2562.983109
371.421090	2561.135526
371.808081	2562.673078
372.195010	2559.391287
372.581875	2562.116031
372.968678	2563.615774
373.355418	2563.482183
373.742096	2561.949673
374.128710	2563.809858
374.515262	2565.717935
374.901751	2563.865311
375.288177	2565.763306
375.674540	2565.415466
376.060841	2566.627863
376.447079	2565.332287
376.833254	2567.419325
377.219367	2566.892524
377.605417	2568.011660
377.991404	2566.166598
378.377329	2571.031311
378.763191	2570.207083
379.148991	2568.901424
379.534727	2569.536609
379.920402	2569.067782
380.306013	2569.597103
380.691563	2572.094995
381.077049	2573.798905
381.462474	2569.960066
381.847835	2572.599110
382.233134	2572.989800
382.618371	2575.139852
383.003545	2573.980386
383.388657	2570.912844
383.773706	2574.963411
384.158693	2573.146075
384.543618	2577.400809
384.928480	2576.727815
385.313280	2575.825449
385.698017	2575.941395
386.082692	2579.495409
386.467305	2578.986252
386.851856	2577.743608
387.236344	2575.538103
387.620770	2576.672362
388.005133	2575.139852
388.389435	2578.787127
388.773674	2574.991138
389.157851	2580.528845
389.541965	2584.264340
389.926018	2582.421798
390.310008	2583.460276
390.693936	2583.644278
391.077802	2585.701069
391.461606	2588.224167
391.845348	2590.003694
392.229027	2588.284660
392.612645	2588.569486
392.996200	2588.723241
393.379694	2590.144846
393.763125	2590.454877
394.146494	2592.662903
394.529801	2595.548963
394.913047	2596.526947
395.296230	2596.368151
395.679351	2600.847216
396.062410	2601.492483
396.445408	2607.020109
396.828343	2608.194697
397.211217	2612.958588
397.594028	2617.412447
397.976778	2623.121554
398.359466	2628.850825
398.742092	2631.807462
399.124656	2640.269039
399.507158	2648.498722
399.889598	2656.289826
400.271977	2670.115190
400.654294	2677.248423
401.036549	2689.478262
401.418742	2699.326156
401.800874	2716.027499
402.182944	2728.040568
402.564952	2749.896491
402.946898	2766.116403
403.328783	2781.277674
403.710606	2803.294913
404.092367	2826.464056
404.474067	2852.063035
404.855705	2872.187322
405.237282	2882.614948
405.618797	2921.396545
406.000250	2959.048923
406.381642	2994.924294
406.762972	3017.823736
407.144240	3030.633308
407.525447	3072.177456
407.906593	3099.298864
408.287677	3147.139414
408.668700	3184.630475
409.049661	3221.337637
409.430560	3261.266096
409.811399	3286.643264
410.192176	3332.522806
410.572891	3390.203688
410.953545	3456.676343
411.334138	3448.234930
411.714669	3528.699308
412.095139	3526.304759
412.475547	3601.954835
412.855894	3635.995226
413.236180	3712.930795
413.616405	3721.442784
413.996568	3799.449598
414.376670	3839.264631
414.756711	3873.675548
415.136691	3943.805559
415.516609	4024.620297
415.896466	4082.555757
416.276262	4161.659023
416.655997	4265.753808
417.035670	4356.146738
417.415283	4475.579234
417.794834	4548.507087
418.174324	4564.326227
418.553753	4604.587403
418.933121	4750.717850
419.312428	4799.264161
419.691674	4791.992297
420.070859	4976.586748
420.449983	4930.021610
420.829045	5109.718580
421.208047	5097.700469
421.586988	5248.695629
421.965867	5339.002859
422.344686	5432.145738
422.723444	5598.612200
423.102141	5344.454867
423.480777	5671.391338
423.859352	5564.428136
424.237866	5892.317385
424.616319	5916.741775
424.994712	6079.485345
425.373044	6043.897319
425.751314	6327.729404
426.129524	6129.569208
426.507673	6383.300564
426.885762	6448.240708
427.263789	6507.428895
427.641756	6610.943948
428.019662	6692.529982
428.397508	6753.381750
428.775292	6774.942765
429.153016	6926.668893
429.530679	6902.211735
429.908282	6961.654501
430.285824	6934.754904
430.663305	7191.286620
431.040726	7121.229705
431.418086	7128.395705
431.795385	7278.344826
432.172624	7458.009029
432.549802	7355.895417
432.926920	7496.757858
433.303977	7469.202911
433.680974	7522.129985
434.057910	7716.007721
434.434786	7770.489991
434.811601	7740.180054
435.188355	8076.515756
435.565050	7985.918660
435.941683	7999.161771
436.318257	8319.199423
436.694770	8264.886031
437.071222	8486.081780
437.447614	8267.217565
437.823946	8252.908250
438.200218	8397.501145
438.576429	8295.551370
438.952580	8448.147097
439.328670	8464.286351
439.704700	8549.544865
440.080670	8445.755069
440.456580	8705.003968
440.832429	8685.522429
441.208218	8431.476001
441.583947	8553.303046
441.959616	8658.259869
442.335224	8689.890588
442.710773	8781.294269
443.086261	8956.960837
443.461689	8691.367647
443.837057	8845.642078
444.212365	9047.159682
444.587612	9046.675731
444.962800	8944.201677
445.337927	9075.296882
445.712995	8630.800704
446.088002	9269.351058
446.462949	9336.879835
446.837837	9342.213376
447.212664	9402.261080
447.587431	10308.257249
447.962139	11266.202508
448.336786	12022.967921
448.711374	11630.025102
449.085901	10485.058076
449.460369	10468.316404
449.834776	10378.750224
450.209124	11304.238014
450.583412	11072.768394
450.957640	11285.006012
451.331808	10877.159022
451.705917	10393.951823
452.079965	10322.480864
452.453954	10516.585452
452.827883	10475.923505
453.201752	10430.721999
453.575562	10459.252409
453.949311	10812.443210
454.323001	10885.393747
454.696632	10800.195726
455.070202	11387.230530
455.443713	11443.837647
455.817164	11601.315731
456.190556	11913.877352
456.563888	11750.029769
456.937160	11962.514404
457.310373	11469.151801
457.683526	11508.999601
458.056619	11544.922863
458.429653	11624.424380
458.802628	11797.593056
459.175542	11857.799556
459.548398	12407.769276
459.921194	12982.140702
460.293930	13301.974187
460.666607	14132.753820
461.039224	14864.167270
461.411782	15123.494306
461.784280	14736.704215
462.156719	14652.000228
462.529099	14559.694180
462.901419	13991.601512
463.273680	13632.958704
463.645882	13868.062996
464.018024	13811.697855
464.390106	14221.888982
464.762130	15382.508791
465.134094	17052.791774
465.505999	19306.414395
465.877845	21317.388638
466.249631	22227.392524
466.621358	21594.775607
466.993026	20765.125192
467.364634	20072.899152
467.736184	19366.590648
468.107674	18824.033945
468.479105	18675.004835
468.850477	18415.781142
469.221790	17995.757245
469.593043	17348.460488
469.964238	17013.758120
470.335373	17124.179553
470.706449	17986.965472
471.077467	19126.934195
471.448425	21456.600101
471.819324	22961.266057
472.190164	22437.545625
472.560945	20765.311715
472.931667	19358.663434
473.302330	19115.904150
473.672934	18663.513524
474.043479	19100.962170
474.413965	18906.855062
474.784393	18743.665350
475.154761	19380.267299
475.525070	19519.251910
475.895321	19358.247539
476.265513	19877.264574
476.635645	20458.068512
477.005719	20526.204747
477.375734	20901.329608
477.745691	21511.531034
478.115588	22164.554541
478.485427	23433.196195
478.855207	25295.247191
479.224928	27005.299837
479.594591	28205.142343
479.964194	27669.247525
480.333739	28066.815602
480.703226	28350.289765
481.072653	28849.028759
481.442022	29345.544605
481.811333	29642.997887
482.180584	29145.766198
482.549777	28943.278172
482.918912	28749.526465
483.287988	28697.368167
483.657005	28529.328865
484.025964	28178.734259
484.394864	28384.599858
484.763706	28330.772938
485.132489	27832.641403
485.501213	27894.060301
485.869879	28099.242824
486.238487	28065.888030
486.607036	28343.194341
486.975527	28049.960504
487.343959	28384.355362
487.712333	28714.392143
488.080648	28690.396251
488.448905	29122.826428
488.817104	29048.285406
489.185244	29944.741192
489.553326	31113.038678
489.921350	33026.464073
490.289315	35421.964928
490.657222	36091.493173
491.025070	36484.390622
491.392861	36113.054188
491.760593	35307.727341
492.128267	34322.738811
492.495883	33387.929927
492.863440	32560.888310
493.230939	31659.804745
493.598380	31164.458447
493.965763	31043.178368
494.333088	30589.587948
494.700354	30411.272254
495.067563	30387.788039
495.434713	30313.892285
495.801805	30610.811206
496.168839	30464.390892
496.535815	30345.031492
496.902733	30494.128659
497.269593	30312.372377
497.636395	30469.051439
498.003139	30765.977921
498.369825	30542.052388
498.736453	30955.101849
499.103023	30816.127319
499.469535	30915.438050
499.835989	31038.578315
500.202385	30916.312690
500.568723	30989.129637
500.935003	31319.277323
501.301226	31224.806100
501.667390	31918.242017
502.033497	32124.364716
502.399546	31918.791503
502.765537	31540.475592
503.131470	32002.691427
503.497345	32454.393935
503.863163	31442.115119
504.228923	32216.459035
504.594625	32611.057873
504.960269	32111.897942
505.325856	32786.003555
505.691385	32469.288024
506.056856	32784.962557
506.422270	33298.111689
506.787625	32836.026925
507.152924	33294.078766
507.518164	33499.972092
507.883347	33079.940633
508.248472	33235.775301
508.613540	33924.822894
508.978550	34182.040208
509.343503	34038.889082
509.708398	34400.206223
510.073236	35003.982698
510.438016	35111.495386
510.802738	34801.391328
511.167403	35370.192278
511.532010	35620.863653
511.896561	36105.956244
512.261053	36867.634261
512.625488	36651.169635
512.989866	36599.885977
513.354186	36656.659452
513.718449	36621.469677
514.082655	37511.981942
514.446803	37222.778508
514.810894	37856.953141
515.174927	37866.092753
515.538904	37856.547328
515.902822	38514.619551
516.266684	38224.274296
516.630488	38591.275337
516.994235	38600.898899
517.357925	39199.581289
517.721558	39468.637752
518.085133	39832.427578
518.448651	40036.329648
518.812112	39922.732288
519.175516	40087.603224
519.538863	40530.483713
519.902152	40597.273960
520.265385	41145.925419
520.628560	41158.813128
520.991678	41132.304221
521.354739	41362.120343
521.717743	41726.333626
522.080690	41642.748774
522.443580	42331.882067
522.806413	42346.481248
523.169189	42495.142355
523.531908	42737.490785
523.894569	42583.697784
524.257174	42775.745581
524.619722	43148.435564
524.982213	43274.721509
525.344647	43300.244871
525.707025	43429.842854
526.069345	43889.827978
526.431608	43792.294254
526.793815	44173.702912
527.155964	43734.320984
527.518057	43994.462167
527.880093	43849.886916
528.242072	44492.197971
528.603995	44212.839910
528.965860	44138.525741
529.327669	44372.846133
529.689421	44415.310293
530.051117	44355.552455
530.412755	44659.229042
530.774337	44724.849742
531.135862	44665.016287
531.497331	44821.944886
531.858743	44811.275283
532.220098	45222.192336
532.581396	44960.614425
532.942638	44712.456065
533.303824	44970.875694
533.664953	45010.466395
534.026025	44694.688518
534.387040	45280.473116
534.747999	45344.193301
535.108902	45670.784452
535.469748	44980.101005
535.830537	45244.479277
536.191270	45506.737745
536.551947	45237.025932
536.912567	45511.599937
537.273131	45686.553182
537.633638	45292.087934
537.994089	45488.564385
538.354483	45235.533750
538.714821	45894.843576
539.075103	46165.674526
539.435328	46028.449277
539.795497	45782.377955
540.155609	45909.820844
540.515665	46501.395207
540.875665	45813.933057
541.235609	46075.405104
541.595496	46197.365739
541.955328	46782.242929
542.315102	46218.175622
542.674821	46102.957531
543.034483	45999.931469
543.394090	46018.112391
543.753640	45997.766294
544.113134	47075.068433
544.472571	46162.009607
544.831953	47315.513827
545.191278	46556.535348
545.550548	46245.596979
545.909761	46896.324241
546.268918	47041.489307
546.628019	47458.284345
546.987064	46893.864157
547.346053	46174.209199
547.704986	47088.377079
548.063863	46734.737616
548.422684	46949.425235
548.781449	46541.361475
549.140158	47073.359481
549.498811	46827.648602
549.857408	46218.009264
550.215949	47073.079697
550.574434	46891.474651
550.932864	46830.580033
551.291237	47560.755879
551.649555	47302.162331
552.007817	47503.135491
552.366022	47153.160947
552.724173	47222.035711
553.082267	47631.432856
553.440305	47973.918766
553.798288	47235.296466
554.156215	47628.514028
554.514086	47833.126901
554.871902	47448.701112
555.229661	47616.632028
555.587365	47311.735482
555.945014	47427.354346
556.302606	47455.136144
556.660143	47563.382320
557.017625	47774.281512
557.375050	47478.189341
557.732421	47869.251809
558.089735	47953.635684
558.446994	47814.824992
558.804197	48317.438113
559.161345	48165.195267
559.518437	47509.477262
559.875474	47768.285060
560.232455	48004.475720
560.589381	48052.522958
560.946251	47843.161318
561.303065	48509.468266
561.659825	48195.162406
562.016528	48002.421450
562.373177	47582.596678
562.729770	48213.779387
563.086307	47745.993077
563.442789	48279.125343
563.799216	48119.101476
564.155587	48016.367802
564.511904	47987.234974
564.868164	48029.507570
565.224370	48357.318681
565.580520	48084.146116
565.936615	48284.761353
566.292654	47915.459026
566.648638	48300.351122
567.004567	48240.870547
567.360441	48339.856124
567.716260	48049.551197
568.072023	48411.367412
568.427732	48351.987661
568.783385	47883.082215
569.138982	48290.064647
569.494525	48425.076830
569.850013	48009.826905
570.205445	48144.017379
570.560823	47923.386240
570.916145	47790.209038
571.271412	48026.918937
571.626625	47675.830298
571.981782	47764.753731
572.336884	47339.592898
572.691931	47676.785597
573.046923	47357.337760
573.401860	47186.813169
573.756743	47186.021708
574.111570	47336.628700
574.466342	47251.798683
574.821059	47399.345695
575.175722	46904.874038
575.530330	47011.297836
575.884882	46641.360323
576.239380	46540.433903
576.593823	46635.507543
576.948211	46548.892959
577.302544	46096.610718
577.656823	46096.703979
578.011047	46360.074021
578.365216	46184.672114
578.719330	45900.955975
579.073389	45864.934411
579.427394	45918.781495
579.781344	45838.690164
580.135239	45623.954654
580.489080	45676.738055
580.842866	45165.980950
581.196597	45655.202246
581.550273	45649.924158
581.903895	45570.841057
582.257463	46004.486152
582.610975	45438.573783
582.964434	45780.134641
583.317837	45291.331761
583.671186	45223.603859
584.024481	45513.220668
584.377721	45060.789714
584.730906	45277.665193
585.084037	45384.041101
585.437113	45091.417244
585.790135	45222.217542
586.143103	44772.017298
586.496016	44950.658146
586.848874	45040.378082
587.201679	45081.859216
587.554428	44572.226289
587.907124	44848.184091
588.259765	44615.454183
588.612352	44765.539415
588.964884	44234.806738
589.317362	44529.479825
589.669786	44548.631168
590.022155	44402.989713
590.374470	44845.635788
590.726731	44412.721660
591.078937	43762.566569
591.431090	44093.097383
591.783188	43641.813291
592.135232	43421.887913
592.487222	43705.357035
592.839157	43845.687635
593.191038	43476.264319
593.542866	43278.754432
593.894639	42683.774770
594.246358	42988.389012
594.598022	42975.992814
594.949633	42563.255905
595.301190	42527.221737
595.652692	42471.312820
596.004141	42960.624857
596.355535	41850.782070
596.706876	41869.509957
597.058162	41591.059303
597.409395	42084.573141
597.760573	42305.670587
598.111698	41893.712536
598.462768	41827.320540
598.813785	41836.505522
599.164748	41444.520523
599.515657	41716.268962
599.866511	41221.401574
600.217312	41906.184351
600.568060	40838.437719
600.918753	41675.816223
601.269392	41592.291865
601.619978	41316.901193
601.970510	41516.273786
602.320988	41669.865141
602.671412	41924.423245
603.021783	41789.993316
603.372100	41354.561132
603.722363	41477.469504
604.072572	41486.349497
604.422728	41491.226813
604.772830	41263.769952
605.122878	41425.235589
605.472872	41280.330142
605.822813	41541.988712
606.172701	41287.370113
606.522534	41623.834365
606.872314	41832.210459
607.222041	41655.775116
607.571714	41995.017043
607.921333	41471.021868
608.270899	41702.007538
608.620411	42084.232863
608.969870	41814.873931
609.319276	41838.055677
609.668627	41846.487007
610.017926	42286.241980
610.367171	42399.161306
610.716362	42442.290898
611.065500	42334.269053
611.414585	42544.026423
611.763616	42726.591810
612.112594	42615.812454
612.461518	42742.496650
612.810389	43143.520439
613.159207	42926.629836
613.507971	42895.009198
613.856682	43386.877100
614.205340	43229.063778
614.553945	43912.223304
614.902496	43237.495108
615.250994	43662.988657
615.599439	43726.963420
615.947830	43818.656968
616.296169	43825.828009
616.644454	43862.943504
616.992686	44016.328172
617.340864	44476.759438
617.688990	44010.608983
618.037063	44683.048494
618.385082	44497.357592
618.733048	44838.895765
619.080961	44705.025404
619.428821	44731.927522
619.776628	44759.295946
620.124382	44575.097226
620.472083	44678.526579
620.819731	44777.272701
621.167326	44334.440103
621.514868	44320.226570
621.862357	43793.552022
622.209793	43894.324687
622.557176	43461.221516
622.904506	43218.000966
623.251783	42849.588402
623.599007	42545.127916
623.946179	42449.277937
624.293297	42198.414998
624.640363	41648.009218
624.987376	41493.240754
625.334336	41302.793523
625.681243	40883.780377
626.028097	40778.664758
626.374899	40600.943920
626.721647	40566.661554
627.068343	40357.834276
627.414987	40063.007435
627.761577	39811.290020
628.108115	40126.087393
628.454600	39376.881190
628.801032	39619.267429
629.147412	39508.636787
629.493739	39416.948281
629.840014	38971.761464
630.186236	39394.174869
630.532405	38840.116773
630.878521	39070.149664
631.224585	38840.814973
631.570597	38512.557719
631.916556	38678.890591
632.262462	38559.281654
632.608316	38502.102366
632.954117	38361.532312
633.299866	38306.921492
633.645562	38233.560101
633.991206	37698.519758
634.336797	37290.589589
634.682336	37191.460340
635.027823	36938.303676
635.373257	36813.267937
635.718639	36501.023909
636.063968	36393.097846
636.409245	35738.856900
636.754470	35689.483839
637.099642	35469.911342
637.444762	34896.888426
637.789829	35040.553749
638.134845	34670.724620
638.479808	34575.736679
638.824719	34528.201119
639.169577	34004.906664
639.514383	34113.719970
639.859137	33730.642689
640.203839	33893.224942
640.548489	33583.075513
640.893086	33593.901391
641.237632	33313.381344
641.582125	33424.120371
641.926566	33211.983576
642.270955	33243.579007
642.615292	33172.597041
642.959576	33073.235898
643.303809	33076.663883
643.647990	33158.789320
643.992118	33106.628502
644.336195	32950.660243
644.680219	33022.320245
645.024192	33217.493557
645.368112	33750.623303
645.711981	33772.451499
646.055797	34503.300339
646.399562	34297.313752
646.743274	35174.562741
647.086935	35564.054890
647.430544	35532.182195
647.774101	35582.863435
648.117606	35859.887442
648.461059	36010.343199
648.804460	35623.485053
649.147810	35112.349862
649.491108	34754.400212
649.834354	34610.255980
650.177548	33781.351656
650.520690	33298.126813
650.863781	33273.089922
651.206820	33100.523664
651.549807	32697.614484
651.892742	32113.269136
652.235626	32012.002438
652.578458	31877.025543
652.921238	31191.486594
653.263967	31516.429288
653.606644	31203.789530
653.949269	31111.231424
654.291843	30714.096886
654.634365	31089.829206
654.976836	30610.075197
655.319255	30683.847442
655.661622	30565.869319
656.003938	30426.229357
656.346203	30241.483672
656.688416	30490.501548
657.030577	30262.112073
657.372687	30076.585009
657.714746	30254.366341
658.056753	30440.362232
658.398708	29804.652568
658.740612	29886.510824
659.082465	30103.361098
659.424266	29995.387144
659.766016	29986.093777
660.107715	29855.457316
660.449362	29955.622523
660.790958	29938.553176
661.132503	29861.703306
661.473996	29946.964341
661.815438	30017.351451
662.156829	30134.278494
662.498168	29936.463617
662.839456	29911.749361
663.180693	30038.544462
663.521879	30126.903286
663.863013	30084.267727
664.204097	30054.121627
664.545129	30480.678860
664.886110	30407.914846
665.227040	30522.021363
665.567918	30508.130463
665.908746	30591.135582
666.249522	30662.089822
666.590248	30699.684227
666.930922	30789.590686
667.271545	30790.198145
667.612118	30846.633862
667.952639	30658.291313
668.293109	30706.351153
668.633528	30572.601780
668.973896	30526.387002
669.314213	30507.268426
669.654480	30324.536682
669.994695	30303.167230
670.334859	30225.714943
670.674973	30057.095908
671.015035	30244.720093
671.355047	30172.480358
671.695008	30107.504926
672.034918	30016.181904
672.374777	30123.555960
672.714585	29969.286570
673.054342	30116.868869
673.394049	29959.869695
673.733705	30181.115855
674.073310	29895.655477
674.412864	29957.253336
674.752368	29658.023046
675.091820	29877.608146
675.431223	29487.082561
675.770574	29284.503793
676.109875	29130.131060
676.449125	28922.856457
676.788324	28820.546240
677.127473	28344.971348
677.466571	28240.178363
677.805619	27953.117418
678.144616	27896.840497
678.483562	27850.015740
678.822458	27516.896294
679.161303	27472.753430
679.500098	27390.587664
679.838842	27310.743348
680.177535	27389.818888
680.516179	27632.147153
680.854771	27760.479807
681.193314	28516.017698
681.531805	29519.603044
681.870247	30268.322775
682.208638	30989.623670
682.546978	31256.555287
682.885268	31424.125761
683.223508	30977.895426
683.561697	30703.676821
683.899836	30539.728416
684.237925	30130.341353
684.575963	29984.440278
684.913951	29609.257445
685.251889	29779.373702
685.589776	29812.594906
685.927614	29813.063733
686.265401	29985.841719
686.603137	30102.831777
686.940824	30593.509966
687.278460	30924.968352
687.616046	31088.515985
687.953582	31756.756216
688.291068	31671.719512
688.628504	32022.387215
688.965889	32011.117715
689.303224	31759.213778
689.640510	31477.244399
689.977745	30856.668279
690.314930	30113.929877
690.652065	29698.639623
690.989150	29014.048410
691.326185	28184.130814
691.663170	27541.068627
692.000105	26800.245863
692.336990	26194.445364
692.673825	25771.147237
693.010610	25268.821463
693.347345	24773.018941
693.684030	24138.055367
694.020665	23939.877527
694.357251	23259.712447
694.693786	23252.674996
695.030272	23031.673332
695.366707	22528.447711
695.703093	22249.198035
696.039429	22316.721770
696.375716	22075.484915
696.711952	22069.874110
697.048139	21930.004776
697.384276	21757.146132
697.720363	21884.190770
698.056400	21769.945621
698.392388	21619.177312
698.728326	21614.214297
699.064214	21446.295983
699.400053	21459.239145
699.735842	21070.382181
700.071581	20869.613188
700.407270	20625.439861
700.742910	20460.518513
701.078501	20199.555622
701.414042	19994.486525
701.749533	19687.392035
702.084974	19378.132370
702.420366	19615.437126
702.755709	19202.788437
703.091002	18896.780316
703.426246	18954.244428
703.761440	18884.116937
704.096584	18647.848139
704.431679	18575.608404
704.766725	18522.535137
705.101721	18451.860680
705.436668	18574.501871
705.771565	18289.691802
706.106413	18610.772973
706.441212	18679.897274
706.775961	18787.646897
707.110661	18859.987454
707.445311	19223.442044
707.779913	19092.056972
708.114465	19388.312980
708.448967	19690.895637
708.783421	20320.712193
709.117825	20682.230979
709.452180	20919.177813
709.786485	21363.835308
710.120742	22119.945371
710.454949	22226.964026
710.789107	22728.405078
711.123216	23457.784423
711.457275	23664.244878
711.791286	24236.798968
712.125247	24392.540375
712.459159	24136.119564
712.793023	24881.363419
713.126837	23878.249421
713.460602	24126.337205
713.794318	23799.725888
714.127985	23540.056053
714.461602	22647.872646
714.795171	22626.092341
715.128691	21645.146817
715.462162	21133.668827
715.795584	20691.408400
716.128957	20421.830177
716.462281	20043.874709
716.795556	19765.179560
717.128782	19280.530591
717.461960	18686.551598
717.795088	18634.685686
718.128167	18300.159758
718.461198	17829.701637
718.794180	17705.996763
719.127113	17370.646606
719.459997	17174.460022
719.792833	16802.601829
720.125619	16843.369640
720.458357	16502.012949
720.791046	16365.548914
721.123686	16219.189094
721.456278	15990.562685
721.788821	15985.196377
722.121315	15702.712801
722.453761	15814.447455
722.786158	15694.152921
723.118506	15776.860612
723.450805	15653.518701
723.783056	15838.405539
724.115259	15725.271964
724.447412	15711.186980
724.779518	15931.697132
725.111574	15985.478682
725.443582	16244.631798
725.775542	16199.430292
726.107453	16726.677011
726.439315	16636.936911
726.771129	17050.082154
727.102895	17483.296230
727.434612	17748.987723
727.766281	17913.783042
728.097901	18244.515502
728.429473	18334.923555
728.760996	18349.673971
729.092471	18468.042784
729.423897	18363.330457
729.755276	18238.549296
730.086606	18349.560545
730.417887	18935.967725
730.749120	19492.085132
731.080305	19690.847746
731.411442	20095.090311
731.742530	20216.042716
732.073570	20395.732124
732.404562	20720.642051
732.735506	20553.096782
733.066401	20360.507061
733.397249	19868.429952
733.728048	19246.200333
734.058798	18386.471874
734.389501	17615.296323
734.720156	17106.285978
735.050762	16520.450969
735.381320	16125.229548
735.711831	15846.773854
736.042293	15470.033304
736.372707	15514.844120
736.703073	15296.751202
737.033391	15494.987015
737.363661	15477.864736
737.693883	15594.655668
738.024056	15790.812005
738.354182	16006.578431
738.684260	16372.402363
739.014290	16642.666182
739.344272	16864.943258
739.674207	17218.333184
740.004093	17392.507570
740.333931	17453.087116
740.663722	17536.435033
740.993464	17586.173577
741.323159	17439.347451
741.652806	17144.888613
741.982405	16978.465002
742.311956	16623.655991
742.641460	16523.231165
742.970915	16182.103846
743.300323	15831.630228
743.629683	15626.656912
743.958996	15308.817204
744.288260	15000.633825
744.617477	14687.797461
744.946647	14649.570392
745.275768	14331.274458
745.604842	14127.140495
745.933869	13945.946303
746.262847	13925.007870
746.591778	13843.792361
746.920662	13716.122619
747.249498	13729.930340
747.578286	13885.931366
747.907027	14055.644331
748.235720	14320.491430
748.564365	14387.334610
748.892963	14311.568588
749.221514	14416.800154
749.550017	14273.575932
749.878473	14258.039096
750.206881	14032.223130
750.535242	13954.851501
750.863555	13867.679868
751.191821	13771.159416
751.520039	13783.984112
751.848210	13714.091034
752.176334	13758.196089
752.504411	13680.814378
752.832440	13505.140248
753.160421	13631.688333
753.488356	13509.843645
753.816243	13412.680446
754.144082	13255.076332
754.471875	13201.325030
754.799620	13175.353005
755.127318	13148.529025
755.454969	13136.929330
755.782572	13097.951129
756.110129	13108.366153
756.437638	13016.034899
756.765100	13019.394828
757.092515	13050.057647
757.419882	13086.026279
757.747203	13101.421963
758.074477	13185.337010
758.401703	13165.454699
758.728882	13359.115666
759.056014	13408.844128
759.383099	13571.882605
759.710138	13699.776678
760.037129	13817.822857
760.364073	13878.498185
760.690970	13904.933995
761.017820	13927.372171
761.344623	14150.410461
761.671379	14532.698802
761.998088	15225.323093
762.324751	16980.428531
762.651366	20369.195490
762.977935	24842.891853
763.304456	27845.055245
763.630931	28927.620348
763.957359	27769.750488
764.283740	25533.542533
764.610074	23263.967181
764.936362	20638.904783
765.262602	18752.981402
765.588796	16812.157336
765.914943	15516.701785
766.241044	14401.782557
766.567097	13601.925361
766.893104	12876.629352
767.219064	12404.046384
767.544978	11920.592169
767.870845	11526.661284
768.196665	11309.576596
768.522438	11071.934083
768.848165	10865.254337
769.173846	10651.373303
769.499479	10522.440752
769.825066	10354.131749
770.150607	10128.998859
770.476101	10047.783350
770.801548	9919.823742
771.126949	9757.808619
771.452303	9647.031784
771.777611	9454.207649
772.102872	9440.505793
772.428087	9300.875914
772.753256	9142.364393
773.078378	9051.348881
773.403453	8867.770222
773.728482	8754.775280
774.053465	8679.878857
774.378401	8580.852951
774.703291	8456.880896
775.028135	8330.166453
775.352932	8298.293758
775.677683	8185.442488
776.002388	8085.801561
776.327046	8090.467149
776.651658	7998.256884
776.976224	7890.635811
777.300743	7891.185297
777.625216	7798.233981
777.949643	7758.872652
778.274024	7773.428984
778.598359	7686.408586
778.922647	7703.644291
779.246889	7652.136302
779.571086	7654.785428
779.895236	7670.753283
780.219339	7672.994076
780.543397	7675.166813
780.867409	7753.511385
781.191374	7765.703416
781.515294	7733.049342
781.839167	7823.162487
782.162995	7806.869478
782.486776	7741.904128
782.810511	7700.077675
783.134201	7608.043850
783.457844	7603.758869
783.781441	7552.704583
784.104993	7486.443657
784.428498	7461.522713
784.751958	7444.458407
785.075372	7421.160715
785.398739	7363.971345
785.722061	7408.280567
786.045337	7415.580157
786.368568	7565.025163
786.691752	7594.316788
787.014891	7938.478881
787.337983	8282.381356
787.661030	8874.522848
787.984031	9502.038117
788.306987	9904.533923
788.629897	10116.441345
788.952760	10077.490870
789.275579	9855.541469
789.598351	9460.393145
789.921078	9108.744938
790.243759	8699.002474
790.566395	8410.779544
790.888984	8151.545769
791.211529	7941.155734
791.534027	7719.226498
791.856480	7521.837598
792.178888	7438.298117
792.501249	7341.709610
792.823566	7188.168666
793.145836	7185.968203
793.468062	7159.303019
793.790241	7108.170596
794.112375	7171.666449
794.434464	7328.123700
794.756507	7364.062086
795.078505	7524.466560
795.400457	7827.576017
795.722364	8178.762959
796.044226	8466.718708
796.366042	8743.137776
796.687812	8700.030869
797.009538	8784.006410
797.331218	8675.087240
797.652852	8590.680681
797.974442	8441.790202
798.295986	8359.548818
798.617484	8162.598499
798.938938	8021.032817
799.260346	7924.691326
799.581709	7717.492341
799.903026	7644.798902
800.224299	7531.937550
800.545526	7361.619647
800.866708	7268.718743
801.187845	7196.917589
801.508936	7086.987667
801.829983	7050.867800
802.150984	6899.423977
802.471940	6852.122830
802.792851	6834.524162
803.113717	6805.401417
803.434538	6764.842813
803.755314	6708.296191
804.076045	6712.051850
804.396731	6658.330794
804.717372	6691.831782
805.037967	6688.812131
805.358518	6730.895683
805.679024	6811.821326
805.999485	6820.492111
806.319901	6862.293358
806.640272	6876.282560
806.960598	6963.262629
807.280879	6963.323122
807.601115	7047.112141
807.921306	6991.324212
808.241453	7008.262488
808.561554	7032.863319
808.881611	6993.706157
809.201623	7001.779565
809.521590	6947.624969
809.841513	6931.039573
810.161390	6971.371325
810.481223	6842.007755
810.801011	6825.689540
811.120755	6808.020296
811.440453	6722.905454
811.760107	6693.603748
812.079716	6666.321023
812.399281	6597.768893
812.718801	6590.149188
813.038276	6544.642693
813.357707	6480.907385
813.677093	6532.211207
813.996434	6429.054076
814.315731	6473.123843
814.634983	6467.941537
814.954191	6480.960317
815.273354	6584.631646
815.592473	6648.240925
815.911547	6775.051150
816.230577	6854.774477
816.549562	7007.539083
816.868502	7102.471572
817.187399	7205.689197
817.506250	7358.456323
817.825058	7392.660552
818.143821	7669.049373
818.462539	7938.158768
818.781213	8309.648957
819.099843	8851.623407
819.418429	9853.157003
819.736970	10818.109467
820.055466	12009.253462
820.373919	13554.954410
820.692327	15913.183494
821.010691	20064.795497
821.329011	29052.492249
821.647286	42076.842532
821.965517	55545.169754
822.283704	60955.951083
822.601847	62981.169106
822.919945	60369.017102
823.237999	56289.294474
823.556010	50226.311346
823.873976	43500.209800
824.191897	36934.311082
824.509775	32052.077090
824.827609	27458.040823
825.145398	24827.271838
825.463144	23410.357247
825.780845	23692.976935
826.098502	25441.801095
826.416116	29201.765856
826.733685	32828.298836
827.051210	33990.698172
827.368692	32233.972003
827.686129	28304.480800
828.003522	24180.287633
828.320872	20442.536717
828.638177	17585.092250
828.955439	15412.070117
829.272656	13580.195468
829.589830	12094.098602
829.906960	10813.963117
830.224046	9861.177479
830.541088	9090.639634
830.858086	8628.627966
831.175041	8242.031960
831.491952	8119.899926
831.808819	8162.028849
832.125642	8553.025782
832.442421	9452.539028
832.759157	11235.327962
833.075849	14158.380526
833.392497	17383.945170
833.709101	19584.202137
834.025662	19452.524677
834.342179	17770.654602
834.658653	15573.452575
834.975083	13640.492709
835.291469	12018.120852
835.607811	10692.267143
835.924110	9768.730279
836.240366	8896.446826
836.556578	8082.469359
836.872746	7431.018691
837.188871	6922.373830
837.504952	6501.046794
837.820990	6183.852353
838.136984	5964.015196
838.452935	5866.032809
838.768842	5895.820987
839.084706	6310.869265
839.400526	7513.461721
839.716303	9104.086912
840.032037	10215.373989
840.347727	10159.495319
840.663373	9190.610756
840.978977	8139.169737
841.294537	7320.206568
841.610054	6712.520678
841.925527	6276.972547
842.240957	5912.237504
842.556344	5575.765691
842.871687	5288.366990
843.186987	5005.573382
843.502244	4779.212972
843.817458	4609.507569
844.132629	4469.292916
844.447756	4380.074575
844.762840	4295.723468
845.077881	4221.069021
845.392879	4158.346985
845.707833	4105.702215
846.022745	4061.448446
846.337613	4032.146739
846.652438	3986.635202
846.967221	3973.578614
847.281960	3940.107873
847.596656	3920.114657
847.911309	3901.737130
848.225919	3875.482801
848.540485	3861.720451
848.855009	3841.878470
849.169490	3822.434739
849.483928	3811.455106
849.798323	3805.209117
850.112675	3783.111219
850.426984	3790.146149
850.741251	3774.334570
851.055474	3771.158643
851.369654	3777.381947
851.683792	3771.340124
851.997887	3777.888583
852.311938	3781.669449
852.625947	3784.162299
852.939914	3773.038993
853.253837	3781.475364
853.567718	3779.993265
853.881555	3770.962038
854.195350	3785.011734
854.509103	3782.218934
854.822812	3777.659211
855.136479	3769.464815
855.450103	3778.861526
855.763685	3765.263013
856.077224	3771.151081
856.390720	3785.341929
856.704173	3805.163746
857.017584	3820.849296
857.330953	3831.332376
857.644278	3850.224100
857.957561	3858.620142
858.270802	3857.748022
858.584000	3860.787838
858.897155	3854.173844
859.210268	3840.575331
859.523339	3813.650529
859.836367	3813.698420
860.149352	3809.481494
860.462295	3800.435144
860.775195	3789.218577
861.088054	3783.978297
861.400869	3786.166158
861.713642	3784.033750
862.026373	3794.587405
862.339062	3796.901295
862.651708	3817.549861
862.964312	3854.393134
863.276873	3863.598281
863.589392	3919.386210
863.901869	3963.962613
864.214303	4011.387268
864.526696	4046.017474
864.839045	4092.794341
865.151353	4117.891725
865.463619	4130.325731
865.775842	4138.832678
866.088023	4153.494874
866.400162	4146.694358
866.712258	4154.636695
867.024313	4155.196263
867.336325	4150.253412
867.648296	4161.311183
867.960224	4162.208508
868.272110	4170.851567
868.583954	4173.084798
868.895755	4186.877395
869.207515	4182.300027
869.519233	4226.193354
869.830909	4238.912185
870.142542	4267.379581
870.454134	4279.763175
870.765684	4311.058658
871.077191	4347.458309
871.388657	4371.282803
871.700081	4410.843257
872.011463	4453.461172
872.322803	4483.032580
872.634101	4522.386348
872.945357	4557.871030
873.256571	4615.095688
873.567744	4646.018125
873.878874	4660.776103
874.189963	4702.453843
874.501010	4712.450451
874.812015	4710.544895
875.122979	4754.917131
875.433900	4749.535699
875.744780	4766.232001
876.055618	4790.734529
876.366415	4793.376093
876.677169	4812.880318
876.987882	4857.912945
877.298554	4917.375875
877.609183	4994.233307
877.919771	5104.904278
878.230317	5253.177215
878.540822	5468.079083
878.851285	5794.909690
879.161707	6256.976810
879.472087	7022.990219
879.782425	8263.754292
880.092722	10447.660276
880.402977	13781.614769
880.713191	17563.516111
881.023363	21305.771298
881.333494	23561.491040
881.643583	24798.673372
881.953631	24814.343799
882.263637	23988.474250
882.573602	22525.506198
882.883526	20963.033331
883.193408	19286.085942
883.503248	17578.511023
883.813048	16009.570356
884.122806	14562.580241
884.432522	13085.436464
884.742197	11792.221707
885.051831	10683.621564
885.361424	9666.334362
885.670975	8832.361158
885.980485	8128.769836
886.289954	7548.792648
886.599382	7062.132258
886.908768	6682.324166
887.218113	6310.839018
887.527417	6019.588876
887.836680	5743.608388
888.145901	5523.856930
888.455082	5360.987331
888.764221	5201.684349
889.073319	5069.497734
889.382376	4993.278008
889.691392	4931.367598
890.000366	4905.501437
890.309300	4889.011823
890.618193	4892.596083
890.927044	4877.538157
891.235855	4896.553389
891.544625	4930.813071
891.853353	4993.114171
892.162041	5111.437613
892.470687	5298.093896
892.779293	5549.690323
893.087858	5923.259987
893.396381	6507.174317
893.704864	7314.394117
894.013306	8473.955284
894.321707	9649.562443
894.630068	10470.287495
894.938387	10682.767089
895.246665	10459.441453
895.554903	9850.933854
895.863100	9149.457297
896.171256	8592.729910
896.479371	8082.925583
896.787446	7580.516629
897.095480	7148.971175
897.403473	6822.042265
897.711425	6503.935375
898.019336	6232.943109
898.327207	5958.038908
898.635038	5729.606583
898.942827	5478.055527
899.250576	5282.264673
899.558284	5094.022947
899.865952	4962.900015
900.173579	4814.826203
900.481165	4705.879307
900.788711	4613.298516
901.096216	4538.268503
901.403681	4475.067557
901.711105	4444.760140
902.018489	4431.993418
902.325832	4500.235518
902.633135	4622.140700
902.940397	4967.363957
903.247619	5764.776193
903.554800	7208.378652
903.861941	9140.279876
904.169041	10676.644607
904.476101	11333.307828
904.783121	10990.380817
905.090100	10247.037477
905.397039	9413.933871
905.703938	8651.204774
906.010796	7946.464069
906.317614	7385.945735
906.624391	6841.032292
906.931129	6416.383136
907.237826	6003.540362
907.544483	5627.054390
907.851099	5242.673971
908.157675	4890.531731
908.464211	4556.565371
908.770707	4319.978980
909.077163	4113.332001
909.383578	3969.785146
909.689954	3846.536496
909.996289	3777.686937
910.302584	3711.705795
910.608839	3679.563398
910.915054	3646.246412
911.221229	3636.708549
911.527363	3644.660969
911.833458	3658.748474
912.139513	3682.396527
912.445527	3713.858368
912.751502	3801.390443
913.057436	3900.832243
913.363331	4036.683778
913.669186	4243.991147
913.975000	4508.923947
914.280775	4932.020427
914.586510	5517.328636
914.892205	6320.540719
915.197859	7363.079061
915.503475	8592.003984
915.809050	9651.107557
916.114585	10314.387292
916.420081	10573.681561
916.725536	10542.469257
917.030952	10102.494993
917.336328	9694.244710
917.641665	9280.025702
917.946961	8803.155233
918.252218	8377.356694
918.557435	7865.309054
918.862612	7428.790501
919.167750	7047.676750
919.472848	6622.465505
919.777906	6248.119503
920.082925	5880.047217
920.387904	5511.879148
920.692843	5240.670112
920.997743	4993.527545
921.302603	4753.235906
921.607423	4590.562913
921.912204	4426.438067
922.216946	4303.471722
922.521647	4179.834903
922.826310	4070.656113
923.130932	3980.444665
923.435516	3875.714694
923.740059	3805.977893
924.044564	3731.167169
924.349028	3670.295237
924.653454	3602.874845
924.957840	3534.451264
925.262186	3484.679952
925.566493	3425.302722
925.870761	3365.171838
926.174989	3329.266220
926.479178	3292.516209
926.783328	3248.592635
927.087438	3218.580126
927.391509	3182.969415
927.695541	3156.168121
927.999533	3127.546970
928.303486	3104.241715
928.607400	3091.361567
928.911275	3077.909248
929.215110	3060.449212
929.518906	3049.830021
929.822663	3047.251471
930.126381	3045.539999
930.430060	3054.881258
930.733699	3056.317986
931.037299	3067.156467
931.340861	3061.835529
931.644383	3071.373392
931.947866	3066.715366
932.251309	3061.717062
932.554714	3062.816034
932.858080	3056.935528
933.161407	3048.736091
933.464694	3040.660163
933.767943	3033.274872
934.071153	3030.038451
934.374323	3019.973788
934.677455	3014.862058
934.980548	3006.105573
935.283602	3002.397805
935.586617	2998.460664
935.889593	3008.303517
936.192530	3011.487005
936.495428	3026.025693
936.798287	3046.139897
937.101108	3080.704568
937.403890	3129.818009
937.706632	3192.940817
938.009336	3270.088115
938.312002	3347.742049
938.614628	3406.990730
938.917216	3462.211529
939.219765	3494.943741
939.522275	3526.902136
939.824747	3530.385573
940.127179	3527.925490
940.429573	3525.961961
940.731929	3526.266951
941.034246	3511.771113
941.336524	3497.676047
941.638763	3481.186433
941.940964	3470.030359
942.243126	3425.940427
942.545250	3401.851274
942.847335	3366.371633
943.149381	3331.617918
943.451389	3299.861170
943.753359	3262.440685
944.055290	3237.771798
944.357182	3213.339846
944.659036	3198.675130
944.960851	3188.746577
945.262628	3174.094464
945.564367	3178.538241
945.866067	3167.966941
946.167729	3164.728000
946.469352	3165.116169
946.770937	3157.882113
947.072484	3144.235709
947.373992	3142.685555
947.675462	3139.980976
947.976893	3122.531022
948.278286	3113.958539
948.579641	3106.994185
948.880958	3100.158381
949.182236	3104.219030
949.483476	3098.467074
949.784678	3096.596806
950.085841	3099.364399
950.386967	3109.290431
950.688054	3123.105713
950.989103	3143.114053
951.290114	3163.853360
951.591087	3193.369315
951.892021	3221.579612
952.192917	3250.785537
952.493776	3274.834362
952.794596	3283.424488
953.095378	3286.310548
953.396122	3282.590177
953.696828	3279.391565
953.997496	3267.184411
954.298126	3240.786408
954.598718	3222.176989
954.899272	3196.416693
955.199788	3167.314112
955.500266	3138.445944
955.800706	3099.487907
956.101108	3064.923236
956.401472	3030.935777
956.701798	2997.394460
957.002087	2957.760908
957.302337	2930.258893
957.602550	2899.628843
957.902724	2872.628423
958.202861	2847.062211
958.502960	2821.730413
958.803022	2803.438586
959.103045	2781.507046
959.403031	2765.521547
959.702979	2751.824732
960.002889	2738.826117
960.302762	2724.849518
960.602596	2713.572457
960.902393	2705.257074
961.202153	2698.779191
961.501875	2689.435412
961.801559	2682.551717
962.101205	2676.981242
962.400814	2668.678461
962.700385	2662.838285
962.999918	2656.922491
963.299414	2647.276243
963.598873	2649.844711
963.898293	2640.490850
964.197677	2643.800367
964.497022	2641.022691
964.796331	2633.380302
965.095601	2635.789974
965.394835	2631.441978
965.694030	2631.129427
965.993189	2625.503499
966.292309	2627.099024
966.591393	2625.995012
966.890439	2626.300002
967.189447	2625.679940
967.488419	2624.802779
967.787353	2629.700260
968.086249	2630.111114
968.385108	2629.435599
968.683930	2631.976341
968.982714	2637.065386
969.281462	2643.376910
969.580172	2645.567292
969.878844	2653.514671
970.177480	2662.250990
970.476078	2667.755930
970.774639	2676.769513
971.073162	2684.853003
971.371649	2689.296781
971.670098	2693.639735
971.968510	2699.550487
972.266885	2703.134748
972.565223	2706.734132
972.863524	2712.022302
973.161788	2713.413661
973.460014	2716.521532
973.758204	2719.684856
974.056356	2718.691749
974.354471	2725.164590
974.652550	2726.538305
974.950591	2724.244580
975.248595	2721.867676
975.546563	2721.887840
975.844493	2716.614793
976.142386	2710.698999
976.440243	2704.962166
976.738062	2702.295396
977.035845	2696.687112
977.333590	2687.479445
977.631299	2680.535255
977.928971	2676.474606
978.226606	2669.666527
978.524204	2665.981444
978.821765	2663.291988
979.119290	2665.512617
979.416777	2663.755775
979.714228	2669.961435
980.011642	2673.356652
980.309020	2679.030471
980.606360	2695.177287
980.903664	2716.524052
981.200931	2753.223652
981.498162	2803.867084
981.795356	2878.811398
982.092513	2967.573514
982.389633	3070.523958
982.686717	3172.627488
982.983764	3248.380907
983.280775	3299.649441
983.577749	3305.315698
983.874686	3294.106693
984.171587	3259.012700
984.468451	3221.980384
984.765279	3174.623785
985.062070	3129.966723
985.358824	3081.763210
985.655543	3023.709283
985.952224	2975.352014
986.248869	2909.249885
986.545478	2848.972808
986.842050	2792.728655
987.138586	2742.790985
987.435086	2707.563402
987.731549	2675.413443
988.027975	2649.597694
988.324366	2630.859725
988.620719	2619.086110
988.917037	2606.594131
989.213318	2597.996443
989.509563	2589.323138
989.805772	2586.343816
990.101944	2581.716037
990.398080	2577.040367
990.694180	2574.860068
990.990244	2576.916858
991.286271	2577.020202
991.582262	2579.742425
991.878217	2580.614545
992.174136	2584.254258
992.470019	2584.012282
992.765865	2590.094435
993.061676	2594.878490
993.357450	2602.301589
993.653188	2609.891046
993.948890	2628.286216
994.244556	2646.452014
994.540186	2669.626198
994.835780	2703.008719
995.131337	2741.044225
995.426859	2781.020575
995.722345	2832.921774
996.017795	2883.413971
996.313208	2920.673139
996.608586	2946.430915
996.903928	2957.511371
997.199234	2959.182513
997.494504	2955.240331
997.789738	2942.108125
998.084936	2918.326482
998.380099	2886.587378
998.675225	2858.243490
998.970316	2826.519509
999.265371	2787.811009
999.560390	2753.974784
999.855373	2725.010835
1000.150320	2691.870290
1000.445232	2667.889521
1000.740108	2646.172230
1001.034948	2629.654889
1001.329752	2613.674432
1001.624521	2601.805035
1001.919254	2587.941862
1002.213951	2583.356932
1002.508613	2570.320509
1002.803239	2566.988306
1003.097829	2560.475135
1003.392384	2556.885834
1003.686903	2550.455842
1003.981386	2546.737991
1004.275834	2544.051056
1004.570246	2539.534182
1004.864623	2539.201466
1005.158964	2535.302133
1005.453270	2534.205682
1005.747540	2528.940197
1006.041775	2530.127389
1006.335974	2530.744930
1006.630138	2527.309384
1006.924266	2528.423479
1007.218359	2526.021369
1007.512416	2521.098682
1007.806438	2520.115658
1008.100425	2522.245545
1008.394376	2520.947448
1008.688292	2524.141019
1008.982172	2523.462984
1009.276017	2520.468538
1009.569827	2522.185051
1009.863602	2518.812519
1010.157341	2519.571213
1010.451045	2518.026099
1010.744714	2517.915194
1011.038347	2515.966788
1011.331945	2514.522497
1011.625508	2513.279853
1011.919036	2513.630213
1012.212528	2515.321520
1012.505986	2510.108967
1012.799408	2511.127280
1013.092795	2512.579133
1013.386147	2512.425377
1013.679464	2509.602331
1013.972745	2509.370438
1014.265992	2509.819101
1014.559204	2511.507887
1014.852380	2508.624347
1015.145521	2510.149296
1015.438628	2509.453617
1015.731699	2510.635768
1016.024736	2511.351612
1016.317737	2511.394461
1016.610703	2512.737929
1016.903635	2516.977539
1017.196531	2517.537107
1017.489393	2518.867972
1017.782219	2517.542148
1018.075011	2522.807634
1018.367768	2518.467200
1018.660490	2520.846625
1018.953177	2520.846625
1019.245829	2520.846625
