Dividing Wavelength (nm)	Counts (n)	Blue Motor Position (mm): 45.400000	Red Motor Position (mm): 0.000000	
326.493990	2050.131405
326.888308	2050.131405
327.282561	2050.131405
327.676750	2024.237518
328.070874	2023.675430
328.464933	2032.681451
328.858929	2042.057997
329.252859	2050.809440
329.646726	2066.376523
330.040528	2081.638617
330.434265	2094.879207
330.827938	2120.616818
331.221547	2139.158182
331.615091	2161.548467
332.008571	2184.589060
332.401986	2202.916175
332.795338	2222.251521
333.188625	2241.947309
333.581847	2258.189907
333.975006	2279.017434
334.368100	2294.128292
334.761129	2313.055304
335.154095	2327.883858
335.546996	2376.883874
335.939833	2485.755153
336.332606	2496.588592
336.725315	2510.139214
337.117960	2516.312107
337.510540	2529.232584
337.903056	2538.289017
338.295508	2545.127342
338.687896	2551.617828
339.080220	2557.558828
339.472480	2562.184086
339.864676	2564.969324
340.256807	2568.185580
340.648875	2571.356466
341.040879	2570.164233
341.432818	2573.435942
341.824694	2574.739080
342.216506	2576.889132
342.608253	2573.471230
342.999937	2571.739593
343.391557	2571.490056
343.783113	2568.682134
344.174605	2569.022412
344.566033	2565.634756
344.957397	2565.128120
345.348697	2564.281206
345.739934	2563.086453
346.131106	2560.530588
346.522215	2558.365412
346.913260	2557.321893
347.304241	2557.984805
347.695159	2550.821326
348.086012	2555.060936
348.476802	2546.687579
348.867528	2549.412323
349.258191	2542.911755
349.648789	2543.960315
350.039324	2538.566281
350.429796	2544.189688
350.820203	2542.616848
351.210548	2544.023330
351.600828	2544.093906
351.991045	2542.556354
352.381198	2544.532486
352.771288	2542.843700
353.161314	2540.371014
353.551276	2541.437218
353.941175	2541.409491
354.331010	2536.937988
354.720782	2543.604914
355.110490	2546.692621
355.500135	2542.332022
355.889717	2541.235572
356.279235	2539.902186
356.668689	2542.543751
357.058080	2543.549461
357.447408	2542.674821
357.836672	2545.344112
358.225873	2543.010058
358.615010	2545.573484
359.004084	2545.850748
359.393095	2545.054246
359.782043	2545.699513
360.170927	2547.557178
360.559748	2550.012220
360.948505	2548.303269
361.337199	2549.860986
361.725830	2547.645399
362.114398	2551.025492
362.502903	2550.286963
362.891344	2551.212015
363.279722	2548.015923
363.668037	2550.622200
364.056289	2550.324772
364.444478	2556.096893
364.832603	2553.798127
365.220665	2556.162428
365.608665	2556.575803
365.996601	2556.792572
366.384474	2553.513302
366.772284	2557.558828
367.160031	2558.133519
367.547715	2555.585216
367.935336	2558.115875
368.322893	2554.715617
368.710388	2554.703014
369.097820	2555.363405
369.485189	2555.050854
369.872495	2559.494631
370.259738	2560.449929
370.646918	2558.874569
371.034035	2562.325239
371.421090	2561.730382
371.808081	2563.144426
372.195010	2560.943962
372.581875	2564.273645
372.968678	2562.947821
373.355418	2563.562842
373.742096	2564.470250
374.128710	2565.423028
374.515262	2565.337328
374.901751	2565.269273
375.288177	2565.846485
375.674540	2565.957390
376.060841	2565.765826
376.447079	2567.033676
376.833254	2569.188770
377.219367	2568.956877
377.605417	2570.106260
377.991404	2569.902093
378.377329	2572.120201
378.763191	2574.633216
379.148991	2573.909810
379.534727	2574.832341
379.920402	2577.426015
380.306013	2576.841241
380.691563	2580.833835
381.077049	2582.061356
381.462474	2583.525811
381.847835	2588.932449
382.233134	2591.001842
382.618371	2595.654827
383.003545	2601.431990
383.388657	2604.675972
383.773706	2615.063270
384.158693	2617.024278
384.543618	2625.102727
384.928480	2631.550363
385.313280	2639.921199
385.698017	2648.027375
386.082692	2657.587923
386.467305	2665.376506
386.851856	2673.160047
387.236344	2685.543642
387.620770	2697.148378
388.005133	2704.780685
388.389435	2721.446739
388.773674	2729.842781
389.157851	2751.247520
389.541965	2767.323760
389.926018	2774.454472
390.310008	2794.298974
390.693936	2811.504432
391.077802	2832.528564
391.461606	2854.389528
391.845348	2867.864532
392.229027	2890.355640
392.612645	2915.546286
392.996200	2942.435800
393.379694	2966.867753
393.763125	3001.447547
394.146494	3022.955630
394.529801	3054.858572
394.913047	3091.732092
395.296230	3102.842795
395.679351	3128.961013
396.062410	3171.871315
396.445408	3175.586645
396.828343	3211.588045
397.211217	3245.946029
397.594028	3247.685227
397.976778	3293.131229
398.359466	3326.226404
398.742092	3346.998479
399.124656	3372.773898
399.507158	3431.261365
399.889598	3450.649643
400.271977	3510.261287
400.654294	3518.105323
401.036549	3574.326791
401.418742	3590.866817
401.800874	3655.882578
402.182944	3690.396838
402.564952	3768.668313
402.946898	3777.520579
403.328783	3787.446611
403.710606	3843.042976
404.092367	3910.581835
404.474067	3973.089622
404.855705	3974.798573
405.237282	3961.583188
405.618797	4056.969381
406.000250	4129.960247
406.381642	4214.049214
406.762972	4223.130853
407.144240	4198.648489
407.525447	4265.141308
407.906593	4286.455307
408.287677	4363.053119
408.668700	4398.845311
409.049661	4442.743679
409.430560	4478.402281
409.811399	4476.698371
410.192176	4520.853837
410.572891	4594.918469
410.953545	4691.474210
411.334138	4603.783338
411.714669	4707.205130
412.095139	4641.770953
412.475547	4734.450046
412.855894	4743.955142
413.236180	4837.914688
413.616405	4779.689361
413.996568	4875.229308
414.376670	4882.705340
414.756711	4877.170153
415.136691	4941.580975
415.516609	5025.851424
415.896466	5060.325354
416.276262	5139.398373
416.655997	5250.147482
417.035670	5338.186192
417.415283	5458.498370
417.794834	5515.987689
418.174324	5476.429754
418.553753	5478.733562
418.933121	5631.351974
419.312428	5638.966637
419.691674	5580.968162
420.070859	5784.572804
420.449983	5677.682698
420.829045	5858.677765
421.208047	5793.077230
421.586988	5943.623728
421.965867	6009.136043
422.344686	6083.626653
422.723444	6239.007617
423.102141	5892.483743
423.480777	6251.408856
423.859352	6084.196303
424.237866	6426.457882
424.616319	6419.836326
424.994712	6568.235293
425.373044	6486.127499
425.751314	6781.672705
426.129524	6524.881370
426.507673	6773.591736
426.885762	6813.164793
427.263789	6846.015473
427.641756	6937.877898
428.019662	7001.950964
428.397508	7035.222579
428.775292	7031.477002
429.153016	7181.821854
429.530679	7133.111705
429.908282	7174.232397
430.285824	7117.736185
430.663305	7372.276646
431.040726	7274.710154
431.418086	7273.195288
431.795385	7409.833242
432.172624	7586.071981
432.549802	7459.899462
432.926920	7594.031963
433.303977	7552.094604
433.680974	7601.155113
434.057910	7783.765870
434.434786	7832.702871
434.811601	7790.279041
435.188355	8118.455635
435.565050	8015.442177
435.941683	8027.629167
436.318257	8338.542330
436.694770	8283.253475
437.071222	8488.491451
437.447614	8265.075074
437.823946	8244.827280
438.200218	8380.721664
438.576429	8279.003782
438.952580	8429.905682
439.328670	8441.802805
439.704700	8525.221298
440.080670	8422.351513
440.456580	8665.370416
440.832429	8649.334506
441.208218	8394.751195
441.583947	8512.003393
441.959616	8617.497099
442.335224	8647.933065
442.710773	8732.526147
443.086261	8908.454855
443.461689	8643.887539
443.837057	8792.899006
444.212365	8994.318308
444.587612	8983.487388
444.962800	8889.767297
445.337927	9022.924335
445.712995	8582.642561
446.088002	9213.190084
446.462949	9275.264332
446.837837	9286.324623
447.212664	9343.791257
447.587431	10239.463143
447.962139	11202.116840
448.336786	11942.748040
448.711374	11544.023018
449.085901	10409.171067
449.460369	10383.758610
449.834776	10304.496548
450.209124	11221.681558
450.583412	10993.309727
450.957640	11197.897394
451.331808	10793.858996
451.705917	10316.386109
452.079965	10236.995498
452.453954	10437.509913
452.827883	10393.273788
453.201752	10344.631694
453.575562	10369.771929
453.949311	10721.493232
454.323001	10801.824019
454.696632	10721.042049
455.070202	11306.942593
455.443713	11356.469409
455.817164	11520.259018
456.190556	11824.694299
456.563888	11656.433187
456.937160	11866.866072
457.310373	11370.511543
457.683526	11412.645507
458.056619	11448.694798
458.429653	11524.463341
458.802628	11706.481762
459.175542	11757.833476
459.548398	12304.513843
459.921194	12884.894323
460.293930	13211.218294
460.666607	14037.617165
461.039224	14760.775725
461.411782	15012.871226
461.784280	14609.944402
462.156719	14521.295712
462.529099	14421.858952
462.901419	13842.975694
463.273680	13492.154236
463.645882	13728.859094
464.018024	13694.861553
464.390106	14100.802987
464.762130	15274.227327
465.134094	16953.871732
465.505999	19224.717456
465.877845	21229.692725
466.249631	22092.531576
466.621358	21417.493350
466.993026	20582.978222
467.364634	19862.529282
467.736184	19164.488270
468.107674	18628.815263
468.479105	18494.450868
468.850477	18224.194611
469.221790	17794.922717
469.593043	17169.338210
469.964238	16822.411043
470.335373	16939.794310
470.706449	17812.445768
471.077467	18944.124312
471.448425	21276.729211
471.819324	22757.016147
472.190164	22244.388774
472.560945	20568.457178
472.931667	19167.991872
473.302330	18913.663140
473.672934	18480.870000
474.043479	18905.136028
474.413965	18727.624398
474.784393	18566.599862
475.154761	19193.860553
475.525070	19321.530295
475.895321	19172.881791
476.265513	19678.975829
476.635645	20267.172618
477.005719	20331.863225
477.375734	20712.896318
477.745691	21311.140127
478.115588	21968.894758
478.485427	23228.232962
478.855207	25105.830876
479.224928	26828.614956
479.594591	27985.138828
479.964194	27420.332992
480.333739	27793.960630
480.703226	28083.592562
481.072653	28591.624923
481.442022	29074.930425
481.811333	29382.420645
482.180584	28876.016577
482.549777	28673.377315
482.918912	28474.791142
483.287988	28425.037474
483.657005	28247.951822
484.025964	27908.193176
484.394864	28092.066742
484.763706	28031.499799
485.132489	27548.322847
485.501213	27620.975956
485.869879	27811.193814
486.238487	27774.249718
486.607036	28034.675726
486.975527	27760.527698
487.343959	28094.080683
487.712333	28418.201669
488.080648	28390.500529
488.448905	28811.656165
488.817104	28747.638553
489.185244	29631.655291
489.553326	30803.484106
489.921350	32728.078177
490.289315	35122.580883
490.657222	35788.214837
491.025070	36186.365168
491.392861	35779.919619
491.760593	34953.508145
492.128267	33972.716376
492.495883	33006.881711
492.863440	32176.898580
493.230939	31303.213686
493.598380	30811.436526
493.965763	30701.798991
494.333088	30247.742264
494.700354	30074.533259
495.067563	30061.910210
495.434713	29980.336779
495.801805	30285.634097
496.168839	30121.675610
496.535815	30019.125937
496.902733	30164.411991
497.269593	29974.849483
497.636395	30136.519287
498.003139	30440.195874
498.369825	30200.070593
498.736453	30615.317997
499.103023	30475.569651
499.469535	30573.047922
499.835989	30708.896936
500.202385	30571.429712
500.568723	30658.049338
500.935003	30982.465232
501.301226	30889.342517
501.667390	31589.405031
502.033497	31772.106529
502.399546	31582.526377
502.765537	31187.761181
503.131470	31657.130413
503.497345	32086.528336
503.863163	31091.606213
504.228923	31856.606350
504.594625	32252.019334
504.960269	31758.485331
505.325856	32439.640998
505.691385	32126.265231
506.056856	32444.334312
506.422270	32931.728189
506.787625	32483.451145
507.152924	32935.824127
507.518164	33153.569206
507.883347	32711.538151
508.248472	32879.078379
508.613540	33561.549786
508.978550	33809.945080
509.343503	33673.826365
509.708398	34033.905902
510.073236	34633.871265
510.438016	34742.533336
510.802738	34431.267292
511.167403	34992.209083
511.532010	35251.011839
511.896561	35734.183750
512.261053	36480.367781
512.625488	36262.995748
512.989866	36222.853040
513.354186	36273.380525
513.718449	36243.851966
514.082655	37128.380382
514.446803	36837.899015
514.810894	37438.139121
515.174927	37473.863257
515.538904	37473.739749
515.902822	38124.043554
516.266684	37828.674789
516.630488	38185.011269
516.994235	38210.806853
517.357925	38795.525247
517.721558	39062.373684
518.085133	39433.296743
518.448651	39638.499431
518.812112	39522.174806
519.175516	39686.410557
519.538863	40134.740533
519.902152	40188.083503
520.265385	40738.703532
520.628560	40758.603486
520.991678	40714.949615
521.354739	40954.059103
521.717743	41310.897178
522.080690	41223.486091
522.443580	41912.455546
522.806413	41926.774944
523.169189	42067.493712
523.531908	42287.708956
523.894569	42160.944102
524.257174	42368.221224
524.619722	42706.023902
524.982213	42838.586084
525.344647	42873.765776
525.707025	43016.039740
526.069345	43456.233294
526.431608	43353.875186
526.793815	43749.953603
527.155964	43310.596880
527.518057	43567.410901
527.880093	43420.761215
528.242072	44051.767483
528.603995	43793.506651
528.965860	43714.093355
529.327669	43936.602324
529.689421	43994.683978
530.051117	43948.960712
530.412755	44227.098814
530.774337	44288.820181
531.135862	44248.135549
531.497331	44381.370725
531.858743	44372.470567
532.220098	44799.511751
532.581396	44540.570363
532.942638	44286.324810
533.303824	44532.784301
533.664953	44597.444661
534.026025	44273.792502
534.387040	44860.119023
534.747999	44925.394404
535.108902	45242.563639
535.469748	44569.458695
535.830537	44816.644112
536.191270	45067.496969
536.551947	44801.994519
536.912567	45084.014309
537.273131	45243.655049
537.633638	44863.289909
537.994089	45069.110138
538.354483	44819.930945
538.714821	45459.078676
539.075103	45744.753303
539.435328	45594.466424
539.795497	45352.359970
540.155609	45481.118601
540.515665	46068.166007
540.875665	45373.890738
541.235609	45643.776471
541.595496	45779.917872
541.955328	46366.758591
542.315102	45797.488813
542.674821	45669.660275
543.034483	45571.750985
543.394090	45581.243478
543.753640	45573.822899
544.113134	46614.155736
544.472571	45719.945785
544.831953	46857.522479
545.191278	46125.035264
545.550548	45802.098948
545.909761	46461.252499
546.268918	46590.626151
546.628019	47016.593568
546.987064	46433.374918
547.346053	45727.759573
547.704986	46640.652041
548.063863	46282.004192
548.422684	46489.034298
548.781449	46088.123935
549.140158	46618.145810
549.498811	46381.841723
549.857408	45773.971831
550.215949	46619.635471
550.574434	46434.972964
550.932864	46370.743623
551.291237	47102.913246
551.649555	46860.937861
552.007817	47028.813325
552.366022	46705.680405
552.724173	46767.852955
553.082267	47174.777414
553.440305	47519.022687
553.798288	46782.401725
554.156215	47184.564815
554.514086	47365.708596
554.871902	46989.230185
555.229661	47170.920932
555.587365	46836.798296
555.945014	46989.588107
556.302606	46988.373189
556.660143	47101.650437
557.017625	47319.796287
557.375050	47018.239505
557.732421	47426.351156
558.089735	47480.125144
558.446994	47350.133951
558.804197	47833.804936
559.161345	47690.295889
559.518437	47036.443112
559.875474	47298.300807
560.232455	47531.280253
560.589381	47578.299095
560.946251	47379.286944
561.303065	48047.416269
561.659825	47737.740708
562.016528	47518.185856
562.373177	47115.982437
562.729770	47750.953573
563.086307	47255.884539
563.442789	47816.601999
563.799216	47663.076179
564.155587	47548.594096
564.511904	47517.003705
564.868164	47563.833504
565.224370	47879.303870
565.580520	47615.265876
565.936615	47808.841142
566.292654	47462.352556
566.648638	47815.734920
567.004567	47770.256151
567.360441	47872.515957
567.716260	47585.303778
568.072023	47957.063668
568.427732	47876.979898
568.783385	47400.558092
569.138982	47822.313626
569.494525	47951.092422
569.850013	47546.353303
570.205445	47685.005198
570.560823	47462.962536
570.916145	47320.933067
571.271412	47570.248372
571.626625	47211.015749
571.981782	47288.301678
572.336884	46882.919813
572.691931	47208.628762
573.046923	46876.414203
573.401860	46714.341107
573.756743	46721.733959
574.111570	46870.261475
574.466342	46783.573794
574.821059	46938.223791
575.175722	46430.534228
575.530330	46551.138793
575.884882	46184.225972
576.239380	46075.725218
576.593823	46162.236459
576.948211	46100.646162
577.302544	45637.003681
577.656823	45638.095090
578.011047	45904.769608
578.365216	45725.085241
578.719330	45437.316015
579.073389	45431.110355
579.427394	45488.549262
579.781344	45413.022695
580.135239	45164.803841
580.489080	45231.402524
580.842866	44718.815481
581.196597	45215.946347
581.550273	45214.744032
581.903895	45128.205064
582.257463	45595.590602
582.610975	45025.960382
582.964434	45352.087748
583.317837	44882.358073
583.671186	44816.187888
584.024481	45077.894349
584.377721	44628.727541
584.730906	44847.831211
585.084037	44957.589733
585.437113	44665.845557
585.790135	44782.704544
586.143103	44353.334348
586.496016	44514.452145
586.848874	44625.778466
587.201679	44644.282021
587.554428	44151.247093
587.907124	44416.595787
588.259765	44173.370196
588.612352	44342.901680
588.964884	43805.449145
589.317362	44102.960401
589.669786	44118.915653
590.022155	43957.666785
590.374470	44396.486624
590.726731	43982.928007
591.078937	43331.484901
591.431090	43672.483671
591.783188	43208.823546
592.135232	42995.149199
592.487222	43255.761729
592.839157	43409.095985
593.191038	43050.380080
593.542866	42855.766336
593.894639	42252.004984
594.246358	42561.078126
594.598022	42541.208418
594.949633	42115.183027
595.301190	42096.659308
595.652692	42037.390462
596.004141	42517.865356
596.355535	41423.932450
596.706876	41447.366254
597.058162	41169.717144
597.409395	41667.846159
597.760573	41870.976932
598.111698	41475.085038
598.462768	41387.991544
598.813785	41423.756010
599.164748	41021.368589
599.515657	41308.147229
599.866511	40802.085959
600.217312	41498.158400
600.568060	40428.276839
600.918753	41262.822215
601.269392	41173.790397
601.619978	40899.596998
601.970510	41094.278798
602.320988	41222.508107
602.671412	41492.250167
603.021783	41367.509336
603.372100	40930.489188
603.722363	41033.842925
604.072572	41087.001892
604.422728	41049.296582
604.772830	40864.049301
605.122878	40992.593683
605.472872	40864.331606
605.822813	41126.514456
606.172701	40884.342466
606.522534	41194.524662
606.872314	41414.876018
607.222041	41238.985119
607.571714	41573.337127
607.921333	41070.192164
608.270899	41285.187294
608.620411	41671.564010
608.969870	41411.168249
609.319276	41426.052256
609.668627	41460.886629
610.017926	41858.016126
610.367171	41987.074705
610.716362	42033.412992
611.065500	41929.666045
611.414585	42151.945642
611.763616	42319.556446
612.112594	42222.247053
612.461518	42358.121272
612.810389	42736.394334
613.159207	42525.036397
613.507971	42508.917307
613.856682	43009.937424
614.205340	42823.908764
614.553945	43518.282336
614.902496	42835.049714
615.250994	43278.144452
615.599439	43337.262063
615.947830	43433.568267
616.296169	43445.480513
616.644454	43497.220396
616.992686	43663.167618
617.340864	44111.822749
617.688990	43633.530675
618.037063	44308.730218
618.385082	44135.798477
618.733048	44467.367768
619.080961	44335.839023
619.428821	44366.779105
619.776628	44380.899377
620.124382	44191.926684
620.472083	44303.132017
620.819731	44393.159463
621.167326	43950.135301
621.514868	43921.204119
621.862357	43397.697936
622.209793	43482.830422
622.557176	43049.286150
622.904506	42803.018223
623.251783	42426.822117
623.599007	42111.079528
623.946179	42030.111036
624.293297	41787.296299
624.640363	41231.531773
624.987376	41078.333628
625.334336	40873.118337
625.681243	40472.276030
626.028097	40391.030274
626.374899	40195.640192
626.721647	40172.342500
627.068343	39940.799783
627.414987	39682.392758
627.761577	39426.241648
628.108115	39726.654088
628.454600	38987.028599
628.801032	39230.135723
629.147412	39121.077921
629.493739	39042.007423
629.840014	38597.523847
630.186236	39022.563692
630.532405	38475.477512
630.878521	38705.885969
631.224585	38489.736416
631.570597	38150.466762
631.916556	38331.214813
632.262462	38193.251035
632.608316	38143.782192
632.954117	37997.828185
633.299866	37956.785631
633.645562	37866.044862
633.991206	37328.587286
634.336797	36931.578777
634.682336	36811.241393
635.027823	36572.061328
635.373257	36436.421522
635.718639	36121.488039
636.063968	36021.557246
636.409245	35360.452769
636.754470	35330.984704
637.099642	35087.055872
637.444762	34530.625914
637.789829	34666.739588
638.134845	34300.025893
638.479808	34211.157912
638.824719	34158.760159
639.169577	33657.326668
639.514383	33750.371245
639.859137	33367.140209
640.203839	33532.389232
640.548489	33236.075250
640.893086	33245.169492
641.237632	32948.774851
641.582125	33066.321956
641.926566	32864.222098
642.270955	32895.441964
642.615292	32827.288085
642.959576	32707.313664
643.303809	32727.929463
643.647990	32811.811742
643.992118	32768.936729
644.336195	32619.506847
644.680219	32705.496328
645.024192	32896.949269
645.368112	33422.328241
645.711981	33443.841365
646.055797	34190.779048
646.399562	34004.783156
646.743274	34879.403184
647.086935	35265.467348
647.430544	35218.324998
647.774101	35263.352584
648.117606	35549.594341
648.461059	35680.359351
648.804460	35268.199653
649.147810	34757.739977
649.491108	34403.150256
649.834354	34249.581587
650.177548	33426.502316
650.520690	32931.299691
650.863781	32924.713424
651.206820	32736.481780
651.549807	32333.935563
651.892742	31764.822062
652.235626	31656.467501
652.578458	31539.588349
652.921238	30860.519720
653.263967	31159.611378
653.606644	30871.907687
653.949269	30773.360691
654.291843	30384.866690
654.634365	30747.207185
654.976836	30292.343873
655.319255	30361.175788
655.661622	30248.342162
656.003938	30128.473606
656.346203	29923.510373
656.688416	30165.926858
657.030577	29942.596181
657.372687	29770.123184
657.714746	29933.726271
658.056753	30117.567069
658.398708	29488.000051
658.740612	29565.674149
659.082465	29772.532856
659.424266	29676.655151
659.766016	29663.255764
660.107715	29545.907785
660.449362	29648.467539
660.790958	29622.465268
661.132503	29548.314936
661.473996	29616.201634
661.815438	29698.919407
662.156829	29814.439968
662.498168	29623.942326
662.839456	29602.676218
663.180693	29726.809591
663.521879	29823.614868
663.863013	29777.931932
664.204097	29747.236346
664.545129	30168.523052
664.886110	30103.189698
665.227040	30210.561234
665.567918	30200.254595
665.908746	30289.788008
666.249522	30368.316582
666.590248	30395.382537
666.930922	30493.495994
667.271545	30478.201133
667.612118	30538.634485
667.952639	30354.367709
668.293109	30379.578520
668.633528	30258.379099
668.973896	30210.921677
669.314213	30177.985298
669.654480	29995.765231
669.994695	29975.172117
670.334859	29898.445756
670.674973	29741.144112
671.015035	29917.415618
671.355047	29865.075838
671.695008	29788.127665
672.034918	29706.080366
672.374777	29808.803958
672.714585	29673.882516
673.054342	29817.348714
673.394049	29658.353242
673.733705	29881.981347
674.073310	29580.391798
674.412864	29660.092440
674.752368	29350.316057
675.091820	29591.131976
675.431223	29172.499437
675.770574	28967.213570
676.109875	28808.371854
676.449125	28606.314846
676.788324	28498.048505
677.127473	28027.464355
677.466571	27918.565350
677.805619	27640.175191
678.144616	27563.952944
678.483562	27525.955247
678.822458	27195.500051
679.161303	27160.224577
679.500098	27079.762720
679.838842	27015.435077
680.177535	27086.883350
680.516179	27341.640580
680.854771	27480.229461
681.193314	28260.516898
681.531805	29291.198446
681.870247	30035.965912
682.208638	30760.752765
682.546978	31034.802491
682.885268	31165.862409
683.223508	30713.023120
683.561697	30422.017473
683.899836	30263.178278
684.237925	29861.113491
684.575963	29718.456399
684.913951	29344.551497
685.251889	29528.679642
685.589776	29553.368693
685.927614	29570.722865
686.265401	29753.439486
686.603137	29877.903054
686.940824	30377.468797
687.278460	30704.680011
687.616046	30879.161907
687.953582	31551.104865
688.291068	31479.586015
688.628504	31801.955201
688.965889	31778.922169
689.303224	31523.965813
689.640510	31214.713710
689.977745	30578.081514
690.314930	29829.523100
690.652065	29376.305725
690.989150	28714.490446
691.326185	27870.240849
691.663170	27219.034678
692.000105	26485.710631
692.336990	25881.114967
692.673825	25461.073426
693.010610	24963.264525
693.347345	24467.996365
693.684030	23849.356048
694.020665	23662.334281
694.357251	22983.996620
694.693786	22997.703517
695.030272	22763.052929
695.366707	22280.604423
695.703093	22000.775015
696.039429	22059.937996
696.375716	21835.800734
696.711952	21836.128409
697.048139	21696.024662
697.384276	21548.429759
697.720363	21666.314622
698.056400	21560.793189
698.392388	21395.234135
698.728326	21392.345554
699.064214	21228.898743
699.400053	21235.981565
699.735842	20841.609579
700.071581	20640.792695
700.407270	20394.504603
700.742910	20218.225535
701.078501	19969.905858
701.414042	19763.339538
701.749533	19467.696030
702.084974	19153.581734
702.420366	19384.416168
702.755709	18969.156162
703.091002	18675.932407
703.426246	18734.364421
703.761440	18670.188012
704.096584	18422.763140
704.431679	18367.023102
704.766725	18315.918405
705.101721	18233.649295
705.436668	18377.170945
705.771565	18101.316486
706.106413	18415.957583
706.441212	18499.698710
706.775961	18605.878012
707.110661	18685.641669
707.445311	19052.899809
707.779913	18926.374409
708.114465	19223.084122
708.448967	19540.807884
708.783421	20171.983031
709.117825	20547.790968
709.452180	20778.360742
709.786485	21235.018704
710.120742	21998.052792
710.454949	22112.234926
710.789107	22620.438687
711.123216	23347.340304
711.457275	23550.861767
711.791286	24107.662250
712.125247	24255.368058
712.459159	23970.545386
712.793023	24713.389652
713.126837	23676.988915
713.460602	23923.753396
713.794318	23586.951387
714.127985	23309.602226
714.461602	22403.994226
714.795171	22375.398280
715.128691	21403.857029
715.462162	20884.300590
715.795584	20449.899322
716.128957	20186.499033
716.462281	19808.823349
716.795556	19517.366519
717.128782	19052.614984
717.461960	18448.790617
717.795088	18416.842305
718.128167	18077.739009
718.461198	17621.698588
718.794180	17500.065628
719.127113	17166.043816
719.459997	16982.039180
719.792833	16613.573683
720.125619	16644.133158
720.458357	16320.465875
720.791046	16185.748600
721.123686	16034.975251
721.456278	15814.172712
721.788821	15817.293186
722.121315	15553.671087
722.453761	15654.433670
722.786158	15540.841351
723.118506	15626.014165
723.450805	15491.415358
723.783056	15682.361662
724.115259	15580.059007
724.447412	15578.987762
724.779518	15788.873682
725.111574	15846.967938
725.443582	16114.701099
725.775542	16064.791155
726.107453	16586.401864
726.439315	16503.933628
726.771129	16936.303311
727.102895	17355.190428
727.434612	17631.244013
727.766281	17777.545859
728.097901	18109.657075
728.429473	18197.365590
728.760996	18203.848514
729.092471	18319.505186
729.423897	18218.578765
729.755276	18084.695802
730.086606	18204.282053
730.417887	18786.305950
730.749120	19343.963429
731.080305	19550.512105
731.411442	19946.761921
731.742530	20063.653676
732.073570	20211.722447
732.404562	20536.304699
732.735506	20378.985411
733.066401	20158.908798
733.397249	19658.546553
733.728048	19036.122849
734.058798	18166.934665
734.389501	17410.287719
734.720156	16909.912871
735.050762	16324.148438
735.381320	15950.329236
735.711831	15676.793708
736.042293	15312.638398
736.372707	15359.442991
736.703073	15152.049922
737.033391	15349.199367
737.363661	15357.958371
737.693883	15476.077647
738.024056	15688.542117
738.354182	15904.578245
738.684260	16280.429031
739.014290	16551.428859
739.344272	16784.680527
739.674207	17137.694887
740.004093	17301.045916
740.333931	17353.363010
740.663722	17431.536183
740.993464	17459.244885
741.323159	17306.056822
741.652806	16999.859658
741.982405	16832.662229
742.311956	16465.671271
742.641460	16356.159765
742.970915	16023.229362
743.300323	15678.923596
743.629683	15463.867973
743.958996	15138.267407
744.288260	14829.534543
744.617477	14528.260066
744.946647	14495.527854
745.275768	14182.139484
745.604842	13978.975943
745.933869	13801.494560
746.262847	13778.922793
746.591778	13696.595710
746.920662	13576.626331
747.249498	13591.724586
747.578286	13757.026542
747.907027	13926.295885
748.235720	14199.556670
748.564365	14274.027115
748.892963	14191.410166
749.221514	14296.447647
749.550017	14167.154654
749.878473	14129.557728
750.206881	13903.169592
750.535242	13831.786853
750.863555	13753.812806
751.191821	13653.191375
751.520039	13669.769210
751.848210	13601.466616
752.176334	13649.430674
752.504411	13573.649529
752.832440	13402.860278
753.160421	13512.452442
753.488356	13398.010688
753.816243	13302.203559
754.144082	13149.025579
754.471875	13091.937032
754.799620	13056.343966
755.127318	13043.189075
755.454969	13024.940098
755.782572	12992.086898
756.110129	13008.405113
756.437638	12921.656938
756.765100	12917.497986
757.092515	12954.285806
757.419882	12980.620794
757.747203	13000.535872
758.074477	13092.564656
758.401703	13078.076380
758.728882	13272.143159
759.056014	13321.367506
759.383099	13496.398888
759.710138	13614.351805
760.037129	13740.773862
760.364073	13796.861739
760.690970	13827.174197
761.017820	13846.945603
761.344623	14070.798039
761.671379	14448.022540
761.998088	15146.970959
762.324751	16914.263387
762.651366	20343.404947
762.977935	24834.510935
763.304456	27792.818808
763.630931	28834.870679
763.957359	27604.249408
764.283740	25329.658107
764.610074	23056.374986
764.936362	20413.759290
765.262602	18539.498619
765.588796	16616.318592
765.914943	15334.368292
766.241044	14238.239964
766.567097	13455.265593
766.893104	12738.935275
767.219064	12269.208122
767.544978	11803.337451
767.870845	11415.249263
768.196665	11199.205574
768.522438	10962.956940
768.848165	10765.323545
769.173846	10558.744622
769.499479	10431.626886
769.825066	10255.380586
770.150607	10034.714159
770.476101	9954.390934
770.801548	9823.847735
771.126949	9664.731275
771.452303	9558.478876
771.777611	9362.125933
772.102872	9351.567237
772.428087	9212.181853
772.753256	9052.049601
773.078378	8961.512999
773.403453	8780.293600
773.728482	8673.489194
774.053465	8593.080270
774.378401	8495.778439
774.703291	8373.192701
775.028135	8250.780883
775.352932	8217.209319
775.677683	8111.428267
776.002388	8008.654263
776.327046	8021.486521
776.651658	7919.216632
776.976224	7822.484452
777.300743	7818.181827
777.625216	7727.277220
777.949643	7689.261879
778.274024	7698.817386
778.598359	7614.103317
778.922647	7636.901935
779.246889	7583.727844
779.571086	7596.126562
779.895236	7607.796833
780.219339	7621.372660
780.543397	7619.111703
780.867409	7699.591203
781.191374	7709.794499
781.515294	7673.268819
781.839167	7770.127028
782.162995	7742.496464
782.486776	7686.988319
782.810511	7639.462841
783.134201	7547.207205
783.457844	7545.740229
783.781441	7486.494069
784.104993	7424.228257
784.428498	7401.215390
784.751958	7385.202164
785.075372	7354.589758
785.398739	7297.125645
785.722061	7348.928542
786.045337	7353.392484
786.368568	7502.582911
786.691752	7529.669031
787.014891	7873.090075
787.337983	8235.619613
787.661030	8839.196962
787.984031	9467.730545
788.306987	9870.927070
788.629897	10071.383512
788.952760	10017.307055
789.275579	9789.451942
789.598351	9389.212053
789.921078	9032.741982
790.243759	8626.472873
790.566395	8337.428235
790.888984	8078.252433
791.211529	7868.847944
791.534027	7647.939541
791.856480	7452.120961
792.178888	7378.449539
792.501249	7279.068232
792.823566	7123.465457
793.145836	7121.322966
793.468062	7096.739780
793.790241	7054.474746
794.112375	7118.013449
794.434464	7272.673528
794.756507	7315.099879
795.078505	7476.774724
795.400457	7791.927498
795.722364	8147.928741
796.044226	8434.374665
796.366042	8704.383906
796.687812	8665.146085
797.009538	8740.350018
797.331218	8627.486145
797.652852	8537.786374
797.974442	8384.721820
798.295986	8296.156308
798.617484	8099.062317
798.938938	7956.725338
799.260346	7861.230760
799.581709	7659.705594
799.903026	7584.579799
800.224299	7469.097047
800.545526	7300.089843
800.866708	7201.386572
801.187845	7139.652602
801.508936	7033.344749
801.829983	6997.083730
802.150984	6849.020000
802.471940	6802.618700
802.792851	6787.359127
803.113717	6753.802686
803.434538	6722.996195
803.755314	6664.687689
804.076045	6668.007289
804.396731	6616.121213
804.717372	6648.490462
805.037967	6651.888200
805.358518	6694.803542
805.679024	6777.138188
805.999485	6787.472553
806.319901	6834.927455
806.640272	6860.561722
806.960598	6939.231448
807.280879	6936.045439
807.601115	7014.155597
807.921306	6958.556712
808.241453	6973.004658
808.561554	6997.744121
808.881611	6957.976979
809.201623	6968.613813
809.521590	6905.470841
809.841513	6887.836885
810.161390	6928.758451
810.481223	6796.924716
810.801011	6776.576099
811.120755	6754.747903
811.440453	6674.016344
811.760107	6640.777497
812.079716	6616.527026
812.399281	6546.351644
812.718801	6538.031219
813.038276	6491.214024
813.357707	6429.175064
813.677093	6470.968750
813.996434	6374.498709
814.315731	6416.241984
814.634983	6410.482465
814.954191	6426.359579
815.273354	6529.829262
815.592473	6592.647080
815.911547	6719.298509
816.230577	6800.214069
816.549562	6941.759587
816.868502	7050.504837
817.187399	7147.332800
817.506250	7297.155892
817.825058	7329.562949
818.143821	7597.769978
818.462539	7869.946915
818.781213	8240.517093
819.099843	8787.510012
819.418429	9793.270616
819.736970	10766.183061
820.055466	11950.871859
820.373919	13476.723264
820.692327	15823.082952
821.010691	19955.445309
821.329011	28966.023858
821.647286	42021.634336
821.965517	55510.209352
822.283704	60902.814801
822.601847	62878.914341
822.919945	60154.251346
823.237999	55942.775641
823.556010	49728.903216
823.873976	42973.671363
824.191897	36427.952384
824.509775	31583.035533
824.827609	27063.605822
825.145398	24466.156344
825.463144	23091.786571
825.780845	23414.866559
826.098502	25194.550143
826.416116	29012.200827
826.733685	32710.965980
827.051210	33893.988677
827.368692	32122.728861
827.686129	28117.390978
828.003522	23979.763136
828.320872	20256.427399
828.638177	17391.958084
828.955439	15240.265073
829.272656	13421.812496
829.589830	11939.378028
829.906960	10670.691005
830.224046	9728.224608
830.541088	8976.046645
830.858086	8520.694342
831.175041	8136.117318
831.491952	8027.803086
831.808819	8072.724808
832.125642	8469.839182
832.442421	9361.049647
832.759157	11163.501602
833.075849	14108.684831
833.392497	17355.490377
833.709101	19541.473317
834.025662	19392.971007
834.342179	17677.078184
834.658653	15471.462471
834.975083	13532.024722
835.291469	11900.934189
835.607811	10586.443242
835.924110	9666.455350
836.240366	8799.515520
836.556578	7995.413673
836.872746	7347.567430
837.188871	6846.295257
837.504952	6429.719508
837.820990	6118.670234
838.136984	5901.734260
838.452935	5805.082738
838.768842	5843.410631
839.084706	6264.725064
839.400526	7475.408571
839.716303	9069.534843
840.032037	10176.408391
840.347727	10098.663716
840.663373	9115.457234
840.978977	8061.099907
841.294537	7252.256855
841.610054	6652.760319
841.925527	6220.153702
842.240957	5853.152661
842.556344	5522.896590
842.871687	5242.096759
843.186987	4958.438594
843.502244	4735.415427
843.817458	4567.963420
844.132629	4436.371660
844.447756	4341.847505
844.762840	4262.058643
845.077881	4187.600800
845.392879	4128.026965
845.707833	4075.815734
846.022745	4036.847615
846.337613	4001.975433
846.652438	3961.734423
846.967221	3950.464923
847.281960	3916.694234
847.596656	3898.518354
847.911309	3879.051938
848.225919	3851.214687
848.540485	3837.752285
848.855009	3824.620079
849.169490	3800.730051
849.483928	3793.352323
849.798323	3784.643729
850.112675	3763.397787
850.426984	3768.406173
850.741251	3756.163731
851.055474	3751.540993
851.369654	3757.207250
851.683792	3754.129625
851.997887	3755.115171
852.311938	3761.764453
852.625947	3763.002056
852.939914	3754.779934
853.253837	3763.985081
853.567718	3762.999535
853.881555	3749.915221
854.195350	3766.346862
854.509103	3764.774022
854.822812	3761.824947
855.136479	3748.551588
855.450103	3760.897374
855.763685	3747.828183
856.077224	3749.592587
856.390720	3771.854322
856.704173	3789.556334
857.017584	3801.768529
857.330953	3815.409891
857.644278	3836.739013
857.957561	3841.606247
858.270802	3840.787060
858.584000	3845.571115
858.897155	3836.791945
859.210268	3819.677228
859.523339	3799.164773
859.836367	3793.919453
860.149352	3789.090027
860.462295	3782.496198
860.775195	3770.772995
861.088054	3767.987757
861.400869	3764.345523
861.713642	3767.690329
862.026373	3777.316412
862.339062	3783.441414
862.651708	3799.036224
862.964312	3837.197758
863.276873	3846.629757
863.589392	3902.596647
863.901869	3952.355356
864.214303	4002.267820
864.526696	4033.157491
864.839045	4079.168102
865.151353	4104.588120
865.463619	4116.192856
865.775842	4123.608393
866.088023	4138.441989
866.400162	4127.522849
866.712258	4137.156494
867.024313	4136.914519
867.336325	4132.609374
867.648296	4139.581289
867.960224	4138.968789
868.272110	4150.702075
868.583954	4153.187364
868.895755	4168.174714
869.207515	4161.865710
869.519233	4205.764078
869.830909	4223.844176
870.142542	4246.398298
870.454134	4260.329527
870.765684	4286.843476
871.077191	4326.134229
871.388657	4348.116180
871.700081	4388.281573
872.011463	4429.737502
872.322803	4470.159994
872.634101	4497.815764
872.945357	4531.147873
873.256571	4592.443263
873.567744	4623.330412
873.878874	4637.730468
874.189963	4674.167928
874.501010	4688.565464
874.812015	4690.080331
875.122979	4727.861258
875.433900	4727.291608
875.744780	4737.396601
876.055618	4772.009163
876.366415	4765.047329
876.677169	4784.468375
876.987882	4832.119881
877.298554	4884.832707
877.609183	4963.449501
877.919771	5070.473197
878.230317	5216.490218
878.540822	5434.247900
878.851285	5760.584473
879.161707	6215.770419
879.472087	6976.321738
879.782425	8211.008699
880.092722	10394.960054
880.402977	13724.390112
880.713191	17523.406171
881.023363	21278.475971
881.333494	23514.641076
881.643583	24755.253914
881.953631	24736.286573
882.263637	23871.305232
882.573602	22373.906099
882.883526	20799.818413
883.193408	19103.248333
883.503248	17388.701499
883.813048	15848.787795
884.122806	14401.167536
884.432522	12927.701281
884.742197	11651.913792
885.051831	10561.429036
885.361424	9556.908556
885.670975	8737.012774
885.980485	8038.833131
886.289954	7468.923127
886.599382	6995.362176
886.908768	6617.873014
887.218113	6250.501448
887.527417	5965.469568
887.836680	5699.430236
888.145901	5481.465867
888.455082	5315.327080
888.764221	5163.485006
889.073319	5028.750087
889.382376	4955.970949
889.691392	4897.428029
890.000366	4874.526068
890.309300	4861.227504
890.618193	4861.514849
890.927044	4847.245863
891.235855	4868.804358
891.544625	4897.458276
891.853353	4959.454386
892.162041	5080.752110
892.470687	5268.192292
892.779293	5519.198904
893.087858	5890.971397
893.396381	6471.901363
893.704864	7278.009590
894.013306	8440.388761
894.321707	9634.713725
894.630068	10462.289705
894.938387	10674.106386
895.246665	10433.368605
895.554903	9821.594339
895.863100	9115.646278
896.171256	8547.223414
896.479371	8033.103860
896.787446	7534.937037
897.095480	7101.029802
897.403473	6783.548015
897.711425	6458.406194
898.019336	6192.946595
898.327207	5921.843423
898.635038	5690.129307
898.942827	5440.491369
899.250576	5241.002829
899.558284	5052.839241
899.865952	4930.707207
900.173579	4777.206592
900.481165	4669.325900
900.788711	4577.629832
901.096216	4507.106611
901.403681	4442.350469
901.711105	4414.893824
902.018489	4403.261362
902.325832	4474.528154
902.633135	4593.244806
902.940397	4941.996871
903.247619	5735.965998
903.554800	7185.554828
903.861941	9123.563410
904.169041	10656.510239
904.476101	11295.005141
904.783121	10927.784810
905.090100	10178.644142
905.397039	9336.141306
905.703938	8573.407167
906.010796	7875.071248
906.317614	7320.115827
906.624391	6776.896212
906.931129	6353.598085
907.237826	5955.420028
907.544483	5576.035393
907.851099	5202.737950
908.157675	4846.532540
908.464211	4517.672869
908.770707	4285.774751
909.077163	4082.800253
909.383578	3939.737348
909.689954	3819.347033
909.996289	3755.583998
910.302584	3690.464893
910.608839	3660.921211
910.915054	3625.456694
911.221229	3608.561267
911.527363	3621.940489
911.833458	3637.389105
912.139513	3662.622601
912.445527	3696.141233
912.751502	3775.241978
913.057436	3878.923389
913.363331	4015.011857
913.669186	4218.984504
913.975000	4474.134944
914.280775	4898.985746
914.586510	5485.087936
914.892205	6281.292816
915.197859	7328.615212
915.503475	8557.204899
915.809050	9634.565011
916.114585	10295.591350
916.420081	10562.785107
916.725536	10523.665753
917.030952	10077.536240
917.336328	9662.518209
917.641665	9243.237882
917.946961	8764.292978
918.252218	8331.446906
918.557435	7821.531674
918.862612	7384.635035
919.167750	7003.554051
919.472848	6580.472694
919.777906	6204.173244
920.082925	5841.938614
920.387904	5473.296677
920.692843	5205.669381
920.997743	4953.536072
921.302603	4722.726843
921.607423	4557.016554
921.912204	4393.431112
922.216946	4276.695633
922.521647	4153.842714
922.826310	4050.017630
923.130932	3950.916107
923.435516	3855.240048
923.740059	3786.410654
924.044564	3709.243191
924.349028	3643.937564
924.653454	3582.503542
924.957840	3513.613655
925.262186	3469.382571
925.566493	3405.657345
925.870761	3349.244313
926.174989	3311.773416
926.479178	3275.141872
926.783328	3231.815675
927.087438	3206.927499
927.391509	3171.155471
927.695541	3139.822179
927.999533	3117.003396
928.303486	3094.358533
928.607400	3080.984352
928.911275	3066.422979
929.215110	3048.373128
929.518906	3039.795605
929.822663	3040.173691
930.126381	3039.175543
930.430060	3042.835420
930.733699	3046.293652
931.037299	3057.462328
931.340861	3055.506361
931.644383	3065.170252
931.947866	3061.553225
932.251309	3054.921587
932.554714	3056.922925
932.858080	3049.890515
933.161407	3042.159906
933.464694	3034.759492
933.767943	3025.796320
934.071153	3021.715506
934.374323	3011.900380
934.677455	3004.189935
934.980548	2999.612567
935.283602	2993.893378
935.586617	2991.755929
935.889593	3002.934688
936.192530	3006.743279
936.495428	3017.523787
936.798287	3043.140410
937.101108	3077.150555
937.403890	3128.711476
937.706632	3187.831608
938.009336	3271.847478
938.312002	3344.157789
938.614628	3409.420566
938.917216	3461.745223
939.219765	3492.138339
939.522275	3525.684698
939.824747	3531.839946
940.127179	3531.880276
940.429573	3521.077083
940.731929	3519.897453
941.034246	3503.861542
941.336524	3492.375273
941.638763	3476.029332
941.940964	3461.689770
942.243126	3416.856268
942.545250	3394.435737
942.847335	3356.359902
943.149381	3318.518480
943.451389	3287.414561
943.753359	3252.202101
944.055290	3226.812330
944.357182	3204.137220
944.659036	3186.672142
944.960851	3178.313909
945.262628	3165.002743
945.564367	3166.598268
945.866067	3161.229439
946.167729	3157.693070
946.469352	3157.362874
946.770937	3153.612256
947.072484	3137.034421
947.373992	3141.238743
947.675462	3132.280613
947.976893	3112.995679
948.278286	3106.863115
948.579641	3102.071499
948.880958	3094.671085
949.182236	3094.958431
949.483476	3085.271853
949.784678	3092.102617
950.085841	3092.926846
950.386967	3102.368927
950.688054	3119.801237
950.989103	3137.268835
951.290114	3161.156342
951.591087	3189.797658
951.892021	3218.171792
952.192917	3245.641040
952.493776	3270.246912
952.794596	3280.752676
953.095378	3282.950619
953.396122	3277.193622
953.696828	3271.169443
953.997496	3259.889861
954.298126	3238.429669
954.598718	3214.307748
954.899272	3189.623738
955.199788	3159.621311
955.500266	3133.213227
955.800706	3090.930549
956.101108	3054.689694
956.401472	3024.765404
956.701798	2990.457832
957.002087	2950.393262
957.302337	2924.481731
957.602550	2890.446381
957.902724	2860.948069
958.202861	2838.093998
958.502960	2817.715134
958.803022	2794.861063
959.103045	2776.564195
959.403031	2759.956113
959.702979	2744.278125
960.002889	2733.167422
960.302762	2722.974209
960.602596	2707.979297
960.902393	2700.588965
961.202153	2690.703262
961.501875	2683.706141
961.801559	2678.859072
962.101205	2669.923626
962.400814	2666.394819
962.700385	2657.706390
962.999918	2651.830925
963.299414	2645.862199
963.598873	2645.632827
963.898293	2638.045890
964.197677	2639.527989
964.497022	2636.977165
964.796331	2634.736372
965.095601	2629.886782
965.394835	2627.149436
965.694030	2625.042234
965.993189	2624.245731
966.292309	2624.505351
966.591393	2620.026286
966.890439	2622.045268
967.189447	2623.620628
967.488419	2622.148611
967.787353	2626.347892
968.086249	2625.972327
968.385108	2628.223202
968.683930	2627.358644
968.982714	2634.799387
969.281462	2637.783750
969.580172	2643.828093
969.878844	2652.357726
970.177480	2656.587254
970.476078	2665.482370
970.774639	2672.958401
971.073162	2681.233455
971.371649	2685.510874
971.670098	2691.726617
971.968510	2696.798017
972.266885	2702.744058
972.565223	2706.393854
972.863524	2708.382589
973.161788	2710.971222
973.460014	2714.825184
973.758204	2716.251830
974.056356	2718.114537
974.354471	2719.483210
974.652550	2718.283415
974.950591	2718.230483
975.248595	2719.352140
975.546563	2716.239227
975.844493	2712.304607
976.142386	2705.491487
976.440243	2701.826568
976.738062	2698.882535
977.035845	2688.883406
977.333590	2684.714372
977.631299	2681.167920
977.928971	2672.068637
978.226606	2665.716783
978.524204	2662.800476
978.821765	2661.726710
979.119290	2662.261072
979.416777	2662.505568
979.714228	2665.207627
980.011642	2667.594613
980.309020	2674.196004
980.606360	2690.554548
980.903664	2712.932230
981.200931	2748.805081
981.498162	2799.367854
981.795356	2877.127652
982.092513	2965.627629
982.389633	3068.573031
982.686717	3165.983247
982.983764	3241.174577
983.280775	3291.699542
983.577749	3300.007363
983.874686	3281.526493
984.171587	3249.391658
984.468451	3212.497974
984.765279	3167.924091
985.062070	3120.184364
985.358824	3072.187539
985.655543	3014.562109
985.952224	2966.056127
986.248869	2903.933988
986.545478	2841.350583
986.842050	2786.951492
987.138586	2739.141189
987.435086	2702.428986
987.731549	2673.701971
988.027975	2646.207518
988.324366	2629.949797
988.620719	2612.832559
988.917037	2603.274531
989.213318	2595.838829
989.509563	2586.623600
989.805772	2581.514391
990.101944	2579.240830
990.398080	2574.887794
990.694180	2572.836044
990.990244	2571.492577
991.286271	2574.330747
991.582262	2576.329564
991.878217	2575.293607
992.174136	2578.530028
992.470019	2584.891964
992.765865	2589.222315
993.061676	2590.883375
993.357450	2600.738831
993.653188	2607.680500
993.948890	2624.623818
994.244556	2643.490336
994.540186	2665.041269
994.835780	2696.384643
995.131337	2736.315622
995.426859	2776.972528
995.722345	2826.789211
996.017795	2878.498846
996.313208	2917.177099
996.608586	2945.493260
996.903928	2955.991463
997.199234	2958.479273
997.494504	2954.826957
997.789738	2937.785336
998.084936	2915.536203
998.380099	2886.010165
998.675225	2853.353571
998.970316	2825.801144
999.265371	2785.187088
999.560390	2746.065214
999.855373	2721.434136
1000.150320	2691.343489
1000.445232	2662.429951
1000.740108	2644.380100
1001.034948	2622.904784
1001.329752	2607.541868
1001.624521	2597.920826
1001.919254	2585.227201
1002.213951	2575.802763
1002.508613	2566.927812
1002.803239	2563.245249
1003.097829	2554.902140
1003.392384	2551.766542
1003.686903	2543.246992
1003.981386	2543.415871
1004.275834	2543.793957
1004.570246	2538.011754
1004.864623	2532.655528
1005.158964	2530.898686
1005.453270	2528.756195
1005.747540	2528.133613
1006.041775	2528.146216
1006.335974	2526.439785
1006.630138	2526.548170
1006.924266	2527.616894
1007.218359	2520.949968
1007.512416	2521.423837
1007.806438	2516.952333
1008.100425	2517.431243
1008.394376	2516.049967
1008.688292	2520.002232
1008.982172	2519.356964
1009.276017	2517.847138
1009.569827	2521.585154
1009.863602	2518.401665
1010.157341	2517.537107
1010.451045	2516.390245
1010.744714	2516.107940
1011.038347	2516.612056
1011.331945	2513.259688
1011.625508	2514.391427
1011.919036	2513.504184
1012.212528	2509.703154
1012.505986	2511.160048
1012.799408	2510.739111
1013.092795	2509.367917
1013.386147	2507.464882
1013.679464	2509.209121
1013.972745	2505.965139
1014.265992	2507.492608
1014.559204	2506.023112
1014.852380	2508.074862
1015.145521	2509.395644
1015.438628	2507.500170
1015.731699	2507.850530
1016.024736	2510.847496
1016.317737	2511.187774
1016.610703	2512.069976
1016.903635	2513.224400
1017.196531	2512.037208
1017.489393	2514.893022
1017.782219	2515.293794
1018.075011	2517.373270
1018.367768	2518.946110
1018.660490	2517.670698
1018.953177	2517.670698
1019.245829	2517.670698
