Dividing Wavelength (nm)	Counts (n)	Blue Motor Position (mm): 18.500000	Red Motor Position (mm): 0.000000	
326.493990	2137.103912
326.888308	2137.103912
327.282561	2137.103912
327.676750	2102.640063
328.070874	2099.698550
328.464933	2106.390682
328.858929	2111.073914
329.252859	2120.684874
329.646726	2131.687192
330.040528	2144.774027
330.434265	2161.223312
330.827938	2177.332319
331.221547	2197.839733
331.615091	2216.428988
332.008571	2235.265259
332.401986	2254.398959
332.795338	2273.688934
333.188625	2293.818261
333.581847	2312.160500
333.975006	2332.244457
334.368100	2349.071828
334.761129	2366.559591
335.154095	2382.161962
335.546996	2401.431772
335.939833	2420.855338
336.332606	2437.627257
336.725315	2450.943465
337.117960	2459.299178
337.510540	2469.348718
337.903056	2480.051087
338.295508	2487.048209
338.687896	2494.982985
339.080220	2504.528410
339.472480	2509.156189
339.864676	2515.039216
340.256807	2517.093486
340.648875	2521.126409
341.040879	2524.083046
341.432818	2525.958355
341.824694	2525.885258
342.216506	2526.565814
342.608253	2527.480783
342.999937	2528.957841
343.391557	2527.316946
343.783113	2525.648324
344.174605	2524.319980
344.566033	2525.378622
344.957397	2520.897036
345.348697	2522.858045
345.739934	2518.646161
346.131106	2518.260513
346.522215	2516.715399
346.913260	2513.814215
347.304241	2513.297497
347.695159	2509.302383
348.086012	2508.304234
348.476802	2505.556805
348.867528	2506.922958
349.258191	2503.152175
349.648789	2502.882473
350.039324	2499.693943
350.429796	2502.453975
350.820203	2498.746206
351.210548	2495.996257
351.600828	2494.264621
351.991045	2497.054899
352.381198	2495.398880
352.771288	2494.947697
353.161314	2494.178921
353.551276	2496.830568
353.941175	2493.929384
354.331010	2495.499703
354.720782	2493.092552
355.110490	2494.441061
355.500135	2493.029538
355.889717	2496.618839
356.279235	2492.913591
356.668689	2496.097080
357.058080	2497.425424
357.447408	2491.439054
357.836672	2492.906030
358.225873	2495.600526
358.615010	2490.304794
359.004084	2497.173366
359.393095	2496.432317
359.782043	2499.512462
360.170927	2499.351145
360.559748	2497.526247
360.948505	2501.402894
361.337199	2499.346104
361.725830	2502.396002
362.114398	2501.198728
362.502903	2502.005312
362.891344	2504.576301
363.279722	2505.314830
363.668037	2503.762154
364.056289	2503.099243
364.444478	2503.237874
364.832603	2504.067144
365.220665	2504.598986
365.608665	2506.749038
365.996601	2505.239213
366.384474	2505.846672
366.772284	2504.092350
367.160031	2505.972700
367.547715	2505.284583
367.935336	2505.095540
368.322893	2503.832731
368.710388	2507.858092
369.097820	2509.662825
369.485189	2506.738956
369.872495	2508.089985
370.259738	2510.671056
370.646918	2507.779954
371.034035	2508.964625
371.421090	2510.734070
371.808081	2509.534276
372.195010	2510.224914
372.581875	2510.000582
372.968678	2511.341529
373.355418	2508.465551
373.742096	2512.594256
374.128710	2511.596108
374.515262	2510.492095
374.901751	2510.774399
375.288177	2513.509225
375.674540	2513.441170
376.060841	2513.148783
376.447079	2512.874040
376.833254	2512.422857
377.219367	2508.072341
377.605417	2510.933196
377.991404	2510.794564
378.377329	2510.983607
378.763191	2506.123935
379.148991	2518.331089
379.534727	2515.830677
379.920402	2515.140039
380.306013	2515.414782
380.691563	2515.979391
381.077049	2515.689524
381.462474	2518.063908
381.847835	2515.303876
382.233134	2514.903104
382.618371	2513.985614
383.003545	2514.658608
383.388657	2516.901922
383.773706	2516.002076
384.158693	2518.928466
384.543618	2518.348733
384.928480	2520.607170
385.313280	2517.148938
385.698017	2518.131963
386.082692	2518.928466
386.467305	2518.893178
386.851856	2520.105575
387.236344	2521.519619
387.620770	2520.556758
388.005133	2520.362674
388.389435	2519.934176
388.773674	2518.336130
389.157851	2519.672036
389.541965	2520.234125
389.926018	2518.673887
390.310008	2522.275792
390.693936	2520.501306
391.077802	2521.035668
391.461606	2521.635565
391.845348	2519.193126
392.229027	2521.302849
392.612645	2519.094824
392.996200	2520.042561
393.379694	2517.771521
393.763125	2522.225380
394.146494	2522.104393
394.529801	2524.745957
394.913047	2523.752850
395.296230	2522.101872
395.679351	2521.070956
396.062410	2523.379805
396.445408	2519.664474
396.828343	2522.374094
397.211217	2519.762777
397.594028	2522.961389
397.976778	2520.009793
398.359466	2524.211595
398.742092	2519.238497
399.124656	2525.360978
399.507158	2524.138498
399.889598	2525.119003
400.271977	2525.948272
400.654294	2526.681760
401.036549	2526.429703
401.418742	2527.339631
401.800874	2525.146729
402.182944	2523.425175
402.564952	2525.068591
402.946898	2527.188396
403.328783	2525.008097
403.710606	2526.563293
404.092367	2525.799558
404.474067	2527.463139
404.855705	2527.137985
405.237282	2527.516071
405.618797	2526.578417
406.000250	2529.509848
406.381642	2524.740916
406.762972	2529.406504
407.144240	2528.584796
407.525447	2529.310722
407.906593	2527.445495
408.287677	2530.873480
408.668700	2526.850639
409.049661	2530.223171
409.430560	2527.780732
409.811399	2529.318284
410.192176	2527.082532
410.572891	2530.114786
410.953545	2529.598068
411.334138	2532.721063
411.714669	2529.449354
412.095139	2530.782739
412.475547	2528.186545
412.855894	2528.093283
413.236180	2528.743592
413.616405	2532.693336
413.996568	2529.517409
414.376670	2531.342307
414.756711	2533.005888
415.136691	2532.363141
415.516609	2531.599406
415.896466	2533.434386
416.276262	2533.562935
416.655997	2528.431041
417.035670	2528.022707
417.415283	2528.869621
417.794834	2528.378109
418.174324	2530.535722
418.553753	2532.887421
418.933121	2532.514375
419.312428	2533.958666
419.691674	2532.345497
420.070859	2533.129396
420.449983	2533.986392
420.829045	2533.449509
421.208047	2533.527647
421.586988	2534.316588
421.965867	2535.493697
422.344686	2535.385313
422.723444	2534.069571
423.102141	2531.274252
423.480777	2531.317101
423.859352	2534.601413
424.237866	2537.590817
424.616319	2534.510672
424.994712	2535.496218
425.373044	2534.820703
425.751314	2537.883204
426.129524	2532.632842
426.507673	2535.203831
426.885762	2535.665097
427.263789	2536.217103
427.641756	2533.215096
428.019662	2535.294572
428.397508	2536.385982
428.775292	2534.992103
429.153016	2535.362627
429.530679	2538.089892
429.908282	2535.909592
430.285824	2536.348173
430.663305	2536.459078
431.040726	2536.880015
431.418086	2538.226003
431.795385	2536.597710
432.172624	2535.168543
432.549802	2536.335570
432.926920	2537.729449
433.303977	2539.181301
433.680974	2537.517721
434.057910	2539.743390
434.434786	2535.418080
434.811601	2535.171063
435.188355	2537.984027
435.565050	2536.990920
435.941683	2538.042001
436.318257	2537.880684
436.694770	2534.538399
437.071222	2536.650642
437.447614	2534.114942
437.823946	2537.706764
438.200218	2536.643080
438.576429	2538.742721
438.952580	2537.472350
439.328670	2539.549306
439.704700	2539.811446
440.080670	2538.944367
440.456580	2538.929244
440.832429	2538.205838
441.208218	2538.127700
441.583947	2539.980324
441.959616	2538.334388
442.335224	2540.018133
442.710773	2539.352701
443.086261	2540.875129
443.461689	2539.067875
443.837057	2540.650798
444.212365	2539.670293
444.587612	2542.216076
444.962800	2538.939326
445.337927	2541.971580
445.712995	2537.656352
446.088002	2539.781199
446.462949	2543.234389
446.837837	2541.991745
447.212664	2539.720705
447.587431	2542.604245
447.962139	2540.434028
448.336786	2542.838658
448.711374	2543.791437
449.085901	2542.725233
449.460369	2538.699871
449.834776	2541.475026
450.209124	2540.134079
450.583412	2545.883515
450.957640	2540.814635
451.331808	2542.450490
451.705917	2542.044677
452.079965	2544.640871
452.453954	2543.907383
452.827883	2543.289842
453.201752	2540.350849
453.575562	2543.562064
453.949311	2543.476364
454.323001	2542.949564
454.696632	2544.812270
455.070202	2542.168185
455.443713	2543.836807
455.817164	2539.138452
456.190556	2542.148020
456.563888	2541.449821
456.937160	2538.258770
457.310373	2544.842517
457.683526	2545.192877
458.056619	2547.282436
458.429653	2543.478885
458.802628	2546.201108
459.175542	2543.494008
459.548398	2543.320089
459.921194	2542.700027
460.293930	2547.627755
460.666607	2543.347815
461.039224	2545.328988
461.411782	2545.696993
461.784280	2548.184802
462.156719	2546.412837
462.529099	2546.183464
462.901419	2547.592467
463.273680	2544.096426
463.645882	2546.775800
464.018024	2547.196736
464.390106	2547.068187
464.762130	2547.836962
465.134094	2546.743032
465.505999	2550.609597
465.877845	2545.331509
466.249631	2549.014072
466.621358	2548.411654
466.993026	2549.296377
467.364634	2552.636141
467.736184	2547.539534
468.107674	2544.832435
468.479105	2551.005328
468.850477	2549.712272
469.221790	2548.411654
469.593043	2549.518187
469.964238	2548.956099
470.335373	2549.346788
470.706449	2552.217725
471.077467	2547.529452
471.448425	2550.186140
471.819324	2552.807540
472.190164	2551.879968
472.560945	2549.581202
472.931667	2549.757642
473.302330	2551.756460
473.672934	2549.702189
474.043479	2550.627241
474.413965	2553.967006
474.784393	2545.797816
475.154761	2551.320400
475.525070	2546.143135
475.895321	2546.609442
476.265513	2546.228834
476.635645	2551.209494
477.005719	2550.279402
477.375734	2551.428785
477.745691	2550.259237
478.115588	2551.973229
478.485427	2552.132026
478.855207	2552.726882
479.224928	2553.510781
479.594591	2553.563713
479.964194	2554.408107
480.333739	2553.026830
480.703226	2553.460370
481.072653	2555.799465
481.442022	2554.919784
481.811333	2553.016748
482.180584	2556.905998
482.549777	2556.870710
482.918912	2554.113199
483.287988	2555.807027
483.657005	2552.053888
484.025964	2553.667057
484.394864	2555.890206
484.763706	2557.568910
485.132489	2553.848538
485.501213	2558.509085
485.869879	2556.447253
486.238487	2556.016235
486.607036	2557.626883
486.975527	2554.818961
487.343959	2559.262738
487.712333	2557.422717
488.080648	2556.628735
488.448905	2558.521688
488.817104	2558.181410
489.185244	2559.051009
489.553326	2556.790052
489.921350	2562.060578
490.289315	2560.717111
490.657222	2561.748027
491.025070	2564.230795
491.392861	2562.025290
491.760593	2561.957234
492.128267	2564.291289
492.495883	2562.526885
492.863440	2563.830023
493.230939	2562.599982
493.598380	2561.226267
493.965763	2558.544373
494.333088	2560.860783
494.700354	2560.613767
495.067563	2560.931360
495.434713	2559.076215
495.801805	2566.574931
496.168839	2562.705846
496.535815	2565.332287
496.902733	2565.612071
497.269593	2569.599624
497.636395	2567.855384
498.003139	2566.524520
498.369825	2569.075344
498.736453	2570.597772
499.103023	2571.979048
499.469535	2573.481312
499.835989	2572.594069
500.202385	2575.016343
500.568723	2575.815366
500.935003	2579.455079
501.301226	2579.334092
501.667390	2581.146387
502.033497	2588.075452
502.399546	2588.430854
502.765537	2588.161152
503.131470	2592.793972
503.497345	2595.397728
503.863163	2595.178438
504.228923	2601.396702
504.594625	2607.945160
504.960269	2606.659666
505.325856	2612.872888
505.691385	2616.094186
506.056856	2618.299690
506.422270	2622.897223
506.787625	2627.595578
507.152924	2634.315436
507.518164	2643.404637
507.883347	2645.264822
508.248472	2649.693476
508.613540	2656.783859
508.978550	2661.855260
509.343503	2667.992864
509.708398	2677.994514
510.073236	2686.042716
510.438016	2691.666123
510.802738	2700.054603
511.167403	2710.663711
511.532010	2716.657643
511.896561	2727.002091
512.261053	2738.448031
512.625488	2744.283166
512.989866	2752.391862
513.354186	2764.581372
513.718449	2770.353493
514.082655	2790.631535
514.446803	2796.703604
514.810894	2814.836635
515.174927	2824.684529
515.538904	2834.812207
515.902822	2857.275588
516.266684	2860.443954
516.630488	2879.411295
516.994235	2895.810168
517.357925	2918.399579
517.721558	2931.882145
518.085133	2951.988787
518.448651	2968.468319
518.812112	2983.793427
519.175516	3001.613905
519.538863	3028.072401
519.902152	3037.907693
520.265385	3072.187539
520.628560	3082.070721
520.991678	3106.109463
521.354739	3130.526292
521.717743	3146.731081
522.080690	3163.850839
522.443580	3202.987837
522.806413	3225.748647
523.169189	3248.035588
523.531908	3278.340484
523.894569	3293.186682
524.257174	3320.136691
524.619722	3361.426261
524.982213	3377.401678
525.344647	3420.944644
525.707025	3439.702778
526.069345	3481.062924
526.431608	3509.923530
526.793815	3547.810322
527.155964	3561.635686
527.518057	3593.029472
527.880093	3622.928555
528.242072	3661.614370
528.603995	3690.590922
528.965860	3717.941702
529.327669	3760.844442
529.689421	3789.740336
530.051117	3814.096671
530.412755	3879.460272
530.774337	3894.545924
531.135862	3935.953962
531.497331	3969.517964
531.858743	3993.251717
532.220098	4057.662539
532.581396	4074.857915
532.942638	4112.001137
533.303824	4148.592352
533.664953	4202.021021
534.026025	4223.831573
534.387040	4286.430101
534.747999	4328.732943
535.108902	4385.884505
535.469748	4377.685068
535.830537	4444.029173
536.191270	4484.123990
536.551947	4536.216753
536.912567	4580.808280
537.273131	4605.073874
537.633638	4641.642404
537.994089	4692.089230
538.354483	4724.153489
538.714821	4801.910767
539.075103	4852.607131
539.435328	4893.062390
539.795497	4888.663983
540.155609	4987.263912
540.515665	5053.726484
540.875665	5031.898288
541.235609	5102.381180
541.595496	5147.759127
541.955328	5252.930199
542.315102	5259.040077
542.674821	5293.461076
543.034483	5340.774825
543.394090	5396.202312
543.753640	5424.281538
544.113134	5557.587290
544.472571	5551.532864
544.831953	5661.566129
545.191278	5646.286392
545.550548	5700.199012
545.909761	5799.945803
546.268918	5848.194686
546.628019	5930.846924
546.987064	5935.532676
547.346053	5946.857628
547.704986	6052.726900
548.063863	6090.618733
548.422684	6128.205576
548.781449	6157.678682
549.140158	6249.641931
549.498811	6245.243525
549.857408	6227.133179
550.215949	6387.913220
550.574434	6371.688266
550.932864	6471.452701
551.291237	6539.266302
551.649555	6587.374033
552.007817	6630.773327
552.366022	6661.211814
552.724173	6714.970678
553.082267	6746.213229
553.440305	6884.797069
553.798288	6815.201420
554.156215	6960.840354
554.514086	6999.843762
554.871902	6961.722556
555.229661	7033.768206
555.587365	7064.254584
555.945014	7053.219498
556.302606	7185.214550
556.660143	7159.602968
557.017625	7312.889333
557.375050	7296.084647
557.732421	7419.003101
558.089735	7423.202382
558.446994	7465.371634
558.804197	7544.041360
559.161345	7590.477949
559.518437	7537.835700
559.875474	7659.781212
560.232455	7719.977630
560.589381	7728.834937
560.946251	7793.717108
561.303065	7880.054429
561.659825	7904.486381
562.016528	7901.267604
562.373177	7851.690377
562.729770	7996.646235
563.086307	7976.010272
563.442789	8070.206752
563.799216	8045.878143
564.155587	8118.541335
564.511904	8137.375086
564.868164	8166.533120
565.224370	8214.040953
565.580520	8213.972898
565.936615	8234.843275
566.292654	8196.376750
566.648638	8322.145977
567.004567	8338.214655
567.360441	8355.800720
567.716260	8332.397163
568.072023	8430.056916
568.427732	8440.908000
568.783385	8392.318839
569.138982	8493.900609
569.494525	8530.496866
569.850013	8475.790264
570.205445	8576.633506
570.560823	8518.680401
570.916145	8491.654775
571.271412	8577.561078
571.626625	8563.125734
571.981782	8578.513856
572.336884	8588.074404
572.691931	8611.762786
573.046923	8612.569371
573.401860	8599.288451
573.756743	8580.731964
574.111570	8651.996235
574.466342	8657.949838
574.821059	8704.698978
575.175722	8645.798136
575.530330	8682.427160
575.884882	8701.855767
576.239380	8669.063061
576.593823	8671.074482
576.948211	8707.532106
577.302544	8624.968089
577.656823	8671.016508
578.011047	8685.739198
578.365216	8693.888223
578.719330	8636.913103
579.073389	8681.305503
579.427394	8653.400196
579.781344	8649.188312
580.135239	8631.249366
580.489080	8651.850042
580.842866	8587.159435
581.196597	8607.132486
581.550273	8663.366557
581.903895	8649.556317
582.257463	8723.114313
582.610975	8636.252712
582.964434	8669.415942
583.317837	8616.534238
583.671186	8611.571222
584.024481	8622.485320
584.377721	8565.711846
584.730906	8560.620280
585.084037	8601.972865
585.437113	8557.174652
585.790135	8592.994570
586.143103	8508.099019
586.496016	8501.190118
586.848874	8568.855005
587.201679	8567.735869
587.554428	8475.616344
587.907124	8526.957976
588.259765	8506.833689
588.612352	8520.056636
588.964884	8411.361797
589.317362	8443.698279
589.669786	8441.671735
590.022155	8495.801124
590.374470	8522.607460
590.726731	8473.577198
591.078937	8344.480809
591.431090	8464.319118
591.783188	8355.145370
592.135232	8358.820371
592.487222	8364.015280
592.839157	8415.268692
593.191038	8361.880352
593.542866	8312.424112
593.894639	8228.672903
594.246358	8290.134650
594.598022	8309.533010
594.949633	8218.487251
595.301190	8198.897327
595.652692	8233.530054
596.004141	8349.940379
596.355535	8134.378120
596.706876	8120.126778
597.058162	8067.499652
597.409395	8140.369531
597.760573	8212.130356
598.111698	8123.834547
598.462768	8108.126311
598.813785	8088.753157
599.164748	8065.556287
599.515657	8053.056747
599.866511	7973.313254
600.217312	8098.502748
600.568060	7965.413766
600.918753	8070.902431
601.269392	8044.814460
601.619978	7966.023746
601.970510	8028.188735
602.320988	8029.461626
602.671412	8084.117816
603.021783	8025.973147
603.372100	7999.698654
603.722363	8009.072679
604.072572	7985.291036
604.422728	7994.944846
604.772830	7933.399919
605.122878	7942.809232
605.472872	7941.649767
605.822813	7969.202193
606.172701	7917.515243
606.522534	7987.799010
606.872314	7995.842171
607.222041	7964.362686
607.571714	8028.201337
607.921333	7979.886919
608.270899	7991.567272
608.620411	8082.413906
608.969870	7987.864545
609.319276	7980.358267
609.668627	8002.947677
610.017926	8036.272225
610.367171	8083.414575
610.716362	8060.409269
611.065500	8057.432468
611.414585	8081.516581
611.763616	8068.543171
612.112594	8051.584730
612.461518	8072.661794
612.810389	8125.649362
613.159207	8072.429901
613.507971	8021.801593
613.856682	8138.516907
614.205340	8094.558046
614.553945	8171.420518
614.902496	8074.426198
615.250994	8128.253118
615.599439	8111.337526
615.947830	8118.654761
616.296169	8097.187007
616.644454	8115.110830
616.992686	8110.987166
617.340864	8171.123090
617.688990	8070.950322
618.037063	8167.904313
618.385082	8111.208977
618.733048	8200.018984
619.080961	8139.252916
619.428821	8160.279568
619.776628	8161.456678
620.124382	8107.428111
620.472083	8096.889579
620.819731	8124.948642
621.167326	8022.633383
621.514868	8028.276955
621.862357	7919.277126
622.209793	7933.457892
622.557176	7875.126701
622.904506	7841.242585
623.251783	7783.307125
623.599007	7735.607727
623.946179	7738.259374
624.293297	7693.872014
624.640363	7617.304449
624.987376	7596.492046
625.334336	7547.655868
625.681243	7500.024526
626.028097	7480.003583
626.374899	7465.691747
626.721647	7458.127496
627.068343	7389.212402
627.414987	7360.223247
627.761577	7318.913512
628.108115	7354.209151
628.454600	7253.045796
628.801032	7295.404091
629.147412	7260.347907
629.493739	7249.085969
629.840014	7188.667741
630.186236	7244.501040
630.532405	7131.526262
630.878521	7181.017790
631.224585	7137.966336
631.570597	7062.603606
631.916556	7092.510252
632.262462	7085.263593
632.608316	7052.382667
632.954117	7030.017588
633.299866	7016.824888
633.645562	7008.436408
633.991206	6925.390960
634.336797	6876.204422
634.682336	6830.213976
635.027823	6797.035622
635.373257	6794.978831
635.718639	6722.895372
636.063968	6737.585294
636.409245	6632.376414
636.754470	6627.972966
637.099642	6588.145330
637.444762	6538.779831
637.789829	6542.573299
638.134845	6488.302757
638.479808	6473.937989
638.824719	6471.606456
639.169577	6403.339150
639.514383	6426.800680
639.859137	6352.204206
640.203839	6366.178285
640.548489	6350.505337
640.893086	6325.453323
641.237632	6297.936185
641.582125	6316.774977
641.926566	6285.529906
642.270955	6301.096989
642.615292	6292.577439
642.959576	6308.799872
643.303809	6296.670856
643.647990	6305.676877
643.992118	6298.851155
644.336195	6249.016828
644.680219	6269.904849
645.024192	6261.962511
645.368112	6354.013981
645.711981	6373.437546
646.055797	6455.855371
646.399562	6406.613380
646.743274	6539.480551
647.086935	6593.614982
647.430544	6585.589465
647.774101	6600.687721
648.117606	6613.129288
648.461059	6601.438853
648.804460	6561.893521
649.147810	6476.456046
649.491108	6439.708555
649.834354	6418.775163
650.177548	6335.137380
650.520690	6253.632005
650.863781	6235.226752
651.206820	6252.515389
651.549807	6169.885836
651.892742	6112.767043
652.235626	6118.584534
652.578458	6109.961641
652.921238	6018.391602
653.263967	6055.980965
653.606644	5995.489640
653.949269	5999.522563
654.291843	5936.324138
654.634365	5987.857333
654.976836	5944.090035
655.319255	5938.370846
655.661622	5920.613382
656.003938	5913.807824
656.346203	5877.650148
656.688416	5909.132154
657.030577	5864.585998
657.372687	5837.726730
657.714746	5820.062527
658.056753	5861.815884
658.398708	5803.588036
658.740612	5796.739629
659.082465	5841.227811
659.424266	5831.979815
659.766016	5832.269681
660.107715	5803.315814
660.449362	5818.293082
660.790958	5817.599923
661.132503	5798.267098
661.473996	5840.539694
661.815438	5827.473023
662.156829	5828.829093
662.498168	5821.741231
662.839456	5794.171161
663.180693	5831.586605
663.521879	5830.533003
663.863013	5815.515406
664.204097	5837.789744
664.545129	5878.605447
664.886110	5872.190578
665.227040	5900.501698
665.567918	5872.251072
665.908746	5898.759980
666.249522	5902.916411
666.590248	5892.831583
666.930922	5912.194655
667.271545	5933.806081
667.612118	5934.993273
667.952639	5906.392287
668.293109	5931.714002
668.633528	5886.930912
668.973896	5888.934771
669.314213	5878.189551
669.654480	5860.353949
669.994695	5854.670048
670.334859	5847.718297
670.674973	5840.333007
671.015035	5843.282082
671.355047	5839.339899
671.695008	5829.008054
672.034918	5802.458818
672.374777	5814.988606
672.714585	5798.370442
673.054342	5799.986132
673.394049	5797.178209
673.733705	5829.252550
674.073310	5813.773688
674.412864	5774.243480
674.752368	5763.069762
675.091820	5765.817191
675.431223	5702.109609
675.770574	5706.540783
676.109875	5657.984390
676.449125	5662.143342
676.788324	5630.437004
677.127473	5570.737140
677.466571	5560.987548
677.805619	5555.923709
678.144616	5541.022059
678.483562	5518.082288
678.822458	5489.388040
679.161303	5483.810004
679.500098	5477.450588
679.838842	5459.834276
680.177535	5460.126663
680.516179	5479.388912
680.854771	5489.947608
681.193314	5566.260595
681.531805	5675.663716
681.870247	5830.041491
682.208638	5926.418270
682.546978	5933.508653
682.885268	5918.450727
683.223508	5834.321431
683.561697	5775.798676
683.899836	5748.221043
684.237925	5708.363161
684.575963	5665.359598
684.913951	5629.668228
685.251889	5690.565367
685.589776	5656.222506
685.927614	5631.014217
686.265401	5696.803795
686.603137	5680.296537
686.940824	5764.635040
687.278460	5780.522237
687.616046	5797.432787
687.953582	5860.122056
688.291068	5839.866700
688.628504	5904.227111
688.965889	5869.599425
689.303224	5811.429551
689.640510	5763.019351
689.977745	5687.888514
690.314930	5588.595427
690.652065	5536.250607
690.989150	5442.044044
691.326185	5369.685842
691.663170	5316.743645
692.000105	5239.868569
692.336990	5165.393083
692.673825	5135.410820
693.010610	5064.295263
693.347345	5000.169265
693.684030	4989.499663
694.020665	4947.068271
694.357251	4860.095765
694.693786	4871.750912
695.030272	4834.184234
695.366707	4798.384480
695.703093	4763.698821
696.039429	4789.169251
696.375716	4772.964462
696.711952	4742.848608
697.048139	4735.796034
697.384276	4713.078074
697.720363	4726.464858
698.056400	4735.052464
698.392388	4688.341132
698.728326	4665.882792
699.064214	4643.437055
699.400053	4635.275427
699.735842	4603.551445
700.071581	4579.830296
700.407270	4557.702151
700.742910	4535.228687
701.078501	4480.648115
701.414042	4481.288341
701.749533	4453.193991
702.084974	4386.154206
702.420366	4444.813073
702.755709	4386.431470
703.091002	4331.051874
703.426246	4381.597003
703.761440	4332.733099
704.096584	4298.601967
704.431679	4319.177436
704.766725	4300.933501
705.101721	4293.394455
705.436668	4319.822704
705.771565	4267.341772
706.106413	4294.621976
706.441212	4326.345957
706.775961	4335.838450
707.110661	4317.498732
707.445311	4342.286086
707.779913	4367.620404
708.114465	4380.465264
708.448967	4401.307915
708.783421	4461.784117
709.117825	4503.257690
709.452180	4510.040562
709.786485	4554.412798
710.120742	4635.262824
710.454949	4621.500474
710.789107	4691.449004
711.123216	4759.847379
711.457275	4754.186163
711.791286	4828.270960
712.125247	4844.458105
712.459159	4743.660234
712.793023	4822.130835
713.126837	4781.879742
713.460602	4773.516468
713.794318	4693.213408
714.127985	4703.656158
714.461602	4617.273466
714.795171	4590.681380
715.128691	4522.673694
715.462162	4470.119665
715.795584	4417.875667
716.128957	4401.814551
716.462281	4353.822766
716.795556	4323.288497
717.128782	4286.087303
717.461960	4216.141293
717.795088	4229.281060
718.128167	4186.312786
718.461198	4130.058550
718.794180	4121.392806
719.127113	4103.438737
719.459997	4083.410233
719.792833	4041.487997
720.125619	4030.155483
720.458357	3992.969412
720.791046	4001.433509
721.123686	3974.985096
721.456278	3936.329528
721.788821	3948.466106
722.121315	3920.782610
722.453761	3898.203282
722.786158	3911.217020
723.118506	3931.752160
723.450805	3882.351373
723.783056	3905.616298
724.115259	3920.802774
724.447412	3928.326696
724.779518	3919.035850
725.111574	3923.575409
725.443582	3953.968525
725.775542	3938.537553
726.107453	3989.289370
726.439315	3989.546469
726.771129	4004.241432
727.102895	4041.934139
727.434612	4088.864761
727.766281	4098.959672
728.097901	4097.648972
728.429473	4106.231536
728.760996	4109.283955
729.092471	4106.498717
729.423897	4090.629165
729.755276	4096.043364
730.086606	4096.386163
730.417887	4133.610043
730.749120	4198.613201
731.080305	4262.487141
731.411442	4285.318527
731.742530	4257.103188
732.073570	4262.855145
732.404562	4316.714833
732.735506	4307.013132
733.066401	4272.052730
733.397249	4207.082339
733.728048	4128.026965
734.058798	4046.400602
734.389501	3977.147751
734.720156	3916.656425
735.050762	3874.005743
735.381320	3866.232284
735.711831	3814.832679
736.042293	3787.292856
736.372707	3809.531906
736.703073	3782.700365
737.033391	3771.829116
737.363661	3788.769914
737.693883	3813.325374
738.024056	3821.418947
738.354182	3820.030109
738.684260	3883.830952
739.014290	3897.847880
739.344272	3896.837129
739.674207	3936.717697
740.004093	3941.070733
740.333931	3937.753654
740.663722	3935.389353
740.993464	3935.724590
741.323159	3913.719953
741.652806	3882.487484
741.982405	3857.662322
742.311956	3822.603618
742.641460	3811.989468
742.970915	3789.967188
743.300323	3749.857247
743.629683	3718.705437
743.958996	3705.868139
744.288260	3681.012730
744.617477	3650.039881
744.946647	3632.771408
745.275768	3610.338273
745.604842	3608.830968
745.933869	3559.397414
746.262847	3551.749983
746.591778	3590.340016
746.920662	3562.835481
747.249498	3529.815923
747.578286	3573.943663
747.907027	3594.163731
748.235720	3590.171137
748.564365	3615.260960
748.892963	3618.116774
749.221514	3596.097014
749.550017	3579.030187
749.878473	3575.072882
750.206881	3544.014333
750.535242	3541.307233
750.863555	3543.535423
751.191821	3534.390770
751.520039	3520.174716
751.848210	3496.806448
752.176334	3530.592261
752.504411	3536.094680
752.832440	3495.367198
753.160421	3479.737101
753.488356	3488.191116
753.816243	3501.610667
754.144082	3457.808082
754.471875	3443.682768
754.799620	3465.463074
755.127318	3453.334058
755.454969	3454.866568
755.782572	3457.586271
756.110129	3436.683126
756.437638	3425.627876
756.765100	3443.319805
757.092515	3450.228707
757.419882	3456.439408
757.747203	3429.829678
758.074477	3432.622477
758.401703	3444.156637
758.728882	3466.907364
759.056014	3474.940443
759.383099	3478.544868
759.710138	3476.147799
760.037129	3490.643637
760.364073	3521.503060
760.690970	3506.326667
761.017820	3483.888491
761.344623	3502.689474
761.671379	3549.945250
761.998088	3597.904267
762.324751	3723.187023
762.651366	3971.867142
762.977935	4442.801652
763.304456	4874.412642
763.630931	4963.832628
763.957359	4606.999595
764.283740	4269.968213
764.610074	4082.119697
764.936362	3884.864388
765.262602	3729.654823
765.588796	3617.963019
765.914943	3532.311294
766.241044	3448.000517
766.567097	3418.161927
766.893104	3373.509907
767.219064	3334.733352
767.544978	3311.803663
767.870845	3257.661671
768.196665	3242.938981
768.522438	3252.108840
768.848165	3241.403950
769.173846	3208.759958
769.499479	3190.095086
769.825066	3178.873477
770.150607	3158.716424
770.476101	3173.368537
770.801548	3168.483659
771.126949	3123.249386
771.452303	3106.837910
771.777611	3113.507356
772.102872	3119.541617
772.428087	3095.255859
772.753256	3082.975608
773.078378	3076.873291
773.403453	3042.432128
773.728482	3031.502907
774.053465	3054.858572
774.378401	3038.694113
774.703291	3008.505163
775.028135	3008.754700
775.352932	3004.804956
775.677683	2993.318687
776.002388	2991.420692
776.327046	2991.057729
776.651658	2982.969198
776.976224	2972.667600
777.300743	2968.720377
777.625216	2961.113275
777.949643	2955.341154
778.274024	2959.916001
778.598359	2948.321348
778.922647	2951.235134
779.246889	2951.875361
779.571086	2937.099739
779.895236	2929.739654
780.219339	2941.548557
780.543397	2954.849642
780.867409	2956.679581
781.191374	2948.717078
781.515294	2946.824125
781.839167	2947.582818
782.162995	2939.595110
782.486776	2946.148610
782.810511	2942.866819
783.134201	2932.668565
783.457844	2936.290634
783.781441	2928.612957
784.104993	2910.641243
784.428498	2910.686613
784.751958	2922.797986
785.075372	2919.644744
785.398739	2905.859709
785.722061	2918.044178
786.045337	2929.472473
786.368568	2916.539393
786.691752	2906.986407
787.014891	2954.191771
787.337983	2984.552120
787.661030	3011.071110
787.984031	3078.899835
788.306987	3119.113119
788.629897	3116.159003
788.952760	3097.307608
789.275579	3084.835794
789.598351	3023.764735
789.921078	2979.203456
790.243759	2973.877477
790.566395	2954.859724
790.888984	2929.653955
791.211529	2914.328847
791.534027	2904.279307
791.856480	2896.851167
792.178888	2882.960267
792.501249	2872.194883
792.823566	2873.109853
793.145836	2869.079450
793.468062	2863.871938
793.790241	2862.818337
794.112375	2868.010726
794.434464	2881.349619
794.756507	2880.742160
795.078505	2890.794220
795.400457	2902.184708
795.722364	2940.343722
796.044226	2964.422793
796.366042	2968.611992
796.687812	2953.591874
797.009538	2977.189515
797.331218	2963.333904
797.652852	2948.835545
797.974442	2933.195365
798.295986	2927.385436
798.617484	2924.259920
798.938938	2908.418094
799.260346	2894.335631
799.581709	2888.624004
799.903026	2879.701161
800.224299	2875.779144
800.545526	2864.993595
800.866708	2847.916686
801.187845	2840.483505
801.508936	2843.301510
801.829983	2849.121522
802.150984	2835.651559
802.471940	2825.138233
802.792851	2822.889878
803.113717	2822.237049
803.434538	2828.036896
803.755314	2820.767552
804.076045	2815.960812
804.396731	2813.120122
804.717372	2815.108857
805.037967	2809.273722
805.358518	2816.991728
805.679024	2828.253666
805.999485	2823.247800
806.319901	2827.265600
806.640272	2821.367450
806.960598	2826.113696
807.280879	2833.446054
807.601115	2839.538289
807.921306	2826.353151
808.241453	2823.890547
808.561554	2830.305415
808.881611	2832.740293
809.201623	2826.537153
809.521590	2824.392142
809.841513	2821.112871
810.161390	2825.702842
810.481223	2819.885350
810.801011	2811.456541
811.120755	2804.817342
811.440453	2808.759524
811.760107	2811.554844
812.079716	2808.313382
812.399281	2798.873821
812.718801	2790.785290
813.038276	2786.205402
813.357707	2792.889972
813.677093	2800.038328
813.996434	2793.996505
814.315731	2791.412913
814.634983	2784.166255
814.954191	2785.058539
815.273354	2800.983544
815.592473	2808.419246
815.911547	2812.358908
816.230577	2818.488951
816.549562	2829.105621
816.868502	2824.722337
817.187399	2835.913699
817.506250	2850.328878
817.825058	2845.945595
818.143821	2858.283819
818.462539	2875.630430
818.781213	2896.694891
819.099843	2934.377516
819.418429	2992.353306
819.736970	3049.585525
820.055466	3121.399283
820.373919	3225.980540
820.692327	3363.919112
821.010691	3526.854245
821.329011	3962.357005
821.647286	4845.705791
821.965517	6200.462955
822.283704	6909.866727
822.601847	6884.537450
822.919945	6263.172388
823.237999	5776.398573
823.556010	5208.426893
823.873976	4667.274151
824.191897	4268.029889
824.509775	3983.671004
824.827609	3713.560940
825.145398	3596.245728
825.463144	3584.709047
825.780845	3678.741690
826.098502	3778.579221
826.416116	4057.352508
826.733685	4366.448336
827.051210	4421.575874
827.368692	4310.448678
827.686129	4051.381262
828.003522	3732.601378
828.320872	3479.868171
828.638177	3292.317083
828.955439	3155.447236
829.272656	3075.055955
829.589830	3006.914679
829.906960	2961.055302
830.224046	2917.436718
830.541088	2883.955895
830.858086	2868.255222
831.175041	2850.545648
831.491952	2854.157635
831.808819	2862.813296
832.125642	2889.675084
832.442421	2931.047834
832.759157	3011.802077
833.075849	3187.713141
833.392497	3464.926191
833.709101	3663.403979
834.025662	3608.541102
834.342179	3453.124850
834.658653	3280.142697
834.975083	3135.592651
835.291469	3038.913403
835.607811	2958.580096
835.924110	2900.077505
836.240366	2850.840556
836.556578	2811.499391
836.872746	2787.828653
837.188871	2766.466764
837.504952	2751.189547
837.820990	2742.475912
838.136984	2727.370095
838.452935	2720.982953
838.768842	2717.829711
839.084706	2738.682444
839.400526	2814.710606
839.716303	2943.461675
840.032037	3023.910929
840.347727	3007.622961
840.663373	2947.711368
840.978977	2873.697147
841.294537	2803.718370
841.610054	2757.392687
841.925527	2737.757392
842.240957	2715.735112
842.556344	2691.787111
842.871687	2676.043587
843.186987	2669.232988
843.502244	2665.580672
843.817458	2662.276196
844.132629	2648.909577
844.447756	2636.798204
844.762840	2632.830816
845.077881	2637.025056
845.392879	2635.061527
845.707833	2629.349900
846.022745	2623.602984
846.337613	2626.877214
846.652438	2625.579117
846.967221	2625.316977
847.281960	2624.316307
847.596656	2622.448560
847.911309	2619.728857
848.225919	2618.249279
848.540485	2614.407920
848.855009	2616.157200
849.169490	2614.140738
849.483928	2614.896912
849.798323	2614.387755
850.112675	2613.568567
850.426984	2611.345419
850.741251	2611.786520
851.055474	2610.715274
851.369654	2616.996552
851.683792	2614.700307
851.997887	2611.315172
852.311938	2613.513115
852.625947	2616.038733
852.939914	2618.070318
853.253837	2618.050153
853.567718	2614.110492
853.881555	2613.838269
854.195350	2616.061418
854.509103	2613.974380
854.822812	2612.988835
855.136479	2609.772579
855.450103	2614.165944
855.763685	2614.586881
856.077224	2614.130656
856.390720	2611.352980
856.704173	2615.310286
857.017584	2617.127622
857.330953	2619.073507
857.644278	2621.631893
857.957561	2621.768004
858.270802	2615.219545
858.584000	2615.940430
858.897155	2621.389918
859.210268	2622.630042
859.523339	2616.951182
859.836367	2611.579832
860.149352	2610.561519
860.462295	2613.911366
860.775195	2608.396344
861.088054	2606.541199
861.400869	2605.540530
861.713642	2606.783174
862.026373	2607.367948
862.339062	2611.479009
862.651708	2614.912035
862.964312	2616.754577
863.276873	2614.599483
863.589392	2614.496140
863.901869	2622.990484
864.214303	2625.102727
864.526696	2629.148253
864.839045	2630.380816
865.151353	2633.466002
865.463619	2632.591362
865.775842	2630.393418
866.088023	2632.193110
866.400162	2633.254273
866.712258	2631.774695
867.024313	2630.680764
867.336325	2630.685805
867.648296	2630.128758
867.960224	2634.998512
868.272110	2633.551701
868.583954	2625.342182
868.895755	2628.997019
869.207515	2634.738893
869.519233	2642.414050
869.830909	2634.784263
870.142542	2630.438789
870.454134	2631.162194
870.765684	2637.940026
871.077191	2638.688637
871.388657	2643.160141
871.700081	2639.916158
872.011463	2640.495891
872.322803	2644.619555
872.634101	2645.156437
872.945357	2652.617345
873.256571	2657.149342
873.567744	2654.570792
873.878874	2652.302273
874.189963	2654.659012
874.501010	2658.142450
874.812015	2664.695950
875.122979	2666.914057
875.433900	2656.705721
875.744780	2655.274033
876.055618	2660.688232
876.366415	2664.665703
876.677169	2665.363903
876.987882	2657.514826
877.298554	2657.136740
877.609183	2669.779953
877.919771	2674.425377
878.230317	2680.013496
878.540822	2694.970599
878.851285	2704.702547
879.161707	2728.693398
879.472087	2765.075405
879.782425	2809.351859
880.092722	2919.864034
880.402977	3101.859770
880.713191	3354.356043
881.023363	3632.080770
881.333494	3815.561126
881.643583	3982.357783
881.953631	3982.118328
882.263637	3808.732883
882.573602	3593.394955
882.883526	3468.681850
883.193408	3362.716797
883.503248	3263.932866
883.813048	3152.760301
884.122806	3043.563867
884.432522	2962.555045
884.742197	2898.121538
885.051831	2865.069212
885.361424	2828.828357
885.670975	2795.082873
885.980485	2765.786208
886.289954	2747.103692
886.599382	2737.281003
886.908768	2725.615773
887.218113	2709.055583
887.527417	2691.703932
887.836680	2687.502130
888.145901	2678.294462
888.455082	2673.011333
888.764221	2663.201248
889.073319	2656.393169
889.382376	2655.107675
889.691392	2654.711945
890.000366	2653.870072
890.309300	2653.161790
890.618193	2655.853766
890.927044	2663.077739
891.235855	2658.449960
891.544625	2657.484579
891.853353	2656.816626
892.162041	2663.740651
892.470687	2684.991635
892.779293	2695.043696
893.087858	2704.591641
893.396381	2725.071329
893.704864	2764.465426
894.013306	2833.136023
894.321707	2922.372008
894.630068	2968.097794
894.938387	2986.949189
895.246665	2980.930051
895.554903	2937.523196
895.863100	2899.664131
896.171256	2842.356294
896.479371	2782.893363
896.787446	2746.791140
897.095480	2730.233470
897.403473	2724.368088
897.711425	2710.923331
898.019336	2689.011955
898.327207	2675.826817
898.635038	2678.289421
898.942827	2676.033505
899.250576	2665.507576
899.558284	2656.521719
899.865952	2651.256234
900.173579	2648.060142
900.481165	2648.203815
900.788711	2639.159985
901.096216	2630.685805
901.403681	2628.860908
901.711105	2632.367030
902.018489	2626.451236
902.325832	2628.689508
902.633135	2633.566825
902.940397	2648.478558
903.247619	2681.442663
903.554800	2748.633682
903.861941	2870.828731
904.169041	2988.438850
904.476101	3045.366080
904.783121	3041.136552
905.090100	2985.240238
905.397039	2916.007551
905.703938	2845.239834
906.010796	2787.405196
906.317614	2739.110942
906.624391	2704.241281
906.931129	2677.160203
907.237826	2654.293529
907.544483	2640.463123
907.851099	2625.178345
908.157675	2616.726850
908.464211	2608.376179
908.770707	2598.634149
909.077163	2593.502255
909.383578	2592.609970
909.689954	2592.022676
909.996289	2588.181317
910.302584	2590.646441
910.608839	2584.574371
910.915054	2587.064701
911.221229	2590.215422
911.527363	2591.614342
911.833458	2588.382963
912.139513	2590.858169
912.445527	2589.139136
912.751502	2599.833944
913.057436	2604.459202
913.363331	2607.977928
913.669186	2617.906480
913.975000	2629.808645
914.280775	2646.764566
914.586510	2665.038748
914.892205	2697.531505
915.197859	2762.567431
915.503475	2838.635922
915.809050	2904.485994
916.114585	2918.180289
916.420081	2928.912905
916.725536	2935.174018
917.030952	2913.920514
917.336328	2868.746734
917.641665	2822.720999
917.946961	2776.049997
918.252218	2744.532703
918.557435	2719.846173
918.862612	2697.967565
919.167750	2683.517098
919.472848	2665.462205
919.777906	2651.263795
920.082925	2639.538072
920.387904	2629.667492
920.692843	2626.791514
920.997743	2621.092490
921.302603	2617.611573
921.607423	2608.973556
921.912204	2603.350149
922.216946	2601.174891
922.521647	2602.450303
922.826310	2595.198603
923.130932	2592.720876
923.435516	2585.449011
923.740059	2585.915318
924.044564	2583.576223
924.349028	2580.203691
924.653454	2573.473750
924.957840	2573.897207
925.262186	2568.709860
925.566493	2573.488874
925.870761	2564.760116
926.174989	2567.832699
926.479178	2565.375137
926.783328	2562.473953
927.087438	2564.296330
927.391509	2563.837585
927.695541	2561.359858
927.999533	2562.854560
928.303486	2560.898592
928.607400	2558.166287
928.911275	2558.720814
929.215110	2556.258210
929.518906	2557.069836
929.822663	2558.335165
930.126381	2558.181410
930.430060	2558.811554
930.733699	2557.649568
931.037299	2559.119065
931.340861	2560.684343
931.644383	2558.355330
931.947866	2560.200392
932.251309	2558.783828
932.554714	2559.678633
932.858080	2559.464384
933.161407	2554.929866
933.464694	2558.342727
933.767943	2553.422561
934.071153	2556.762325
934.374323	2554.443395
934.677455	2557.765515
934.980548	2553.848538
935.283602	2555.096224
935.586617	2553.238559
935.889593	2556.376677
936.192530	2555.297870
936.495428	2556.013714
936.798287	2555.786862
937.101108	2555.403734
937.403890	2558.446071
937.706632	2561.374981
938.009336	2567.018553
938.312002	2570.862433
938.614628	2571.469892
938.917216	2573.453586
939.219765	2576.712692
939.522275	2575.344018
939.824747	2575.704461
940.127179	2572.369738
940.429573	2567.815055
940.731929	2569.312278
941.034246	2567.225240
941.336524	2566.998388
941.638763	2564.742472
941.940964	2567.754561
942.243126	2565.866649
942.545250	2565.294478
942.847335	2563.472101
943.149381	2563.958573
943.451389	2562.594940
943.753359	2561.319528
944.055290	2561.493448
944.357182	2560.389436
944.659036	2559.575289
944.960851	2558.052861
945.262628	2555.071018
945.564367	2556.694270
945.866067	2556.971533
946.167729	2558.196534
946.469352	2555.842315
946.770937	2558.846842
947.072484	2556.522871
947.373992	2559.918088
947.675462	2556.049002
947.976893	2556.918601
948.278286	2554.496327
948.579641	2556.147305
948.880958	2552.595812
949.182236	2555.338199
949.483476	2557.112686
949.784678	2556.502706
950.085841	2556.709393
950.386967	2555.118909
950.688054	2552.472303
950.989103	2556.411965
951.290114	2556.510268
951.591087	2560.278530
951.892021	2556.313663
952.192917	2559.653427
952.493776	2560.021431
952.794596	2564.223233
953.095378	2563.320867
953.396122	2564.082081
953.696828	2562.589899
953.997496	2559.829867
954.298126	2558.955227
954.598718	2557.122768
954.899272	2558.191492
955.199788	2555.519681
955.500266	2556.487583
955.800706	2550.818805
956.101108	2545.734801
956.401472	2547.607590
956.701798	2544.713968
957.002087	2544.187167
957.302337	2547.907539
957.602550	2550.007179
957.902724	2544.930737
958.202861	2545.694472
958.502960	2542.054759
958.803022	2545.689431
959.103045	2543.640202
959.403031	2542.127856
959.702979	2545.392003
960.002889	2542.563916
960.302762	2541.346477
960.602596	2545.951571
960.902393	2542.848741
961.202153	2542.962167
961.501875	2544.603062
961.801559	2544.600542
962.101205	2543.347815
962.400814	2542.694986
962.700385	2541.336395
962.999918	2542.165664
963.299414	2542.253885
963.598873	2542.813453
963.898293	2542.130376
964.197677	2541.835469
964.497022	2542.125335
964.796331	2539.163657
965.095601	2543.173895
965.394835	2543.768751
965.694030	2542.029553
965.993189	2541.767413
966.292309	2540.318082
966.591393	2542.710109
966.890439	2541.497712
967.189447	2540.676003
967.488419	2542.044677
967.787353	2540.552495
968.086249	2539.478729
968.385108	2543.894780
968.683930	2543.062990
968.982714	2543.183977
969.281462	2541.424615
969.580172	2540.219779
969.878844	2542.311858
970.177480	2540.388658
970.476078	2540.585263
970.774639	2543.262115
971.073162	2541.192722
971.371649	2538.374717
971.670098	2540.618030
971.968510	2540.928061
972.266885	2537.951260
972.565223	2541.976621
972.863524	2540.607948
973.161788	2542.510983
973.460014	2542.473175
973.758204	2543.665408
974.056356	2543.095757
974.354471	2542.599204
974.652550	2544.187167
974.950591	2543.534338
975.248595	2541.860675
975.546563	2541.543082
975.844493	2541.427135
976.142386	2542.642053
976.440243	2541.573329
976.738062	2542.261446
977.035845	2543.441076
977.333590	2540.824718
977.631299	2540.123997
977.928971	2542.054759
978.226606	2539.705581
978.524204	2540.618030
978.821765	2540.333205
979.119290	2540.265149
979.416777	2540.996117
979.714228	2541.873277
980.011642	2540.996117
980.309020	2543.320089
980.606360	2540.938143
980.903664	2540.630633
981.200931	2540.174409
981.498162	2542.274049
981.795356	2542.573998
982.092513	2545.190357
982.389633	2548.993907
982.686717	2550.259237
982.983764	2553.475493
983.280775	2553.775442
983.577749	2553.835936
983.874686	2554.531615
984.171587	2551.605225
984.468451	2548.540203
984.765279	2546.589277
985.062070	2548.358722
985.358824	2542.745397
985.655543	2542.848741
985.952224	2541.497712
986.248869	2541.999306
986.545478	2536.789274
986.842050	2536.461599
987.138586	2536.252391
987.435086	2535.410518
987.731549	2533.603265
988.027975	2539.990407
988.324366	2537.679037
988.620719	2536.970755
988.917037	2540.247505
989.213318	2537.951260
989.509563	2535.531506
989.805772	2538.944367
990.101944	2538.944367
990.398080	2537.033770
990.694180	2536.685930
990.990244	2538.510828
991.286271	2538.445293
991.582262	2537.530323
991.878217	2537.356404
992.174136	2538.967052
992.470019	2538.049562
992.765865	2538.039480
993.061676	2536.864891
993.357450	2536.753986
993.653188	2538.296579
993.948890	2538.893956
994.244556	2540.252547
994.540186	2537.482432
994.835780	2538.770447
995.131337	2540.161806
995.426859	2541.028884
995.722345	2540.081147
996.017795	2540.895294
996.313208	2541.525438
996.608586	2541.729605
996.903928	2544.824873
997.199234	2545.535676
997.494504	2542.430325
997.789738	2538.175591
998.084936	2543.239430
998.380099	2540.751621
998.675225	2537.225334
998.970316	2538.614172
999.265371	2539.579553
999.560390	2539.244316
999.855373	2538.775488
1000.150320	2536.885056
1000.445232	2538.949408
1000.740108	2535.377751
1001.034948	2537.452186
1001.329752	2537.593338
1001.624521	2537.600900
1001.919254	2535.390354
1002.213951	2534.409849
1002.508613	2535.919675
1002.803239	2534.094777
1003.097829	2532.469005
1003.392384	2535.375230
1003.686903	2535.405477
1003.981386	2535.791125
1004.275834	2537.036290
1004.570246	2536.257432
1004.864623	2538.841023
1005.158964	2537.033770
1005.453270	2537.462268
1005.747540	2537.583256
1006.041775	2536.585107
1006.335974	2537.192566
1006.630138	2536.116280
1006.924266	2536.136444
1007.218359	2535.534027
1007.512416	2534.301464
1007.806438	2537.066537
1008.100425	2536.345652
1008.394376	2536.456558
1008.688292	2535.637370
1008.982172	2536.600231
1009.276017	2537.495035
1009.569827	2536.411187
1009.863602	2539.118287
1010.157341	2532.826927
1010.451045	2535.478574
1010.744714	2537.638708
1011.038347	2533.386495
1011.331945	2535.821372
1011.625508	2536.993441
1011.919036	2535.312216
1012.212528	2536.297761
1012.505986	2536.975797
1012.799408	2536.635519
1013.092795	2535.397915
1013.386147	2537.116949
1013.679464	2533.799870
1013.972745	2535.211393
1014.265992	2534.089736
1014.559204	2534.021680
1014.852380	2533.520086
1015.145521	2537.094264
1015.438628	2532.219468
1015.731699	2537.842875
1016.024736	2537.739531
1016.317737	2533.661238
1016.610703	2537.182484
1016.903635	2534.339273
1017.196531	2532.421114
1017.489393	2530.321473
1017.782219	2529.978675
1018.075011	2532.847092
1018.367768	2536.078471
1018.660490	2535.123173
1018.953177	2535.123173
1019.245829	2535.123173
