Dividing Wavelength (nm)	Counts (n)	Blue Motor Position (mm): 2.000000	Red Motor Position (mm): 0.000000	
326.493990	2163.126348
326.888308	2163.126348
327.282561	2163.126348
327.676750	2122.860132
328.070874	2117.677825
328.464933	2118.287805
328.858929	2122.030862
329.252859	2126.388939
329.646726	2136.007461
330.040528	2148.302835
330.434265	2162.544095
330.827938	2180.740139
331.221547	2196.844105
331.615091	2215.894626
332.008571	2232.608571
332.401986	2251.825450
332.795338	2268.768768
333.188625	2288.378856
333.581847	2308.298976
333.975006	2324.680205
334.368100	2343.156034
334.761129	2360.583303
335.154095	2377.869419
335.546996	2394.575803
335.939833	2409.963925
336.332606	2425.689805
336.725315	2436.220775
337.117960	2452.516305
337.510540	2463.528706
337.903056	2473.089254
338.295508	2484.300780
338.687896	2492.520381
339.080220	2498.657986
339.472480	2506.000427
339.864676	2512.511077
340.256807	2519.039371
340.648875	2522.119516
341.040879	2522.318642
341.432818	2529.633356
341.824694	2529.822399
342.216506	2530.429858
342.608253	2530.986906
342.999937	2531.818696
343.391557	2531.029756
343.783113	2529.051103
344.174605	2530.109745
344.566033	2528.463808
344.957397	2527.700073
345.348697	2529.156967
345.739934	2523.899043
346.131106	2524.443488
346.522215	2520.907119
346.913260	2522.104393
347.304241	2516.468383
347.695159	2514.860255
348.086012	2518.552900
348.476802	2510.592918
348.867528	2510.040912
349.258191	2503.842813
349.648789	2508.919255
350.039324	2500.747544
350.429796	2505.024963
350.820203	2503.265601
351.210548	2503.837772
351.600828	2500.639160
351.991045	2499.666217
352.381198	2501.491115
352.771288	2498.617657
353.161314	2496.092039
353.551276	2498.461381
353.941175	2496.500372
354.331010	2495.479539
354.720782	2494.110865
355.110490	2497.995074
355.500135	2497.851402
355.889717	2499.716628
356.279235	2495.635814
356.668689	2495.560197
357.058080	2496.916267
357.447408	2496.949035
357.836672	2496.560866
358.225873	2498.587410
358.615010	2496.805362
359.004084	2496.245794
359.393095	2498.887359
359.782043	2498.809221
360.170927	2499.192348
360.559748	2498.547081
360.948505	2499.220075
361.337199	2499.464571
361.725830	2500.815600
362.114398	2500.271155
362.502903	2501.914572
362.891344	2503.681496
363.279722	2502.882473
363.668037	2503.792401
364.056289	2502.133862
364.444478	2503.310971
364.832603	2507.485047
365.220665	2506.101250
365.608665	2506.227279
365.996601	2504.488081
366.384474	2507.563184
366.772284	2509.846827
367.160031	2506.610406
367.547715	2509.670387
367.935336	2508.263905
368.322893	2507.064110
368.710388	2506.328102
369.097820	2510.426560
369.485189	2502.088491
369.872495	2511.497805
370.259738	2509.556961
370.646918	2511.051663
371.034035	2512.158196
371.421090	2510.078720
371.808081	2512.944616
372.195010	2510.824811
372.581875	2513.549555
372.968678	2511.462517
373.355418	2513.088289
373.742096	2511.578463
374.128710	2514.353619
374.515262	2514.434277
374.901751	2512.465707
375.288177	2512.178361
375.674540	2514.502333
376.060841	2515.122395
376.447079	2514.663650
376.833254	2515.676922
377.219367	2512.410254
377.605417	2513.897394
377.991404	2513.700789
378.377329	2513.673063
378.763191	2515.497961
379.148991	2513.297497
379.534727	2517.542148
379.920402	2514.489730
380.306013	2515.860924
380.691563	2516.445697
381.077049	2513.657939
381.462474	2518.378980
381.847835	2518.570544
382.233134	2517.884947
382.618371	2517.282529
383.003545	2517.622807
383.388657	2518.283198
383.773706	2517.504340
384.158693	2513.773886
384.543618	2517.622807
384.928480	2518.842766
385.313280	2518.948630
385.698017	2517.431243
386.082692	2519.029289
386.467305	2521.897705
386.851856	2518.799916
387.236344	2519.803106
387.620770	2517.708507
388.005133	2517.650533
388.389435	2517.038033
388.773674	2517.267406
389.157851	2518.910822
389.541965	2522.542973
389.926018	2520.760925
390.310008	2519.404855
390.693936	2522.858045
391.077802	2522.555576
391.461606	2522.169928
391.845348	2524.070443
392.229027	2523.732685
392.612645	2522.555576
392.996200	2522.185051
393.379694	2523.326872
393.763125	2523.720082
394.146494	2522.890813
394.529801	2523.904085
394.913047	2524.811492
395.296230	2524.693025
395.679351	2523.331914
396.062410	2527.105217
396.445408	2523.440298
396.828343	2526.225536
397.211217	2526.064219
397.594028	2523.687315
397.976778	2526.943900
398.359466	2525.219826
398.742092	2528.894827
399.124656	2524.622449
399.507158	2526.611184
399.889598	2526.820392
400.271977	2527.344672
400.654294	2526.291071
401.036549	2525.892820
401.418742	2525.487007
401.800874	2524.884589
402.182944	2526.903571
402.564952	2527.160670
402.946898	2528.720907
403.328783	2528.110927
403.710606	2532.093439
404.092367	2526.250742
404.474067	2527.009435
404.855705	2527.243849
405.237282	2528.426000
405.618797	2528.166380
406.000250	2526.157480
406.381642	2528.151257
406.762972	2527.753006
407.144240	2524.267048
407.525447	2527.112779
407.906593	2523.359640
408.287677	2527.581606
408.668700	2531.727955
409.049661	2529.935825
409.430560	2528.788963
409.811399	2531.735517
410.192176	2528.854498
410.572891	2531.110414
410.953545	2531.985054
411.334138	2528.279806
411.714669	2532.088398
412.095139	2529.663603
412.475547	2532.348017
412.855894	2531.594365
413.236180	2531.334745
413.616405	2533.762061
413.996568	2532.264838
414.376670	2529.996319
414.756711	2532.118645
415.136691	2534.540919
415.516609	2531.637215
415.896466	2532.040507
416.276262	2533.207534
416.655997	2534.029242
417.035670	2527.747964
417.415283	2532.859694
417.794834	2532.264838
418.174324	2532.562266
418.553753	2531.675023
418.933121	2536.050745
419.312428	2533.091587
419.691674	2534.248532
420.070859	2533.426824
420.449983	2537.114428
420.829045	2534.919006
421.208047	2533.603265
421.586988	2533.958666
421.965867	2537.391692
422.344686	2535.024870
422.723444	2535.264325
423.102141	2537.061496
423.480777	2534.845909
423.859352	2535.022349
424.237866	2537.502597
424.616319	2536.438914
424.994712	2537.986548
425.373044	2536.317926
425.751314	2532.892462
426.129524	2533.396577
426.507673	2532.479087
426.885762	2530.603778
427.263789	2538.462937
427.641756	2534.626619
428.019662	2534.427493
428.397508	2533.252904
428.775292	2537.903369
429.153016	2535.599562
429.530679	2538.432690
429.908282	2538.276414
430.285824	2539.755993
430.663305	2538.886394
431.040726	2538.049562
431.418086	2538.969573
431.795385	2535.632329
432.172624	2536.779192
432.549802	2537.915972
432.926920	2539.854295
433.303977	2536.391023
433.680974	2536.733821
434.057910	2539.700540
434.434786	2533.827596
434.811601	2535.949922
435.188355	2539.934954
435.565050	2538.180632
435.941683	2537.454706
436.318257	2538.404964
436.694770	2538.183153
437.071222	2537.520241
437.447614	2539.382948
437.823946	2542.034594
438.200218	2537.489994
438.576429	2539.342618
438.952580	2537.772299
439.328670	2538.906558
439.704700	2542.314378
440.080670	2539.791281
440.456580	2538.941847
440.832429	2539.924872
441.208218	2537.890766
441.583947	2542.727753
441.959616	2540.255067
442.335224	2542.301776
442.710773	2538.813297
443.086261	2541.243133
443.461689	2539.912269
443.837057	2543.299924
444.212365	2539.503935
444.587612	2538.546116
444.962800	2535.823893
445.337927	2538.639377
445.712995	2537.555529
446.088002	2541.638864
446.462949	2542.979811
446.837837	2542.102650
447.212664	2543.430994
447.587431	2542.052238
447.962139	2540.073586
448.336786	2544.141797
448.711374	2543.161292
449.085901	2543.221786
449.460369	2541.038967
449.834776	2539.934954
450.209124	2540.713812
450.583412	2541.301107
450.957640	2542.755479
451.331808	2542.858823
451.705917	2542.541230
452.079965	2541.563247
452.453954	2541.880839
452.827883	2543.685572
453.201752	2542.556354
453.575562	2544.469472
453.949311	2543.783875
454.323001	2541.076775
454.696632	2543.584749
455.070202	2542.379913
455.443713	2543.814122
455.817164	2541.961498
456.190556	2542.362269
456.563888	2547.552137
456.937160	2540.928061
457.310373	2544.126673
457.683526	2542.694986
458.056619	2544.068700
458.429653	2542.009389
458.802628	2547.058104
459.175542	2542.064841
459.548398	2544.257743
459.921194	2545.127342
460.293930	2544.620706
460.666607	2542.934440
461.039224	2545.490305
461.411782	2544.224976
461.784280	2544.424101
462.156719	2545.185316
462.529099	2547.463917
462.901419	2544.010727
463.273680	2544.051056
463.645882	2541.875798
464.018024	2542.999975
464.390106	2538.530992
464.762130	2546.622044
465.134094	2545.979297
465.505999	2545.959133
465.877845	2545.452497
466.249631	2545.550799
466.621358	2544.103988
466.993026	2546.586756
467.364634	2548.915769
467.736184	2547.234545
468.107674	2546.120450
468.479105	2545.969215
468.850477	2546.652291
469.221790	2544.109029
469.593043	2545.790254
469.964238	2547.675646
470.335373	2543.531817
470.706449	2545.664225
471.077467	2546.881664
471.448425	2545.752445
471.819324	2545.220604
472.190164	2545.250851
472.560945	2548.913249
472.931667	2544.126673
473.302330	2545.944009
473.672934	2547.589946
474.043479	2545.228165
474.413965	2546.130532
474.784393	2545.197918
475.154761	2545.863351
475.525070	2546.117929
475.895321	2546.508618
476.265513	2547.534493
476.635645	2547.146324
477.005719	2547.524411
477.375734	2548.625903
477.745691	2547.055584
478.115588	2549.220759
478.485427	2548.411654
478.855207	2549.382076
479.224928	2547.610111
479.594591	2547.680687
479.964194	2546.443083
480.333739	2550.589432
480.703226	2546.312013
481.072653	2549.709751
481.442022	2547.549617
481.811333	2546.707744
482.180584	2543.173895
482.549777	2547.017775
482.918912	2544.046015
483.287988	2546.579195
483.657005	2548.013403
484.025964	2548.454504
484.394864	2548.608259
484.763706	2549.971891
485.132489	2547.277394
485.501213	2547.842004
485.869879	2548.514998
486.238487	2550.407951
486.607036	2548.557847
486.975527	2550.765873
487.343959	2548.633465
487.712333	2550.607077
488.080648	2549.760163
488.448905	2552.694114
488.817104	2550.720503
489.185244	2551.464073
489.553326	2548.862837
489.921350	2551.416182
490.289315	2548.734288
490.657222	2547.746222
491.025070	2549.714792
491.392861	2549.974412
491.760593	2549.823177
492.128267	2549.228321
492.495883	2548.996428
492.863440	2549.187992
493.230939	2548.875440
493.598380	2549.951727
493.965763	2547.254709
494.333088	2551.453990
494.700354	2550.334854
495.067563	2548.250337
495.434713	2548.827549
495.801805	2549.132539
496.168839	2551.239741
496.535815	2547.912580
496.902733	2549.268650
497.269593	2551.156562
497.636395	2548.938455
498.003139	2548.429298
498.369825	2548.467107
498.736453	2549.016593
499.103023	2550.312169
499.469535	2551.191850
499.835989	2547.824360
500.202385	2548.336037
500.568723	2544.663556
500.935003	2546.140614
501.301226	2549.477858
501.667390	2552.374001
502.033497	2552.999104
502.399546	2551.254865
502.765537	2550.728064
503.131470	2550.377704
503.497345	2553.299053
503.863163	2550.387786
504.228923	2550.178578
504.594625	2552.434495
504.960269	2551.307797
505.325856	2549.687066
505.691385	2551.688404
506.056856	2550.972560
506.422270	2549.495502
506.787625	2551.012889
507.152924	2550.886861
507.518164	2551.335523
507.883347	2552.076573
508.248472	2551.988353
508.613540	2549.639175
508.978550	2552.159752
509.343503	2553.906512
509.708398	2553.357026
510.073236	2551.411141
510.438016	2549.893753
510.802738	2549.586243
511.167403	2548.328475
511.532010	2552.636141
511.896561	2552.182437
512.261053	2548.885522
512.625488	2551.985832
512.989866	2549.465255
513.354186	2549.500543
513.718449	2550.551624
514.082655	2552.565565
514.446803	2550.128167
514.810894	2552.129505
515.174927	2550.919628
515.538904	2554.035061
515.902822	2553.369629
516.266684	2553.719989
516.630488	2551.562375
516.994235	2553.866182
517.357925	2552.338713
517.721558	2551.975750
518.085133	2552.444577
518.448651	2546.574153
518.812112	2550.007179
519.175516	2547.468958
519.538863	2544.139276
519.902152	2552.431974
520.265385	2549.969371
520.628560	2551.721172
520.991678	2552.084135
521.354739	2551.292673
521.717743	2552.298384
522.080690	2552.936090
522.443580	2553.518343
522.806413	2551.005328
523.169189	2550.372663
523.531908	2550.778476
523.894569	2551.958106
524.257174	2553.135215
524.619722	2550.281922
524.982213	2553.145297
525.344647	2552.623538
525.707025	2552.608415
526.069345	2551.408620
526.431608	2552.247972
526.793815	2548.890564
527.155964	2553.379711
527.518057	2551.736295
527.880093	2551.383414
528.242072	2553.188147
528.603995	2554.508930
528.965860	2552.089176
529.327669	2553.185627
529.689421	2552.474824
530.051117	2553.561193
530.412755	2552.681511
530.774337	2552.021120
531.135862	2553.846018
531.497331	2553.478014
531.858743	2551.837118
532.220098	2553.954403
532.581396	2554.697973
532.942638	2555.978426
533.303824	2553.099927
533.664953	2552.479865
534.026025	2552.494989
534.387040	2554.400545
534.747999	2553.175544
535.108902	2551.650595
535.469748	2554.198899
535.830537	2553.609084
536.191270	2555.834753
536.551947	2549.936603
536.912567	2548.429298
537.273131	2550.614638
537.633638	2549.555996
537.994089	2551.257385
538.354483	2551.181768
538.714821	2552.089176
539.075103	2552.767211
539.435328	2555.260062
539.795497	2552.958775
540.155609	2554.274516
540.515665	2553.445246
540.875665	2551.935421
541.235609	2554.113199
541.595496	2552.835267
541.955328	2551.282591
542.315102	2555.234856
542.674821	2553.611604
543.034483	2552.101779
543.394090	2554.156049
543.753640	2555.144115
544.113134	2555.008004
544.472571	2556.018755
544.831953	2553.719989
545.191278	2555.065977
545.550548	2552.484906
545.909761	2554.740823
546.268918	2553.639331
546.628019	2550.574309
546.987064	2554.108158
547.346053	2553.319217
547.704986	2553.483055
548.063863	2553.414999
548.422684	2554.836605
548.781449	2553.238559
549.140158	2551.917777
549.498811	2552.442057
549.857408	2554.340051
550.215949	2553.604042
550.574434	2553.026830
550.932864	2554.627397
551.291237	2554.841646
551.649555	2554.372818
552.007817	2553.089845
552.366022	2553.583878
552.724173	2555.776780
553.082267	2552.374001
553.440305	2553.873744
553.798288	2553.583878
554.156215	2556.681667
554.514086	2551.711089
554.871902	2552.253013
555.229661	2551.950544
555.587365	2547.738660
555.945014	2553.830894
556.302606	2554.826522
556.660143	2557.747871
557.017625	2552.598332
557.375050	2553.863662
557.732421	2553.457849
558.089735	2553.472973
558.446994	2550.002138
558.804197	2554.231666
559.161345	2554.365257
559.518437	2552.184958
559.875474	2552.739485
560.232455	2554.400545
560.589381	2553.351985
560.946251	2554.846687
561.303065	2555.645710
561.659825	2556.076728
562.016528	2554.793755
562.373177	2552.260575
562.729770	2553.394835
563.086307	2554.239228
563.442789	2553.687222
563.799216	2555.633107
564.155587	2551.466593
564.511904	2552.696635
564.868164	2552.787376
565.224370	2553.631769
565.580520	2555.023127
565.936615	2556.447253
566.292654	2553.299053
566.648638	2555.081101
567.004567	2556.238045
567.360441	2554.246790
567.716260	2553.238559
568.072023	2553.137736
568.427732	2553.064639
568.783385	2555.214691
569.138982	2552.729402
569.494525	2551.849721
569.850013	2553.160421
570.205445	2554.738302
570.560823	2553.268806
570.916145	2552.623538
571.271412	2553.072201
571.626625	2555.895247
571.981782	2553.964485
572.336884	2552.313507
572.691931	2552.076573
573.046923	2551.879968
573.401860	2548.139432
573.756743	2555.945658
574.111570	2555.607901
574.466342	2552.439536
574.821059	2554.309804
575.175722	2555.360885
575.530330	2553.956923
575.884882	2556.273333
576.239380	2552.293342
576.593823	2555.139074
576.948211	2553.616645
577.302544	2552.759649
577.656823	2555.192006
578.011047	2556.790052
578.365216	2556.311142
578.719330	2555.988508
579.073389	2553.558672
579.427394	2554.745864
579.781344	2553.430123
580.135239	2554.430792
580.489080	2554.879454
580.842866	2555.706204
581.196597	2555.502037
581.550273	2554.193858
581.903895	2555.050854
582.257463	2554.478683
582.610975	2554.718138
582.964434	2557.463046
583.317837	2555.244938
583.671186	2555.338199
584.024481	2553.946841
584.377721	2553.719989
584.730906	2552.316028
585.084037	2555.338199
585.437113	2555.247459
585.790135	2554.738302
586.143103	2554.455997
586.496016	2554.594629
586.848874	2558.647717
587.201679	2552.706717
587.554428	2555.625545
587.907124	2557.160577
588.259765	2554.450956
588.612352	2555.136553
588.964884	2551.824515
589.317362	2556.359033
589.669786	2555.718807
590.022155	2551.383414
590.374470	2552.316028
590.726731	2553.160421
591.078937	2549.069525
591.431090	2552.875596
591.783188	2555.015566
592.135232	2554.612273
592.487222	2556.558159
592.839157	2553.344423
593.191038	2555.582695
593.542866	2554.163611
593.894639	2554.352654
594.246358	2552.414330
594.598022	2555.287788
594.949633	2552.053888
595.301190	2555.111347
595.652692	2556.006152
596.004141	2554.045143
596.355535	2552.694114
596.706876	2554.198899
597.058162	2556.260731
597.409395	2556.578323
597.760573	2555.025648
598.111698	2558.199054
598.462768	2554.335010
598.813785	2556.258210
599.164748	2553.873744
599.515657	2556.071687
599.866511	2553.130174
600.217312	2554.521532
600.568060	2553.745195
600.918753	2554.657644
601.269392	2558.153684
601.619978	2554.650082
601.970510	2554.662685
602.320988	2553.404917
602.671412	2555.456667
603.021783	2553.263765
603.372100	2554.531615
603.722363	2552.099258
604.072572	2555.696121
604.422728	2556.265772
604.772830	2556.956410
605.122878	2554.652603
605.472872	2554.050185
605.822813	2552.106820
606.172701	2555.255020
606.522534	2552.096737
606.872314	2557.150494
607.222041	2554.541697
607.571714	2556.366595
607.921333	2550.412992
608.270899	2554.375339
608.620411	2554.080432
608.969870	2556.840463
609.319276	2558.962789
609.668627	2563.502348
610.017926	2565.574262
610.367171	2570.000395
610.716362	2567.653738
611.065500	2567.205076
611.414585	2562.862122
611.763616	2565.289437
612.112594	2558.693087
612.461518	2559.416493
612.810389	2556.686708
613.159207	2558.549414
613.507971	2557.558828
613.856682	2559.103941
614.205340	2559.497151
614.553945	2556.069167
614.902496	2557.873900
615.250994	2556.737120
615.599439	2553.669577
615.947830	2559.681153
616.296169	2554.612273
616.644454	2557.155535
616.992686	2556.848025
617.340864	2554.327448
617.688990	2554.365257
618.037063	2555.323076
618.385082	2556.331307
618.733048	2558.206616
619.080961	2556.515309
619.428821	2556.666543
619.776628	2555.171841
620.124382	2558.751061
620.472083	2552.651264
620.819731	2555.499516
621.167326	2555.993549
621.514868	2556.512788
621.862357	2555.698642
622.209793	2555.514640
622.557176	2556.207798
622.904506	2554.975236
623.251783	2554.513971
623.599007	2556.205278
623.946179	2553.140256
624.293297	2555.444064
624.640363	2556.016235
624.987376	2549.918959
625.334336	2552.701676
625.681243	2553.840977
626.028097	2550.544062
626.374899	2553.601522
626.721647	2556.124619
627.068343	2553.558672
627.414987	2555.305432
627.761577	2555.489434
628.108115	2555.504558
628.454600	2557.699980
628.801032	2555.128992
629.147412	2557.261400
629.493739	2555.307953
629.840014	2556.424568
630.186236	2556.507747
630.532405	2553.573796
630.878521	2555.131512
631.224585	2554.834084
631.570597	2553.697304
631.916556	2554.375339
632.262462	2552.595812
632.608316	2555.491955
632.954117	2553.253682
633.299866	2556.346430
633.645562	2553.667057
633.991206	2553.644372
634.336797	2553.964485
634.682336	2551.206974
635.027823	2553.510781
635.373257	2553.223435
635.718639	2553.016748
636.063968	2552.058929
636.409245	2554.808878
636.754470	2552.394166
637.099642	2554.450956
637.444762	2556.777449
637.789829	2551.713610
638.134845	2554.569423
638.479808	2552.721841
638.824719	2553.062118
639.169577	2553.372149
639.514383	2556.530432
639.859137	2554.503888
640.203839	2554.584547
640.548489	2555.242417
640.893086	2554.670247
641.237632	2553.294012
641.582125	2553.926676
641.926566	2554.355174
642.270955	2553.248641
642.615292	2548.935934
642.959576	2549.724875
643.303809	2550.133208
643.647990	2556.399362
643.992118	2556.381718
644.336195	2554.526574
644.680219	2554.395504
645.024192	2555.307952
645.368112	2555.204609
645.711981	2555.519681
646.055797	2552.923487
646.399562	2555.171841
646.743274	2552.061449
647.086935	2555.917932
647.430544	2555.643189
647.774101	2555.050854
648.117606	2553.956923
648.461059	2555.033210
648.804460	2554.009855
649.147810	2554.347613
649.491108	2553.397355
649.834354	2553.384752
650.177548	2555.648230
650.520690	2553.120092
650.863781	2554.549259
651.206820	2553.503219
651.549807	2554.461039
651.892742	2553.493137
652.235626	2555.413817
652.578458	2555.688560
652.921238	2553.276368
653.263967	2555.154197
653.606644	2553.596481
653.949269	2556.366595
654.291843	2553.893909
654.634365	2552.699155
654.976836	2551.249824
655.319255	2551.766542
655.661622	2553.495658
656.003938	2555.219732
656.346203	2555.040771
656.688416	2555.686039
657.030577	2551.799309
657.372687	2556.495144
657.714746	2552.673950
658.056753	2552.759649
658.398708	2554.377860
658.740612	2554.637479
659.082465	2552.805020
659.424266	2549.621531
659.766016	2550.057591
660.107715	2552.520194
660.449362	2547.879812
660.790958	2557.001780
661.132503	2551.353167
661.473996	2554.302242
661.815438	2555.703683
662.156829	2555.023127
662.498168	2552.573127
662.839456	2554.357695
663.180693	2554.710576
663.521879	2554.168652
663.863013	2555.121430
664.204097	2552.802499
664.545129	2554.894578
664.886110	2552.530277
665.227040	2555.186965
665.567918	2552.590771
665.908746	2552.643703
666.249522	2557.636966
666.590248	2552.426933
666.930922	2554.148487
667.271545	2551.769063
667.612118	2552.817623
667.952639	2552.716799
668.293109	2554.950031
668.633528	2552.288301
668.973896	2556.641338
669.314213	2554.158569
669.654480	2556.016235
669.994695	2555.194527
670.334859	2553.823333
670.674973	2552.003476
671.015035	2552.706717
671.355047	2554.798796
671.695008	2551.950544
672.034918	2557.473128
672.374777	2555.496996
672.714585	2553.662016
673.054342	2551.494320
673.394049	2553.876265
673.733705	2553.561193
674.073310	2553.513302
674.412864	2554.017417
674.752368	2555.118909
675.091820	2553.835936
675.431223	2552.855431
675.770574	2557.503375
676.109875	2555.128992
676.449125	2551.078424
676.788324	2548.666232
677.127473	2552.066491
677.466571	2550.400389
677.805619	2551.758980
678.144616	2552.008517
678.483562	2554.365257
678.822458	2554.672767
679.161303	2551.315359
679.500098	2552.449618
679.838842	2551.204453
680.177535	2556.981616
680.516179	2555.008004
680.854771	2555.741492
681.193314	2552.910884
681.531805	2553.755277
681.870247	2553.994732
682.208638	2553.450287
682.546978	2556.101934
682.885268	2553.876265
683.223508	2552.452139
683.561697	2554.914742
683.899836	2555.998591
684.237925	2553.571275
684.575963	2553.548590
684.913951	2552.943651
685.251889	2553.765359
685.589776	2551.542211
685.927614	2551.723692
686.265401	2552.875596
686.603137	2552.379042
686.940824	2551.171686
687.278460	2554.055226
687.616046	2551.640513
687.953582	2550.886861
688.291068	2554.962633
688.628504	2551.244782
688.965889	2551.562375
689.303224	2551.859803
689.640510	2553.389793
689.977745	2555.701162
690.314930	2552.983981
690.652065	2555.219732
690.989150	2552.772252
691.326185	2552.391645
691.663170	2554.080432
692.000105	2553.268806
692.336990	2553.319217
692.673825	2552.681511
693.010610	2551.726213
693.347345	2553.021789
693.684030	2547.700851
694.020665	2550.400389
694.357251	2548.446942
694.693786	2550.571788
695.030272	2552.222766
695.366707	2551.058260
695.703093	2553.319217
696.039429	2554.178734
696.375716	2550.954916
696.711952	2551.375852
697.048139	2553.069680
697.384276	2551.660678
697.720363	2552.437015
698.056400	2554.277037
698.392388	2552.946172
698.728326	2553.619166
699.064214	2554.554300
699.400053	2553.145297
699.735842	2553.374670
700.071581	2551.345606
700.407270	2552.638662
700.742910	2552.976419
701.078501	2557.205947
701.414042	2548.590615
701.749533	2553.200750
702.084974	2551.456511
702.420366	2553.689742
702.755709	2553.571275
703.091002	2552.265616
703.426246	2553.087324
703.761440	2553.195709
704.096584	2553.573796
704.431679	2553.747715
704.766725	2555.008004
705.101721	2555.302911
705.436668	2552.464742
705.771565	2553.914073
706.106413	2553.634289
706.441212	2551.574978
706.775961	2554.803837
707.110661	2552.288301
707.445311	2551.688404
707.779913	2552.419371
708.114465	2552.971378
708.448967	2552.868034
708.783421	2554.140925
709.117825	2551.562375
709.452180	2554.476162
709.786485	2551.809392
710.120742	2551.058260
710.454949	2551.890050
710.789107	2549.424926
711.123216	2548.507436
711.457275	2552.847869
711.791286	2550.828887
712.125247	2554.007335
712.459159	2553.339382
712.793023	2554.395504
713.126837	2553.127653
713.460602	2551.469114
713.794318	2551.708569
714.127985	2551.607746
714.461602	2553.394835
714.795171	2554.511450
715.128691	2550.360060
715.462162	2553.392314
715.795584	2550.017262
716.128957	2552.792417
716.462281	2550.927190
716.795556	2552.336192
717.128782	2551.305276
717.461960	2550.889381
717.795088	2551.922818
718.128167	2552.870555
718.461198	2554.080432
718.794180	2554.302242
719.127113	2553.417520
719.459997	2555.401214
719.792833	2553.825853
720.125619	2550.387786
720.458357	2550.140770
720.791046	2552.028682
721.123686	2550.380225
721.456278	2550.634803
721.788821	2551.927859
722.121315	2552.265616
722.453761	2553.609084
722.786158	2552.868034
723.118506	2553.619166
723.450805	2552.096737
723.783056	2552.678991
724.115259	2551.010369
724.447412	2549.261088
724.779518	2549.485420
725.111574	2549.639175
725.443582	2550.428116
725.775542	2551.852242
726.107453	2550.032385
726.439315	2549.949206
726.771129	2552.361398
727.102895	2546.153217
727.434612	2550.440718
727.766281	2545.608772
728.097901	2552.293342
728.429473	2550.649926
728.760996	2554.030020
729.092471	2552.245452
729.423897	2551.927859
729.755276	2552.048847
730.086606	2553.079763
730.417887	2550.155893
730.749120	2552.270657
731.080305	2548.280584
731.411442	2550.710420
731.742530	2553.079763
732.073570	2551.804351
732.404562	2551.176727
732.735506	2553.730071
733.066401	2553.210832
733.397249	2552.426933
733.728048	2551.564896
734.058798	2551.559855
734.389501	2552.464742
734.720156	2552.404248
735.050762	2550.740667
735.381320	2552.023641
735.711831	2550.407951
736.042293	2552.520194
736.372707	2549.621531
736.703073	2549.394679
737.033391	2551.494320
737.363661	2551.239741
737.693883	2553.593960
738.024056	2550.213867
738.354182	2551.741336
738.684260	2553.541028
739.014290	2550.937272
739.344272	2550.249155
739.674207	2551.396017
740.004093	2553.631769
740.333931	2549.422405
740.663722	2552.295863
740.993464	2553.241079
741.323159	2550.322251
741.652806	2552.656306
741.982405	2549.671942
742.311956	2552.857952
742.641460	2551.164124
742.970915	2550.581871
743.300323	2547.244627
743.629683	2547.388300
743.958996	2551.655637
744.288260	2546.128011
744.617477	2549.034237
744.946647	2551.116233
745.275768	2550.289484
745.604842	2550.176058
745.933869	2552.535318
746.262847	2551.668239
746.591778	2553.117571
746.920662	2553.745195
747.249498	2550.367622
747.578286	2551.761501
747.907027	2553.810730
748.235720	2549.525749
748.564365	2550.060111
748.892963	2552.353836
749.221514	2550.027344
749.550017	2551.615307
749.878473	2550.657488
750.206881	2550.780996
750.535242	2550.191181
750.863555	2548.207487
751.191821	2552.563044
751.520039	2552.046326
751.848210	2551.012889
752.176334	2548.051212
752.504411	2551.668239
752.832440	2550.896943
753.160421	2553.311656
753.488356	2550.912066
753.816243	2550.095399
754.144082	2550.087838
754.471875	2550.899463
754.799620	2547.491643
755.127318	2551.363250
755.454969	2552.053888
755.782572	2548.477189
756.110129	2550.632282
756.437638	2550.332334
756.765100	2551.184289
757.092515	2554.894578
757.419882	2551.829556
757.747203	2547.857127
758.074477	2551.327962
758.401703	2552.011038
758.728882	2551.070863
759.056014	2550.700338
759.383099	2550.849052
759.710138	2550.168496
760.037129	2547.778989
760.364073	2548.996428
760.690970	2546.150697
761.017820	2552.159752
761.344623	2552.308466
761.671379	2551.774104
761.998088	2552.051367
762.324751	2551.872406
762.651366	2553.737633
762.977935	2547.574823
763.304456	2551.292673
763.630931	2551.819474
763.957359	2550.546583
764.283740	2550.160934
764.610074	2547.789072
764.936362	2552.008517
765.262602	2549.535831
765.588796	2551.640513
765.914943	2550.226469
766.241044	2550.009700
766.567097	2549.510626
766.893104	2551.055739
767.219064	2550.871737
767.544978	2551.335523
767.870845	2552.502550
768.196665	2552.709238
768.522438	2549.674463
768.848165	2551.557334
769.173846	2549.656819
769.499479	2552.379042
769.825066	2548.245296
770.150607	2549.276212
770.476101	2551.559855
770.801548	2551.088507
771.126949	2552.530277
771.452303	2550.080276
771.777611	2552.676470
772.102872	2550.440718
772.428087	2548.152035
772.753256	2554.206460
773.078378	2552.005997
773.403453	2549.654298
773.728482	2550.171017
774.053465	2550.685214
774.378401	2550.365101
774.703291	2548.167158
775.028135	2550.914587
775.352932	2552.313507
775.677683	2550.690256
776.002388	2547.942827
776.327046	2546.662374
776.651658	2547.685728
776.976224	2544.114070
777.300743	2550.271840
777.625216	2552.011038
777.949643	2548.363763
778.274024	2553.074721
778.598359	2548.295707
778.922647	2550.717982
779.246889	2551.320400
779.571086	2550.327292
779.895236	2551.007848
780.219339	2550.438198
780.543397	2548.701520
780.867409	2549.324103
781.191374	2551.080945
781.515294	2549.810574
781.839167	2552.016079
782.162995	2552.424412
782.486776	2550.665050
782.810511	2547.584905
783.134201	2554.153528
783.457844	2549.916438
783.781441	2550.682694
784.104993	2551.557334
784.428498	2549.498023
784.751958	2548.116747
785.075372	2550.133208
785.398739	2549.114895
785.722061	2548.489792
786.045337	2550.813764
786.368568	2549.951727
786.691752	2548.651109
787.014891	2550.206305
787.337983	2548.514998
787.661030	2551.199412
787.984031	2550.496171
788.306987	2549.903836
788.629897	2551.166645
788.952760	2548.787220
789.275579	2552.827705
789.598351	2549.757642
789.921078	2550.571788
790.243759	2550.390307
790.566395	2549.440049
790.888984	2551.280071
791.211529	2548.182282
791.534027	2551.726213
791.856480	2552.865513
792.178888	2549.530790
792.501249	2544.164482
792.823566	2547.204298
793.145836	2543.917465
793.468062	2551.106151
793.790241	2548.756973
794.112375	2551.325441
794.434464	2549.291335
794.756507	2549.929041
795.078505	2545.880995
795.400457	2550.362581
795.722364	2548.890564
796.044226	2550.939793
796.366042	2549.613969
796.687812	2549.460214
797.009538	2551.675801
797.331218	2551.038095
797.652852	2550.047508
797.974442	2548.487271
798.295986	2552.779814
798.617484	2550.100441
798.938938	2550.176058
799.260346	2550.201264
799.581709	2549.371994
799.903026	2552.099258
800.224299	2552.842828
800.545526	2551.000287
800.866708	2548.509957
801.187845	2551.305276
801.508936	2546.064997
801.829983	2549.722354
802.150984	2551.282591
802.471940	2550.861655
802.792851	2551.514484
803.113717	2551.264947
803.434538	2549.571119
803.755314	2551.353167
804.076045	2546.866540
804.396731	2546.536345
804.717372	2551.305276
805.037967	2549.727395
805.358518	2551.678322
805.679024	2549.243444
805.999485	2551.297715
806.319901	2548.961140
806.640272	2550.907025
806.960598	2549.843342
807.280879	2550.395348
807.601115	2551.257385
807.921306	2547.980635
808.241453	2546.528783
808.561554	2544.971067
808.881611	2548.361242
809.201623	2546.299411
809.521590	2548.799823
809.841513	2548.462066
810.161390	2548.835111
810.481223	2551.317879
810.801011	2550.380225
811.120755	2550.256716
811.440453	2549.351829
811.760107	2549.792930
812.079716	2546.995090
812.399281	2549.704710
812.718801	2548.807385
813.038276	2549.666901
813.357707	2548.469627
813.677093	2550.153373
813.996434	2549.046839
814.315731	2550.765873
814.634983	2549.072045
814.954191	2548.830070
815.273354	2549.245965
815.592473	2549.271171
815.911547	2545.931406
816.230577	2550.236552
816.549562	2549.883671
816.868502	2547.930224
817.187399	2550.894422
817.506250	2547.282436
817.825058	2547.116078
818.143821	2546.120450
818.462539	2548.661191
818.781213	2548.451983
819.099843	2550.672612
819.418429	2545.752445
819.736970	2548.240255
820.055466	2548.933413
820.373919	2552.124464
820.692327	2546.518701
821.010691	2551.015410
821.329011	2549.828218
821.647286	2549.349309
821.965517	2547.718495
822.283704	2552.106820
822.601847	2549.666901
822.919945	2546.271684
823.237999	2548.653629
823.556010	2552.384083
823.873976	2548.089020
824.191897	2546.995090
824.509775	2546.266643
824.827609	2547.040460
825.145398	2544.955943
825.463144	2548.038609
825.780845	2549.916438
826.098502	2549.104813
826.416116	2550.254196
826.733685	2550.299566
827.051210	2548.484751
827.368692	2547.854607
827.686129	2547.136242
828.003522	2552.013558
828.320872	2548.714123
828.638177	2548.204967
828.955439	2550.022303
829.272656	2549.492982
829.589830	2547.829401
829.906960	2553.052036
830.224046	2546.291849
830.541088	2549.498023
830.858086	2547.146324
831.175041	2548.378887
831.491952	2548.018444
831.808819	2550.198743
832.125642	2547.136242
832.442421	2549.959288
832.759157	2547.468958
833.075849	2548.227652
833.392497	2548.341078
833.709101	2548.247817
834.025662	2548.872920
834.342179	2548.540203
834.658653	2551.723692
834.975083	2550.017262
835.291469	2558.574620
835.607811	2548.610780
835.924110	2550.723023
836.240366	2550.826367
836.556578	2547.438711
836.872746	2549.024154
837.188871	2546.891746
837.504952	2550.707900
837.820990	2549.792930
838.136984	2547.214380
838.452935	2549.500543
838.768842	2547.579864
839.084706	2547.252189
839.400526	2550.455842
839.716303	2547.443753
840.032037	2545.528114
840.347727	2544.209852
840.663373	2545.891077
840.978977	2543.393185
841.294537	2549.576161
841.610054	2547.544576
841.925527	2548.409133
842.240957	2548.870399
842.556344	2547.317724
842.871687	2547.335368
843.186987	2546.080120
843.502244	2547.675646
843.817458	2549.760163
844.132629	2549.011551
844.447756	2546.531304
844.762840	2549.193033
845.077881	2546.448125
845.392879	2545.689431
845.707833	2547.708413
846.022745	2547.806716
846.337613	2549.213197
846.652438	2549.452652
846.967221	2547.980635
847.281960	2549.679504
847.596656	2546.866540
847.911309	2548.940975
848.225919	2549.450132
848.540485	2548.459545
848.855009	2550.753270
849.169490	2547.360573
849.483928	2547.289997
849.798323	2549.306459
850.112675	2548.104144
850.426984	2547.204298
850.741251	2549.140101
851.055474	2546.400234
851.369654	2550.279402
851.683792	2548.784699
851.997887	2548.225131
852.311938	2547.048022
852.625947	2549.898794
852.939914	2549.873589
853.253837	2551.030533
853.567718	2547.577343
853.881555	2548.472148
854.195350	2549.198074
854.509103	2550.002138
854.822812	2546.112888
855.136479	2549.419885
855.450103	2548.071376
855.763685	2547.186654
856.077224	2542.730274
856.390720	2545.959133
856.704173	2543.100798
857.017584	2547.100954
857.330953	2549.286294
857.644278	2547.990718
857.957561	2551.388455
858.270802	2549.195553
858.584000	2546.390151
858.897155	2546.422919
859.210268	2550.284443
859.523339	2549.336706
859.836367	2547.809236
860.149352	2550.823846
860.462295	2549.707231
860.775195	2548.257899
861.088054	2546.869061
861.400869	2547.970553
861.713642	2546.407795
862.026373	2547.678166
862.339062	2545.449976
862.651708	2547.456355
862.964312	2548.394010
863.276873	2548.106664
863.589392	2549.435008
863.901869	2549.437529
864.214303	2546.281767
864.526696	2548.570450
864.839045	2548.275543
865.151353	2549.266130
865.463619	2548.648588
865.775842	2548.202446
866.088023	2546.483413
866.400162	2543.834286
866.712258	2545.248330
867.024313	2547.385779
867.336325	2546.617003
867.648296	2549.961809
867.960224	2546.284287
868.272110	2546.430481
868.583954	2550.208825
868.895755	2548.764535
869.207515	2545.807898
869.519233	2549.074566
869.830909	2546.614483
870.142542	2549.200595
870.454134	2547.489123
870.765684	2546.281767
871.077191	2548.283105
871.388657	2545.366797
871.700081	2543.758669
872.011463	2547.360573
872.322803	2540.930582
872.634101	2547.660522
872.945357	2546.891746
873.256571	2546.110367
873.567744	2548.590615
873.878874	2548.530121
874.189963	2548.605738
874.501010	2546.231355
874.812015	2547.504246
875.122979	2548.031047
875.433900	2546.654812
875.744780	2549.583722
876.055618	2546.763197
876.366415	2550.062632
876.677169	2547.363094
876.987882	2546.216232
877.298554	2550.937272
877.609183	2550.314690
877.919771	2546.700182
878.230317	2547.249668
878.540822	2547.277394
878.851285	2547.889895
879.161707	2550.042467
879.472087	2549.498023
879.782425	2545.031560
880.092722	2546.183464
880.402977	2548.789741
880.713191	2544.033412
881.023363	2546.710265
881.333494	2549.760163
881.643583	2546.299411
881.953631	2545.767569
882.263637	2546.871582
882.573602	2548.406613
882.883526	2546.072559
883.193408	2547.743701
883.503248	2546.642209
883.813048	2548.053732
884.122806	2548.976263
884.432522	2546.410316
884.742197	2542.833617
885.051831	2547.766386
885.361424	2547.973074
885.670975	2548.212528
885.980485	2549.119936
886.289954	2547.070707
886.599382	2545.626417
886.908768	2544.787064
887.218113	2541.918648
887.527417	2543.897301
887.836680	2544.671118
888.145901	2548.915769
888.455082	2547.317724
888.764221	2547.950388
889.073319	2547.486602
889.382376	2546.846376
889.691392	2546.632127
890.000366	2549.790410
890.309300	2548.157076
890.618193	2548.157076
890.927044	2550.115564
891.235855	2546.281767
891.544625	2545.855789
891.853353	2545.933927
892.162041	2546.821170
892.470687	2545.182795
892.779293	2547.458876
893.087858	2548.782179
893.396381	2549.634134
893.704864	2544.519883
894.013306	2547.053063
894.321707	2545.691952
894.630068	2547.743701
894.938387	2547.617672
895.246665	2546.743032
895.554903	2548.250337
895.863100	2546.687579
896.171256	2544.842517
896.479371	2545.271015
896.787446	2548.036088
897.095480	2547.834442
897.403473	2545.951571
897.711425	2548.129349
898.019336	2545.606252
898.327207	2548.552806
898.635038	2546.385110
898.942827	2544.814791
899.250576	2549.238403
899.558284	2546.496016
899.865952	2547.078269
900.173579	2545.344112
900.481165	2548.762014
900.788711	2546.150697
901.096216	2545.228165
901.403681	2548.119267
901.711105	2546.347302
902.018489	2548.134391
902.325832	2544.847558
902.633135	2546.138094
902.940397	2546.014585
903.247619	2539.783719
903.554800	2545.013916
903.861941	2547.640357
904.169041	2544.739173
904.476101	2544.086344
904.783121	2547.642878
905.090100	2547.526932
905.397039	2545.041643
905.703938	2546.619524
906.010796	2546.014585
906.317614	2545.787733
906.624391	2547.315203
906.931129	2547.247147
907.237826	2547.771427
907.544483	2545.903680
907.851099	2548.449463
908.157675	2547.957950
908.464211	2545.081972
908.770707	2547.489123
909.077163	2545.071890
909.383578	2546.934596
909.689954	2546.017106
909.996289	2546.067517
910.302584	2546.039791
910.608839	2548.310831
910.915054	2547.169010
911.221229	2546.427960
911.527363	2545.291180
911.833458	2547.728578
912.139513	2547.952909
912.445527	2545.661705
912.751502	2546.846376
913.057436	2548.131870
913.363331	2546.725388
913.669186	2546.213711
913.975000	2549.384597
914.280775	2544.794626
914.586510	2549.147662
914.892205	2545.853268
915.197859	2548.852755
915.503475	2545.628937
915.809050	2544.691283
916.114585	2547.947868
916.420081	2545.646581
916.725536	2545.669266
917.030952	2546.637168
917.336328	2546.604400
917.641665	2543.410829
917.946961	2543.428473
918.252218	2541.603576
918.557435	2541.679193
918.862612	2547.584905
919.167750	2547.116077
919.472848	2545.520552
919.777906	2546.990049
920.082925	2546.997610
920.387904	2547.131201
920.692843	2545.301262
920.997743	2545.671787
921.302603	2548.706562
921.607423	2545.765048
921.912204	2546.916952
922.216946	2545.581046
922.521647	2546.889226
922.826310	2545.482744
923.130932	2547.413506
923.435516	2548.802343
923.740059	2545.369318
924.044564	2547.395862
924.349028	2547.390820
924.653454	2545.931406
924.957840	2543.993083
925.262186	2547.786551
925.566493	2547.947868
925.870761	2547.408464
926.174989	2543.025181
926.479178	2543.776313
926.783328	2548.930893
927.087438	2545.079451
927.391509	2545.631458
927.695541	2545.081972
927.999533	2543.909904
928.303486	2545.374359
928.607400	2543.468803
928.911275	2546.372507
929.215110	2546.947199
929.518906	2545.079451
929.822663	2547.327806
930.126381	2543.960315
930.430060	2544.051056
930.733699	2546.551468
931.037299	2547.310162
931.340861	2547.489123
931.644383	2546.911911
931.947866	2547.327806
932.251309	2549.266130
932.554714	2545.891077
932.858080	2542.135418
933.161407	2541.469985
933.464694	2543.393185
933.767943	2539.937474
934.071153	2542.939482
934.374323	2543.879657
934.677455	2547.148845
934.980548	2547.083310
935.283602	2545.318906
935.586617	2544.908052
935.889593	2547.461397
936.192530	2546.571633
936.495428	2546.344781
936.798287	2545.709596
937.101108	2546.644730
937.403890	2546.569112
937.706632	2546.344781
938.009336	2545.485264
938.312002	2546.853937
938.614628	2545.754966
938.917216	2545.371838
939.219765	2544.640871
939.522275	2546.075079
939.824747	2546.480892
940.127179	2543.930068
940.429573	2544.759338
940.731929	2545.190357
941.034246	2545.911242
941.336524	2545.886036
941.638763	2547.486602
941.940964	2545.901159
942.243126	2544.766900
942.545250	2547.658002
942.847335	2545.654143
943.149381	2545.651622
943.451389	2544.676159
943.753359	2546.354863
944.055290	2544.913093
944.357182	2546.881664
944.659036	2542.243802
944.960851	2546.939637
945.262628	2543.993083
945.564367	2548.315872
945.866067	2542.652136
946.167729	2545.402085
946.469352	2546.034750
946.770937	2545.510470
947.072484	2545.137425
947.373992	2545.999462
947.675462	2544.502239
947.976893	2543.678011
948.278286	2542.826056
948.579641	2544.275387
948.880958	2542.984852
949.182236	2544.381252
949.483476	2546.196067
949.784678	2547.736139
950.085841	2543.909904
950.386967	2547.456355
950.688054	2545.286139
950.989103	2543.073072
951.290114	2544.822352
951.591087	2546.246478
951.892021	2546.780841
952.192917	2543.037784
952.493776	2546.148176
952.794596	2547.247147
953.095378	2544.550130
953.396122	2547.355532
953.696828	2546.712785
953.997496	2544.708927
954.298126	2546.417878
954.598718	2545.507949
954.899272	2542.942002
955.199788	2546.669935
955.500266	2545.205480
955.800706	2546.183464
956.101108	2545.938968
956.401472	2545.744884
956.701798	2544.867723
957.002087	2544.088865
957.302337	2544.381252
957.602550	2547.658002
957.902724	2544.560212
958.202861	2544.368649
958.502960	2546.556509
958.803022	2546.967363
959.103045	2543.879657
959.403031	2543.264636
959.702979	2544.910573
960.002889	2545.931406
960.302762	2544.144317
960.602596	2546.848896
960.902393	2545.843186
961.202153	2545.767569
961.501875	2547.242106
961.801559	2542.914276
962.101205	2541.996786
962.400814	2546.543907
962.700385	2544.850079
962.999918	2542.485778
963.299414	2540.504604
963.598873	2541.906045
963.898293	2539.640046
964.197677	2546.743032
964.497022	2545.003834
964.796331	2544.812270
965.095601	2544.928217
965.394835	2544.005686
965.694030	2545.596170
965.993189	2543.988042
966.292309	2546.019627
966.591393	2545.560882
966.890439	2545.875954
967.189447	2547.020296
967.488419	2545.618855
967.787353	2546.105326
968.086249	2545.389482
968.385108	2546.503577
968.683930	2545.278577
968.982714	2546.007024
969.281462	2542.818494
969.580172	2545.944009
969.878844	2542.510983
970.177480	2542.470654
970.476078	2544.242620
970.774639	2542.291693
971.073162	2545.215562
971.371649	2544.351005
971.670098	2544.230017
971.968510	2544.330840
972.266885	2543.693134
972.565223	2545.896118
972.863524	2544.837476
973.161788	2546.468289
973.460014	2547.216901
973.758204	2544.832435
974.056356	2543.163813
974.354471	2543.925027
974.652550	2543.909904
974.950591	2545.986859
975.248595	2545.661705
975.546563	2544.751776
975.844493	2544.330840
976.142386	2545.162630
976.440243	2544.096426
976.738062	2543.882177
977.035845	2544.177085
977.333590	2546.375028
977.631299	2544.121632
977.928971	2540.905376
978.226606	2539.317412
978.524204	2540.824718
978.821765	2538.344470
979.119290	2541.843031
979.416777	2541.515356
979.714228	2545.714637
980.011642	2546.937117
980.309020	2544.885367
980.606360	2543.622558
980.903664	2542.626930
981.200931	2543.307486
981.498162	2543.771272
981.795356	2546.344781
982.092513	2542.465613
982.389633	2544.121632
982.686717	2542.682383
982.983764	2541.386806
983.280775	2545.334030
983.577749	2545.150028
983.874686	2544.381252
984.171587	2544.918134
984.468451	2544.537527
984.765279	2542.626930
985.062070	2545.092054
985.358824	2542.773123
985.655543	2541.391847
985.952224	2543.206663
986.248869	2543.090716
986.545478	2542.765562
986.842050	2542.911755
987.138586	2544.093906
987.435086	2547.269833
987.731549	2543.705737
988.027975	2545.129863
988.324366	2541.908566
988.620719	2542.838658
988.917037	2542.952084
989.213318	2544.444266
989.509563	2545.026519
989.805772	2543.345294
990.101944	2544.615665
990.398080	2547.224462
990.694180	2544.046015
990.990244	2546.687579
991.286271	2544.935778
991.582262	2545.810419
991.878217	2542.959646
992.174136	2545.853268
992.470019	2542.263967
992.765865	2542.591642
993.061676	2539.801363
993.357450	2541.122146
993.653188	2539.708102
993.948890	2544.923176
994.244556	2543.935109
994.540186	2543.955274
994.835780	2546.344781
995.131337	2544.966025
995.426859	2542.823535
995.722345	2544.512322
996.017795	2542.203473
996.313208	2543.715819
996.608586	2545.177754
996.903928	2543.519214
997.199234	2545.611293
997.494504	2543.075593
997.789738	2544.033412
998.084936	2543.272198
998.380099	2541.903524
998.675225	2545.056766
998.970316	2546.102806
999.265371	2545.233207
999.560390	2545.144986
999.855373	2541.031405
1000.150320	2542.379913
1000.445232	2540.807073
1000.740108	2544.683721
1001.034948	2541.308668
1001.329752	2544.088865
1001.624521	2544.903011
1001.919254	2546.773279
1002.213951	2544.287990
1002.508613	2545.268495
1002.803239	2543.378062
1003.097829	2544.784544
1003.392384	2542.354708
1003.686903	2546.967363
1003.981386	2543.937630
1004.275834	2542.500901
1004.570246	2543.347815
1004.864623	2542.891591
1005.158964	2542.359749
1005.453270	2542.155582
1005.747540	2543.380582
1006.041775	2542.236241
1006.335974	2543.892260
1006.630138	2542.440407
1006.924266	2543.062990
1007.218359	2546.758156
1007.512416	2541.117104
1007.806438	2541.291024
1008.100425	2541.051569
1008.394376	2540.686086
1008.688292	2543.597352
1008.982172	2542.382434
1009.276017	2543.365459
1009.569827	2543.405788
1009.863602	2543.519214
1010.157341	2544.028371
1010.451045	2543.418391
1010.744714	2545.883515
1011.038347	2544.673638
1011.331945	2545.155069
1011.625508	2544.769420
1011.919036	2542.821014
1012.212528	2545.354194
1012.505986	2544.938299
1012.799408	2544.535007
1013.092795	2542.851261
1013.386147	2542.400078
1013.679464	2542.347146
1013.972745	2545.442414
1014.265992	2541.288504
1014.559204	2543.584749
1014.852380	2545.245809
1015.145521	2544.227496
1015.438628	2542.788247
1015.731699	2544.661036
1016.024736	2544.119112
1016.317737	2542.770603
1016.610703	2542.579039
1016.903635	2542.044677
1017.196531	2543.791437
1017.489393	2543.680531
1017.782219	2543.521735
1018.075011	2546.644730
1018.367768	2542.357228
1018.660490	2542.190870
1018.953177	2542.190870
1019.245829	2542.190870
