Dividing Wavelength (nm)	Counts (n)	Blue Motor Position (mm): 49.200000	Red Motor Position (mm): 0.000000	
326.493990	2129.968158
326.888308	2129.968158
327.282561	2129.968158
327.676750	2096.079002
328.070874	2096.784763
328.464933	2095.027921
328.858929	2105.992431
329.252859	2113.695314
329.646726	2128.402880
330.040528	2139.379993
330.434265	2157.790287
330.827938	2174.642864
331.221547	2191.603826
331.615091	2209.915817
332.008571	2228.958776
332.401986	2250.240007
332.795338	2270.792791
333.188625	2287.355502
333.581847	2308.177988
333.975006	2326.628611
334.368100	2343.234172
334.761129	2359.522140
335.154095	2379.038967
335.546996	2399.606875
335.939833	2423.970771
336.332606	2444.221086
336.725315	2453.194340
337.117960	2464.158850
337.510540	2469.341156
337.903056	2483.017806
338.295508	2490.191368
338.687896	2495.466936
339.080220	2505.549243
339.472480	2513.269771
339.864676	2516.808661
340.256807	2523.339475
340.648875	2523.674712
341.040879	2523.921729
341.432818	2527.498427
341.824694	2530.815507
342.216506	2532.443799
342.608253	2530.205527
342.999937	2530.797862
343.391557	2529.499765
343.783113	2528.136133
344.174605	2528.574714
344.566033	2526.008766
344.957397	2523.702438
345.348697	2526.238139
345.739934	2523.304187
346.131106	2520.823940
346.522215	2521.832170
346.913260	2516.977539
347.304241	2515.079545
347.695159	2515.563496
348.086012	2514.245234
348.476802	2509.055366
348.867528	2508.987310
349.258191	2507.631240
349.648789	2506.502022
350.039324	2503.275683
350.429796	2503.449603
350.820203	2502.627895
351.210548	2502.731238
351.600828	2499.618326
351.991045	2502.317864
352.381198	2500.601351
352.771288	2498.799138
353.161314	2498.272338
353.551276	2501.297030
353.941175	2497.400218
354.331010	2499.623367
354.720782	2499.036073
355.110490	2500.649242
355.500135	2499.726711
355.889717	2498.156391
356.279235	2499.446927
356.668689	2499.600682
357.058080	2500.679489
357.447408	2496.165136
357.836672	2498.219406
358.225873	2498.433655
358.615010	2498.300064
359.004084	2502.088491
359.393095	2501.982627
359.782043	2502.821979
360.170927	2504.465395
360.559748	2504.760303
360.948505	2507.250633
361.337199	2506.852382
361.725830	2508.551251
362.114398	2508.952022
362.502903	2509.398164
362.891344	2509.773730
363.279722	2506.751559
363.668037	2512.281704
364.056289	2508.999913
364.444478	2511.727178
364.832603	2512.029647
365.220665	2515.455111
365.608665	2514.041067
365.996601	2511.901097
366.384474	2514.225069
366.772284	2513.884791
367.160031	2512.982425
367.547715	2516.667508
367.935336	2517.527025
368.322893	2521.338137
368.710388	2521.380987
369.097820	2529.540095
369.485189	2526.966586
369.872495	2530.399611
370.259738	2535.539068
370.646918	2544.938299
371.034035	2549.301418
371.421090	2559.345917
371.808081	2565.939746
372.195010	2574.013154
372.581875	2586.800041
372.968678	2597.842688
373.355418	2606.079933
373.742096	2626.519292
374.128710	2638.701240
374.515262	2650.116933
374.901751	2668.716270
375.288177	2677.976870
375.674540	2699.505117
376.060841	2721.136708
376.447079	2737.389388
376.833254	2758.350506
377.219367	2771.898607
377.605417	2808.033598
377.991404	2819.993735
378.377329	2844.541634
378.763191	2860.199458
379.148991	2899.409552
379.534727	2922.979467
379.920402	2949.042233
380.306013	2963.356589
380.691563	3015.235103
381.077049	3039.886345
381.462474	3054.024261
381.847835	3096.831219
382.233134	3118.059518
382.618371	3119.586988
383.003545	3188.834797
383.388657	3195.882331
383.773706	3232.861715
384.158693	3250.515835
384.543618	3275.396450
384.928480	3313.880619
385.313280	3360.060108
385.698017	3357.547093
386.082692	3414.849889
386.467305	3420.286773
386.851856	3452.872792
387.236344	3475.462202
387.620770	3507.541585
388.005133	3532.228115
388.389435	3562.233063
388.773674	3575.513983
389.157851	3618.714151
389.541965	3632.915081
389.926018	3599.582972
390.310008	3669.874300
390.693936	3687.220911
391.077802	3727.018300
391.461606	3718.347515
391.845348	3782.007206
392.229027	3782.826393
392.612645	3795.779638
392.996200	3873.804097
393.379694	3910.299530
393.763125	3975.216989
394.146494	3942.746917
394.529801	4003.850743
394.913047	4050.456210
395.296230	4018.452445
395.679351	4069.544539
396.062410	4097.936317
396.445408	4077.156681
396.828343	4112.480046
397.211217	4133.562152
397.594028	4053.480902
397.976778	4124.299032
398.359466	4146.931292
398.742092	4177.137886
399.124656	4101.076956
399.507158	4182.282383
399.889598	4205.670816
400.271977	4267.359416
400.654294	4236.663830
401.036549	4245.387547
401.418742	4216.322774
401.800874	4320.110050
402.182944	4337.436496
402.564952	4403.452926
402.946898	4393.882295
403.328783	4385.687900
403.710606	4301.876196
404.092367	4493.319055
404.474067	4458.202377
404.855705	4464.949962
405.237282	4395.049322
405.618797	4503.973533
406.000250	4537.318246
406.381642	4620.290597
406.762972	4581.773661
407.144240	4589.957974
407.525447	4592.251699
407.906593	4649.473836
408.287677	4692.674004
408.668700	4620.827480
409.049661	4672.214481
409.430560	4710.381057
409.811399	4642.438906
410.192176	4803.377743
410.572891	4742.931787
410.953545	4844.984906
411.334138	4724.009817
411.714669	4789.723777
412.095139	4690.347512
412.475547	4830.746167
412.855894	4812.655986
413.236180	4823.933047
413.616405	4773.042599
413.996568	4857.925548
414.376670	4800.698369
414.756711	4752.802367
415.136691	4785.743787
415.516609	4868.116240
415.896466	4902.295263
416.276262	4938.226088
416.655997	4919.200773
417.035670	5097.385397
417.415283	5191.521383
417.794834	5136.121623
418.174324	5088.162606
418.553753	4995.009644
418.933121	5180.350186
419.312428	5246.043983
419.691674	5184.988048
420.070859	5315.271628
420.449983	5224.167895
420.829045	5343.189538
421.208047	5248.022635
421.586988	5318.780271
421.965867	5335.368188
422.344686	5465.452642
422.723444	5318.417308
423.102141	5137.656654
423.480777	5434.764618
423.859352	5208.129464
424.237866	5465.611438
424.616319	5453.981496
424.994712	5565.209515
425.373044	5444.176452
425.751314	5577.953552
426.129524	5387.113111
426.507673	5581.401701
426.885762	5662.690307
427.263789	5590.798412
427.641756	5477.664837
428.019662	5599.554896
428.397508	5599.557417
428.775292	5551.532864
429.153016	5652.277803
429.530679	5578.198048
429.908282	5667.244989
430.285824	5534.024937
430.663305	5807.182379
431.040726	5538.529208
431.418086	5546.511875
431.795385	5642.732379
432.172624	5659.751314
432.549802	5654.387526
432.926920	5663.943033
433.303977	5675.184807
433.680974	5715.398091
434.057910	5732.371656
434.434786	5737.001956
434.811601	5706.097162
435.188355	5942.371002
435.565050	5815.356610
435.941683	5794.639988
436.318257	6010.633266
436.694770	5994.307489
437.071222	6029.784609
437.447614	5961.343384
437.823946	5869.168407
438.200218	6024.267066
438.576429	5892.834103
438.952580	5991.456717
439.328670	6039.433378
439.704700	5945.178924
440.080670	5934.106030
440.456580	6205.541917
440.832429	6083.301498
441.208218	5925.006747
441.583947	6082.956179
441.959616	6087.311736
442.335224	6018.346231
442.710773	6152.458568
443.086261	6177.757598
443.461689	5973.832843
443.837057	6123.802128
444.212365	6277.083452
444.587612	6173.240724
444.962800	6321.879145
445.337927	6303.121012
445.712995	5918.145737
446.088002	6491.899621
446.462949	6323.651111
446.837837	6250.950111
447.212664	6426.644405
447.587431	6571.610345
447.962139	7110.812161
448.336786	8037.754324
448.711374	7775.387472
449.085901	6856.700198
449.460369	6773.732888
449.834776	6707.330810
450.209124	7096.414625
450.583412	7246.928356
450.957640	7389.792135
451.331808	7158.819069
451.705917	6704.326282
452.079965	6635.406147
452.453954	6845.569330
452.827883	6725.514252
453.201752	6812.403579
453.575562	6615.153312
453.949311	6821.722152
454.323001	6708.089503
454.696632	6788.445496
455.070202	6920.987513
455.443713	7075.377890
455.817164	7174.439084
456.190556	7260.660459
456.563888	7335.067889
456.937160	7379.286370
457.310373	7035.134359
457.683526	7058.348872
458.056619	6948.633200
458.429653	6938.329082
458.802628	6874.765173
459.175542	6982.784497
459.548398	7338.977304
459.921194	7498.799525
460.293930	7504.667428
460.666607	8029.859877
461.039224	8334.635436
461.411782	8462.900034
461.784280	8478.187333
462.156719	8366.976958
462.529099	8246.473217
462.901419	7840.488933
463.273680	7733.674445
463.645882	7746.705827
464.018024	7610.652647
464.390106	7779.412833
464.762130	8165.287955
465.134094	8629.003532
465.505999	9657.081324
465.877845	10871.520492
466.249631	11523.586180
466.621358	11138.414300
466.993026	10511.249391
467.364634	10259.975598
467.736184	9898.479497
468.107674	9565.725534
468.479105	9598.601419
468.850477	9361.858752
469.221790	9132.587075
469.593043	8809.602869
469.964238	8664.152977
470.335373	8682.180144
470.706449	8738.305830
471.077467	8718.617604
471.448425	10019.356284
471.819324	11100.214956
472.190164	11115.719025
472.560945	9873.603923
472.931667	9081.265608
473.302330	8956.771794
473.672934	8595.132020
474.043479	8949.857851
474.413965	8897.775170
474.784393	8777.047097
475.154761	8931.588710
475.525070	9021.674129
475.895321	8851.043674
476.265513	9024.839973
476.635645	9199.072333
477.005719	9193.406076
477.375734	9311.043921
477.745691	9548.240292
478.115588	9675.834417
478.485427	9923.622252
478.855207	10461.916659
479.224928	11272.140988
479.594591	11902.023078
479.964194	11707.996629
480.333739	11651.979327
480.703226	11570.867162
481.072653	11659.213383
481.442022	11893.032181
481.811333	12083.711304
482.180584	11890.272149
482.549777	11596.962695
482.918912	11419.539285
483.287988	11450.093718
483.657005	11467.785648
484.025964	11142.106945
484.394864	11279.112903
484.763706	11245.856412
485.132489	11001.398259
485.501213	10959.728081
485.869879	11037.876048
486.238487	10878.033662
486.607036	10987.837555
486.975527	10767.312280
487.343959	10962.488113
487.712333	11012.597182
488.080648	10945.648138
488.448905	10985.332101
488.817104	10921.904304
489.185244	11189.768534
489.553326	11348.872390
489.921350	11885.530944
490.289315	12944.788272
490.657222	13282.691773
491.025070	13193.395295
491.392861	13067.568095
491.760593	12691.984489
492.128267	12337.480468
492.495883	12008.628359
492.863440	11676.796928
493.230939	11339.904178
493.598380	11266.053794
493.965763	11136.949844
494.333088	11042.362675
494.700354	10963.617331
495.067563	11015.778150
495.434713	10846.637356
495.801805	10978.425721
496.168839	10901.283464
496.535815	10835.514050
496.902733	10835.584626
497.269593	10770.377301
497.636395	10870.459329
498.003139	10856.139931
498.369825	10727.653523
498.736453	10878.696574
499.103023	10810.615791
499.469535	10838.695018
499.835989	10824.970477
500.202385	10796.233379
500.568723	10638.805707
500.935003	10870.119051
501.301226	10671.716879
501.667390	10932.117681
502.033497	11026.359532
502.399546	10886.157482
502.765537	10796.354367
503.131470	10859.893070
503.497345	11041.480473
503.863163	10650.533951
504.228923	10956.519387
504.594625	11026.024295
504.960269	10775.930132
505.325856	10994.103709
505.691385	10790.609972
506.056856	10937.773856
506.422270	10974.632252
506.787625	10853.468120
507.152924	10972.744340
507.518164	10954.190373
507.883347	10873.695749
508.248472	10790.100816
508.613540	11028.776765
508.978550	10909.182952
509.343503	10886.815352
509.708398	11012.544250
510.073236	11117.392688
510.438016	11118.153902
510.802738	11068.629607
511.167403	11125.939964
511.532010	11019.120435
511.896561	11252.334294
512.261053	11321.289717
512.625488	11194.597959
512.989866	11179.613129
513.354186	11166.803558
513.718449	11068.773280
514.082655	11254.459141
514.446803	11158.520942
514.810894	11272.579568
515.174927	11143.183231
515.538904	11165.560913
515.902822	11313.980044
516.266684	11200.801099
516.630488	11143.704991
516.994235	11201.058198
517.357925	11259.311251
517.721558	11348.116217
518.085133	11368.079187
518.448651	11375.151925
518.812112	11252.780436
519.175516	11275.334559
519.538863	11395.498022
519.902152	11317.294603
520.265385	11466.784979
520.628560	11377.097811
520.991678	11367.683456
521.354739	11427.272415
521.717743	11354.873884
522.080690	11338.442243
522.443580	11467.334465
522.806413	11435.673498
523.169189	11460.239041
523.531908	11520.001919
523.894569	11338.157418
524.257174	11343.455671
524.619722	11460.798609
524.982213	11407.737944
525.344647	11463.581326
525.707025	11411.481001
526.069345	11498.526604
526.431608	11419.887125
526.793815	11529.917869
527.155964	11319.263173
527.518057	11371.532377
527.880093	11321.002371
528.242072	11386.376054
528.603995	11299.307766
528.965860	11215.107894
529.327669	11271.067222
529.689421	11216.282482
530.051117	11185.949860
530.412755	11292.582867
530.774337	11181.838799
531.135862	11157.900880
531.497331	11182.012719
531.858743	11033.316324
532.220098	11205.562469
532.581396	11076.524054
532.942638	11060.677187
533.303824	11021.121773
533.664953	11038.060050
534.026025	10946.147213
534.387040	11042.967613
534.747999	11046.307378
535.108902	11103.156470
535.469748	10869.085614
535.830537	10965.220418
536.191270	10947.823396
536.551947	10974.420524
536.912567	10970.594288
537.273131	10901.467466
537.633638	10877.209434
537.994089	10869.534277
538.354483	10815.483025
538.714821	10962.374687
539.075103	10970.145625
539.435328	10930.610376
539.795497	10754.222924
540.155609	10911.615309
540.515665	11000.848773
540.875665	10745.519372
541.235609	10804.987343
541.595496	10800.349482
541.955328	10954.896135
542.315102	10840.161994
542.674821	10794.950406
543.034483	10792.734819
543.394090	10801.047681
543.753640	10724.747297
544.113134	10944.213930
544.472571	10798.580037
544.831953	10944.854157
545.191278	10747.369475
545.550548	10777.248394
545.909761	10914.834085
546.268918	10890.462627
546.628019	10967.614966
546.987064	10835.224184
547.346053	10755.042111
547.704986	10853.153048
548.063863	10848.288334
548.422684	10838.294247
548.781449	10754.870712
549.140158	10857.841321
549.498811	10737.171221
549.857408	10590.271998
550.215949	10819.432769
550.574434	10672.566314
550.932864	10769.459811
551.291237	10830.399800
551.649555	10780.502459
552.007817	10788.253233
552.366022	10746.300751
552.724173	10738.726417
553.082267	10734.625438
553.440305	10865.392969
553.798288	10670.307877
554.156215	10820.463685
554.514086	10798.431323
554.871902	10652.996555
555.229661	10688.330002
555.587365	10660.878399
555.945014	10553.824456
556.302606	10684.768427
556.660143	10568.542104
557.017625	10723.275280
557.375050	10624.365321
557.732421	10757.071176
558.089735	10671.684112
558.446994	10674.454226
558.804197	10709.517972
559.161345	10710.256501
559.518437	10558.464838
559.875474	10651.993365
560.232455	10680.206183
560.589381	10624.781217
560.946251	10624.428336
561.303065	10732.581250
561.659825	10670.338124
562.016528	10598.589902
562.373177	10477.579524
562.729770	10595.794582
563.086307	10511.919864
563.442789	10605.433268
563.799216	10475.066509
564.155587	10537.586899
564.511904	10484.518672
564.868164	10473.997784
565.224370	10495.571402
565.580520	10416.032077
565.936615	10419.283621
566.292654	10287.296131
566.648638	10421.829404
567.004567	10372.050530
567.360441	10362.910918
567.716260	10275.404049
568.072023	10360.428150
568.427732	10314.210852
568.783385	10221.241892
569.138982	10296.559251
569.494525	10313.716818
569.850013	10193.573519
570.205445	10270.161249
570.560823	10162.179734
570.916145	10085.954967
571.271412	10155.157407
571.626625	10096.435526
571.981782	10073.513399
572.336884	10051.468434
572.691931	10051.375172
573.046923	9998.511113
573.401860	9961.791348
573.756743	9894.491944
574.111570	9939.108676
574.466342	9916.680583
574.821059	9942.947515
575.175722	9834.018262
575.530330	9847.248771
575.884882	9837.521864
576.239380	9765.932439
576.593823	9751.880222
576.948211	9756.883567
577.302544	9645.622782
577.656823	9656.599894
578.011047	9655.677363
578.365216	9636.775557
578.719330	9556.722033
579.073389	9565.387777
579.427394	9513.325261
579.781344	9497.816151
580.135239	9443.485115
580.489080	9451.833266
580.842866	9353.497998
581.196597	9357.475469
581.550273	9404.784177
581.903895	9368.376964
582.257463	9431.920708
582.610975	9310.910331
582.964434	9334.772633
583.317837	9262.379143
583.671186	9241.483560
584.024481	9237.773271
584.377721	9157.261003
584.730906	9135.447930
585.084037	9161.114965
585.437113	9100.605995
585.790135	9118.867575
586.143103	9013.497377
586.496016	8988.294129
586.848874	9053.703100
587.201679	9039.759268
587.554428	8919.968850
587.907124	8966.975089
588.259765	8938.293444
588.612352	8939.720091
588.964884	8816.179054
589.317362	8832.862753
589.669786	8828.600457
590.022155	8881.976194
590.374470	8896.978668
590.726731	8838.609668
591.078937	8687.246503
591.431090	8802.293196
591.783188	8677.491871
592.135232	8669.352928
592.487222	8665.158688
592.839157	8717.256492
593.191038	8646.140935
593.542866	8592.545908
593.894639	8492.693253
594.246358	8552.221718
594.598022	8563.546670
594.949633	8460.812996
595.301190	8431.811238
595.652692	8464.732493
596.004141	8578.085358
596.355535	8354.628652
596.706876	8335.235333
597.058162	8265.793439
597.409395	8346.645985
597.760573	8405.725787
598.111698	8321.404928
598.462768	8302.752658
598.813785	8261.886545
599.164748	8233.431752
599.515657	8218.424237
599.866511	8139.348697
600.217312	8264.971731
600.568060	8121.404710
600.918753	8220.914567
601.269392	8192.222840
601.619978	8103.559026
601.970510	8170.220724
602.320988	8162.270824
602.671412	8217.600008
603.021783	8161.917943
603.372100	8133.279148
603.722363	8138.761403
604.072572	8110.084799
604.422728	8117.921273
604.772830	8048.406282
605.122878	8052.766880
605.472872	8052.093886
605.822813	8081.390552
606.172701	8024.982561
606.522534	8101.073737
606.872314	8098.719518
607.222041	8066.879590
607.571714	8127.380998
607.921333	8083.538083
608.270899	8088.715348
608.620411	8176.660798
608.969870	8089.579906
609.319276	8076.291425
609.668627	8096.077953
610.017926	8126.599619
610.367171	8176.544851
610.716362	8152.962333
611.065500	8139.482288
611.414585	8173.081578
611.763616	8162.081781
612.112594	8140.054459
612.461518	8154.885534
612.810389	8219.903815
613.159207	8152.619535
613.507971	8104.476516
613.856682	8224.619815
614.205340	8175.491250
614.553945	8255.512006
614.902496	8153.204309
615.250994	8214.441725
615.599439	8191.030607
615.947830	8208.669604
616.296169	8179.728340
616.644454	8190.365174
616.992686	8193.510854
617.340864	8246.470696
617.688990	8151.260944
618.037063	8238.490550
618.385082	8196.109569
618.733048	8275.585880
619.080961	8218.789720
619.428821	8235.612051
619.776628	8230.855722
620.124382	8186.649844
620.472083	8170.061927
620.819731	8199.091412
621.167326	8089.859690
621.514868	8098.031401
621.862357	7986.271540
622.209793	8004.175198
622.557176	7940.092051
622.904506	7909.638440
623.251783	7842.563368
623.599007	7794.972355
623.946179	7804.048952
624.293297	7752.457784
624.640363	7672.721853
624.987376	7658.064699
625.334336	7608.149714
625.681243	7553.385139
626.028097	7543.068418
626.374899	7520.065633
626.721647	7513.255034
627.068343	7444.171062
627.414987	7413.384735
627.761577	7373.909980
628.108115	7407.224445
628.454600	7306.119063
628.801032	7351.433995
629.147412	7311.767676
629.493739	7302.607900
629.840014	7236.354535
630.186236	7297.861653
630.532405	7178.509816
630.878521	7229.763227
631.224585	7186.497524
631.570597	7112.016996
631.916556	7147.221894
632.262462	7143.267109
632.608316	7102.600121
632.954117	7081.681853
633.299866	7064.705767
633.645562	7056.317287
633.991206	6978.161759
634.336797	6917.766215
634.682336	6882.500823
635.027823	6844.848445
635.373257	6836.275963
635.718639	6765.319202
636.063968	6786.119003
636.409245	6676.879720
636.754470	6672.191447
637.099642	6636.036291
637.444762	6571.668318
637.789829	6589.934939
638.134845	6527.336412
638.479808	6512.180182
638.824719	6516.356778
639.169577	6444.837929
639.514383	6461.622451
639.859137	6392.205762
640.203839	6402.225055
640.548489	6387.928343
640.893086	6359.808787
641.237632	6333.120918
641.582125	6355.841399
641.926566	6323.804866
642.270955	6338.013358
642.615292	6333.660322
642.959576	6351.803435
643.303809	6340.047464
643.647990	6344.529050
643.992118	6335.979253
644.336195	6286.366737
644.680219	6311.310366
645.024192	6298.006761
645.368112	6393.186267
645.711981	6414.628814
646.055797	6491.173694
646.399562	6451.247756
646.743274	6578.892292
647.086935	6626.001875
647.430544	6625.263346
647.774101	6646.237066
648.117606	6651.310988
648.461059	6642.065511
648.804460	6608.448577
649.147810	6514.788980
649.491108	6488.660679
649.834354	6460.538602
650.177548	6376.474842
650.520690	6293.396626
650.863781	6268.253871
651.206820	6289.847654
651.549807	6209.965530
651.892742	6152.307333
652.235626	6157.484598
652.578458	6141.095807
652.921238	6047.562238
653.263967	6090.812818
653.606644	6031.296955
653.949269	6035.690321
654.291843	5974.425178
654.634365	6020.697929
654.976836	5976.776877
655.319255	5979.761240
655.661622	5959.649556
656.003938	5950.946004
656.346203	5907.728192
656.688416	5943.825374
657.030577	5893.252519
657.372687	5861.599114
657.714746	5851.403380
658.056753	5895.699999
658.398708	5836.531977
658.740612	5828.899670
659.082465	5874.643100
659.424266	5864.303693
659.766016	5863.141707
660.107715	5841.822668
660.449362	5859.691037
660.790958	5853.336663
661.132503	5834.467624
661.473996	5876.861207
661.815438	5863.338312
662.156829	5863.086254
662.498168	5851.189131
662.839456	5823.558567
663.180693	5863.260174
663.521879	5863.960895
663.863013	5851.625191
664.204097	5869.783427
664.545129	5911.743471
664.886110	5910.659623
665.227040	5941.435868
665.567918	5903.254168
665.908746	5937.846566
666.249522	5937.970074
666.590248	5927.817190
666.930922	5951.666889
667.271545	5965.754394
667.612118	5971.627338
667.952639	5946.348472
668.293109	5961.234999
668.633528	5924.273259
668.973896	5926.778713
669.314213	5917.724800
669.654480	5900.922635
669.994695	5893.549947
670.334859	5883.334049
670.674973	5870.395928
671.015035	5875.512699
671.355047	5875.174941
671.695008	5867.131780
672.034918	5834.578529
672.374777	5847.201579
672.714585	5832.486451
673.054342	5835.407799
673.394049	5829.136604
673.733705	5858.685327
674.073310	5845.432134
674.412864	5803.182223
674.752368	5796.905987
675.091820	5802.063087
675.431223	5739.439353
675.770574	5743.192493
676.109875	5695.029309
676.449125	5698.842942
676.788324	5662.279453
677.127473	5608.369353
677.466571	5598.813846
677.805619	5593.235810
678.144616	5569.514660
678.483562	5552.447834
678.822458	5521.114542
679.161303	5516.355693
679.500098	5503.951934
679.838842	5494.010778
680.177535	5496.296942
680.516179	5511.072564
680.854771	5521.684192
681.193314	5600.666470
681.531805	5704.365526
681.870247	5857.299010
682.208638	5965.479651
682.546978	5977.553214
682.885268	5952.486077
683.223508	5869.299477
683.561697	5815.676723
683.899836	5784.971055
684.237925	5739.129322
684.575963	5704.128591
684.913951	5662.725595
685.251889	5723.358073
685.589776	5692.760789
685.927614	5664.646274
686.265401	5734.279732
686.603137	5723.186673
686.940824	5792.658815
687.278460	5818.230068
687.616046	5827.311706
687.953582	5898.485237
688.291068	5874.539756
688.628504	5942.791938
688.965889	5905.510085
689.303224	5849.286096
689.640510	5801.879085
689.977745	5722.881684
690.314930	5625.816787
690.652065	5572.582202
690.989150	5477.581658
691.326185	5402.405451
691.663170	5353.067679
692.000105	5276.684116
692.336990	5191.392834
692.673825	5172.801058
693.010610	5102.938228
693.347345	5032.362074
693.684030	5017.775495
694.020665	4978.197396
694.357251	4885.813211
694.693786	4895.025920
695.030272	4863.070045
695.366707	4827.844983
695.703093	4794.066732
696.039429	4814.259073
696.375716	4797.406496
696.711952	4769.886837
697.048139	4763.424078
697.384276	4738.908947
697.720363	4748.293055
698.056400	4759.620527
698.392388	4715.220565
698.728326	4691.985887
699.064214	4668.201723
699.400053	4662.414478
699.735842	4632.170076
700.071581	4605.809882
700.407270	4575.716714
700.742910	4562.715579
701.078501	4506.993185
701.414042	4507.772043
701.749533	4474.651662
702.084974	4409.167074
702.420366	4461.932831
702.755709	4407.153133
703.091002	4351.135831
703.426246	4402.648862
703.761440	4356.055997
704.096584	4317.685255
704.431679	4339.021938
704.766725	4319.437056
705.101721	4315.552847
705.436668	4342.724666
705.771565	4289.255668
706.106413	4314.035459
706.441212	4348.637939
706.775961	4357.144887
707.110661	4336.030014
707.445311	4365.455229
707.779913	4389.720823
708.114465	4397.310280
708.448967	4423.758693
708.783421	4485.830421
709.117825	4524.117984
709.452180	4533.129047
709.786485	4580.160492
710.120742	4665.267771
710.454949	4647.769926
710.789107	4713.040266
711.123216	4790.542965
711.457275	4778.829844
711.791286	4853.277604
712.125247	4873.096900
712.459159	4774.391108
712.793023	4846.840051
713.126837	4810.193383
713.460602	4803.105520
713.794318	4722.326071
714.127985	4730.815374
714.461602	4646.658352
714.795171	4616.134165
715.128691	4546.394843
715.462162	4493.472810
715.795584	4442.050520
716.128957	4424.686266
716.462281	4374.685581
716.795556	4345.865305
717.128782	4310.131086
717.461960	4241.856219
717.795088	4248.054317
718.128167	4208.188873
718.461198	4148.967918
718.794180	4144.796363
719.127113	4126.514619
719.459997	4101.926391
719.792833	4061.277047
720.125619	4054.978125
720.458357	4015.485726
720.791046	4021.741798
721.123686	3996.296574
721.456278	3952.834266
721.788821	3967.458653
722.121315	3945.186835
722.453761	3917.339502
722.786158	3926.111109
723.118506	3949.837300
723.450805	3905.996905
723.783056	3924.883588
724.115259	3940.861525
724.447412	3944.627267
724.779518	3938.920681
725.111574	3947.775468
725.443582	3973.497955
725.775542	3960.214515
726.107453	4010.384078
726.439315	4009.953059
726.771129	4026.891336
727.102895	4063.898447
727.434612	4110.892083
727.766281	4123.391624
728.097901	4121.745687
728.429473	4124.261223
728.760996	4133.443685
729.092471	4128.876399
729.423897	4112.918627
729.755276	4118.536993
730.086606	4118.678145
730.417887	4157.789937
730.749120	4220.590111
731.080305	4290.478148
731.411442	4316.203156
731.742530	4285.222745
732.073570	4288.713744
732.404562	4340.531764
732.735506	4333.577492
733.066401	4295.879744
733.397249	4231.451277
733.728048	4152.925224
734.058798	4068.697625
734.389501	3997.597191
734.720156	3938.441772
735.050762	3891.133063
735.381320	3886.709451
735.711831	3833.868076
736.042293	3804.331956
736.372707	3829.731809
736.703073	3799.704177
737.033391	3786.617341
737.363661	3807.064261
737.693883	3832.154084
738.024056	3842.206145
738.354182	3838.085001
738.684260	3900.854928
739.014290	3921.453083
739.344272	3915.927978
739.674207	3960.829536
740.004093	3961.580668
740.333931	3960.509422
740.663722	3960.466573
740.993464	3960.378352
741.323159	3934.209723
741.652806	3904.182090
741.982405	3876.533882
742.311956	3846.113039
742.641460	3834.651976
742.970915	3810.028460
743.300323	3773.840537
743.629683	3735.936101
743.958996	3725.700038
744.288260	3699.738096
744.617477	3664.760050
744.946647	3653.571209
745.275768	3626.399390
745.604842	3627.657157
745.933869	3578.125300
746.262847	3568.985688
746.591778	3609.866926
746.920662	3581.402050
747.249498	3545.191442
747.578286	3592.157352
747.907027	3608.906586
748.235720	3608.334415
748.564365	3632.368116
748.892963	3634.314001
749.221514	3617.335395
749.550017	3593.205912
749.878473	3593.468052
750.206881	3562.621232
750.535242	3558.290881
750.863555	3558.777352
751.191821	3552.939696
751.520039	3534.405894
751.848210	3510.074765
752.176334	3545.312430
752.504411	3551.654202
752.832440	3516.411495
753.160421	3494.981550
753.488356	3505.991430
753.816243	3514.989890
754.144082	3476.117552
754.471875	3458.337403
754.799620	3477.438335
755.127318	3471.847695
755.454969	3467.676140
755.782572	3478.423880
756.110129	3453.341619
756.437638	3442.591359
756.765100	3453.616362
757.092515	3466.410811
757.419882	3473.075216
757.747203	3443.687810
758.074477	3446.568829
758.401703	3461.480562
758.728882	3485.368070
759.056014	3489.738750
759.383099	3494.805110
759.710138	3492.150942
760.037129	3508.264990
760.364073	3544.324364
760.690970	3527.275182
761.017820	3500.889782
761.344623	3521.029192
761.671379	3566.812951
761.998088	3615.510497
762.324751	3747.079572
762.651366	3992.026716
762.977935	4469.081187
763.304456	4917.811935
763.630931	5014.097973
763.957359	4647.676665
764.283740	4304.583296
764.610074	4115.930716
764.936362	3913.263729
765.262602	3751.198194
765.588796	3642.924292
765.914943	3554.668812
766.241044	3467.353506
766.567097	3434.485183
766.893104	3387.703276
767.219064	3355.281095
767.544978	3327.963082
767.870845	3273.954680
768.196665	3255.007503
768.522438	3263.587547
768.848165	3257.190323
769.173846	3219.411916
769.499479	3203.552446
769.825066	3185.835311
770.150607	3170.863084
770.476101	3185.923531
770.801548	3180.370700
771.126949	3136.961324
771.452303	3117.240331
771.777611	3125.202833
772.102872	3129.444964
772.428087	3106.285903
772.753256	3093.690580
773.078378	3089.156063
773.403453	3051.327244
773.728482	3042.233003
774.053465	3063.279820
774.378401	3050.959240
774.703291	3017.112933
775.028135	3020.835825
775.352932	3016.051770
775.677683	3000.605675
776.002388	2995.859428
776.327046	3000.887979
776.651658	2990.730054
776.976224	2974.968887
777.300743	2977.207159
777.625216	2968.296920
777.949643	2963.850622
778.274024	2965.947742
778.598359	2954.511884
778.922647	2961.947586
779.246889	2959.676547
779.571086	2945.158023
779.895236	2936.416663
780.219339	2953.707820
780.543397	2962.222329
780.867409	2965.083184
781.191374	2955.250413
781.515294	2954.564817
781.839167	2957.231587
782.162995	2945.659618
782.486776	2955.963737
782.810511	2956.845939
783.134201	2937.422373
783.457844	2941.835903
783.781441	2935.978082
784.104993	2916.418405
784.428498	2920.232038
784.751958	2933.240736
785.075372	2926.639345
785.398739	2909.726274
785.722061	2928.242432
786.045337	2935.330294
786.368568	2923.959972
786.691752	2914.349012
787.014891	2962.018163
787.337983	2991.642503
787.661030	3018.799199
787.984031	3087.956268
788.306987	3135.169194
788.629897	3127.254583
788.952760	3110.520472
789.275579	3095.800303
789.598351	3037.181766
789.921078	2991.841629
790.243759	2983.122953
790.566395	2963.202834
790.888984	2940.396654
791.211529	2924.446443
791.534027	2913.008065
791.856480	2906.210069
792.178888	2891.074004
792.501249	2880.343908
792.823566	2878.733260
793.145836	2875.302755
793.468062	2869.296220
793.790241	2869.525592
794.112375	2876.900800
794.434464	2888.429919
794.756507	2891.366391
795.078505	2897.221692
795.400457	2911.911614
795.722364	2948.691872
796.044226	2971.840851
796.366042	2977.076089
796.687812	2961.866928
797.009538	2985.593118
797.331218	2977.116418
797.652852	2960.820888
797.974442	2940.449586
798.295986	2935.542023
798.617484	2933.296188
798.938938	2915.049732
799.260346	2899.873338
799.581709	2896.941908
799.903026	2888.729868
800.224299	2880.346429
800.545526	2873.172867
800.866708	2856.264837
801.187845	2847.284022
801.508936	2847.054649
801.829983	2854.409692
802.150984	2839.807990
802.471940	2827.119406
802.792851	2829.551763
803.113717	2829.589572
803.434538	2832.959583
803.755314	2826.774087
804.076045	2821.110351
804.396731	2820.213025
804.717372	2822.962975
805.037967	2817.137922
805.358518	2825.203768
805.679024	2836.284224
805.999485	2830.065961
806.319901	2832.394974
806.640272	2824.929025
806.960598	2829.831547
807.280879	2840.496108
807.601115	2847.445338
807.921306	2834.534943
808.241453	2830.166784
808.561554	2839.656756
808.881611	2840.680110
809.201623	2834.323215
809.521590	2832.616784
809.841513	2829.675271
810.161390	2834.202227
810.481223	2827.626042
810.801011	2817.566420
811.120755	2813.225986
811.440453	2815.925524
811.760107	2817.410144
812.079716	2815.055925
812.399281	2800.492032
812.718801	2798.639407
813.038276	2793.033644
813.357707	2797.127061
813.677093	2803.403298
813.996434	2800.807104
814.315731	2795.874335
814.634983	2791.359981
814.954191	2793.706638
815.273354	2807.116108
815.592473	2815.166830
815.911547	2818.751091
816.230577	2823.557831
816.549562	2836.745489
816.868502	2832.422700
817.187399	2844.294617
817.506250	2861.706763
817.825058	2853.071266
818.143821	2865.648945
818.462539	2883.439177
818.781213	2909.340625
819.099843	2947.189608
819.418429	3006.561798
819.736970	3065.371899
820.055466	3142.743528
820.373919	3247.231524
820.692327	3392.232752
821.010691	3563.455543
821.329011	4014.338863
821.647286	4924.899797
821.965517	6325.208827
822.283704	7086.798624
822.601847	7071.410502
822.919945	6424.280103
823.237999	5910.921763
823.556010	5320.678265
823.873976	4757.079786
824.191897	4336.357689
824.509775	4038.692677
824.827609	3765.777211
825.145398	3638.074702
825.463144	3626.449801
825.780845	3713.409705
826.098502	3823.377435
826.416116	4109.047021
826.733685	4435.386115
827.051210	4502.004963
827.368692	4384.785533
827.686129	4111.118935
828.003522	3780.000827
828.320872	3518.705220
828.638177	3318.455466
828.955439	3181.787264
829.272656	3097.342896
829.589830	3028.460570
829.906960	2977.585246
830.224046	2928.121444
830.541088	2896.969634
830.858086	2879.013044
831.175041	2862.120137
831.491952	2863.541743
831.808819	2875.156561
832.125642	2899.830489
832.442421	2947.671039
832.759157	3030.348482
833.075849	3211.411605
833.392497	3496.657734
833.709101	3703.571893
834.025662	3654.828977
834.342179	3494.434585
834.658653	3308.811738
834.975083	3159.901095
835.291469	3061.795200
835.607811	2974.621047
835.924110	2913.635688
836.240366	2862.914119
836.556578	2818.965340
836.872746	2796.544808
837.188871	2772.352311
837.504952	2755.708941
837.820990	2748.001017
838.136984	2732.015518
838.452935	2729.139540
838.768842	2722.636452
839.084706	2744.603279
839.400526	2823.492296
839.716303	2959.172431
840.032037	3038.699154
840.347727	3023.991587
840.663373	2964.407669
840.978977	2888.165259
841.294537	2811.143990
841.610054	2764.062133
841.925527	2741.422311
842.240957	2722.114692
842.556344	2698.204499
842.871687	2682.009793
843.186987	2672.741631
843.502244	2667.430776
843.817458	2663.539005
844.132629	2650.933600
844.447756	2640.904224
844.762840	2638.839872
845.077881	2640.206024
845.392879	2636.268883
845.707833	2632.170425
846.022745	2624.490227
846.337613	2628.555918
846.652438	2627.903088
846.967221	2626.678088
847.281960	2621.825977
847.596656	2623.267747
847.911309	2621.616770
848.225919	2619.529732
848.540485	2615.980760
848.855009	2614.836418
849.169490	2615.438836
849.483928	2617.331789
849.798323	2616.537807
850.112675	2613.898763
850.426984	2615.191819
850.741251	2610.203597
851.055474	2614.881788
851.369654	2617.593929
851.683792	2616.436984
851.997887	2614.513784
852.311938	2611.975563
852.625947	2614.886829
852.939914	2618.337499
853.253837	2619.005452
853.567718	2611.436159
853.881555	2612.406582
854.195350	2613.616458
854.509103	2615.509412
854.822812	2610.571602
855.136479	2610.997579
855.450103	2616.043774
855.763685	2617.457818
856.077224	2612.847682
856.390720	2609.780140
856.704173	2613.271139
857.017584	2616.240379
857.330953	2618.776079
857.644278	2619.607870
857.957561	2617.699793
858.270802	2617.651902
858.584000	2616.915894
858.897155	2620.396810
859.210268	2621.210957
859.523339	2615.116202
859.836367	2611.244596
860.149352	2609.278546
860.462295	2616.436984
860.775195	2606.188318
861.088054	2611.736108
861.400869	2608.625716
861.713642	2607.244440
862.026373	2607.378031
862.339062	2609.946498
862.651708	2615.582508
862.964312	2615.078393
863.276873	2617.813219
863.589392	2616.825153
863.901869	2620.961420
864.214303	2626.519292
864.526696	2629.707822
864.839045	2632.508182
865.151353	2634.784263
865.463619	2633.821403
865.775842	2635.590848
866.088023	2632.460292
866.400162	2636.155457
866.712258	2634.882566
867.024313	2633.367699
867.336325	2631.079015
867.648296	2632.480456
867.960224	2635.119500
868.272110	2635.754686
868.583954	2629.407873
868.895755	2630.416104
869.207515	2632.495580
869.519233	2641.796508
869.830909	2639.006230
870.142542	2632.956845
870.454134	2634.242339
870.765684	2640.309368
871.077191	2640.868936
871.388657	2645.428660
871.700081	2643.311375
872.011463	2642.847589
872.322803	2647.195584
872.634101	2648.125677
872.945357	2653.688590
873.256571	2661.840136
873.567744	2659.906854
873.878874	2658.805362
874.189963	2660.413490
874.501010	2666.813234
874.812015	2669.313647
875.122979	2667.957576
875.433900	2662.387101
875.744780	2657.787048
876.055618	2666.883811
876.366415	2670.205931
876.677169	2670.531085
876.987882	2664.625374
877.298554	2663.798624
877.609183	2675.468896
877.919771	2679.274967
878.230317	2687.005576
878.540822	2699.893286
878.851285	2713.912735
879.161707	2737.817886
879.472087	2779.717437
879.782425	2829.576969
880.092722	2946.120884
880.402977	3142.252015
880.713191	3407.043662
881.023363	3712.557750
881.333494	3906.611926
881.643583	4087.828804
881.953631	4082.253288
882.263637	3902.175711
882.573602	3678.880322
882.883526	3542.398643
883.193408	3421.516815
883.503248	3318.889005
883.813048	3198.818803
884.122806	3081.314548
884.432522	2993.056547
884.742197	2928.275199
885.051831	2886.839435
885.361424	2846.860565
885.670975	2813.866213
885.980485	2780.244237
886.289954	2765.191352
886.599382	2748.603435
886.908768	2735.574573
887.218113	2716.133363
887.527417	2701.188862
887.836680	2696.941690
888.145901	2689.838705
888.455082	2682.919721
888.764221	2669.661486
889.073319	2662.666885
889.382376	2662.092194
889.691392	2662.054385
890.000366	2663.639828
890.309300	2660.602533
890.618193	2662.591268
890.927044	2667.486228
891.235855	2662.563542
891.544625	2663.942297
891.853353	2663.239056
892.162041	2672.348421
892.470687	2690.988088
892.779293	2706.419060
893.087858	2712.657487
893.396381	2739.206724
893.704864	2781.633075
894.013306	2855.422964
894.321707	2949.334619
894.630068	3004.212620
894.938387	3024.329345
895.246665	3019.167203
895.554903	2973.038125
895.863100	2925.769746
896.171256	2867.042824
896.479371	2804.948412
896.787446	2764.856115
897.095480	2742.712847
897.403473	2737.449882
897.711425	2720.635113
898.019336	2701.887062
898.327207	2688.991791
898.635038	2688.737212
898.942827	2684.318641
899.250576	2673.419667
899.558284	2661.293171
899.865952	2657.328303
900.173579	2653.471821
900.481165	2651.793117
900.788711	2645.043012
901.096216	2637.670324
901.403681	2632.926598
901.711105	2637.322484
902.018489	2634.711167
902.325832	2634.683440
902.633135	2637.188894
902.940397	2655.722696
903.247619	2692.901206
903.554800	2762.461567
903.861941	2895.522823
904.169041	3029.413348
904.476101	3094.940787
904.783121	3089.534149
905.090100	3029.801517
905.397039	2950.211780
905.703938	2874.158413
906.010796	2805.966725
906.317614	2753.135432
906.624391	2715.518342
906.931129	2689.102696
907.237826	2662.704694
907.544483	2644.604431
907.851099	2631.842750
908.157675	2621.074846
908.464211	2614.591922
908.770707	2602.087340
909.077163	2598.006526
909.383578	2593.227512
909.689954	2593.472008
909.996289	2589.759198
910.302584	2590.331369
910.608839	2589.063519
910.915054	2585.668302
911.221229	2590.719538
911.527363	2594.830599
911.833458	2591.788262
912.139513	2591.135433
912.445527	2593.494693
912.751502	2597.532657
913.057436	2603.758482
913.363331	2613.026643
913.669186	2623.638272
913.975000	2639.893473
914.280775	2658.094559
914.586510	2674.642146
914.892205	2713.219576
915.197859	2784.302366
915.503475	2869.286138
915.809050	2939.083433
916.114585	2958.557410
916.420081	2970.908237
916.725536	2981.429125
917.030952	2954.496761
917.336328	2904.226375
917.641665	2852.191585
917.946961	2802.659728
918.252218	2765.093049
918.557435	2737.855695
918.862612	2717.668394
919.167750	2697.198789
919.472848	2681.724967
919.777906	2662.137564
920.082925	2648.493681
920.387904	2638.703761
920.692843	2631.552884
920.997743	2629.128089
921.302603	2621.397479
921.607423	2615.121243
921.912204	2608.562702
922.216946	2606.256374
922.521647	2602.011722
922.826310	2599.201279
923.130932	2593.656010
923.435516	2586.701738
923.740059	2585.418764
924.044564	2584.007241
924.349028	2581.264854
924.653454	2571.807649
924.957840	2570.365879
925.262186	2568.813204
925.566493	2570.628019
925.870761	2565.281875
926.174989	2567.653738
926.479178	2565.975034
926.783328	2564.003943
927.087438	2563.522513
927.391509	2563.235167
927.695541	2561.765671
927.999533	2558.345248
928.303486	2558.181410
928.607400	2557.153015
928.911275	2557.289126
929.215110	2557.334496
929.518906	2555.335679
929.822663	2557.803324
930.126381	2555.507078
930.430060	2556.802655
930.733699	2558.582182
931.037299	2559.587892
931.340861	2559.010680
931.644383	2559.353478
931.947866	2558.315001
932.251309	2556.706873
932.554714	2556.502706
932.858080	2559.197203
933.161407	2555.890206
933.464694	2557.248797
933.767943	2555.983467
934.071153	2555.580175
934.374323	2551.877447
934.677455	2552.235369
934.980548	2550.846531
935.283602	2554.196378
935.586617	2551.799309
935.889593	2552.684032
936.192530	2554.824002
936.495428	2553.455328
936.798287	2555.343241
937.101108	2557.175700
937.403890	2560.409600
937.706632	2564.654252
938.009336	2566.834551
938.312002	2567.197514
938.614628	2572.019377
938.917216	2575.853175
939.219765	2577.610017
939.522275	2579.432394
939.824747	2578.570357
940.127179	2573.347722
940.429573	2568.641804
940.731929	2569.050138
941.034246	2567.931002
941.336524	2570.239850
941.638763	2566.456464
941.940964	2568.120045
942.243126	2563.343552
942.545250	2565.027297
942.847335	2560.328942
943.149381	2559.885320
943.451389	2561.463201
943.753359	2557.878941
944.055290	2560.399518
944.357182	2556.802655
944.659036	2557.473128
944.960851	2559.930691
945.262628	2556.001111
945.564367	2556.943807
945.866067	2558.378015
946.167729	2559.048489
946.469352	2556.495144
946.770937	2558.231822
947.072484	2556.704352
947.373992	2558.907336
947.675462	2555.928014
947.976893	2556.656461
948.278286	2554.723179
948.579641	2555.887685
948.880958	2552.830225
949.182236	2555.141594
949.483476	2551.673281
949.784678	2554.685370
950.085841	2552.381563
950.386967	2556.646379
950.688054	2556.409445
950.989103	2555.151677
951.290114	2555.025648
951.591087	2557.442881
951.892021	2558.874569
952.192917	2561.324570
952.493776	2560.644014
952.794596	2561.246432
953.095378	2563.426731
953.396122	2564.349262
953.696828	2561.102759
953.997496	2559.300546
954.298126	2555.582695
954.598718	2557.904147
954.899272	2554.040102
955.199788	2553.319217
955.500266	2553.021789
955.800706	2548.303269
956.101108	2542.662218
956.401472	2543.867054
956.701798	2543.224307
957.002087	2545.472661
957.302337	2543.846889
957.602550	2542.967208
957.902724	2544.358566
958.202861	2544.371169
958.502960	2541.631302
958.803022	2541.772454
959.103045	2541.664070
959.403031	2541.878319
959.702979	2539.526620
960.002889	2537.127031
960.302762	2539.478729
960.602596	2540.975952
960.902393	2539.904707
961.202153	2539.413194
961.501875	2540.265149
961.801559	2539.808925
962.101205	2539.357742
962.400814	2538.402443
962.700385	2539.824048
962.999918	2539.546785
963.299414	2538.470499
963.598873	2539.907227
963.898293	2540.176929
964.197677	2538.931764
964.497022	2537.036290
964.796331	2536.844727
965.095601	2538.649460
965.394835	2538.795653
965.694030	2539.077958
965.993189	2537.202648
966.292309	2539.241795
966.591393	2537.313554
966.890439	2535.528985
967.189447	2537.921013
967.488419	2537.701723
967.787353	2536.103677
968.086249	2537.968904
968.385108	2536.098636
968.683930	2535.927237
968.982714	2534.926567
969.281462	2536.486805
969.580172	2535.929757
969.878844	2536.443955
970.177480	2536.973276
970.476078	2537.863040
970.774639	2538.087371
971.073162	2538.697351
971.371649	2536.759027
971.670098	2532.862215
971.968510	2533.633512
972.266885	2534.626619
972.565223	2537.474871
972.863524	2538.803215
973.161788	2539.088040
973.460014	2537.056455
973.758204	2539.173740
974.056356	2538.407484
974.354471	2537.636188
974.652550	2538.828421
974.950591	2537.404295
975.248595	2537.923533
975.546563	2538.702392
975.844493	2534.737524
976.142386	2538.878832
976.440243	2537.207690
976.738062	2538.379758
977.035845	2535.823893
977.333590	2538.205838
977.631299	2537.399253
977.928971	2535.997813
978.226606	2536.403626
978.524204	2536.927906
978.821765	2536.416228
979.119290	2534.551002
979.416777	2537.331198
979.714228	2534.808100
980.011642	2533.966228
980.309020	2538.425128
980.606360	2535.796167
980.903664	2536.703574
981.200931	2537.089223
981.498162	2538.810777
981.795356	2542.289173
982.092513	2544.003165
982.389633	2543.841848
982.686717	2549.616490
982.983764	2551.496840
983.280775	2553.089845
983.577749	2553.435164
983.874686	2554.115720
984.171587	2547.161448
984.468451	2547.065666
984.765279	2543.304965
985.062070	2543.093237
985.358824	2541.759852
985.655543	2540.517207
985.952224	2538.155427
986.248869	2539.456044
986.545478	2529.681247
986.842050	2535.120652
987.138586	2529.172090
987.435086	2531.042358
987.731549	2527.382481
988.027975	2534.374561
988.324366	2531.899355
988.620719	2538.137783
988.917037	2533.507483
989.213318	2532.506814
989.509563	2534.185518
989.805772	2533.535209
990.101944	2531.755682
990.398080	2532.335414
990.694180	2535.523944
990.990244	2534.024201
991.286271	2533.751979
991.582262	2533.235260
991.878217	2533.802390
992.174136	2535.372710
992.470019	2536.443955
992.765865	2534.798018
993.061676	2530.883562
993.357450	2534.172915
993.653188	2532.227030
993.948890	2534.813142
994.244556	2534.228368
994.540186	2537.086702
994.835780	2533.129396
995.131337	2535.128214
995.426859	2534.142668
995.722345	2536.917823
996.017795	2536.905220
996.313208	2535.037473
996.608586	2539.123328
996.903928	2540.428987
997.199234	2536.973276
997.494504	2537.132072
997.789738	2535.705426
998.084936	2536.224665
998.380099	2535.851619
998.675225	2534.054448
998.970316	2535.889428
999.265371	2530.762574
999.560390	2533.227699
999.855373	2532.864736
1000.150320	2534.540919
1000.445232	2531.372554
1000.740108	2529.615712
1001.034948	2533.134437
1001.329752	2533.683923
1001.624521	2533.530168
1001.919254	2525.245032
1002.213951	2528.937677
1002.508613	2531.080167
1002.803239	2528.599919
1003.097829	2527.319466
1003.392384	2535.549150
1003.686903	2531.430527
1003.981386	2532.393388
1004.275834	2530.760054
1004.570246	2530.258459
1004.864623	2531.284334
1005.158964	2532.002698
1005.453270	2530.515558
1005.747540	2529.260311
1006.041775	2532.927750
1006.335974	2531.995137
1006.630138	2529.325846
1006.924266	2532.237112
1007.218359	2531.448171
1007.512416	2534.011598
1007.806438	2530.752492
1008.100425	2532.350538
1008.394376	2529.136802
1008.688292	2530.631504
1008.982172	2527.931967
1009.276017	2529.814838
1009.569827	2529.293078
1009.863602	2532.138809
1010.157341	2528.413397
1010.451045	2530.465146
1010.744714	2529.590506
1011.038347	2532.784077
1011.331945	2533.169725
1011.625508	2531.281813
1011.919036	2528.546987
1012.212528	2532.113604
1012.505986	2529.880372
1012.799408	2531.760723
1013.092795	2529.131761
1013.386147	2530.387008
1013.679464	2532.048069
1013.972745	2530.666793
1014.265992	2531.090249
1014.559204	2531.687626
1014.852380	2532.665610
1015.145521	2531.969931
1015.438628	2528.378109
1015.731699	2531.574200
1016.024736	2528.751154
1016.317737	2531.060002
1016.610703	2530.765095
1016.903635	2528.912471
1017.196531	2527.526154
1017.489393	2529.172090
1017.782219	2525.015659
1018.075011	2529.779549
1018.367768	2529.633356
1018.660490	2531.044879
1018.953177	2531.044879
1019.245829	2531.044879
