Dividing Wavelength (nm)	Counts (n)	Blue Motor Position (mm): 15.800000	Red Motor Position (mm): 0.000000	
326.493990	2059.155070
326.888308	2059.155070
327.282561	2059.155070
327.676750	2036.628674
328.070874	2037.011802
328.464933	2045.067566
328.858929	2052.334389
329.252859	2066.129507
329.646726	2074.618810
330.040528	2094.468353
330.434265	2106.582246
330.827938	2130.852881
331.221547	2152.355923
331.615091	2172.528100
332.008571	2192.518795
332.401986	2213.449666
332.795338	2232.159909
333.188625	2252.717734
333.581847	2271.871598
333.975006	2287.922632
334.368100	2308.276291
334.761129	2323.225832
335.154095	2339.181084
335.546996	2379.901004
335.939833	2466.190435
336.332606	2477.074286
336.725315	2489.727582
337.117960	2499.900631
337.510540	2508.152999
337.903056	2517.748836
338.295508	2523.596574
338.687896	2534.021680
339.080220	2533.015970
339.472480	2541.709440
339.864676	2544.169523
340.256807	2545.392003
340.648875	2550.705379
341.040879	2549.220759
341.432818	2551.665719
341.824694	2554.657644
342.216506	2548.101623
342.608253	2551.975750
342.999937	2550.904505
343.391557	2549.533311
343.783113	2546.125491
344.174605	2545.419729
344.566033	2544.388813
344.957397	2541.898483
345.348697	2541.976621
345.739934	2543.463762
346.131106	2537.016126
346.522215	2537.527803
346.913260	2533.278110
347.304241	2536.307844
347.695159	2533.867925
348.086012	2530.991947
348.476802	2528.027748
348.867528	2524.498941
349.258191	2521.754032
349.648789	2522.180010
350.039324	2520.796213
350.429796	2521.917870
350.820203	2521.005421
351.210548	2520.952489
351.600828	2518.789834
351.991045	2518.620955
352.381198	2518.371418
352.771288	2519.306552
353.161314	2516.612056
353.551276	2516.828825
353.941175	2515.979391
354.331010	2519.883764
354.720782	2522.641276
355.110490	2522.227901
355.500135	2518.875534
355.889717	2517.998373
356.279235	2519.054495
356.668689	2517.983249
357.058080	2519.208250
357.447408	2521.819567
357.836672	2518.799916
358.225873	2520.828981
358.615010	2519.964423
359.004084	2521.426358
359.393095	2521.020545
359.782043	2523.354599
360.170927	2524.592202
360.559748	2523.778056
360.948505	2524.125895
361.337199	2526.170083
361.725830	2525.645803
362.114398	2525.819723
362.502903	2526.943900
362.891344	2528.239477
363.279722	2525.426513
363.668037	2525.262676
364.056289	2528.289888
364.444478	2529.963552
364.832603	2532.234591
365.220665	2530.709642
365.608665	2529.187214
365.996601	2530.460105
366.384474	2530.961700
366.772284	2531.256607
367.160031	2529.867770
367.547715	2529.923222
367.935336	2530.084539
368.322893	2528.957841
368.710388	2526.888448
369.097820	2530.659231
369.485189	2527.427851
369.872495	2531.712832
370.259738	2533.474715
370.646918	2531.859025
371.034035	2536.438914
371.421090	2531.841381
371.808081	2536.144006
372.195010	2534.689633
372.581875	2532.721063
372.968678	2533.457071
373.355418	2533.265507
373.742096	2534.611495
374.128710	2536.138965
374.515262	2537.469830
374.901751	2534.858512
375.288177	2538.778009
375.674540	2533.787267
376.060841	2536.154088
376.447079	2534.316588
376.833254	2538.707433
377.219367	2538.982176
377.605417	2536.582587
377.991404	2539.312371
378.377329	2535.211393
378.763191	2540.224820
379.148991	2540.555016
379.534727	2537.311033
379.920402	2539.602238
380.306013	2539.612320
380.691563	2540.988555
381.077049	2537.628626
381.462474	2540.650798
381.847835	2538.389840
382.233134	2538.886394
382.618371	2540.307999
383.003545	2542.037115
383.388657	2540.988555
383.773706	2542.447969
384.158693	2540.975952
384.543618	2541.724563
384.928480	2544.537527
385.313280	2543.186498
385.698017	2541.870757
386.082692	2542.019471
386.467305	2541.583411
386.851856	2545.117260
387.236344	2543.536858
387.620770	2543.088196
388.005133	2541.177598
388.389435	2542.518545
388.773674	2539.173740
389.157851	2544.812270
389.541965	2542.836138
389.926018	2545.132383
390.310008	2547.191695
390.693936	2546.571633
391.077802	2545.172713
391.461606	2544.676159
391.845348	2547.461397
392.229027	2547.398382
392.612645	2547.564740
392.996200	2546.417878
393.379694	2545.785213
393.763125	2549.162786
394.146494	2548.943496
394.529801	2547.665563
394.913047	2549.266130
395.296230	2549.619010
395.679351	2547.496685
396.062410	2550.181099
396.445408	2548.653629
396.828343	2549.739998
397.211217	2549.626572
397.594028	2548.938455
397.976778	2549.024154
398.359466	2551.539690
398.742092	2550.385266
399.124656	2552.820143
399.507158	2546.871582
399.889598	2553.031872
400.271977	2547.272353
400.654294	2547.731098
401.036549	2548.968702
401.418742	2549.109854
401.800874	2552.341233
402.182944	2547.879812
402.564952	2551.499361
402.946898	2549.321582
403.328783	2553.205791
403.710606	2553.369629
404.092367	2555.146636
404.474067	2553.004145
404.855705	2551.406099
405.237282	2551.484237
405.618797	2553.777962
406.000250	2553.750236
406.381642	2555.184444
406.762972	2549.989535
407.144240	2546.604400
407.525447	2552.633620
407.906593	2549.745039
408.287677	2554.423230
408.668700	2553.271326
409.049661	2553.659495
409.430560	2558.088149
409.811399	2556.406924
410.192176	2555.287788
410.572891	2556.137222
410.953545	2555.345761
411.334138	2554.508930
411.714669	2554.970195
412.095139	2555.456667
412.475547	2554.587067
412.855894	2555.108827
413.236180	2555.257541
413.616405	2556.583364
413.996568	2555.035730
414.376670	2557.130330
414.756711	2553.233518
415.136691	2554.224104
415.516609	2558.196534
415.896466	2556.192675
416.276262	2557.722665
416.655997	2557.200906
417.035670	2556.406924
417.415283	2558.251986
417.794834	2558.234342
418.174324	2556.106975
418.553753	2556.651420
418.933121	2557.679815
419.312428	2559.623180
419.691674	2559.255176
420.070859	2558.045299
420.449983	2557.407593
420.829045	2557.727706
421.208047	2555.741492
421.586988	2557.147974
421.965867	2558.521688
422.344686	2558.927501
422.723444	2559.799621
423.102141	2559.401369
423.480777	2557.946997
423.859352	2557.581513
424.237866	2559.303067
424.616319	2558.773746
424.994712	2559.608057
425.373044	2556.860628
425.751314	2556.621173
426.129524	2553.546069
426.507673	2556.936245
426.885762	2553.382232
427.263789	2555.617983
427.641756	2559.270299
428.019662	2560.621329
428.397508	2558.846842
428.775292	2558.650237
429.153016	2558.108313
429.530679	2559.721483
429.908282	2558.030176
430.285824	2559.779456
430.663305	2557.851215
431.040726	2556.651420
431.418086	2557.405072
431.795385	2562.088304
432.172624	2555.083621
432.549802	2559.552604
432.926920	2557.584033
433.303977	2561.400187
433.680974	2557.032027
434.057910	2557.972202
434.434786	2557.778118
434.811601	2558.279713
435.188355	2558.257027
435.565050	2559.933211
435.941683	2558.642676
436.318257	2556.974054
436.694770	2561.216185
437.071222	2558.551935
437.447614	2562.300033
437.823946	2560.308777
438.200218	2557.694939
438.576429	2559.653427
438.952580	2558.012532
439.328670	2557.732747
439.704700	2560.049158
440.080670	2559.401369
440.456580	2558.199054
440.832429	2558.829198
441.208218	2559.527398
441.583947	2558.642676
441.959616	2558.834240
442.335224	2562.156360
442.710773	2557.757953
443.086261	2562.138716
443.461689	2560.429765
443.837057	2560.515464
444.212365	2559.489590
444.587612	2556.018755
444.962800	2557.047151
445.337927	2555.900288
445.712995	2556.447253
446.088002	2557.750392
446.462949	2560.306257
446.837837	2562.277348
447.212664	2561.695094
447.587431	2560.147460
447.962139	2559.678633
448.336786	2561.609395
448.711374	2562.713408
449.085901	2560.497820
449.460369	2561.768191
449.834776	2560.790207
450.209124	2560.507903
450.583412	2560.873386
450.957640	2561.453119
451.331808	2560.601164
451.705917	2560.520506
452.079965	2560.366750
452.453954	2563.162070
452.827883	2562.610064
453.201752	2560.906154
453.575562	2564.031669
453.949311	2563.593089
454.323001	2564.825651
454.696632	2562.599982
455.070202	2560.913716
455.443713	2563.767009
455.817164	2561.064950
456.190556	2561.014539
456.563888	2565.251628
456.937160	2564.828172
457.310373	2563.121741
457.683526	2560.555794
458.056619	2563.671227
458.429653	2558.909857
458.802628	2564.951680
459.175542	2561.437996
459.548398	2563.782132
459.921194	2563.925805
460.293930	2563.177194
460.666607	2562.862122
461.039224	2562.758778
461.411782	2562.988150
461.784280	2564.432441
462.156719	2566.491752
462.529099	2564.306412
462.901419	2565.246587
463.273680	2563.151988
463.645882	2559.585372
464.018024	2562.753737
464.390106	2560.785166
464.762130	2564.129972
465.134094	2564.114848
465.505999	2566.557287
465.877845	2566.761454
466.249631	2571.081723
466.621358	2569.892011
466.993026	2566.259859
467.364634	2570.922927
467.736184	2567.396639
468.107674	2567.542833
468.479105	2564.641649
468.850477	2569.821434
469.221790	2568.762792
469.593043	2565.365054
469.964238	2566.826989
470.335373	2564.790363
470.706449	2570.638101
471.077467	2568.500652
471.448425	2567.931002
471.819324	2569.115673
472.190164	2572.846127
472.560945	2567.895714
472.931667	2566.539643
473.302330	2570.776733
473.672934	2568.588872
474.043479	2572.747824
474.413965	2569.249263
474.784393	2570.658266
475.154761	2571.711867
475.525070	2568.702298
475.895321	2570.474264
476.265513	2571.585838
476.635645	2569.178687
477.005719	2569.627350
477.375734	2567.343707
477.745691	2572.962073
478.115588	2572.742783
478.485427	2572.737742
478.855207	2575.641447
479.224928	2575.480130
479.594591	2576.054821
479.964194	2575.102043
480.333739	2577.975501
480.703226	2576.190932
481.072653	2579.124884
481.442022	2577.862075
481.811333	2576.284194
482.180584	2573.935016
482.549777	2577.365521
482.918912	2576.143041
483.287988	2576.531210
483.657005	2577.181519
484.025964	2577.579770
484.394864	2580.924576
484.763706	2579.646643
485.132489	2578.802250
485.501213	2581.466500
485.869879	2580.417940
486.238487	2581.902560
486.607036	2581.222004
486.975527	2580.448187
487.343959	2581.418609
487.712333	2581.287539
488.080648	2581.297621
488.448905	2584.236614
488.817104	2583.818198
489.185244	2586.520257
489.553326	2588.453539
489.921350	2589.421441
490.289315	2592.516709
490.657222	2594.971751
491.025070	2598.104828
491.392861	2595.821185
491.760593	2595.969899
492.128267	2595.397728
492.495883	2595.354879
492.863440	2593.809765
493.230939	2593.262800
493.598380	2593.398911
493.965763	2595.604416
494.333088	2597.832606
494.700354	2596.272369
495.067563	2598.195569
495.434713	2596.542070
495.801805	2599.284458
496.168839	2598.878645
496.535815	2598.961824
496.902733	2601.462237
497.269593	2600.756475
497.636395	2600.552308
498.003139	2603.980293
498.369825	2603.400560
498.736453	2604.859974
499.103023	2606.052207
499.469535	2607.246961
499.835989	2605.152361
500.202385	2606.246292
500.568723	2606.732763
500.935003	2609.202928
501.301226	2603.219079
501.667390	2614.594442
502.033497	2618.743312
502.399546	2615.877416
502.765537	2612.451952
503.131470	2619.025617
503.497345	2618.113168
503.863163	2615.574947
504.228923	2616.925976
504.594625	2622.756070
504.960269	2620.416975
505.325856	2626.625156
505.691385	2626.852008
506.056856	2627.093983
506.422270	2627.159518
506.787625	2627.875362
507.152924	2630.509365
507.518164	2630.101032
507.883347	2633.367699
508.248472	2634.307874
508.613540	2635.389202
508.978550	2639.308699
509.343503	2639.913637
509.708398	2640.548823
510.073236	2645.287507
510.438016	2642.487147
510.802738	2643.530665
511.167403	2648.002169
511.532010	2649.209525
511.896561	2650.212715
512.261053	2655.344609
512.625488	2653.658343
512.989866	2659.306956
513.354186	2658.170176
513.718449	2661.857780
514.082655	2662.442554
514.446803	2664.617812
514.810894	2669.628719
515.174927	2669.858091
515.538904	2675.499142
515.902822	2676.920748
516.266684	2677.324040
516.630488	2679.953002
516.994235	2681.351922
517.357925	2684.691687
517.721558	2688.288550
518.085133	2691.986236
518.448651	2693.339786
518.812112	2693.546473
519.175516	2700.467977
519.538863	2699.883204
519.902152	2708.191025
520.265385	2715.470451
520.628560	2719.241234
520.991678	2722.475135
521.354739	2726.102245
521.717743	2726.833212
522.080690	2735.037690
522.443580	2743.617734
522.806413	2746.871799
523.169189	2751.844897
523.531908	2757.473345
523.894569	2762.217071
524.257174	2767.764861
524.619722	2777.164092
524.982213	2783.266409
525.344647	2789.953499
525.707025	2796.698563
526.069345	2807.158957
526.431608	2812.794967
526.793815	2822.365598
527.155964	2826.088490
527.518057	2833.652742
527.880093	2842.242868
528.242072	2854.407172
528.603995	2865.164994
528.965860	2872.754451
529.327669	2883.071173
529.689421	2891.373953
530.051117	2905.126221
530.412755	2916.763724
530.774337	2931.577155
531.135862	2940.721808
531.497331	2954.592543
531.858743	2967.742393
532.220098	2987.312152
532.581396	2997.207937
532.942638	3012.727129
533.303824	3026.297915
533.664953	3042.074206
534.026025	3055.834036
534.387040	3080.523087
534.747999	3100.967486
535.108902	3121.492544
535.469748	3133.291364
535.830537	3154.426402
536.191270	3181.136956
536.551947	3194.876620
536.912567	3220.699931
537.273131	3245.711616
537.633638	3261.737444
537.994089	3293.121147
538.354483	3317.031340
538.714821	3353.173892
539.075103	3385.926269
539.435328	3411.379055
539.795497	3438.460133
540.155609	3470.284937
540.515665	3509.245495
540.875665	3531.280378
541.235609	3566.326480
541.595496	3603.578086
541.955328	3656.273267
542.315102	3679.364273
542.674821	3710.337122
543.034483	3747.273656
543.394090	3783.958133
543.753640	3824.403310
544.113134	3897.948703
544.472571	3918.168771
544.831953	3994.668281
545.191278	4019.329606
545.550548	4052.598700
545.909761	4122.605204
546.268918	4181.553936
546.628019	4246.763782
546.987064	4279.513638
547.346053	4303.847287
547.704986	4392.811050
548.063863	4437.248821
548.422684	4504.883462
548.781449	4541.895613
549.140158	4632.283502
549.498811	4677.663969
549.857408	4714.666038
550.215949	4817.326615
550.574434	4876.557652
550.932864	4938.891520
551.291237	5046.810021
551.649555	5106.784628
552.007817	5186.606258
552.366022	5242.139609
552.724173	5317.590558
553.082267	5420.661990
553.440305	5528.187281
553.798288	5555.767434
554.156215	5663.776675
554.514086	5756.982569
554.871902	5819.021529
555.229661	5917.916364
555.587365	5978.894161
555.945014	6080.032310
556.302606	6173.291136
556.660143	6279.707373
557.017625	6388.182921
557.375050	6456.089784
557.732421	6591.414518
558.089735	6694.322112
558.446994	6785.050278
558.804197	6927.593945
559.161345	7023.643049
559.518437	7057.849798
559.875474	7190.356527
560.232455	7324.781415
560.589381	7443.934127
560.946251	7532.260184
561.303065	7717.116775
561.659825	7802.861761
562.016528	7895.999598
562.373177	7960.014691
562.729770	8156.975092
563.086307	8220.392807
563.442789	8406.885253
563.799216	8518.400617
564.155587	8626.578737
564.511904	8750.114733
564.868164	8881.398982
565.224370	9062.300788
565.580520	9153.704469
565.936615	9316.274118
566.292654	9393.681036
566.648638	9586.847969
567.004567	9719.871416
567.360441	9876.978976
567.716260	9968.022214
568.072023	10176.889821
568.427732	10314.646911
568.783385	10373.114214
569.138982	10590.796278
569.494525	10768.562486
569.850013	10836.791983
570.205445	11006.411686
570.560823	11127.003648
570.916145	11253.952505
571.271412	11457.073196
571.626625	11538.979343
571.981782	11713.136085
572.336884	11776.974737
572.691931	12003.602328
573.046923	12087.623240
573.401860	12210.405583
573.756743	12390.223540
574.111570	12585.275865
574.466342	12737.173392
574.821059	12938.118826
575.175722	12982.420486
575.530330	13180.331144
575.884882	13262.068413
576.239380	13402.935895
576.593823	13592.695008
576.948211	13748.040685
577.302544	13799.407522
577.656823	13970.582421
578.011047	14207.667887
578.365216	14330.407380
578.719330	14420.891050
579.073389	14599.804121
579.427394	14786.936793
579.781344	14937.301809
580.135239	15045.071596
580.489080	15230.228136
580.842866	15258.161169
581.196597	15598.653303
581.550273	15771.068326
581.903895	15932.596978
582.257463	16258.973881
582.610975	16262.462359
582.964434	16550.776030
583.317837	16569.299750
583.671186	16731.428298
584.024481	17012.671751
584.377721	17029.993156
584.730906	17304.718396
585.084037	17528.122170
585.437113	17605.773583
585.790135	17845.936673
586.143103	17870.386269
586.496016	18120.248539
586.848874	18350.092387
587.201679	18554.851453
587.554428	18545.633703
587.907124	18834.640533
588.259765	18929.081509
588.612352	19195.050265
588.964884	19146.753491
589.317362	19460.920719
589.669786	19634.659045
590.022155	19757.411142
590.374470	20140.758124
590.726731	20154.233128
591.078937	20045.697086
591.431090	20379.199660
591.783188	20354.152687
592.135232	20436.734349
592.487222	20736.060420
592.839157	21003.355000
593.191038	21010.793222
593.542866	21108.636977
593.894639	20996.325111
594.246358	21319.054739
594.598022	21484.490285
594.949633	21468.986216
595.301190	21629.405814
595.652692	21777.051127
596.004141	22189.651926
596.355535	21825.347902
596.706876	21997.649499
597.058162	22028.584540
597.409395	22452.860650
597.760573	22742.553077
598.111698	22703.700904
598.462768	22829.765038
598.813785	23005.963448
599.164748	22951.355148
599.515657	23284.693885
599.866511	23180.909130
600.217312	23737.601229
600.568060	23295.532366
600.918753	23929.225569
601.269392	24047.216295
601.619978	24033.854717
601.970510	24320.436751
602.320988	24554.668923
602.671412	24885.834922
603.021783	24944.685352
603.372100	24855.724111
603.722363	25076.466155
604.072572	25255.623722
604.422728	25413.280767
604.772830	25434.221720
605.122878	25674.001682
605.472872	25755.025627
605.822813	26071.325264
606.172701	26060.423769
606.522534	26415.494919
606.872314	26702.661727
607.222041	26737.367551
607.571714	27095.397859
607.921333	26917.238441
608.270899	27197.957613
608.620411	27598.061391
608.969870	27568.807576
609.319276	27726.386483
609.668627	27904.019101
610.017926	28314.295927
610.367171	28533.369350
610.716362	28715.332318
611.065500	28775.770712
611.414585	29067.923221
611.763616	29326.231944
612.112594	29389.674865
612.461518	29613.456726
612.810389	30021.253304
613.159207	30011.591933
613.507971	30113.975247
613.856682	30598.001634
614.205340	30608.063777
614.553945	31236.831772
614.902496	30878.753574
615.250994	31313.502681
615.599439	31484.289412
615.947830	31684.231656
616.296169	31824.063181
616.644454	31961.273307
616.992686	32195.656713
617.340864	32653.428771
617.688990	32420.645930
618.037063	33030.623025
618.385082	33015.917979
618.733048	33397.470311
619.080961	33414.461520
619.428821	33547.363979
619.776628	33675.026159
620.124382	33652.540093
620.472083	33847.161399
620.819731	34061.952361
621.167326	33847.040411
621.514868	33960.892350
621.862357	33674.970707
622.209793	33867.026065
622.557176	33651.461286
622.904506	33576.973197
623.251783	33400.414345
623.599007	33260.310597
623.946179	33328.497244
624.293297	33239.805704
624.640363	32899.502613
624.987376	32872.260218
625.334336	32817.818277
625.681243	32585.877309
626.028097	32621.518267
626.374899	32577.372883
626.721647	32632.447488
627.068343	32560.734554
627.414987	32420.310693
627.761577	32292.260345
628.108115	32638.154075
628.454600	32124.392442
628.801032	32391.417320
629.147412	32384.274005
629.493739	32408.153951
629.840014	32116.815588
630.186236	32535.228837
630.532405	32147.647285
630.878521	32418.538728
631.224585	32297.596406
631.570597	32077.136666
631.916556	32290.327062
632.262462	32274.477674
632.608316	32271.337036
632.954117	32233.593917
633.299866	32266.363937
633.645562	32265.945522
633.991206	31898.503379
634.336797	31624.352830
634.682336	31617.948044
635.027823	31480.831180
635.373257	31443.380448
635.718639	31246.566241
636.063968	31212.770345
636.409245	30713.933049
636.754470	30763.109504
637.099642	30622.902413
637.444762	30188.133141
637.789829	30375.212881
638.134845	30112.601533
638.479808	30086.911813
638.824719	30109.438209
639.169577	29713.115296
639.514383	29875.692508
639.859137	29574.034903
640.203839	29790.406267
640.548489	29578.128320
640.893086	29623.138262
641.237632	29433.822770
641.582125	29571.020293
641.926566	29436.547514
642.270955	29509.631642
642.615292	29494.694703
642.959576	29440.963565
643.303809	29489.686317
643.647990	29604.606980
643.992118	29605.811816
644.336195	29534.860096
644.680219	29652.452571
645.024192	29863.399654
645.368112	30379.525588
645.711981	30422.435889
646.055797	31110.013986
646.399562	30973.862503
646.743274	31785.533642
647.086935	32191.280992
647.430544	32184.185568
647.774101	32256.967227
648.117606	32557.369584
648.461059	32725.187075
648.804460	32407.201173
649.147810	31977.773003
649.491108	31697.633563
649.834354	31617.088528
650.177548	30907.014282
650.520690	30509.562151
650.863781	30535.224145
651.206820	30408.265206
651.549807	30076.857231
651.892742	29571.847042
652.235626	29516.439720
652.578458	29434.465517
652.921238	28813.239088
653.263967	29147.822989
653.606644	28907.289374
653.949269	28858.180974
654.291843	28504.876748
654.634365	28877.654952
654.976836	28478.347676
655.319255	28567.528208
655.661622	28484.470157
656.003938	28395.377845
656.346203	28261.870447
656.688416	28511.909158
657.030577	28313.741400
657.372687	28182.043776
657.714746	28365.274595
658.056753	28581.479601
658.398708	28026.554427
658.740612	28097.337268
659.082465	28316.919848
659.424266	28247.165402
659.766016	28283.222255
660.107715	28166.310335
660.449362	28286.131000
660.790958	28292.757597
661.132503	28239.618794
661.473996	28346.352624
661.815438	28442.777294
662.156829	28590.372197
662.498168	28411.224713
662.839456	28418.073120
663.180693	28563.152487
663.521879	28676.454940
663.863013	28659.919955
664.204097	28657.230500
664.545129	29088.838968
664.886110	29031.596667
665.227040	29152.879266
665.567918	29176.305508
665.908746	29271.409396
666.249522	29361.429280
666.590248	29395.094106
666.930922	29520.860812
667.271545	29528.505722
667.612118	29613.945718
667.952639	29439.050447
668.293109	29514.012404
668.633528	29385.520955
668.973896	29361.267963
669.314213	29363.223931
669.654480	29198.700834
669.994695	29207.333810
670.334859	29150.807352
670.674973	29003.227573
671.015035	29220.327384
671.355047	29170.235959
671.695008	29111.292268
672.034918	29042.921619
672.374777	29153.408588
672.714585	29042.790549
673.054342	29177.701908
673.394049	29055.491736
673.733705	29279.951631
674.073310	29003.862759
674.412864	29081.378061
674.752368	28793.959195
675.091820	29046.251301
675.431223	28678.980558
675.770574	28486.209355
676.109875	28346.372789
676.449125	28163.290684
676.788324	28073.043948
677.127473	27612.219472
677.466571	27526.033385
677.805619	27272.362524
678.144616	27224.340492
678.483562	27188.134925
678.822458	26896.567190
679.161303	26842.110125
679.500098	26781.016382
679.838842	26718.851393
680.177535	26810.794478
680.516179	27052.318679
680.854771	27191.018465
681.193314	27966.426065
681.531805	28985.399533
681.870247	29718.317767
682.208638	30439.490113
682.546978	30704.712778
682.885268	30856.154081
683.223508	30428.291189
683.561697	30153.712142
683.899836	30015.574445
684.237925	29615.253897
684.575963	29486.202879
684.913951	29126.934968
685.251889	29308.471959
685.589776	29331.663788
685.927614	29346.290695
686.265401	29534.045950
686.603137	29647.943259
686.940824	30154.024694
687.278460	30478.458232
687.616046	30661.633598
687.953582	31304.544551
688.291068	31227.682078
688.628504	31557.050906
688.965889	31546.835008
689.303224	31290.378909
689.640510	31026.724042
689.977745	30417.064540
690.314930	29686.293837
690.652065	29273.569531
690.989150	28603.206974
691.326185	27778.897662
691.663170	27171.481473
692.000105	26444.577336
692.336990	25858.412131
692.673825	25436.197853
693.010610	24955.130623
693.347345	24474.358302
693.684030	23853.608261
694.020665	23655.465709
694.357251	22995.213187
694.693786	23001.461697
695.030272	22779.920630
695.366707	22292.917442
695.703093	22018.850072
696.039429	22090.202563
696.375716	21850.389834
696.711952	21858.427953
697.048139	21721.336295
697.384276	21565.151267
697.720363	21675.897855
698.056400	21587.246644
698.392388	21418.254564
698.728326	21425.160945
699.064214	21265.182448
699.400053	21271.856936
699.735842	20884.681197
700.071581	20692.683812
700.407270	20445.395051
700.742910	20285.976122
701.078501	20042.977383
701.414042	19832.116000
701.749533	19531.048210
702.084974	19221.435665
702.420366	19452.323031
702.755709	19050.941321
703.091002	18745.727182
703.426246	18824.381785
703.761440	18751.695908
704.096584	18516.387449
704.431679	18453.491493
704.766725	18408.166479
705.101721	18345.666254
705.436668	18463.094892
705.771565	18193.415846
706.106413	18503.474534
706.441212	18574.438857
706.775961	18682.876596
707.110661	18760.666641
707.445311	19127.987796
707.779913	19009.208129
708.114465	19313.010745
708.448967	19618.247569
708.783421	20256.442522
709.117825	20629.288782
709.452180	20853.317658
709.786485	21300.062192
710.120742	22071.041137
710.454949	22181.455010
710.789107	22684.002595
711.123216	23394.696903
711.457275	23593.036060
711.791286	24152.654548
712.125247	24303.024606
712.459159	24034.479820
712.793023	24777.271154
713.126837	23766.764304
713.460602	24014.257231
713.794318	23685.800852
714.127985	23428.223097
714.461602	22520.928830
714.795171	22509.573631
715.128691	21536.895599
715.462162	21020.507526
715.795584	20584.152811
716.128957	20309.924124
716.462281	19951.669484
716.795556	19660.804990
717.128782	19189.046251
717.461960	18587.135003
717.795088	18552.847595
718.128167	18201.758956
718.461198	17753.008043
718.794180	17628.050442
719.127113	17292.939740
719.459997	17099.203157
719.792833	16735.491468
720.125619	16780.849250
720.458357	16435.157166
720.791046	16294.574509
721.123686	16150.642005
721.456278	15922.537355
721.788821	15924.483241
722.121315	15654.012734
722.453761	15760.232366
722.786158	15641.790456
723.118506	15724.404886
723.450805	15612.781137
723.783056	15791.805112
724.115259	15681.078689
724.447412	15686.233269
724.779518	15891.849331
725.111574	15945.000737
725.443582	16221.301338
725.775542	16167.865107
726.107453	16695.784820
726.439315	16618.884539
726.771129	17027.855706
727.102895	17452.734235
727.434612	17731.870485
727.766281	17889.477119
728.097901	18214.291264
728.429473	18289.328839
728.760996	18306.183937
729.092471	18432.132125
729.423897	18317.960072
729.755276	18194.749231
730.086606	18315.384043
730.417887	18900.452796
730.749120	19452.494431
731.080305	19680.185706
731.411442	20077.214380
731.742530	20199.270797
732.073570	20362.508399
732.404562	20678.130001
732.735506	20525.990498
733.066401	20316.235648
733.397249	19813.725871
733.728048	19183.644655
734.058798	18322.855033
734.389501	17565.809836
734.720156	17063.952888
735.050762	16471.171169
735.381320	16086.095071
735.711831	15818.190512
736.042293	15442.173367
736.372707	15480.518904
736.703073	15272.258756
737.033391	15476.609489
737.363661	15471.079343
737.693883	15603.639004
738.024056	15791.648837
738.354182	16013.447003
738.684260	16367.194851
739.014290	16649.832182
739.344272	16875.627984
739.674207	17225.300058
740.004093	17393.722488
740.333931	17451.032845
740.663722	17535.494858
740.993464	17573.752174
741.323159	17422.013443
741.652806	17125.470089
741.982405	16956.074717
742.311956	16591.664829
742.641460	16486.408057
742.970915	16163.464180
743.300323	15808.445961
743.629683	15595.321100
743.958996	15275.366627
744.288260	14969.640811
744.617477	14658.215971
744.946647	14624.135250
745.275768	14303.979131
745.604842	14106.479326
745.933869	13929.607923
746.262847	13908.571188
746.591778	13819.877127
746.920662	13697.661914
747.249498	13705.745404
747.578286	13870.167678
747.907027	14044.042115
748.235720	14315.162931
748.564365	14380.392941
748.892963	14296.069561
749.221514	14401.815324
749.550017	14265.678965
749.878473	14240.765582
750.206881	14009.759748
750.535242	13935.700157
750.863555	13865.529816
751.191821	13756.222478
751.520039	13781.256848
751.848210	13700.217779
752.176334	13752.933125
752.504411	13672.383048
752.832440	13501.034229
753.160421	13615.367598
753.488356	13502.609589
753.816243	13409.859920
754.144082	13250.549376
754.471875	13188.424717
754.799620	13159.942198
755.127318	13132.893887
755.454969	13117.609108
755.782572	13096.035490
756.110129	13110.377573
756.437638	13014.938448
756.765100	13021.000436
757.092515	13050.450857
757.419882	13088.004932
757.747203	13103.143517
758.074477	13186.390611
758.401703	13161.255418
758.728882	13369.439949
759.056014	13405.660639
759.383099	13587.686622
759.710138	13707.749263
760.037129	13826.909537
760.364073	13875.531466
760.690970	13913.077979
761.017820	13935.664869
761.344623	14164.634077
761.671379	14541.893866
761.998088	15255.940541
762.324751	17057.091878
762.651366	20504.048876
762.977935	24988.445088
763.304456	27959.229817
763.630931	28982.982299
763.957359	27768.472556
764.283740	25502.599931
764.610074	23228.568198
764.936362	20580.240875
765.262602	18707.626141
765.588796	16752.049138
765.914943	15471.676720
766.241044	14363.931053
766.567097	13570.201380
766.893104	12841.086696
767.219064	12379.359854
767.544978	11896.785320
767.870845	11509.843994
768.196665	11285.729418
768.522438	11054.209386
768.848165	10856.419715
769.173846	10648.376337
769.499479	10512.993630
769.825066	10340.835706
770.150607	10115.440676
770.476101	10039.803204
770.801548	9907.687164
771.126949	9750.904759
771.452303	9635.611050
771.777611	9434.920195
772.102872	9425.626828
772.428087	9287.481568
772.753256	9126.799831
773.078378	9033.687198
773.403453	8853.627265
773.728482	8745.638188
774.053465	8664.357144
774.378401	8564.375940
774.703291	8444.618289
775.028135	8319.779155
775.352932	8280.465717
775.677683	8175.004779
776.002388	8067.781957
776.327046	8084.483300
776.651658	7985.296077
776.976224	7884.697332
777.300743	7881.748257
777.625216	7794.352293
777.949643	7748.986949
778.274024	7762.459433
778.598359	7675.562544
778.922647	7693.700615
779.246889	7646.374263
779.571086	7650.457598
779.895236	7656.368350
780.219339	7672.515166
780.543397	7668.187336
780.867409	7749.347392
781.191374	7759.011284
781.515294	7721.626087
781.839167	7820.470511
782.162995	7793.649052
782.486776	7736.313489
782.810511	7687.263062
783.134201	7603.537058
783.457844	7597.374248
783.781441	7540.976339
784.104993	7472.275494
784.428498	7453.562731
784.751958	7436.059845
785.075372	7405.306286
785.398739	7352.134716
785.722061	7399.405615
786.045337	7406.019609
786.368568	7564.263949
786.691752	7588.237156
787.014891	7934.521576
787.337983	8296.420969
787.661030	8888.804437
787.984031	9517.567392
788.306987	9924.902705
788.629897	10125.250761
788.952760	10073.221013
789.275579	9851.463175
789.598351	9453.522053
789.921078	9093.656765
790.243759	8688.942852
790.566395	8388.636276
790.888984	8139.757031
791.211529	7933.500742
791.534027	7706.333747
791.856480	7502.633323
792.178888	7429.332425
792.501249	7330.029256
792.823566	7170.144021
793.145836	7181.519384
793.468062	7151.096021
793.790241	7099.194822
794.112375	7168.341808
794.434464	7325.703946
794.756507	7365.231633
795.078505	7527.508896
795.400457	7836.939961
795.722364	8193.238632
796.044226	8482.464752
796.366042	8753.051205
796.687812	8699.569604
797.009538	8785.891802
797.331218	8674.444493
797.652852	8589.317049
797.974442	8435.299716
798.295986	8349.310235
798.617484	8149.093248
798.938938	8007.930858
799.260346	7908.836897
799.581709	7707.352060
799.903026	7632.674927
800.224299	7516.642689
800.545526	7347.852256
800.866708	7249.869869
801.187845	7185.489293
801.508936	7078.074907
801.829983	7039.129473
802.150984	6889.886114
802.471940	6839.144380
802.792851	6826.874211
803.113717	6792.884232
803.434538	6760.774602
803.755314	6704.031374
804.076045	6704.487599
804.396731	6648.545915
804.717372	6682.162849
805.037967	6682.916502
805.358518	6728.670014
805.679024	6806.334030
805.999485	6819.113355
806.319901	6859.828234
806.640272	6886.059878
806.960598	6964.437218
807.280879	6961.977134
807.601115	7045.284722
807.921306	6986.081412
808.241453	7000.494070
808.561554	7027.459202
808.881611	6988.581824
809.201623	7000.282342
809.521590	6941.845287
809.841513	6920.412821
810.161390	6967.489636
810.481223	6834.897208
810.801011	6820.832388
811.120755	6788.080012
811.440453	6713.523867
811.760107	6684.953128
812.079716	6648.379557
812.399281	6584.871100
812.718801	6579.645944
813.038276	6527.669128
813.357707	6469.058152
813.677093	6512.006263
813.996434	6414.311222
814.315731	6458.539785
814.634983	6450.720955
814.954191	6466.456917
815.273354	6573.843576
815.592473	6636.285828
815.911547	6757.812924
816.230577	6846.391038
816.549562	6997.832341
816.868502	7096.142403
817.187399	7197.265428
817.506250	7352.563214
817.825058	7382.394242
818.143821	7656.277610
818.462539	7928.517561
818.781213	8297.835013
819.099843	8857.725723
819.418429	9865.923725
819.736970	10847.143992
820.055466	12026.680731
820.373919	13581.339809
820.692327	15969.026876
821.010691	20158.387039
821.329011	29245.147505
821.647286	42238.895463
821.965517	55621.207998
822.283704	60924.847164
822.601847	62894.398245
822.919945	60220.789535
823.237999	56066.914054
823.556010	49937.675041
823.873976	43232.206938
824.191897	36668.042377
824.509775	31816.687973
824.827609	27277.108770
825.145398	24682.194992
825.463144	23300.739878
825.780845	23627.099136
826.098502	25435.983603
826.416116	29243.244470
826.733685	32886.549369
827.051210	34024.007596
827.368692	32222.717627
827.686129	28229.372649
828.003522	24094.998872
828.320872	20373.021726
828.638177	17503.579313
828.955439	15344.251474
829.272656	13511.643337
829.589830	12025.238961
829.906960	10744.042314
830.224046	9802.684971
830.541088	9053.428357
830.858086	8591.819982
831.175041	8206.890077
831.491952	8091.949248
831.808819	8143.104357
832.125642	8549.444042
832.442421	9456.365263
832.759157	11272.521595
833.075849	14210.145614
833.392497	17444.456660
833.709101	19624.400297
834.025662	19450.656930
834.342179	17741.574706
834.658653	15532.251224
834.975083	13594.451851
835.291469	11966.232255
835.607811	10644.847529
835.924110	9728.585050
836.240366	8854.358233
836.556578	8047.060294
836.872746	7398.135245
837.188871	6891.479118
837.504952	6473.501930
837.820990	6161.598179
838.136984	5938.829591
838.452935	5845.606053
838.768842	5880.412700
839.084706	6306.138142
839.400526	7526.359513
839.716303	9122.708934
840.032037	10212.490449
840.347727	10129.906267
840.663373	9149.207759
840.978977	8102.117256
841.294537	7289.289171
841.610054	6685.636204
841.925527	6252.570842
842.240957	5885.531992
842.556344	5547.769643
842.871687	5263.098206
843.186987	4983.099918
843.502244	4753.545937
843.817458	4589.405968
844.132629	4452.755410
844.447756	4359.990618
844.762840	4283.274339
845.077881	4205.509499
845.392879	4145.698730
845.707833	4092.116305
846.022745	4048.449831
846.337613	4019.092671
846.652438	3977.392247
846.967221	3959.486068
847.281960	3928.240997
847.596656	3907.209303
847.911309	3889.124163
848.225919	3865.035010
848.540485	3848.754603
848.855009	3832.771625
849.169490	3812.213800
849.483928	3800.049496
849.798323	3793.286788
850.112675	3772.492028
850.426984	3780.366310
850.741251	3763.914505
851.055474	3759.959720
851.369654	3768.018004
851.683792	3758.964092
851.997887	3767.498765
852.311938	3768.880041
852.625947	3770.775515
852.939914	3761.010800
853.253837	3771.728293
853.567718	3769.868108
853.881555	3762.336624
854.195350	3773.132255
854.509103	3771.236781
854.822812	3769.399280
855.136479	3760.942745
855.450103	3769.479939
855.763685	3756.937548
856.077224	3762.364350
856.390720	3778.518728
856.704173	3800.392294
857.017584	3814.391578
857.330953	3819.155469
857.644278	3842.677492
857.957561	3850.534131
858.270802	3849.467927
858.584000	3849.581353
858.897155	3845.248481
859.210268	3828.766428
859.523339	3805.461174
859.836367	3801.362716
860.149352	3800.258703
860.462295	3791.199750
860.775195	3778.682565
861.088054	3774.853809
861.400869	3771.622429
861.713642	3773.419600
862.026373	3786.284625
862.339062	3790.451139
862.651708	3806.640804
862.964312	3843.587421
863.276873	3856.563351
863.589392	3912.908327
863.901869	3963.433292
864.214303	4005.025332
864.526696	4039.037997
864.839045	4084.990634
865.151353	4109.765385
865.463619	4118.544554
865.775842	4125.430771
866.088023	4145.368534
866.400162	4136.009632
866.712258	4143.427690
867.024313	4146.717043
867.336325	4143.596568
867.648296	4148.320130
867.960224	4146.966580
868.272110	4163.289836
868.583954	4163.564579
868.895755	4176.225437
869.207515	4170.390301
869.519233	4217.847723
869.830909	4230.753077
870.142542	4251.212600
870.454134	4266.872945
870.765684	4296.174651
871.077191	4334.832740
871.388657	4362.695197
871.700081	4394.227614
872.011463	4443.273000
872.322803	4474.147547
872.634101	4508.051827
872.945357	4547.188825
873.256571	4600.221763
873.567744	4628.333758
873.878874	4646.867560
874.189963	4686.937171
874.501010	4693.498233
874.812015	4691.577553
875.122979	4739.649996
875.433900	4734.747474
875.744780	4750.475874
876.055618	4781.294968
876.366415	4778.907982
876.677169	4797.230056
876.987882	4847.308878
877.298554	4896.649171
877.609183	4981.862315
877.919771	5090.463893
878.230317	5238.555348
878.540822	5449.847750
878.851285	5775.544097
879.161707	6246.108082
879.472087	7009.774835
879.782425	8260.492666
880.092722	10457.772831
880.402977	13783.623669
880.713191	17546.446764
881.023363	21256.259606
881.333494	23452.337456
881.643583	24660.996940
881.953631	24667.109339
882.263637	23845.229863
882.573602	22355.619313
882.883526	20796.317332
883.193408	19110.681515
883.503248	17409.733192
883.813048	15852.997158
884.122806	14430.958235
884.432522	12957.837299
884.742197	11683.428565
885.051831	10582.455689
885.361424	9583.989635
885.670975	8761.467411
885.980485	8067.960918
886.289954	7487.058678
886.599382	7010.851121
886.908768	6636.762218
887.218113	6270.046002
887.527417	5982.733000
887.836680	5713.207709
888.145901	5491.195294
888.455082	5330.052291
888.764221	5175.661913
889.073319	5041.980595
889.382376	4969.007373
889.691392	4910.298095
890.000366	4884.149630
890.309300	4869.426940
890.618193	4873.923650
890.927044	4854.868088
891.235855	4877.606212
891.544625	4912.397736
891.853353	4971.490141
892.162041	5088.500363
892.470687	5281.463129
892.779293	5532.865472
893.087858	5908.799438
893.396381	6486.276213
893.704864	7299.787374
894.013306	8457.425341
894.321707	9634.819589
894.630068	10450.195977
894.938387	10658.877061
895.246665	10414.602910
895.554903	9805.208068
895.863100	9106.075647
896.171256	8555.823623
896.479371	8036.927575
896.787446	7539.128756
897.095480	7109.209074
897.403473	6781.443333
897.711425	6464.208562
898.019336	6200.485640
898.327207	5925.069762
898.635038	5691.094688
898.942827	5450.518224
899.250576	5254.452627
899.558284	5058.674376
899.865952	4935.403041
900.173579	4785.766472
900.481165	4676.756561
900.788711	4586.582922
901.096216	4513.390409
901.403681	4450.915389
901.711105	4425.855813
902.018489	4411.022218
902.325832	4479.546622
902.633135	4605.804841
902.940397	4954.995486
903.247619	5751.936374
903.554800	7202.493105
903.861941	9136.642683
904.169041	10653.167954
904.476101	11270.230390
904.783121	10904.388815
905.090100	10168.710549
905.397039	9330.361623
905.703938	8580.658867
906.010796	7880.419912
906.317614	7324.748647
906.624391	6792.178470
906.931129	6362.460434
907.237826	5962.288600
907.544483	5583.201393
907.851099	5206.324731
908.157675	4851.840875
908.464211	4524.899363
908.770707	4285.285759
909.077163	4086.255964
909.383578	3942.862863
909.689954	3828.436233
909.996289	3761.540121
910.302584	3690.225438
910.608839	3662.640245
910.915054	3628.420892
911.221229	3616.261629
911.527363	3628.088176
911.833458	3642.074857
912.139513	3667.477232
912.445527	3698.069474
912.751502	3782.241620
913.057436	3884.975294
913.363331	4023.052498
913.669186	4227.166296
913.975000	4486.705061
914.280775	4912.586779
914.586510	5494.729143
914.892205	6296.605321
915.197859	7339.090730
915.503475	8559.289416
915.809050	9624.384400
916.114585	10264.454663
916.420081	10526.140959
916.725536	10491.417492
917.030952	10045.870232
917.336328	9636.445361
917.641665	9222.213749
917.946961	8738.114266
918.252218	8318.165986
918.557435	7807.176988
918.862612	7377.317800
919.167750	7001.895511
919.472848	6573.541107
919.777906	6198.186874
920.082925	5835.821174
920.387904	5470.133353
920.692843	5206.909505
920.997743	4955.623109
921.302603	4724.705496
921.607423	4562.037543
921.912204	4395.427409
922.216946	4275.752937
922.521647	4153.283146
922.826310	4048.643915
923.130932	3956.962971
923.435516	3857.319524
923.740059	3787.675983
924.044564	3708.295454
924.349028	3649.873522
924.653454	3584.890529
924.957840	3512.093747
925.262186	3467.799648
925.566493	3408.568611
925.870761	3350.078624
926.174989	3315.561843
926.479178	3275.156995
926.783328	3235.926736
927.087438	3209.314485
927.391509	3173.683610
927.695541	3144.003816
927.999533	3113.162037
928.303486	3096.526229
928.607400	3079.345977
928.911275	3067.564801
929.215110	3048.776420
929.518906	3038.492466
929.822663	3035.407280
930.126381	3037.464071
930.430060	3041.260060
930.733699	3046.331461
931.037299	3056.050805
931.340861	3052.509395
931.644383	3063.801579
931.947866	3058.888975
932.251309	3053.691545
932.554714	3054.084755
932.858080	3050.210628
933.161407	3042.152344
933.464694	3034.547763
933.767943	3027.706918
934.071153	3021.818850
934.374323	3010.574556
934.677455	3004.525172
934.980548	2997.664161
935.283602	2990.785507
935.586617	2988.819457
935.889593	2998.846312
936.192530	3003.665655
936.495428	3016.273581
936.798287	3040.077909
937.101108	3073.813311
937.403890	3126.226187
937.706632	3185.888243
938.009336	3265.858587
938.312002	3339.898014
938.614628	3402.582241
938.917216	3453.278605
939.219765	3488.591888
939.522275	3520.129346
939.824747	3523.469110
940.127179	3524.081611
940.429573	3517.046680
940.731929	3511.161133
941.034246	3496.859380
941.336524	3487.487875
941.638763	3471.572952
941.940964	3456.207515
942.243126	3413.881988
942.545250	3391.509347
942.847335	3352.775641
943.149381	3319.514108
943.451389	3286.237452
943.753359	3253.555651
944.055290	3226.595560
944.357182	3201.268803
944.659036	3191.370498
944.960851	3177.870288
945.262628	3160.843791
945.564367	3163.334121
945.866067	3158.126609
946.167729	3156.954541
946.469352	3154.413799
946.770937	3150.433808
947.072484	3135.050727
947.373992	3138.292189
947.675462	3132.033597
947.976893	3114.422326
948.278286	3101.615274
948.579641	3096.690067
948.880958	3090.993563
949.182236	3096.483380
949.483476	3086.368304
949.784678	3085.163469
950.085841	3090.305446
950.386967	3097.320211
950.688054	3118.054477
950.989103	3139.091212
951.290114	3156.994870
951.591087	3184.811957
951.892021	3212.460165
952.192917	3242.966707
952.493776	3267.118876
952.794596	3275.623302
953.095378	3278.995834
953.396122	3275.217489
953.696828	3268.810183
953.997496	3257.422216
954.298126	3232.755850
954.598718	3210.332798
954.899272	3186.551155
955.199788	3156.770538
955.500266	3126.132926
955.800706	3091.507761
956.101108	3052.723644
956.401472	3021.276926
956.701798	2991.967658
957.002087	2948.275977
957.302337	2922.722368
957.602550	2890.464025
957.902724	2863.065354
958.202861	2838.388906
958.502960	2818.327634
958.803022	2793.817544
959.103045	2773.597476
959.403031	2757.599374
959.702979	2743.839545
960.002889	2732.756568
960.302762	2720.844321
960.602596	2710.257898
960.902393	2700.304140
961.202153	2691.461956
961.501875	2684.860565
961.801559	2678.042405
962.101205	2670.810869
962.400814	2664.237205
962.700385	2657.920639
962.999918	2652.332520
963.299414	2644.138124
963.598873	2644.130563
963.898293	2634.436424
964.197677	2641.110912
964.497022	2633.720580
964.796331	2632.525827
965.095601	2631.852832
965.394835	2628.671864
965.694030	2627.225053
965.993189	2626.161370
966.292309	2624.580968
966.591393	2623.182048
966.890439	2619.297839
967.189447	2624.427213
967.488419	2622.647686
967.787353	2624.694394
968.086249	2626.884775
968.385108	2629.586834
968.683930	2629.599437
968.982714	2634.693523
969.281462	2636.299130
969.580172	2643.139976
969.878844	2648.470996
970.177480	2659.191010
970.476078	2663.670075
970.774639	2672.076199
971.073162	2679.630368
971.371649	2683.698579
971.670098	2691.691329
971.968510	2697.957483
972.266885	2700.145344
972.565223	2706.232537
972.863524	2709.925182
973.161788	2712.050028
973.460014	2715.672097
973.758204	2716.554299
974.056356	2719.636965
974.354471	2721.005638
974.652550	2720.788869
974.950591	2716.352653
975.248595	2720.050340
975.546563	2716.375338
975.844493	2711.866026
976.142386	2703.621219
976.440243	2701.619881
976.738062	2697.607123
977.035845	2688.540607
977.333590	2687.018179
977.631299	2679.895029
977.928971	2672.582835
978.226606	2666.477998
978.524204	2664.857267
978.821765	2658.717141
979.119290	2659.911895
979.416777	2663.584375
979.714228	2664.257369
980.011642	2668.128976
980.309020	2678.566685
980.606360	2688.497758
980.903664	2713.557333
981.200931	2750.312386
981.498162	2799.274593
981.795356	2875.421222
982.092513	2963.016311
982.389633	3065.944070
982.686717	3163.631549
982.983764	3237.454206
983.280775	3285.161165
983.577749	3290.872793
983.874686	3277.740587
984.171587	3246.404774
984.468451	3206.524206
984.765279	3163.956703
985.062070	3115.554065
985.358824	3072.147209
985.655543	3013.644619
985.952224	2959.482462
986.248869	2898.950807
986.545478	2838.860253
986.842050	2784.924948
987.138586	2738.508524
987.435086	2699.626105
987.731549	2674.069975
988.027975	2645.892446
988.324366	2629.977523
988.620719	2614.914556
988.917037	2600.955601
989.213318	2594.397059
989.509563	2586.507654
989.805772	2585.711151
990.101944	2579.732343
990.398080	2577.146231
990.694180	2575.308730
990.990244	2577.199163
991.286271	2576.044739
991.582262	2577.483988
991.878217	2580.143197
992.174136	2584.765935
992.470019	2585.328024
992.765865	2589.522264
993.061676	2593.429158
993.357450	2604.691096
993.653188	2609.732249
993.948890	2628.601288
994.244556	2647.049391
994.540186	2667.713080
994.835780	2700.258770
995.131337	2738.947105
995.426859	2779.379679
995.722345	2828.722493
996.017795	2878.352653
996.313208	2914.361615
996.608586	2940.726849
996.903928	2954.831998
997.199234	2955.202523
997.494504	2954.290074
997.789738	2936.509924
998.084936	2913.683579
998.380099	2880.611090
998.675225	2853.484641
998.970316	2823.051195
999.265371	2784.554424
999.560390	2751.076121
999.855373	2717.786862
1000.150320	2693.337265
1000.445232	2663.685198
1000.740108	2646.048722
1001.034948	2627.154477
1001.329752	2612.726695
1001.624521	2598.288830
1001.919254	2585.940524
1002.213951	2584.024885
1002.508613	2572.170612
1002.803239	2566.169118
1003.097829	2561.732903
1003.392384	2555.996070
1003.686903	2551.234700
1003.981386	2548.406613
1004.275834	2543.194060
1004.570246	2543.236910
1004.864623	2542.810932
1005.158964	2536.842206
1005.453270	2536.464119
1005.747540	2536.030580
1006.041775	2532.915147
1006.335974	2532.232071
1006.630138	2528.176462
1006.924266	2530.450023
1007.218359	2528.584796
1007.512416	2526.079342
1007.806438	2524.264527
1008.100425	2527.720238
1008.394376	2520.907119
1008.688292	2524.718231
1008.982172	2524.509023
1009.276017	2526.142357
1009.569827	2521.670853
1009.863602	2521.698580
1010.157341	2523.846111
1010.451045	2522.278313
1010.744714	2519.132632
1011.038347	2519.697242
1011.331945	2516.735564
1011.625508	2520.425688
1011.919036	2517.211953
1012.212528	2517.834535
1012.505986	2514.709020
1012.799408	2515.321520
1013.092795	2513.070645
1013.386147	2513.715913
1013.679464	2514.802281
1013.972745	2514.018382
1014.265992	2514.507374
1014.559204	2513.733557
1014.852380	2513.846983
1015.145521	2514.976201
1015.438628	2511.689369
1015.731699	2514.469565
1016.024736	2517.872344
1016.317737	2515.366891
1016.610703	2516.617097
1016.903635	2519.939217
1017.196531	2522.260668
1017.489393	2521.454084
1017.782219	2520.549197
1018.075011	2523.367202
1018.367768	2523.405010
1018.660490	2526.182686
1018.953177	2526.182686
1019.245829	2526.182686
