Dividing Wavelength (nm)	Counts (n)	Blue Motor Position (mm): 12.700000	Red Motor Position (mm): 0.000000	
326.493990	2138.686834
326.888308	2138.686834
327.282561	2138.686834
327.676750	2106.247009
328.070874	2104.865733
328.464933	2107.645929
328.858929	2112.157762
329.252859	2124.495986
329.646726	2136.468726
330.040528	2149.908443
330.434265	2163.791780
330.827938	2181.087979
331.221547	2199.268900
331.615091	2219.945193
332.008571	2237.876577
332.401986	2259.150246
332.795338	2277.197577
333.188625	2296.353962
333.581847	2316.936993
333.975006	2334.593634
334.368100	2354.405369
334.761129	2370.650487
335.154095	2384.420399
335.546996	2404.869839
335.939833	2424.013621
336.332606	2438.083482
336.725315	2452.632252
337.117960	2457.680967
337.510540	2471.382823
337.903056	2477.601087
338.295508	2490.695484
338.687896	2495.116576
339.080220	2505.382885
339.472480	2508.155520
339.864676	2514.918228
340.256807	2519.382170
340.648875	2522.774866
341.040879	2525.681091
341.432818	2526.233098
341.824694	2531.022194
342.216506	2528.632687
342.608253	2527.652183
342.999937	2529.870290
343.391557	2527.064888
343.783113	2528.123530
344.174605	2526.548170
344.566033	2523.316790
344.957397	2523.037006
345.348697	2521.179341
345.739934	2518.431912
346.131106	2516.828825
346.522215	2515.455111
346.913260	2511.472599
347.304241	2511.800274
347.695159	2508.468072
348.086012	2508.495798
348.476802	2506.280211
348.867528	2505.292145
349.258191	2505.322392
349.648789	2501.854078
350.039324	2498.471463
350.429796	2500.603872
350.820203	2502.365755
351.210548	2500.404746
351.600828	2496.134889
351.991045	2496.717142
352.381198	2494.461226
352.771288	2495.482059
353.161314	2493.337048
353.551276	2495.189672
353.941175	2495.320742
354.331010	2497.407780
354.720782	2494.103304
355.110490	2495.419045
355.500135	2494.229332
355.889717	2495.207316
356.279235	2493.737820
356.668689	2494.930053
357.058080	2494.851915
357.447408	2493.994919
357.836672	2494.430979
358.225873	2495.628253
358.615010	2490.960144
359.004084	2499.963645
359.393095	2497.274189
359.782043	2501.710405
360.170927	2500.031701
360.559748	2501.221413
360.948505	2500.563542
361.337199	2500.747544
361.725830	2498.705877
362.114398	2501.619664
362.502903	2502.131341
362.891344	2501.402894
363.279722	2504.316681
363.668037	2504.583863
364.056289	2502.219561
364.444478	2505.004799
364.832603	2505.249295
365.220665	2504.041938
365.608665	2504.109994
365.996601	2505.917248
366.384474	2507.671569
366.772284	2506.517145
367.160031	2508.654594
367.547715	2508.490757
367.935336	2505.818945
368.322893	2509.297341
368.710388	2508.127794
369.097820	2512.238855
369.485189	2511.737260
369.872495	2506.890190
370.259738	2508.861282
370.646918	2509.161230
371.034035	2506.943123
371.421090	2508.014368
371.808081	2508.528565
372.195010	2509.630057
372.581875	2508.276508
372.968678	2510.103926
373.355418	2511.119718
373.742096	2513.244565
374.128710	2512.432939
374.515262	2513.728516
374.901751	2509.521673
375.288177	2511.772548
375.674540	2512.017044
376.060841	2511.132321
376.447079	2510.890346
376.833254	2511.833042
377.219367	2509.834224
377.605417	2514.555265
377.991404	2507.429594
378.377329	2511.369256
378.763191	2507.621158
379.148991	2516.871675
379.534727	2512.891684
379.920402	2516.967457
380.306013	2515.195491
380.691563	2515.954185
381.077049	2515.480317
381.462474	2514.973681
381.847835	2515.376973
382.233134	2514.545183
382.618371	2515.934020
383.003545	2517.116171
383.388657	2514.908146
383.773706	2514.845131
384.158693	2517.453928
384.543618	2517.801768
384.928480	2514.245234
385.313280	2516.531397
385.698017	2517.534587
386.082692	2519.125071
386.467305	2518.099196
386.851856	2516.390245
387.236344	2517.322858
387.620770	2520.067767
388.005133	2519.387211
388.389435	2518.172293
388.773674	2519.480472
389.157851	2519.314114
389.541965	2520.511388
389.926018	2518.353774
390.310008	2518.557941
390.693936	2521.633045
391.077802	2519.167921
391.461606	2517.527025
391.845348	2522.195133
392.229027	2520.052643
392.612645	2520.481141
392.996200	2522.311080
393.379694	2519.619104
393.763125	2523.253776
394.146494	2520.960051
394.529801	2523.062212
394.913047	2524.120854
395.296230	2522.321162
395.679351	2521.441481
396.062410	2524.693025
396.445408	2521.214629
396.828343	2524.965247
397.211217	2519.712365
397.594028	2521.441481
397.976778	2519.306552
398.359466	2524.965248
398.742092	2521.156656
399.124656	2524.083046
399.507158	2524.798889
399.889598	2526.149919
400.271977	2526.376771
400.654294	2526.144877
401.036549	2527.821061
401.418742	2522.845442
401.800874	2525.567665
402.182944	2525.870135
402.564952	2526.212933
402.946898	2525.431554
403.328783	2527.316946
403.710606	2524.710669
404.092367	2524.980371
404.474067	2526.316277
404.855705	2528.806607
405.237282	2525.239990
405.618797	2527.105217
406.000250	2527.916843
406.381642	2528.489014
406.762972	2527.740403
407.144240	2524.889630
407.525447	2527.304343
407.906593	2528.042872
408.287677	2527.087573
408.668700	2528.032790
409.049661	2530.588655
409.430560	2530.515558
409.811399	2526.901051
410.192176	2529.124199
410.572891	2530.412214
410.953545	2528.899868
411.334138	2529.958510
411.714669	2528.708304
412.095139	2529.096473
412.475547	2529.189734
412.855894	2528.277286
413.236180	2530.752492
413.616405	2532.960518
413.996568	2530.722245
414.376670	2529.260311
414.756711	2531.337266
415.136691	2531.899355
415.516609	2530.187883
415.896466	2529.439272
416.276262	2532.020342
416.655997	2528.138654
417.035670	2530.329035
417.415283	2531.475898
417.794834	2526.429703
418.174324	2527.430372
418.553753	2529.114117
418.933121	2534.392205
419.312428	2532.355579
419.691674	2535.375230
420.070859	2534.072092
420.449983	2531.385157
420.829045	2532.365661
421.208047	2533.600744
421.586988	2530.571011
421.965867	2530.387008
422.344686	2532.695857
422.723444	2531.475898
423.102141	2532.146371
423.480777	2530.455064
423.859352	2532.776515
424.237866	2534.543440
424.616319	2533.119314
424.994712	2534.724921
425.373044	2535.627288
425.751314	2534.722401
426.129524	2533.396577
426.507673	2532.978162
426.885762	2536.943029
427.263789	2534.457740
427.641756	2533.300795
428.019662	2536.431352
428.397508	2534.457740
428.775292	2534.911444
429.153016	2536.254912
429.530679	2536.040663
429.908282	2537.003523
430.285824	2536.368338
430.663305	2535.798687
431.040726	2535.339942
431.418086	2535.075282
431.795385	2535.944881
432.172624	2535.443286
432.549802	2536.580066
432.926920	2534.916485
433.303977	2540.330684
433.680974	2539.153575
434.057910	2538.004192
434.434786	2537.477391
434.811601	2536.333049
435.188355	2537.986548
435.565050	2539.302289
435.941683	2536.849768
436.318257	2535.662576
436.694770	2534.248532
437.071222	2534.291382
437.447614	2534.293903
437.823946	2530.805424
438.200218	2535.488656
438.576429	2537.129552
438.952580	2539.763555
439.328670	2541.820345
439.704700	2536.322967
440.080670	2536.355735
440.456580	2539.811446
440.832429	2542.906714
441.208218	2535.624767
441.583947	2536.968235
441.959616	2540.219779
442.335224	2542.563916
442.710773	2539.042670
443.086261	2537.477391
443.461689	2538.112577
443.837057	2539.042670
444.212365	2542.034594
444.587612	2540.902855
444.962800	2540.537372
445.337927	2541.051569
445.712995	2538.949408
446.088002	2539.970242
446.462949	2539.690458
446.837837	2542.488298
447.212664	2540.509645
447.587431	2541.427135
447.962139	2537.827752
448.336786	2541.986703
448.711374	2541.157434
449.085901	2540.474357
449.460369	2542.697506
449.834776	2541.507794
450.209124	2539.687937
450.583412	2539.191384
450.957640	2540.819676
451.331808	2541.250695
451.705917	2540.625592
452.079965	2540.912938
452.453954	2541.104502
452.827883	2542.382434
453.201752	2542.856302
453.575562	2542.374872
453.949311	2541.777496
454.323001	2538.919161
454.696632	2540.897814
455.070202	2541.422094
455.443713	2542.425284
455.817164	2541.101981
456.190556	2537.774819
456.563888	2540.499563
456.937160	2537.492515
457.310373	2542.057280
457.683526	2544.240099
458.056619	2541.293545
458.429653	2545.031560
458.802628	2543.436035
459.175542	2544.182126
459.548398	2544.043494
459.921194	2546.748073
460.293930	2543.108360
460.666607	2541.906045
461.039224	2543.410829
461.411782	2545.366797
461.784280	2545.782692
462.156719	2543.282280
462.529099	2544.608103
462.901419	2544.265305
463.273680	2544.010727
463.645882	2544.424101
464.018024	2543.199101
464.390106	2544.464431
464.762130	2539.380427
465.134094	2543.040305
465.505999	2543.985521
465.877845	2545.031560
466.249631	2544.618186
466.621358	2544.482075
466.993026	2548.366284
467.364634	2550.541542
467.736184	2545.071890
468.107674	2542.067362
468.479105	2544.910573
468.850477	2544.507280
469.221790	2544.739173
469.593043	2545.016437
469.964238	2549.341747
470.335373	2543.657846
470.706449	2547.272353
471.077467	2544.018288
471.448425	2546.914431
471.819324	2544.963505
472.190164	2545.008875
472.560945	2546.548948
472.931667	2544.706406
473.302330	2546.979966
473.672934	2546.256561
474.043479	2547.461397
474.413965	2547.743701
474.784393	2543.037784
475.154761	2545.719678
475.525070	2541.023843
475.895321	2543.579708
476.265513	2542.573998
476.635645	2548.116747
477.005719	2547.214380
477.375734	2548.716644
477.745691	2550.133208
478.115588	2549.417364
478.485427	2546.934596
478.855207	2549.152704
479.224928	2547.658002
479.594591	2550.057591
479.964194	2550.793599
480.333739	2550.004659
480.703226	2546.808567
481.072653	2547.899977
481.442022	2548.363763
481.811333	2549.311500
482.180584	2546.102806
482.549777	2548.547765
482.918912	2549.853424
483.287988	2548.870399
483.657005	2550.228990
484.025964	2546.687579
484.394864	2548.227652
484.763706	2549.245965
485.132489	2548.000800
485.501213	2550.221428
485.869879	2548.656150
486.238487	2549.780327
486.607036	2548.194884
486.975527	2549.888712
487.343959	2548.494833
487.712333	2551.814433
488.080648	2551.567416
488.448905	2549.122457
488.817104	2551.103630
489.185244	2547.481561
489.553326	2549.243444
489.921350	2552.126984
490.289315	2548.794782
490.657222	2550.977601
491.025070	2549.419885
491.392861	2552.789896
491.760593	2552.913404
492.128267	2550.692776
492.495883	2548.814946
492.863440	2551.423743
493.230939	2549.697148
493.598380	2547.952909
493.965763	2546.624565
494.333088	2546.690100
494.700354	2543.362938
495.067563	2548.472148
495.434713	2543.751107
495.801805	2552.981460
496.168839	2550.717982
496.535815	2549.339226
496.902733	2550.591953
497.269593	2551.869886
497.636395	2550.934752
498.003139	2549.871068
498.369825	2551.022972
498.736453	2550.828887
499.103023	2551.227138
499.469535	2550.967519
499.835989	2550.370142
500.202385	2550.932231
500.568723	2551.597663
500.935003	2550.952396
501.301226	2551.733774
501.667390	2550.511295
502.033497	2550.763352
502.399546	2551.481717
502.765537	2552.005997
503.131470	2551.370811
503.497345	2552.633620
503.863163	2553.062118
504.228923	2554.602191
504.594625	2553.014228
504.960269	2552.099258
505.325856	2550.423074
505.691385	2549.535831
506.056856	2550.244113
506.422270	2551.847200
506.787625	2552.356357
507.152924	2552.825184
507.518164	2550.460883
507.883347	2552.129505
508.248472	2553.578837
508.613540	2550.455842
508.978550	2555.010524
509.343503	2552.003476
509.708398	2555.055895
510.073236	2551.577499
510.438016	2555.532284
510.802738	2553.452808
511.167403	2555.272664
511.532010	2556.230484
511.896561	2554.153528
512.261053	2553.777962
512.625488	2553.190668
512.989866	2550.183620
513.354186	2552.159752
513.718449	2550.541542
514.082655	2553.571275
514.446803	2555.499516
514.810894	2557.672254
515.174927	2555.950700
515.538904	2556.822819
515.902822	2556.969013
516.266684	2555.393652
516.630488	2554.458518
516.994235	2557.011863
517.357925	2557.284085
517.721558	2558.725855
518.085133	2558.733417
518.448651	2560.301215
518.812112	2559.787018
519.175516	2556.812737
519.538863	2557.072356
519.902152	2556.807696
520.265385	2560.001267
520.628560	2560.109652
520.991678	2559.184600
521.354739	2556.480021
521.717743	2558.993036
522.080690	2562.801628
522.443580	2560.651576
522.806413	2562.204251
523.169189	2561.531257
523.531908	2561.357337
523.894569	2558.307439
524.257174	2560.530588
524.619722	2565.538974
524.982213	2562.138716
525.344647	2560.381874
525.707025	2563.217523
526.069345	2562.133675
526.431608	2565.990157
526.793815	2563.903120
527.155964	2565.271793
527.518057	2564.523182
527.880093	2564.656772
528.242072	2564.598799
528.603995	2566.096022
528.965860	2567.189952
529.327669	2567.588203
529.689421	2565.405384
530.051117	2565.521330
530.412755	2567.099211
530.774337	2566.582493
531.135862	2567.091650
531.497331	2562.574776
531.858743	2564.898748
532.220098	2568.036866
532.581396	2562.113510
532.942638	2565.070147
533.303824	2567.265569
533.664953	2571.606003
534.026025	2566.390929
534.387040	2567.900755
534.747999	2568.069633
535.108902	2571.182546
535.469748	2569.758420
535.830537	2572.200859
536.191270	2568.374623
536.551947	2568.079716
536.912567	2571.631209
537.273131	2570.111301
537.633638	2571.981569
537.994089	2568.987123
538.354483	2568.467885
538.714821	2572.599110
539.075103	2572.820921
539.435328	2573.814028
539.795497	2571.492577
540.155609	2572.573904
540.515665	2573.365366
540.875665	2573.009964
541.235609	2573.992989
541.595496	2574.592887
541.955328	2571.235478
542.315102	2575.545665
542.674821	2576.027095
543.034483	2574.832341
543.394090	2574.303020
543.753640	2575.432239
544.113134	2577.602455
544.472571	2574.406364
544.831953	2574.789492
545.191278	2574.660942
545.550548	2573.609862
545.909761	2574.650860
546.268918	2577.163875
546.628019	2574.363514
546.987064	2577.085737
547.346053	2577.015161
547.704986	2575.825449
548.063863	2573.297310
548.422684	2576.478278
548.781449	2574.562640
549.140158	2578.577919
549.498811	2576.193453
549.857408	2576.311920
550.215949	2574.053483
550.574434	2575.321333
550.932864	2573.526682
551.291237	2573.950139
551.649555	2578.807291
552.007817	2576.576581
552.366022	2576.390058
552.724173	2577.983062
553.082267	2579.369380
553.440305	2579.029102
553.798288	2579.626479
554.156215	2577.872157
554.514086	2576.425346
554.871902	2578.741756
555.229661	2577.988104
555.587365	2577.405850
555.945014	2581.078331
556.302606	2576.606827
556.660143	2579.122363
557.017625	2580.801067
557.375050	2581.552199
557.732421	2580.591860
558.089735	2580.301993
558.446994	2580.561613
558.804197	2580.100347
559.161345	2581.859710
559.518437	2578.386355
559.875474	2582.567992
560.232455	2585.814495
560.589381	2580.685121
560.946251	2584.196285
561.303065	2580.362487
561.659825	2582.875502
562.016528	2584.145873
562.373177	2579.364339
562.729770	2582.792323
563.086307	2584.569330
563.442789	2580.649833
563.799216	2583.704772
564.155587	2580.561613
564.511904	2584.995307
564.868164	2585.370873
565.224370	2587.483117
565.580520	2584.334916
565.936615	2586.878178
566.292654	2586.043867
566.648638	2586.321131
567.004567	2587.674681
567.360441	2589.386153
567.716260	2588.836667
568.072023	2588.171234
568.427732	2587.125195
568.783385	2591.395052
569.138982	2589.053436
569.494525	2588.307346
569.850013	2589.776842
570.205445	2594.984354
570.560823	2594.074426
570.916145	2594.470156
571.271412	2594.107193
571.626625	2599.450816
571.981782	2595.367482
572.336884	2597.217585
572.691931	2596.650455
573.046923	2600.433841
573.401860	2599.213882
573.756743	2600.862339
574.111570	2602.472988
574.466342	2602.339397
574.821059	2604.809563
575.175722	2607.254522
575.530330	2606.800818
575.884882	2608.421549
576.239380	2608.729060
576.593823	2608.451796
576.948211	2609.765017
577.302544	2612.444390
577.656823	2614.554113
578.011047	2619.290277
578.365216	2618.466048
578.719330	2620.195164
579.073389	2622.786317
579.427394	2620.081738
579.781344	2622.861935
580.135239	2626.083232
580.489080	2627.461987
580.842866	2629.072636
581.196597	2635.243008
581.550273	2635.396764
581.903895	2638.214769
582.257463	2640.400109
582.610975	2641.962867
582.964434	2645.811787
583.317837	2647.397230
583.671186	2648.564257
584.024481	2650.242962
584.377721	2651.644402
584.730906	2655.843684
585.084037	2656.274702
585.437113	2658.404590
585.790135	2664.494304
586.143103	2666.147802
586.496016	2669.245591
586.848874	2667.876918
587.201679	2673.185253
587.554428	2673.923782
587.907124	2682.559278
588.259765	2680.315965
588.612352	2690.811647
588.964884	2690.317614
589.317362	2696.876155
589.669786	2700.442772
590.022155	2704.039635
590.374470	2711.366952
590.726731	2710.320913
591.078937	2710.507435
591.431090	2720.945144
591.783188	2720.962788
592.135232	2725.845146
592.487222	2727.838922
592.839157	2736.885273
593.191038	2737.255798
593.542866	2741.268556
593.894639	2748.353898
594.246358	2753.440422
594.598022	2758.010228
594.949633	2761.317225
595.301190	2763.641197
595.652692	2768.231167
596.004141	2782.371604
596.355535	2777.448917
596.706876	2781.875050
597.058162	2783.553755
597.409395	2794.722431
597.760573	2804.393885
598.111698	2804.114101
598.462768	2810.334884
598.813785	2816.124650
599.164748	2821.967347
599.515657	2827.119406
599.866511	2834.124089
600.217312	2841.433762
600.568060	2844.019874
600.918753	2857.343644
601.269392	2862.346989
601.619978	2867.373020
601.970510	2881.636964
602.320988	2886.368087
602.671412	2898.363513
603.021783	2901.514234
603.372100	2909.499422
603.722363	2919.334713
604.072572	2924.766556
604.422728	2936.620829
604.772830	2939.262394
605.122878	2945.321861
605.472872	2952.150104
605.822813	2969.579893
606.172701	2971.982003
606.522534	2992.660816
606.872314	2999.998216
607.222041	3007.585152
607.571714	3022.391021
607.921333	3031.581044
608.270899	3045.298024
608.620411	3059.511557
608.969870	3066.581776
609.319276	3074.733321
609.668627	3093.539346
610.017926	3107.674741
610.367171	3129.152577
610.716362	3132.028555
611.065500	3148.006492
611.414585	3163.087104
611.763616	3174.548167
612.112594	3182.293900
612.461518	3202.564380
612.810389	3218.996021
613.159207	3223.709500
613.507971	3233.748958
613.856682	3260.328441
614.205340	3270.841768
614.553945	3295.321611
614.902496	3295.777835
615.250994	3319.667863
615.599439	3330.140860
615.947830	3348.611648
616.296169	3357.748739
616.644454	3379.715567
616.992686	3392.399110
617.340864	3421.582350
617.688990	3424.755756
618.037063	3450.503450
618.385082	3463.237404
618.733048	3499.929442
619.080961	3500.307529
619.428821	3522.392824
619.776628	3539.094167
620.124382	3545.473747
620.472083	3566.812951
620.819731	3578.873912
621.167326	3574.904003
621.514868	3590.894543
621.862357	3582.150662
622.209793	3598.481480
622.557176	3604.535905
622.904506	3608.455402
623.251783	3607.374075
623.599007	3616.813636
623.946179	3630.512971
624.293297	3638.941780
624.640363	3634.324083
624.987376	3649.540806
625.334336	3651.264881
625.681243	3659.323165
626.028097	3668.714835
626.374899	3678.666073
626.721647	3694.976726
627.068343	3693.948331
627.414987	3702.974517
627.761577	3709.444837
628.108115	3733.884351
628.454600	3727.691294
628.801032	3760.206736
629.147412	3761.078856
629.493739	3777.422277
629.840014	3774.140485
630.186236	3808.682472
630.532405	3788.769914
630.878521	3820.977846
631.224585	3824.932631
631.570597	3817.219666
631.916556	3848.694110
632.262462	3859.797251
632.608316	3867.873179
632.954117	3875.354252
633.299866	3882.681569
633.645562	3899.375350
633.991206	3890.951582
634.336797	3885.754152
634.682336	3892.746232
635.027823	3893.464597
635.373257	3901.520361
635.718639	3892.930235
636.063968	3911.199376
636.409245	3889.630799
636.754470	3904.436668
637.099642	3901.369126
637.444762	3898.026841
637.789829	3912.177360
638.134845	3906.869025
638.479808	3916.865633
638.824719	3932.203344
639.169577	3921.324534
639.514383	3936.768108
639.859137	3929.362653
640.203839	3941.017801
640.548489	3955.347281
640.893086	3957.262919
641.237632	3961.686532
641.582125	3981.740242
641.926566	3982.120849
642.270955	4004.183459
642.615292	4015.483205
642.959576	4036.005742
643.303809	4042.140827
643.647990	4064.384918
643.992118	4070.648552
644.336195	4059.633631
644.680219	4086.510542
645.024192	4085.398968
645.368112	4144.536744
645.711981	4165.893592
646.055797	4210.033935
646.399562	4207.893965
646.743274	4275.430303
647.086935	4313.261642
647.430544	4321.864371
647.774101	4348.920244
648.117606	4358.906770
648.461059	4372.270869
648.804460	4376.916292
649.147810	4338.076722
649.491108	4341.991178
649.834354	4347.022250
650.177548	4323.900998
650.520690	4293.550731
650.863781	4300.817554
651.206820	4325.262109
651.549807	4295.985608
651.892742	4282.702168
652.235626	4293.752377
652.578458	4303.270075
652.921238	4269.625415
653.263967	4304.237977
653.606644	4276.413328
653.949269	4297.744971
654.291843	4270.691619
654.634365	4311.149399
654.976836	4305.775529
655.319255	4310.368020
655.661622	4314.524451
656.003938	4325.189012
656.346203	4312.820541
656.688416	4343.866487
657.030577	4325.342767
657.372687	4323.832942
657.714746	4324.805885
658.056753	4357.649002
658.398708	4334.245445
658.740612	4339.490766
659.082465	4380.949215
659.424266	4383.099267
659.766016	4392.485896
660.107715	4394.520001
660.449362	4410.485335
660.790958	4420.471861
661.132503	4426.175927
661.473996	4458.567861
661.815438	4457.204229
662.156829	4468.748471
662.498168	4471.458091
662.839456	4463.828305
663.180693	4495.920290
663.521879	4505.198534
663.863013	4505.831199
664.204097	4533.633162
664.545129	4564.313624
664.886110	4577.128238
665.227040	4610.760295
665.567918	4585.395730
665.908746	4621.959219
666.249522	4629.775528
666.590248	4626.750835
666.930922	4652.465761
667.271545	4673.429399
667.612118	4686.806101
667.952639	4675.627342
668.293109	4707.774781
668.633528	4686.208724
668.973896	4697.085014
669.314213	4699.406465
669.654480	4700.225653
669.994695	4704.666909
670.334859	4714.618147
670.674973	4722.285742
671.015035	4728.264550
671.355047	4737.651179
671.695008	4736.547166
672.034918	4725.822111
672.374777	4739.395418
672.714585	4740.708639
673.054342	4750.657356
673.394049	4754.634826
673.733705	4790.351401
674.073310	4791.730157
674.412864	4768.702166
674.752368	4775.089308
675.091820	4787.674548
675.431223	4750.816152
675.770574	4763.386269
676.109875	4734.664295
676.449125	4748.653497
676.788324	4734.984408
677.127473	4704.835788
677.466571	4706.053227
677.805619	4708.616653
678.144616	4716.488415
678.483562	4702.438719
678.822458	4690.919683
679.161303	4693.974622
679.500098	4697.843707
679.838842	4684.426677
680.177535	4699.154407
680.516179	4714.434145
680.854771	4728.919900
681.193314	4793.005569
681.531805	4877.258373
681.870247	4995.508719
682.208638	5070.778187
682.546978	5085.962142
682.885268	5078.367644
683.223508	5022.816649
683.561697	4996.950489
683.899836	4977.554649
684.237925	4948.341163
684.575963	4928.887350
684.913951	4903.860542
685.251889	4957.977328
685.589776	4932.025468
685.927614	4915.493004
686.265401	4983.929188
686.603137	4966.363288
686.940824	5029.602042
687.278460	5048.720618
687.616046	5061.734357
687.953582	5107.979382
688.291068	5099.792548
688.628504	5160.987114
688.965889	5135.337723
689.303224	5099.275829
689.640510	5069.782559
689.977745	5021.508470
690.314930	4954.146051
690.652065	4918.865536
690.989150	4847.659238
691.326185	4802.102331
691.663170	4768.157721
692.000105	4714.978589
692.336990	4662.631248
692.673825	4649.756141
693.010610	4597.928038
693.347345	4544.305285
693.684030	4548.113877
694.020665	4515.253115
694.357251	4444.510603
694.693786	4457.864620
695.030272	4438.269655
695.366707	4416.229730
695.703093	4387.250657
696.039429	4411.365017
696.375716	4402.661465
696.711952	4384.208321
697.048139	4373.906723
697.384276	4359.998180
697.720363	4375.802197
698.056400	4388.032036
698.392388	4346.760110
698.728326	4329.965506
699.064214	4320.609124
699.400053	4317.045028
699.735842	4297.566010
700.071581	4277.474491
700.407270	4260.384980
700.742910	4249.541458
701.078501	4207.904048
701.414042	4214.697002
701.749533	4193.251934
702.084974	4134.071308
702.420366	4189.692879
702.755709	4144.498935
703.091002	4096.136626
703.426246	4142.250580
703.761440	4105.669448
704.096584	4075.568718
704.431679	4100.245166
704.766725	4087.226386
705.101721	4083.538782
705.436668	4113.127835
705.771565	4068.488417
706.106413	4093.525308
706.441212	4123.565544
706.775961	4136.047441
707.110661	4115.098926
707.445311	4145.474398
707.779913	4163.299918
708.114465	4177.541178
708.448967	4194.918035
708.783421	4256.488168
709.117825	4288.343219
709.452180	4297.997028
709.786485	4338.265765
710.120742	4413.469698
710.454949	4393.718458
710.789107	4455.311275
711.123216	4520.934496
711.457275	4507.583000
711.791286	4575.404163
712.125247	4589.786575
712.459159	4502.395652
712.793023	4572.132454
713.126837	4548.451634
713.460602	4539.080129
713.794318	4468.083039
714.127985	4486.069876
714.461602	4413.956170
714.795171	4392.856420
715.128691	4336.541691
715.462162	4291.541831
715.795584	4249.506170
716.128957	4238.438316
716.462281	4191.575750
716.795556	4170.710414
717.128782	4142.573214
717.461960	4082.049121
717.795088	4093.976491
718.128167	4055.462076
718.461198	4003.893592
718.794180	4002.257738
719.127113	3986.909945
719.459997	3971.002584
719.792833	3926.307714
720.125619	3922.516767
720.458357	3890.507960
720.791046	3899.897109
721.123686	3872.004405
721.456278	3835.519054
721.788821	3852.124615
722.121315	3827.735513
722.453761	3806.764313
722.786158	3823.049760
723.118506	3839.569621
723.450805	3796.147643
723.783056	3820.675377
724.115259	3833.815144
724.447412	3841.825537
724.779518	3833.290864
725.111574	3839.768747
725.443582	3865.491234
725.775542	3850.491281
726.107453	3897.391656
726.439315	3901.845515
726.771129	3912.865477
727.102895	3949.310499
727.434612	3996.508302
727.766281	4001.322604
728.097901	4005.640352
728.429473	4011.009181
728.760996	4016.211652
729.092471	4014.132176
729.423897	4001.095752
729.755276	4009.330477
730.086606	4010.714274
730.417887	4048.870767
730.749120	4108.616002
731.080305	4167.063140
731.411442	4193.708158
731.742530	4161.991739
732.073570	4172.343748
732.404562	4226.417685
732.735506	4211.962176
733.066401	4179.101415
733.397249	4120.561016
733.728048	4053.085172
734.058798	3977.172957
734.389501	3909.621495
734.720156	3854.032692
735.050762	3813.320333
735.381320	3808.662307
735.711831	3757.532404
736.042293	3732.462746
736.372707	3756.937548
736.703073	3726.841859
737.033391	3717.538410
737.363661	3736.987182
737.693883	3762.772683
738.024056	3770.092439
738.354182	3762.881068
738.684260	3826.235769
739.014290	3845.190508
739.344272	3837.716997
739.674207	3880.269377
740.004093	3885.376066
740.333931	3875.399622
740.663722	3882.684089
740.993464	3880.191239
741.323159	3857.158207
741.652806	3832.766584
741.982405	3802.585196
742.311956	3775.874642
742.641460	3765.741923
742.970915	3746.073861
743.300323	3709.328891
743.629683	3673.803880
743.958996	3665.947242
744.288260	3642.760454
744.617477	3614.555199
744.946647	3599.552725
745.275768	3577.384251
745.604842	3574.704877
745.933869	3525.788041
746.262847	3522.596991
746.591778	3559.800706
746.920662	3531.446736
747.249498	3501.366171
747.578286	3541.692882
747.907027	3562.623752
748.235720	3560.236766
748.564365	3583.542020
748.892963	3584.366249
749.221514	3567.158270
749.550017	3547.338974
749.878473	3543.479971
750.206881	3519.042977
750.535242	3512.139117
750.863555	3517.412164
751.191821	3509.336236
751.520039	3491.911487
751.848210	3469.473312
752.176334	3503.438086
752.504411	3511.599714
752.832440	3473.012202
753.160421	3451.539407
753.488356	3464.200265
753.816243	3475.484887
754.144082	3434.197838
754.471875	3420.531269
754.799620	3440.234619
755.127318	3428.400511
755.454969	3430.081735
755.782572	3436.647838
756.110129	3414.227307
756.437638	3406.897469
756.765100	3420.062442
757.092515	3427.135181
757.419882	3433.497117
757.747203	3407.293199
758.074477	3408.349321
758.401703	3426.036209
758.728882	3446.820887
759.056014	3454.085189
759.383099	3456.482258
759.710138	3452.729119
760.037129	3467.461891
760.364073	3500.305008
760.690970	3481.085609
761.017820	3460.432002
761.344623	3481.365393
761.671379	3526.708052
761.998088	3575.350145
762.324751	3698.508054
762.651366	3937.844395
762.977935	4396.090321
763.304456	4825.087472
763.630931	4908.989916
763.957359	4556.426739
764.283740	4225.290987
764.610074	4048.316240
764.936362	3858.352960
765.262602	3703.652552
765.588796	3595.895368
765.914943	3512.025691
766.241044	3425.602670
766.567097	3400.991757
766.893104	3353.688090
767.219064	3321.694407
767.544978	3298.391673
767.870845	3241.219948
768.196665	3227.923904
768.522438	3237.539905
768.848165	3230.033627
769.173846	3199.660675
769.499479	3177.409022
769.825066	3161.000067
770.150607	3144.883498
770.476101	3163.946621
770.801548	3159.429747
771.126949	3112.325206
771.452303	3099.003957
771.777611	3102.555449
772.102872	3107.649535
772.428087	3084.324117
772.753256	3075.872622
773.078378	3068.903227
773.403453	3035.218237
773.728482	3026.287833
774.053465	3045.366080
774.378401	3029.864532
774.703291	3000.613236
775.028135	3002.511231
775.352932	3000.025942
775.677683	2988.854745
776.002388	2986.757625
776.327046	2986.603870
776.651658	2977.204638
776.976224	2963.316260
777.300743	2963.628811
777.625216	2953.705300
777.949643	2949.601801
778.274024	2954.602625
778.598359	2941.046963
778.922647	2946.589711
779.246889	2946.617438
779.571086	2930.790735
779.895236	2927.398038
780.219339	2934.440530
780.543397	2948.651543
780.867409	2952.129939
781.191374	2941.286417
781.515294	2942.793722
781.839167	2940.247940
782.162995	2935.559667
782.486776	2942.511418
782.810511	2938.586879
783.134201	2927.040117
783.457844	2933.071857
783.781441	2923.571803
784.104993	2903.533216
784.428498	2903.671848
784.751958	2919.869075
785.075372	2913.834814
785.398739	2896.382339
785.722061	2914.059145
786.045337	2925.444591
786.368568	2911.377252
786.691752	2901.191600
787.014891	2949.906790
787.337983	2979.168168
787.661030	3002.072650
787.984031	3068.394070
788.306987	3115.438118
788.629897	3104.922271
788.952760	3091.921135
789.275579	3077.508477
789.598351	3017.327182
789.921078	2974.681541
790.243759	2970.459575
790.566395	2948.845628
790.888984	2926.639345
791.211529	2912.420770
791.534027	2901.335273
791.856480	2893.403017
792.178888	2877.069679
792.501249	2871.042980
792.823566	2866.024511
793.145836	2865.538040
793.468062	2859.793645
793.790241	2855.765763
794.112375	2866.498379
794.434464	2878.531614
794.756507	2880.900956
795.078505	2886.655433
795.400457	2900.561456
795.722364	2936.930860
796.044226	2958.345682
796.366042	2960.941876
796.687812	2950.723457
797.009538	2967.528144
797.331218	2955.315948
797.652852	2943.486881
797.974442	2927.559355
798.295986	2922.961823
798.617484	2917.288004
798.938938	2902.338463
799.260346	2888.739950
799.581709	2880.868188
799.903026	2877.319216
800.224299	2871.771426
800.545526	2860.857328
800.866708	2843.946778
801.187845	2836.609378
801.508936	2839.147599
801.829983	2844.985255
802.150984	2832.465550
802.471940	2819.028354
802.792851	2820.054229
803.113717	2819.764363
803.434538	2826.980774
803.755314	2817.556337
804.076045	2813.183136
804.396731	2811.385965
804.717372	2812.714309
805.037967	2807.108546
805.358518	2815.771769
805.679024	2823.499858
805.999485	2822.859631
806.319901	2822.917604
806.640272	2814.796306
806.960598	2823.751915
807.280879	2828.979592
807.601115	2839.830676
807.921306	2826.005311
808.241453	2819.154383
808.561554	2827.913388
808.881611	2830.930518
809.201623	2824.442553
809.521590	2823.746874
809.841513	2817.573981
810.161390	2825.433140
810.481223	2818.027685
810.801011	2805.888587
811.120755	2804.945891
811.440453	2806.538896
811.760107	2807.315233
812.079716	2806.123000
812.399281	2795.264355
812.718801	2787.301852
813.038276	2784.357819
813.357707	2788.995680
813.677093	2796.658234
813.996434	2792.416103
814.315731	2788.627676
814.634983	2784.632562
814.954191	2785.338323
815.273354	2798.258800
815.592473	2806.874132
815.911547	2805.205510
816.230577	2815.615493
816.549562	2825.468428
816.868502	2824.772749
817.187399	2831.618636
817.506250	2848.940041
817.825058	2843.477950
818.143821	2855.440608
818.462539	2869.853267
818.781213	2894.701115
819.099843	2931.317536
819.418429	2985.681339
819.736970	3045.608055
820.055466	3115.415433
820.373919	3220.039540
820.692327	3352.256402
821.010691	3517.684386
821.329011	3948.085499
821.647286	4822.188808
821.965517	6157.996275
822.283704	6857.277410
822.601847	6826.901938
822.919945	6216.075408
823.237999	5733.243775
823.556010	5169.534391
823.873976	4636.709635
824.191897	4245.294286
824.509775	3960.305256
824.827609	3698.429916
825.145398	3583.945312
825.463144	3573.303437
825.780845	3665.251562
826.098502	3765.023559
826.416116	4043.501938
826.733685	4344.108463
827.051210	4399.944283
827.368692	4288.801964
827.686129	4033.790155
828.003522	3715.819377
828.320872	3471.446923
828.638177	3281.990279
828.955439	3146.867192
829.272656	3068.946077
829.589830	3005.432579
829.906960	2954.675722
830.224046	2913.522263
830.541088	2879.257540
830.858086	2865.132227
831.175041	2846.918538
831.491952	2849.953312
831.808819	2861.207688
832.125642	2885.773231
832.442421	2928.827206
832.759157	3009.430214
833.075849	3182.908921
833.392497	3459.360757
833.709101	3651.343019
834.025662	3598.080708
834.342179	3442.011626
834.658653	3272.863270
834.975083	3128.303143
835.291469	3030.981147
835.607811	2953.775876
835.924110	2898.867628
836.240366	2848.004907
836.556578	2806.354893
836.872746	2786.999383
837.188871	2762.673295
837.504952	2745.936665
837.820990	2739.395767
838.136984	2728.806824
838.452935	2720.090669
838.768842	2719.931872
839.084706	2736.613051
839.400526	2814.713127
839.716303	2940.169802
840.032037	3017.811133
840.347727	2998.637104
840.663373	2944.767334
840.978977	2870.027187
841.294537	2801.422124
841.610054	2753.735330
841.925527	2734.858729
842.240957	2711.142621
842.556344	2691.661082
842.871687	2676.250274
843.186987	2668.038235
843.502244	2663.072698
843.817458	2661.527585
844.132629	2646.928403
844.447756	2642.577887
844.762840	2631.754530
845.077881	2637.456075
845.392879	2632.389715
845.707833	2628.820578
846.022745	2621.357150
846.337613	2624.434775
846.652438	2623.154322
846.967221	2623.741616
847.281960	2622.874537
847.596656	2619.680967
847.911309	2623.776904
848.225919	2620.321193
848.540485	2615.801799
848.855009	2611.438680
849.169490	2614.909514
849.483928	2614.904473
849.798323	2612.522528
850.112675	2612.393979
850.426984	2613.908845
850.741251	2612.585542
851.055474	2610.196036
851.369654	2615.015379
851.683792	2616.535287
851.997887	2611.524380
852.311938	2612.542693
852.625947	2611.675614
852.939914	2616.149638
853.253837	2617.578805
853.567718	2613.510594
853.881555	2611.529421
854.195350	2614.879267
854.509103	2614.574278
854.822812	2611.363063
855.136479	2611.168978
855.450103	2614.843979
855.763685	2613.109823
856.077224	2610.105295
856.390720	2609.301231
856.704173	2611.841972
857.017584	2615.668208
857.330953	2615.075872
857.644278	2620.323714
857.957561	2620.790020
858.270802	2612.857765
858.584000	2611.975563
858.897155	2617.672067
859.210268	2620.606018
859.523339	2613.495471
859.836367	2608.688731
860.149352	2611.776437
860.462295	2612.129318
860.775195	2609.984307
861.088054	2606.213524
861.400869	2610.369955
861.713642	2603.544233
862.026373	2605.580859
862.339062	2608.250150
862.651708	2614.042436
862.964312	2616.101747
863.276873	2614.052518
863.589392	2617.515791
863.901869	2618.014865
864.214303	2624.996863
864.526696	2628.087091
864.839045	2625.503499
865.151353	2628.024076
865.463619	2630.877369
865.775842	2632.145219
866.088023	2631.562966
866.400162	2631.288223
866.712258	2632.586320
867.024313	2633.763430
867.336325	2625.105248
867.648296	2626.985598
867.960224	2630.592544
868.272110	2632.727473
868.583954	2623.902933
868.895755	2627.225053
869.207515	2631.187400
869.519233	2636.984727
869.830909	2635.832823
870.142542	2629.717904
870.454134	2631.915847
870.765684	2635.179994
871.077191	2638.166878
871.388657	2643.676859
871.700081	2637.246867
872.011463	2639.238123
872.322803	2639.898514
872.634101	2642.797177
872.945357	2651.803199
873.256571	2654.769918
873.567744	2655.445432
873.878874	2653.101296
874.189963	2651.881337
874.501010	2658.472645
874.812015	2661.734272
875.122979	2661.991371
875.433900	2654.507778
875.744780	2652.907212
876.055618	2658.888541
876.366415	2661.270486
876.677169	2663.254180
876.987882	2657.698828
877.298554	2656.186482
877.609183	2665.794921
877.919771	2672.880263
878.230317	2678.707837
878.540822	2687.262675
878.851285	2702.691126
879.161707	2725.280537
879.472087	2761.120620
879.782425	2804.391364
880.092722	2914.780030
880.402977	3096.029676
880.713191	3347.374045
881.023363	3619.679532
881.333494	3801.430772
881.643583	3965.555617
881.953631	3962.430102
882.263637	3790.627579
882.573602	3580.550095
882.883526	3456.308338
883.193408	3346.088551
883.503248	3252.297883
883.813048	3145.014568
884.122806	3034.797301
884.432522	2952.543314
884.742197	2894.345713
885.051831	2856.884899
885.361424	2824.429951
885.670975	2790.190434
885.980485	2759.595671
886.289954	2745.669483
886.599382	2732.123903
886.908768	2722.633931
887.218113	2703.444779
887.527417	2689.016997
887.836680	2684.701769
888.145901	2680.928465
888.455082	2671.796415
888.764221	2661.152019
889.073319	2653.481903
889.382376	2652.012407
889.691392	2652.876965
890.000366	2651.530977
890.309300	2649.385966
890.618193	2654.154897
890.927044	2657.862666
891.235855	2655.092552
891.544625	2655.929383
891.853353	2655.090031
892.162041	2664.902637
892.470687	2682.014834
892.779293	2691.436750
893.087858	2699.021166
893.396381	2724.181565
893.704864	2762.048192
894.013306	2831.404387
894.321707	2919.261616
894.630068	2961.589664
894.938387	2985.323417
895.246665	2974.311016
895.554903	2935.254677
895.863100	2893.246742
896.171256	2839.019050
896.479371	2775.934051
896.787446	2741.223186
897.095480	2726.961762
897.403473	2720.955227
897.711425	2706.903010
898.019336	2689.052285
898.327207	2674.579132
898.635038	2675.244564
898.942827	2671.730880
899.250576	2662.311484
899.558284	2652.287150
899.865952	2647.296407
900.173579	2645.726088
900.481165	2643.318937
900.788711	2635.164871
901.096216	2630.174128
901.403681	2630.905096
901.711105	2629.312091
902.018489	2625.579117
902.325832	2628.689508
902.633135	2628.941566
902.940397	2642.988741
903.247619	2679.121212
903.554800	2746.392889
903.861941	2863.095601
904.169041	2984.045484
904.476101	3039.800646
904.783121	3034.930891
905.090100	2979.919300
905.397039	2907.470357
905.703938	2840.266735
906.010796	2783.147942
906.317614	2732.723800
906.624391	2696.140147
906.931129	2674.301868
907.237826	2652.816471
907.544483	2635.820221
907.851099	2620.548045
908.157675	2616.154679
908.464211	2607.793926
908.770707	2598.505600
909.077163	2591.468149
909.383578	2589.517222
909.689954	2588.806420
909.996289	2586.636203
910.302584	2586.139649
910.608839	2583.278795
910.915054	2585.219639
911.221229	2587.520926
911.527363	2589.224836
911.833458	2585.756522
912.139513	2588.224167
912.445527	2590.638879
912.751502	2596.511823
913.057436	2601.321084
913.363331	2606.306785
913.669186	2617.077211
913.975000	2630.469036
914.280775	2642.610655
914.586510	2660.040444
914.892205	2693.364992
915.197859	2758.794127
915.503475	2838.414111
915.809050	2900.216137
916.114585	2907.740059
916.420081	2920.844538
916.725536	2928.857453
917.030952	2910.268198
917.336328	2863.685416
917.641665	2818.892243
917.946961	2769.831734
918.252218	2739.829307
918.557435	2717.320555
918.862612	2693.803572
919.167750	2679.834535
919.472848	2666.520847
919.777906	2645.925213
920.082925	2637.405663
920.387904	2627.139354
920.692843	2623.764301
920.997743	2620.384207
921.302603	2611.688217
921.607423	2607.221755
921.912204	2601.547936
922.216946	2599.770929
922.521647	2596.983171
922.826310	2596.153902
923.130932	2591.326997
923.435516	2584.884402
923.740059	2586.225349
924.044564	2582.852817
924.349028	2579.964236
924.653454	2569.899572
924.957840	2569.627350
925.262186	2564.366906
925.566493	2571.227916
925.870761	2565.498645
926.174989	2567.994016
926.479178	2566.474108
926.783328	2563.812379
927.087438	2560.134857
927.391509	2562.337842
927.695541	2560.268448
927.999533	2556.338868
928.303486	2556.497665
928.607400	2555.978426
928.911275	2552.835267
929.215110	2558.380536
929.518906	2554.130843
929.822663	2558.803993
930.126381	2554.947510
930.430060	2559.053530
930.733699	2558.194013
931.037299	2556.777449
931.340861	2558.241904
931.644383	2559.119065
931.947866	2556.439692
932.251309	2559.194682
932.554714	2554.206460
932.858080	2557.768036
933.161407	2558.067984
933.464694	2555.343241
933.767943	2553.339382
934.071153	2555.459187
934.374323	2551.948023
934.677455	2557.034548
934.980548	2555.625545
935.283602	2556.046482
935.586617	2553.737633
935.889593	2553.326779
936.192530	2555.585216
936.495428	2551.922818
936.798287	2555.602860
937.101108	2555.680998
937.403890	2560.432285
937.706632	2562.025290
938.009336	2564.636608
938.312002	2568.520817
938.614628	2570.867474
938.917216	2573.645150
939.219765	2574.615572
939.522275	2575.901066
939.824747	2572.679769
940.127179	2569.166084
940.429573	2566.821948
940.731929	2568.692216
941.034246	2564.220712
941.336524	2567.545353
941.638763	2568.084757
941.940964	2566.617781
942.243126	2562.932698
942.545250	2562.801628
942.847335	2561.357337
943.149381	2562.267265
943.451389	2559.860114
943.753359	2560.376833
944.055290	2557.180741
944.357182	2558.612429
944.659036	2555.449105
944.960851	2556.815257
945.262628	2555.386090
945.564367	2558.259548
945.866067	2554.120761
946.167729	2560.293654
946.469352	2557.495813
946.770937	2559.192162
947.072484	2556.419527
947.373992	2557.377346
947.675462	2557.518498
947.976893	2556.366595
948.278286	2556.406924
948.579641	2552.898281
948.880958	2553.107489
949.182236	2556.343910
949.483476	2553.946841
949.784678	2556.515309
950.085841	2554.420709
950.386967	2553.876265
950.688054	2553.394835
950.989103	2557.082439
951.290114	2555.958261
951.591087	2557.894064
951.892021	2557.901626
952.192917	2560.071843
952.493776	2561.377502
952.794596	2559.804662
953.095378	2563.025959
953.396122	2562.988150
953.696828	2561.770712
953.997496	2558.428427
954.298126	2557.679815
954.598718	2554.405586
954.899272	2550.801161
955.199788	2556.396842
955.500266	2552.192519
955.800706	2550.866696
956.101108	2546.967363
956.401472	2545.344112
956.701798	2544.318237
957.002087	2545.117260
957.302337	2550.042467
957.602550	2547.113557
957.902724	2543.287321
958.202861	2545.598690
958.502960	2546.435522
958.803022	2546.639688
959.103045	2544.255223
959.403031	2543.849410
959.702979	2544.285470
960.002889	2544.862682
960.302762	2543.383103
960.602596	2546.806047
960.902393	2546.412837
961.202153	2543.433515
961.501875	2543.292362
961.801559	2540.955788
962.101205	2542.510983
962.400814	2542.213555
962.700385	2544.161961
962.999918	2542.594163
963.299414	2543.231868
963.598873	2542.510983
963.898293	2542.112732
964.197677	2539.866898
964.497022	2541.538041
964.796331	2540.431507
965.095601	2540.880170
965.394835	2544.119112
965.694030	2540.532331
965.993189	2543.317568
966.292309	2538.241126
966.591393	2542.720191
966.890439	2540.068544
967.189447	2541.215407
967.488419	2543.557023
967.787353	2539.995448
968.086249	2539.057793
968.385108	2544.671118
968.683930	2540.731456
968.982714	2541.901004
969.281462	2541.790098
969.580172	2541.338915
969.878844	2543.035263
970.177480	2543.148689
970.476078	2541.797660
970.774639	2543.274718
971.073162	2542.611807
971.371649	2540.910417
971.670098	2539.128369
971.968510	2537.041332
972.266885	2540.247505
972.565223	2543.335212
972.863524	2541.890922
973.161788	2540.726415
973.460014	2545.392003
973.758204	2543.675490
974.056356	2542.228679
974.354471	2544.368649
974.652550	2542.702547
974.950591	2540.751621
975.248595	2542.778165
975.546563	2541.275901
975.844493	2544.550130
976.142386	2543.708257
976.440243	2545.127342
976.738062	2541.782537
977.035845	2543.181457
977.333590	2543.168854
977.631299	2538.530993
977.928971	2541.880839
978.226606	2540.854964
978.524204	2542.652136
978.821765	2540.950746
979.119290	2543.350336
979.416777	2540.857485
979.714228	2542.924358
980.011642	2540.882691
980.309020	2544.446787
980.606360	2541.215407
980.903664	2539.909748
981.200931	2540.439069
981.498162	2542.752959
981.795356	2547.232024
982.092513	2547.471479
982.389633	2550.302087
982.686717	2552.323589
982.983764	2557.705021
983.280775	2553.672098
983.577749	2557.052192
983.874686	2554.526574
984.171587	2550.985163
984.468451	2548.207487
984.765279	2549.699669
985.062070	2545.936447
985.358824	2547.010213
985.655543	2542.470654
985.952224	2541.830428
986.248869	2542.064841
986.545478	2539.035108
986.842050	2538.498225
987.138586	2537.842875
987.435086	2536.930426
987.731549	2535.594520
988.027975	2538.992258
988.324366	2540.547454
988.620719	2539.768596
988.917037	2538.929244
989.213318	2541.164995
989.509563	2538.261291
989.805772	2540.426466
990.101944	2537.248019
990.398080	2541.202804
990.694180	2540.111394
990.990244	2539.463606
991.286271	2538.823379
991.582262	2541.565767
991.878217	2537.890766
992.174136	2539.612320
992.470019	2537.547968
992.765865	2541.013761
993.061676	2539.882022
993.357450	2539.057793
993.653188	2536.978317
993.948890	2538.662063
994.244556	2538.604089
994.540186	2540.459234
994.835780	2539.957639
995.131337	2543.791437
995.426859	2541.031405
995.722345	2539.423277
996.017795	2543.781354
996.313208	2540.847403
996.608586	2541.679193
996.903928	2542.221117
997.199234	2541.580891
997.494504	2543.506611
997.789738	2541.149872
998.084936	2543.496529
998.380099	2540.232382
998.675225	2537.336239
998.970316	2540.403781
999.265371	2542.069882
999.560390	2539.831610
999.855373	2540.809594
1000.150320	2539.524100
1000.445232	2541.991745
1000.740108	2536.723739
1001.034948	2539.952598
1001.329752	2538.488143
1001.624521	2538.185673
1001.919254	2536.015457
1002.213951	2535.186187
1002.508613	2535.786084
1002.803239	2535.662576
1003.097829	2532.965559
1003.392384	2534.538399
1003.686903	2541.197763
1003.981386	2540.068544
1004.275834	2536.615354
1004.570246	2540.610468
1004.864623	2538.510828
1005.158964	2536.393543
1005.453270	2538.168029
1005.747540	2539.151054
1006.041775	2539.919830
1006.335974	2537.527803
1006.630138	2537.046373
1006.924266	2538.062165
1007.218359	2536.297761
1007.512416	2537.651311
1007.806438	2537.631147
1008.100425	2539.128369
1008.394376	2535.508821
1008.688292	2539.783719
1008.982172	2538.629295
1009.276017	2538.024357
1009.569827	2538.329346
1009.863602	2538.989738
1010.157341	2537.505118
1010.451045	2535.942360
1010.744714	2536.179294
1011.038347	2538.510828
1011.331945	2537.147196
1011.625508	2536.592669
1011.919036	2537.739531
1012.212528	2536.698533
1012.505986	2534.079654
1012.799408	2536.194418
1013.092795	2537.351363
1013.386147	2539.261960
1013.679464	2536.385982
1013.972745	2538.261291
1014.265992	2535.400436
1014.559204	2535.239119
1014.852380	2538.992258
1015.145521	2538.442772
1015.438628	2536.915303
1015.731699	2536.632998
1016.024736	2536.610313
1016.317737	2540.123997
1016.610703	2536.880015
1016.903635	2533.116793
1017.196531	2535.929757
1017.489393	2536.559901
1017.782219	2533.593182
1018.075011	2535.639891
1018.367768	2536.375899
1018.660490	2540.383617
1018.953177	2540.383617
1019.245829	2540.383617
