Dividing Wavelength (nm)	Counts (n)	Blue Motor Position (mm): 31.900000	Red Motor Position (mm): 0.000000	
326.493990	2131.445217
326.888308	2131.445217
327.282561	2131.445217
327.676750	2096.527664
328.070874	2097.014136
328.464933	2100.245515
328.858929	2105.715167
329.252859	2116.883844
329.646726	2129.136368
330.040528	2141.880405
330.434265	2161.203148
330.827938	2175.905673
331.221547	2194.757068
331.615091	2211.753318
332.008571	2228.971379
332.401986	2249.803947
332.795338	2270.258429
333.188625	2291.101079
333.581847	2307.512556
333.975006	2327.019301
334.368100	2343.912207
334.761129	2363.640763
335.154095	2379.550644
335.546996	2399.851371
335.939833	2423.920360
336.332606	2439.885694
336.725315	2455.755246
337.117960	2460.975361
337.510540	2468.912658
337.903056	2482.654843
338.295508	2486.947386
338.687896	2497.271669
339.080220	2505.612258
339.472480	2511.172651
339.864676	2517.380832
340.256807	2520.312263
340.648875	2521.557427
341.040879	2525.746626
341.432818	2527.011956
341.824694	2528.110927
342.216506	2528.327697
342.608253	2529.895496
342.999937	2529.812317
343.391557	2529.333407
343.783113	2527.379960
344.174605	2527.868952
344.566033	2523.362161
344.957397	2522.646317
345.348697	2523.407531
345.739934	2523.316790
346.131106	2519.755215
346.522215	2517.632889
346.913260	2515.767662
347.304241	2513.093330
347.695159	2509.380520
348.086012	2507.911024
348.476802	2508.246261
348.867528	2506.678462
349.258191	2506.229799
349.648789	2504.639315
350.039324	2503.956239
350.429796	2503.573111
350.820203	2499.681340
351.210548	2500.235867
351.600828	2500.757627
351.991045	2495.595485
352.381198	2493.299240
352.771288	2497.334683
353.161314	2495.393839
353.551276	2496.480208
353.941175	2496.011380
354.331010	2497.609426
354.720782	2494.995588
355.110490	2496.286123
355.500135	2497.012049
355.889717	2496.901144
356.279235	2496.061792
356.668689	2499.693943
357.058080	2497.420383
357.447408	2496.858294
357.836672	2494.788901
358.225873	2493.861328
358.615010	2494.781339
359.004084	2501.319715
359.393095	2500.440034
359.782043	2500.528254
360.170927	2501.055055
360.559748	2502.426249
360.948505	2501.234016
361.337199	2505.045128
361.725830	2503.689058
362.114398	2502.675786
362.502903	2501.392812
362.891344	2504.397340
363.279722	2504.059583
363.668037	2506.191991
364.056289	2502.693430
364.444478	2507.772392
364.832603	2506.867505
365.220665	2504.989675
365.608665	2505.846672
365.996601	2507.379182
366.384474	2507.318688
366.772284	2512.238855
367.160031	2508.851199
367.547715	2509.685510
367.935336	2507.495129
368.322893	2510.045953
368.710388	2509.751045
369.097820	2512.208608
369.485189	2509.259533
369.872495	2510.492095
370.259738	2511.454955
370.646918	2511.064266
371.034035	2511.752383
371.421090	2513.577281
371.808081	2513.047960
372.195010	2511.790192
372.581875	2513.055522
372.968678	2511.782630
373.355418	2512.102743
373.742096	2513.995697
374.128710	2515.127436
374.515262	2511.948988
374.901751	2516.312107
375.288177	2514.769514
375.674540	2514.285563
376.060841	2513.925121
376.447079	2515.651716
376.833254	2516.821263
377.219367	2514.099040
377.605417	2514.451921
377.991404	2510.318175
378.377329	2513.983094
378.763191	2509.831704
379.148991	2514.698938
379.534727	2515.283712
379.920402	2519.120030
380.306013	2517.711027
380.691563	2516.975019
381.077049	2517.479134
381.462474	2516.982580
381.847835	2516.796058
382.233134	2517.065759
382.618371	2519.591377
383.003545	2520.639938
383.388657	2519.712365
383.773706	2516.796058
384.158693	2521.265041
384.543618	2518.608352
384.928480	2520.007273
385.313280	2520.823940
385.698017	2522.162366
386.082692	2520.284536
386.467305	2522.255627
386.851856	2520.854187
387.236344	2522.490041
387.620770	2522.164887
388.005133	2523.808303
388.389435	2523.402490
388.773674	2521.854856
389.157851	2522.903416
389.541965	2521.002901
389.926018	2524.783766
390.310008	2524.642614
390.693936	2525.063550
391.077802	2523.583971
391.461606	2524.138498
391.845348	2524.675381
392.229027	2528.241997
392.612645	2525.154291
392.996200	2525.577748
393.379694	2526.737213
393.763125	2529.093953
394.146494	2524.877027
394.529801	2530.210568
394.913047	2525.255114
395.296230	2528.282327
395.679351	2530.626463
396.062410	2530.734848
396.445408	2530.064375
396.828343	2531.566638
397.211217	2522.585823
397.594028	2525.378622
397.976778	2528.879703
398.359466	2527.599250
398.742092	2524.730834
399.124656	2530.853315
399.507158	2530.810465
399.889598	2530.155115
400.271977	2529.414066
400.654294	2533.270548
401.036549	2533.953625
401.418742	2531.677544
401.800874	2533.741896
402.182944	2533.479756
402.564952	2529.923222
402.946898	2533.411701
403.328783	2534.906403
403.710606	2534.911444
404.092367	2537.159799
404.474067	2535.912113
404.855705	2533.252904
405.237282	2536.590148
405.618797	2536.519572
406.000250	2536.504449
406.381642	2534.525796
406.762972	2538.107536
407.144240	2536.781712
407.525447	2540.426466
407.906593	2537.293389
408.287677	2541.366642
408.668700	2536.776671
409.049661	2540.066024
409.430560	2537.053934
409.811399	2539.153575
410.192176	2540.658359
410.572891	2538.034439
410.953545	2540.822197
411.334138	2540.139121
411.714669	2542.173226
412.095139	2542.573998
412.475547	2545.119781
412.855894	2544.146838
413.236180	2545.011396
413.616405	2546.574153
413.996568	2548.688917
414.376670	2549.719833
414.756711	2550.176058
415.136691	2553.903991
415.516609	2557.831050
415.896466	2559.880279
416.276262	2566.539643
416.655997	2565.324725
417.035670	2569.213975
417.415283	2583.112437
417.794834	2583.104875
418.174324	2593.887903
418.553753	2598.717328
418.933121	2611.980604
419.312428	2620.457304
419.691674	2631.436937
420.070859	2648.027375
420.449983	2655.783190
420.829045	2674.049811
421.208047	2679.511901
421.586988	2701.425797
421.965867	2717.436501
422.344686	2742.917013
422.723444	2749.899012
423.102141	2752.800196
423.480777	2791.934673
423.859352	2789.875362
424.237866	2836.828668
424.616319	2855.745598
424.994712	2889.667522
425.373044	2903.823083
425.751314	2944.313630
426.129524	2946.120884
426.507673	3002.801097
426.885762	3038.936088
427.263789	3064.386353
427.641756	3071.708629
428.019662	3125.361629
428.397508	3161.093328
428.775292	3192.101465
429.153016	3245.545258
429.530679	3266.952517
429.908282	3323.476455
430.285824	3327.930314
430.663305	3441.865433
431.040726	3415.485074
431.418086	3451.506639
431.795385	3526.692928
432.172624	3572.695978
432.549802	3614.096454
432.926920	3663.955986
433.303977	3712.272925
433.680974	3775.307513
434.057910	3834.841019
434.434786	3884.776168
434.811601	3915.721291
435.188355	4063.089342
435.565050	4059.590781
435.941683	4101.366823
436.318257	4255.253085
436.694770	4303.388542
437.071222	4373.513513
437.447614	4391.583529
437.823946	4391.384403
438.200218	4532.685425
438.576429	4509.546529
438.952580	4616.930668
439.328670	4697.783214
439.704700	4687.353066
440.080670	4721.317840
440.456580	4953.727636
440.832429	4924.509108
441.208218	4868.743864
441.583947	5019.010578
441.959616	5066.404986
442.335224	5062.941713
442.710773	5205.001428
443.086261	5275.660761
443.461689	5155.038553
443.837057	5316.534437
444.212365	5477.606864
444.587612	5430.547693
444.962800	5594.150779
445.337927	5620.866374
445.712995	5339.184341
446.088002	5850.352300
446.462949	5743.283233
446.837837	5720.590479
447.212664	5893.068517
447.587431	6056.921140
447.962139	6559.327574
448.336786	7393.058803
448.711374	7207.100720
449.085901	6426.467964
449.460369	6386.599999
449.834776	6356.597572
450.209124	6734.515232
450.583412	6904.059318
450.957640	7055.999695
451.331808	6861.753955
451.705917	6471.369522
452.079965	6414.280975
452.453954	6636.288349
452.827883	6536.803698
453.201752	6645.213712
453.575562	6458.151616
453.949311	6670.331261
454.323001	6574.385500
454.696632	6658.232492
455.070202	6802.999307
455.443713	6964.805222
455.817164	7075.997952
456.190556	7158.705643
456.563888	7242.166986
456.937160	7291.424100
457.310373	6964.797660
457.683526	6994.910992
458.056619	6894.040025
458.429653	6883.587192
458.802628	6826.186094
459.175542	6943.027437
459.548398	7296.818135
459.921194	7451.871424
460.293930	7463.695450
460.666607	7985.273392
461.039224	8296.569683
461.411782	8423.306811
461.784280	8446.203732
462.156719	8338.287752
462.529099	8217.307621
462.901419	7810.085734
463.273680	7710.424643
463.645882	7722.409986
464.018024	7591.962569
464.390106	7759.764936
464.762130	8145.367835
465.134094	8612.677756
465.505999	9632.641810
465.877845	10850.330001
466.249631	11489.208031
466.621358	11112.369178
466.993026	10492.438325
467.364634	10235.924253
467.736184	9873.243481
468.107674	9545.991937
468.479105	9576.727852
468.850477	9343.314868
469.221790	9113.692831
469.593043	8788.356926
469.964238	8651.005648
470.335373	8661.380343
470.706449	8725.609684
471.077467	8706.092857
471.448425	10008.396815
471.819324	11074.600854
472.190164	11096.534914
472.560945	9855.231438
472.931667	9067.674658
473.302330	8937.368393
473.672934	8581.599042
474.043479	8941.837375
474.413965	8885.303356
474.784393	8765.268441
475.154761	8921.299715
475.525070	9009.139300
475.895321	8834.980037
476.265513	9012.852110
476.635645	9179.316051
477.005719	9178.895114
477.375734	9291.461559
477.745691	9528.274802
478.115588	9659.911932
478.485427	9904.309591
478.855207	10444.832189
479.224928	11250.148954
479.594591	11880.542722
479.964194	11686.196159
480.333739	11628.921089
480.703226	11540.844570
481.072653	11640.374591
481.442022	11872.330682
481.811333	12065.558109
482.180584	11873.117102
482.549777	11571.943448
482.918912	11402.016234
483.287988	11422.765623
483.657005	11430.140832
484.025964	11117.354879
484.394864	11252.359500
484.763706	11221.449665
485.132489	10984.918727
485.501213	10942.288209
485.869879	11018.570949
486.238487	10864.961950
486.607036	10970.841305
486.975527	10752.423232
487.343959	10938.693867
487.712333	10989.644808
488.080648	10916.810218
488.448905	10967.927518
488.817104	10905.608774
489.185244	11175.736482
489.553326	11328.387662
489.921350	11864.254754
490.289315	12920.726845
490.657222	13254.302515
491.025070	13167.312365
491.392861	13044.499775
491.760593	12664.835355
492.128267	12314.089514
492.495883	11988.554484
492.863440	11648.309367
493.230939	11317.869294
493.598380	11255.485015
493.965763	11116.976793
494.333088	11024.532114
494.700354	10940.715369
495.067563	11003.407158
495.434713	10832.350726
495.801805	10961.837804
496.168839	10877.736234
496.535815	10815.735083
496.902733	10814.605865
497.269593	10751.215876
497.636395	10855.577843
498.003139	10842.932108
498.369825	10705.737106
498.736453	10868.412620
499.103023	10792.999479
499.469535	10823.556433
499.835989	10810.048662
500.202385	10774.929463
500.568723	10626.212904
500.935003	10852.633809
501.301226	10657.873871
501.667390	10916.341390
502.033497	11011.745227
502.399546	10871.497806
502.765537	10781.888776
503.131470	10852.815290
503.497345	11022.561023
503.863163	10639.088011
504.228923	10951.558891
504.594625	11010.590803
504.960269	10759.072514
505.325856	10977.679630
505.691385	10769.540470
506.056856	10929.009810
506.422270	10954.581063
506.787625	10839.267189
507.152924	10956.428646
507.518164	10934.950810
507.883347	10853.369817
508.248472	10780.676379
508.613540	11017.464416
508.978550	10895.352546
509.343503	10869.257013
509.708398	10988.797895
510.073236	11102.327200
510.438016	11117.009560
510.802738	11056.924048
511.167403	11113.654672
511.532010	11006.245328
511.896561	11235.703528
512.261053	11313.879221
512.625488	11179.300578
512.989866	11163.569657
513.354186	11151.614561
513.718449	11050.983048
514.082655	11247.469581
514.446803	11137.743826
514.810894	11259.848134
515.174927	11127.590942
515.538904	11150.593727
515.902822	11300.499999
516.266684	11180.742348
516.630488	11136.080245
516.994235	11190.237361
517.357925	11246.983109
517.721558	11340.471308
518.085133	11353.898421
518.448651	11364.152128
518.812112	11242.680485
519.175516	11259.533062
519.538863	11380.782894
519.902152	11301.465380
520.265385	11458.462034
520.628560	11365.949299
520.991678	11346.840805
521.354739	11411.075188
521.717743	11339.647079
522.080690	11322.955818
522.443580	11454.376179
522.806413	11413.313460
523.169189	11446.368306
523.531908	11494.440749
523.894569	11321.856847
524.257174	11323.094450
524.619722	11446.645569
524.982213	11390.479554
525.344647	11442.889910
525.707025	11393.710933
526.069345	11490.322126
526.431608	11404.569579
526.793815	11518.943277
527.155964	11301.304063
527.518057	11360.320851
527.880093	11295.945316
528.242072	11370.549352
528.603995	11275.793304
528.965860	11200.158352
529.327669	11254.012998
529.689421	11199.006448
530.051117	11167.532004
530.412755	11274.038982
530.774337	11166.730461
531.135862	11137.895061
531.497331	11172.021152
531.858743	11018.979283
532.220098	11187.255519
532.581396	11057.735673
532.942638	11041.339321
533.303824	11007.629125
533.664953	11021.159582
534.026025	10931.870665
534.387040	11036.323372
534.747999	11031.854390
535.108902	11094.652043
535.469748	10848.273211
535.830537	10955.775816
536.191270	10930.622979
536.551947	10954.767586
536.912567	10950.873294
537.273131	10879.445185
537.633638	10859.512463
537.994089	10846.536533
538.354483	10801.224122
538.714821	10945.602768
539.075103	10947.959507
539.435328	10914.163612
539.795497	10737.647610
540.155609	10898.115099
540.515665	10983.910496
540.875665	10720.979035
541.235609	10788.331371
541.595496	10790.521752
541.955328	10945.822058
542.315102	10824.980559
542.674821	10777.273600
543.034483	10773.860739
543.394090	10783.638057
543.753640	10715.070803
544.113134	10930.043247
544.472571	10784.192583
544.831953	10919.303068
545.191278	10735.046375
545.550548	10761.091496
545.909761	10891.236444
546.268918	10871.119720
546.628019	10952.791453
546.987064	10823.493419
547.346053	10737.584596
547.704986	10840.454381
548.063863	10830.709831
548.422684	10825.255302
548.781449	10739.414534
549.140158	10838.216109
549.498811	10720.018695
549.857408	10572.506972
550.215949	10797.087855
550.574434	10651.655608
550.932864	10753.449107
551.291237	10812.070164
551.649555	10761.038564
552.007817	10772.963413
552.366022	10735.842877
552.724173	10723.723943
553.082267	10711.902437
553.440305	10844.099135
553.798288	10646.501028
554.156215	10799.268154
554.514086	10778.904413
554.871902	10627.639551
555.229661	10660.255816
555.587365	10642.894082
555.945014	10532.994408
556.302606	10666.708493
556.660143	10554.038705
557.017625	10708.560152
557.375050	10613.335277
557.732421	10741.473846
558.089735	10654.370269
558.446994	10661.213635
558.804197	10695.735457
559.161345	10693.708913
559.518437	10543.502693
559.875474	10635.211364
560.232455	10663.088945
560.589381	10612.914340
560.946251	10605.395459
561.303065	10713.563498
561.659825	10653.054528
562.016528	10578.304299
562.373177	10460.225352
562.729770	10574.921684
563.086307	10495.140384
563.442789	10583.131203
563.799216	10461.213418
564.155587	10512.797025
564.511904	10463.398758
564.868164	10454.775865
565.224370	10469.637186
565.580520	10395.645651
565.936615	10398.319983
566.292654	10271.398853
566.648638	10400.132278
567.004567	10356.165854
567.360441	10345.778557
567.716260	10250.899000
568.072023	10348.893990
568.427732	10293.647985
568.783385	10208.328977
569.138982	10274.247104
569.494525	10291.296287
569.850013	10168.587040
570.205445	10253.822870
570.560823	10145.286827
570.916145	10070.350075
571.271412	10138.428338
571.626625	10074.650180
571.981782	10053.918434
572.336884	10031.397080
572.691931	10032.606957
573.046923	9982.656684
573.401860	9936.124313
573.756743	9880.550633
574.111570	9922.472868
574.466342	9902.106607
574.821059	9930.120299
575.175722	9822.378238
575.530330	9829.448457
575.884882	9824.263630
576.239380	9756.210573
576.593823	9728.532118
576.948211	9746.569367
577.302544	9625.899267
577.656823	9639.313777
578.011047	9641.642791
578.365216	9614.113049
578.719330	9545.626454
579.073389	9552.444614
579.427394	9495.310697
579.781344	9472.139034
580.135239	9427.650851
580.489080	9435.094115
580.842866	9337.255401
581.196597	9336.680709
581.550273	9375.129590
581.903895	9350.531279
582.257463	9410.352132
582.610975	9291.769070
582.964434	9319.371908
583.317837	9240.364424
583.671186	9223.368174
584.024481	9218.402637
584.377721	9133.862487
584.730906	9110.267367
585.084037	9144.443869
585.437113	9080.796781
585.790135	9099.988454
586.143103	8997.587496
586.496016	8976.003796
586.848874	9036.096870
587.201679	9023.496506
587.554428	8904.782374
587.907124	8952.887585
588.259765	8927.258358
588.612352	8927.028986
588.964884	8806.968866
589.317362	8813.792068
589.669786	8818.568561
590.022155	8864.763174
590.374470	8875.672231
590.726731	8815.702665
591.078937	8669.791508
591.431090	8778.844269
591.783188	8657.733068
592.135232	8649.977253
592.487222	8652.316348
592.839157	8702.654790
593.191038	8636.648442
593.542866	8578.607117
593.894639	8478.265471
594.246358	8529.534005
594.598022	8549.625524
594.949633	8440.547558
595.301190	8419.614166
595.652692	8447.900080
596.004141	8556.917553
596.355535	8339.197680
596.706876	8324.903488
597.058162	8251.804237
597.409395	8327.557656
597.760573	8391.315649
598.111698	8301.550343
598.462768	8289.917881
598.813785	8250.463290
599.164748	8218.575471
599.515657	8214.141777
599.866511	8120.343547
600.217312	8242.624296
600.568060	8103.286803
600.918753	8205.027370
601.269392	8177.066611
601.619978	8092.007222
601.970510	8155.361923
602.320988	8150.340933
602.671412	8207.527783
603.021783	8144.762897
603.372100	8116.575285
603.722363	8119.327755
604.072572	8091.515709
604.422728	8099.573994
604.772830	8035.460599
605.122878	8041.709109
605.472872	8031.934312
605.822813	8066.471257
606.172701	8007.482195
606.522534	8081.279646
606.872314	8084.339627
607.222041	8051.430974
607.571714	8107.861651
607.921333	8065.460506
608.270899	8075.106753
608.620411	8165.033376
608.969870	8064.401863
609.319276	8061.215854
609.668627	8076.241013
610.017926	8113.749718
610.367171	8160.037593
610.716362	8141.370200
611.065500	8125.977037
611.414585	8155.654310
611.763616	8139.474726
612.112594	8121.462684
612.461518	8141.405488
612.810389	8196.775002
613.159207	8136.359293
613.507971	8087.036644
613.856682	8206.108698
614.205340	8162.043972
614.553945	8236.723625
614.902496	8141.488667
615.250994	8193.372223
615.599439	8175.138369
615.947830	8186.080194
616.296169	8158.618508
616.644454	8174.780447
616.992686	8174.661980
617.340864	8231.788336
617.688990	8137.959860
618.037063	8221.038075
618.385082	8171.788522
618.733048	8253.979495
619.080961	8190.345010
619.428821	8215.240748
619.776628	8217.093372
620.124382	8165.350969
620.472083	8152.097776
620.819731	8181.344030
621.167326	8075.752021
621.514868	8084.818536
621.862357	7973.119170
622.209793	7988.182138
622.557176	7924.827437
622.904506	7894.353662
623.251783	7833.935433
623.599007	7781.935931
623.946179	7784.867362
624.293297	7744.684325
624.640363	7655.148391
624.987376	7647.488358
625.334336	7589.547856
625.681243	7537.238323
626.028097	7523.675099
626.374899	7505.579877
626.721647	7495.442117
627.068343	7427.225223
627.414987	7397.237919
627.761577	7356.475149
628.108115	7396.247333
628.454600	7288.643904
628.801032	7337.028898
629.147412	7299.283259
629.493739	7289.851260
629.840014	7221.573872
630.186236	7281.936648
630.532405	7162.040366
630.878521	7215.930301
631.224585	7174.494537
631.570597	7098.421004
631.916556	7131.712784
632.262462	7126.611137
632.608316	7087.471618
632.954117	7066.996972
633.299866	7048.584157
633.645562	7041.299690
633.991206	6964.820345
634.336797	6908.109885
634.682336	6865.817125
635.027823	6829.389747
635.373257	6821.671741
635.718639	6752.827223
636.063968	6767.741477
636.409245	6660.909344
636.754470	6657.531771
637.099642	6619.314784
637.444762	6560.837399
637.789829	6573.246200
638.134845	6518.204361
638.479808	6499.068141
638.824719	6500.235168
639.169577	6427.496360
639.514383	6454.779084
639.859137	6377.525922
640.203839	6390.312809
640.548489	6371.194233
640.893086	6352.075657
641.237632	6320.558363
641.582125	6347.929308
641.926566	6314.330017
642.270955	6327.550443
642.615292	6320.286141
642.959576	6338.371280
643.303809	6329.952553
643.647990	6334.754252
643.992118	6326.683365
644.336195	6270.527432
644.680219	6296.885105
645.024192	6283.571417
645.368112	6384.281068
645.711981	6403.374438
646.055797	6478.094421
646.399562	6431.282266
646.743274	6563.070631
647.086935	6617.489886
647.430544	6610.316324
647.774101	6637.410006
648.117606	6636.358925
648.461059	6630.002030
648.804460	6592.871412
649.147810	6501.066959
649.491108	6474.689121
649.834354	6445.876407
650.177548	6361.595876
650.520690	6277.174193
650.863781	6257.793477
651.206820	6278.096724
651.549807	6196.220824
651.892742	6136.883923
652.235626	6143.921373
652.578458	6128.792871
652.921238	6039.302308
653.263967	6074.655920
653.606644	6017.605182
653.949269	6021.812024
654.291843	5958.585873
654.634365	6006.260065
654.976836	5964.715916
655.319255	5970.004086
655.661622	5940.873779
656.003938	5936.301452
656.346203	5902.167800
656.688416	5927.209731
657.030577	5882.366147
657.372687	5855.915213
657.714746	5841.948696
658.056753	5883.931426
658.398708	5825.277601
658.740612	5812.094983
659.082465	5861.473085
659.424266	5854.213824
659.766016	5856.560481
660.107715	5828.191388
660.449362	5846.634449
660.790958	5839.576833
661.132503	5826.757179
661.473996	5864.139856
661.815438	5849.530592
662.156829	5846.778122
662.498168	5833.532490
662.839456	5817.794008
663.180693	5848.280386
663.521879	5850.241394
663.863013	5840.310321
664.204097	5858.171129
664.545129	5897.242592
664.886110	5891.107508
665.227040	5929.450524
665.567918	5893.227313
665.908746	5920.676396
666.249522	5925.412560
666.590248	5916.373771
666.930922	5941.841680
667.271545	5947.838133
667.612118	5957.106294
667.952639	5930.350370
668.293109	5952.861643
668.633528	5906.404889
668.973896	5912.545015
669.314213	5904.459004
669.654480	5883.230705
669.994695	5880.533688
670.334859	5870.647985
670.674973	5860.784968
671.015035	5863.822263
671.355047	5863.504670
671.695008	5851.872208
672.034918	5820.085212
672.374777	5834.770093
672.714585	5819.838196
673.054342	5824.980173
673.394049	5816.274100
673.733705	5847.390622
674.073310	5836.983160
674.412864	5791.809380
674.752368	5783.677999
675.091820	5787.582373
675.431223	5723.345470
675.770574	5725.467796
676.109875	5679.023645
676.449125	5681.652607
676.788324	5646.034334
677.127473	5593.487867
677.466571	5585.795067
677.805619	5573.293005
678.144616	5561.690789
678.483562	5537.152973
678.822458	5508.136092
679.161303	5503.730123
679.500098	5497.952961
679.838842	5475.978571
680.177535	5479.963603
680.516179	5494.237630
680.854771	5507.606770
681.193314	5592.154482
681.531805	5695.661973
681.870247	5846.321897
682.208638	5951.992044
682.546978	5961.610565
682.885268	5938.257420
683.223508	5856.318505
683.561697	5801.725330
683.899836	5767.233755
684.237925	5726.135748
684.575963	5688.253998
684.913951	5648.002905
685.251889	5703.891657
685.589776	5680.173028
685.927614	5649.696733
686.265401	5719.168874
686.603137	5703.634558
686.940824	5778.644407
687.278460	5805.317152
687.616046	5814.313091
687.953582	5881.902361
688.291068	5864.459969
688.628504	5928.885915
688.965889	5889.801849
689.303224	5832.216749
689.640510	5786.745541
689.977745	5708.020362
690.314930	5610.184169
690.652065	5558.419081
690.989150	5464.121777
691.326185	5393.003699
691.663170	5334.896840
692.000105	5257.449593
692.336990	5181.350855
692.673825	5156.664325
693.010610	5090.552113
693.347345	5020.787585
693.684030	5004.376108
694.020665	4964.089727
694.357251	4873.369123
694.693786	4886.546699
695.030272	4846.288044
695.366707	4812.971058
695.703093	4785.930309
696.039429	4806.248680
696.375716	4786.091626
696.711952	4760.659005
697.048139	4748.398919
697.384276	4729.860076
697.720363	4741.689143
698.056400	4747.549484
698.392388	4698.549469
698.728326	4684.489691
699.064214	4656.304600
699.400053	4650.590452
699.735842	4618.271615
700.071581	4595.185651
700.407270	4569.347217
700.742910	4548.202097
701.078501	4497.288963
701.414042	4492.600690
701.749533	4465.302842
702.084974	4399.377153
702.420366	4457.332778
702.755709	4398.845311
703.091002	4342.752392
703.426246	4390.398858
703.761440	4348.166592
704.096584	4314.138803
704.431679	4334.789890
704.766725	4318.804391
705.101721	4304.374088
705.436668	4330.237728
705.771565	4278.039100
706.106413	4307.325684
706.441212	4341.083770
706.775961	4349.126931
707.110661	4328.921987
707.445311	4355.844269
707.779913	4377.677506
708.114465	4389.914907
708.448967	4412.237136
708.783421	4479.034945
709.117825	4516.518445
709.452180	4522.850134
709.786485	4565.954520
710.120742	4657.456503
710.454949	4630.423316
710.789107	4705.536508
711.123216	4780.183394
711.457275	4768.694604
711.791286	4843.575903
712.125247	4858.742215
712.459159	4760.971557
712.793023	4833.725489
713.126837	4796.403306
713.460602	4786.633550
713.794318	4706.252352
714.127985	4716.047314
714.461602	4632.785097
714.795171	4601.812247
715.128691	4535.735323
715.462162	4481.061489
715.795584	4430.481072
716.128957	4411.493566
716.462281	4358.173282
716.795556	4336.647555
717.128782	4300.452070
717.461960	4232.232656
717.795088	4238.687853
718.128167	4203.593861
718.461198	4141.660765
718.794180	4136.017194
719.127113	4117.163278
719.459997	4093.938682
719.792833	4050.310017
720.125619	4040.620919
720.458357	4005.771422
720.791046	4010.734438
721.123686	3980.789984
721.456278	3944.042493
721.788821	3960.065801
722.121315	3935.449847
722.453761	3908.184766
722.786158	3919.814708
723.118506	3942.946042
723.450805	3896.164135
723.783056	3916.739604
724.115259	3930.015483
724.447412	3939.122327
724.779518	3931.018672
725.111574	3937.705763
725.443582	3960.035554
725.775542	3950.900983
726.107453	4002.794621
726.439315	3999.439733
726.771129	4010.850385
727.102895	4049.999986
727.434612	4098.228704
727.766281	4111.285293
728.097901	4107.010394
728.429473	4113.886528
728.760996	4119.988845
729.092471	4116.414667
729.423897	4103.383284
729.755276	4108.016105
730.086606	4109.944346
730.417887	4141.872494
730.749120	4210.414542
731.080305	4276.788894
731.411442	4305.019356
731.742530	4269.753964
732.073570	4275.621867
732.404562	4329.607584
732.735506	4322.872602
733.066401	4284.350625
733.397249	4221.742015
733.728048	4139.863594
734.058798	4057.579360
734.389501	3989.327178
734.720156	3926.330399
735.050762	3881.643091
735.381320	3875.296278
735.711831	3824.471365
736.042293	3799.631080
736.372707	3817.869974
736.703073	3788.449801
737.033391	3778.647277
737.363661	3799.101759
737.693883	3821.154286
738.024056	3832.701049
738.354182	3825.850121
738.684260	3892.118609
739.014290	3907.509252
739.344272	3905.213006
739.674207	3948.188842
740.004093	3955.581695
740.333931	3951.929379
740.663722	3952.975418
740.993464	3947.747742
741.323159	3925.506171
741.652806	3893.129360
741.982405	3867.991647
742.311956	3834.805731
742.641460	3827.506140
742.970915	3802.287768
743.300323	3760.920059
743.629683	3728.777663
743.958996	3718.897001
744.288260	3692.985470
744.617477	3656.737053
744.946647	3642.029487
745.275768	3618.457052
745.604842	3619.578708
745.933869	3569.242787
746.262847	3558.951272
746.591778	3600.387036
746.920662	3570.263621
747.249498	3541.763458
747.578286	3586.176023
747.907027	3602.839557
748.235720	3602.348045
748.564365	3624.859317
748.892963	3625.151704
749.221514	3606.627984
749.550017	3586.120570
749.878473	3582.231320
750.206881	3554.837690
750.535242	3550.159499
750.863555	3554.026064
751.191821	3545.554405
751.520039	3525.556148
751.848210	3504.965555
752.176334	3538.915206
752.504411	3545.292265
752.832440	3505.472191
753.160421	3485.123574
753.488356	3498.596057
753.816243	3507.987727
754.144082	3465.977271
754.471875	3450.889098
754.799620	3472.009012
755.127318	3463.494503
755.454969	3461.583906
755.782572	3465.841160
756.110129	3443.027418
756.437638	3434.840585
756.765100	3451.146197
757.092515	3459.068370
757.419882	3467.519864
757.747203	3439.475926
758.074477	3442.039352
758.401703	3453.697021
758.728882	3476.704847
759.056014	3486.114160
759.383099	3487.318996
759.710138	3487.258502
760.037129	3503.271727
760.364073	3530.972868
760.690970	3516.587935
761.017820	3496.398114
761.344623	3511.617358
761.671379	3557.383473
761.998088	3607.515227
762.324751	3734.322932
762.651366	3983.078668
762.977935	4452.425215
763.304456	4893.120363
763.630931	4990.863295
763.957359	4629.992297
764.283740	4288.106285
764.610074	4097.003704
764.936362	3901.732089
765.262602	3743.323912
765.588796	3633.865338
765.914943	3545.221689
766.241044	3454.491002
766.567097	3426.626024
766.893104	3378.573746
767.219064	3349.229189
767.544978	3321.906136
767.870845	3267.292795
768.196665	3249.842841
768.522438	3254.052205
768.848165	3251.834097
769.173846	3216.760269
769.499479	3197.344265
769.825066	3179.037315
770.150607	3166.094152
770.476101	3179.150741
770.801548	3176.569670
771.126949	3128.083852
771.452303	3112.983076
771.777611	3121.338789
772.102872	3124.648306
772.428087	3099.402208
772.753256	3090.129005
773.078378	3084.419898
773.403453	3047.246430
773.728482	3037.307795
774.053465	3055.067780
774.378401	3043.140410
774.703291	3015.048580
775.028135	3015.409023
775.352932	3007.315450
775.677683	3000.197341
776.002388	2994.478152
776.327046	2998.112824
776.651658	2987.952378
776.976224	2974.671459
777.300743	2971.117445
777.625216	2966.774491
777.949643	2959.679067
778.274024	2962.429017
778.598359	2949.773200
778.922647	2957.392904
779.246889	2956.417441
779.571086	2943.756583
779.895236	2934.647218
780.219339	2944.255657
780.543397	2957.811320
780.867409	2960.483131
781.191374	2952.878551
781.515294	2951.779579
781.839167	2951.698921
782.162995	2942.728187
782.486776	2950.902418
782.810511	2947.860082
783.134201	2935.917588
783.457844	2942.594597
783.781441	2934.425407
784.104993	2910.530338
784.428498	2913.096285
784.751958	2925.416865
785.075372	2923.022317
785.398739	2905.743762
785.722061	2921.325969
786.045337	2936.172167
786.368568	2919.551483
786.691752	2912.730801
787.014891	2957.655044
787.337983	2988.111175
787.661030	3016.344157
787.984031	3079.630802
788.306987	3130.745582
788.629897	3119.564302
788.952760	3104.229113
789.275579	3091.575816
789.598351	3032.133051
789.921078	2988.262409
790.243759	2979.871409
790.566395	2959.358954
790.888984	2934.853905
791.211529	2922.114909
791.534027	2908.602096
791.856480	2902.051117
792.178888	2885.465721
792.501249	2878.012375
792.823566	2873.445089
793.145836	2873.868546
793.468062	2865.633822
793.790241	2867.050386
794.112375	2870.163298
794.434464	2884.311297
794.756507	2888.750033
795.078505	2895.709345
795.400457	2907.722415
795.722364	2945.105091
796.044226	2967.260963
796.366042	2971.992085
796.687812	2959.179993
797.009538	2980.955257
797.331218	2969.010243
797.652852	2954.368212
797.974442	2934.846343
798.295986	2932.020777
798.617484	2929.033893
798.938938	2910.232910
799.260346	2899.641445
799.581709	2893.193810
799.903026	2884.969167
800.224299	2879.010523
800.545526	2868.913092
800.866708	2851.299301
801.187845	2842.247909
801.508936	2844.697910
801.829983	2850.190247
802.150984	2840.627178
802.471940	2825.526402
802.792851	2824.891216
803.113717	2827.207626
803.434538	2831.046465
803.755314	2823.464570
804.076045	2817.654640
804.396731	2816.928714
804.717372	2819.459373
805.037967	2813.480564
805.358518	2821.591781
805.679024	2830.963286
805.999485	2827.308449
806.319901	2831.046465
806.640272	2821.531287
806.960598	2826.844663
807.280879	2838.807321
807.601115	2846.732015
807.921306	2834.242557
808.241453	2825.397852
808.561554	2835.051662
808.881611	2834.187104
809.201623	2829.289623
809.521590	2828.510765
809.841513	2825.957420
810.161390	2829.912205
810.481223	2821.311997
810.801011	2813.604073
811.120755	2809.112405
811.440453	2815.930565
811.760107	2811.479226
812.079716	2813.982159
812.399281	2801.258287
812.718801	2795.249232
813.038276	2787.132974
813.357707	2794.435085
813.677093	2802.644604
813.996434	2798.188224
814.315731	2792.958027
814.634983	2788.186575
814.954191	2788.461318
815.273354	2806.803556
815.592473	2811.975780
815.911547	2810.050059
816.230577	2820.021462
816.549562	2829.909685
816.868502	2826.733758
817.187399	2839.825634
817.506250	2857.351206
817.825058	2848.446007
818.143821	2864.449150
818.462539	2875.269987
818.781213	2905.143865
819.099843	2942.188784
819.418429	2998.667351
819.736970	3059.332596
820.055466	3129.200468
820.373919	3239.362282
820.692327	3375.027294
821.010691	3547.444838
821.329011	3985.006910
821.647286	4882.256677
821.965517	6255.237612
822.283704	6996.015005
822.601847	6979.926163
822.919945	6346.648855
823.237999	5844.527247
823.556010	5264.630717
823.873976	4709.428279
824.191897	4307.003050
824.509775	4010.401722
824.827609	3742.219899
825.145398	3616.591825
825.463144	3607.220320
825.780845	3700.131306
826.098502	3800.818272
826.416116	4083.677414
826.733685	4396.541504
827.051210	4462.918377
827.368692	4349.240357
827.686129	4081.713884
828.003522	3755.972167
828.320872	3500.670492
828.638177	3303.810914
828.955439	3166.673885
829.272656	3084.740012
829.589830	3019.938500
829.906960	2969.950418
830.224046	2925.021134
830.541088	2889.707852
830.858086	2875.912734
831.175041	2855.685104
831.491952	2857.341123
831.808819	2871.292517
832.125642	2894.020559
832.442421	2939.491767
832.759157	3019.545290
833.075849	3198.836447
833.392497	3477.718119
833.709101	3680.480888
834.025662	3632.983137
834.342179	3473.042448
834.658653	3297.118782
834.975083	3149.057573
835.291469	3051.095351
835.607811	2967.119810
835.924110	2907.346849
836.240366	2857.814992
836.556578	2814.259423
836.872746	2792.045578
837.188871	2769.186466
837.504952	2754.050402
837.820990	2744.076479
838.136984	2731.982751
838.452935	2722.336503
838.768842	2721.837429
839.084706	2739.501632
839.400526	2819.824857
839.716303	2949.863941
840.032037	3032.448123
840.347727	3017.682583
840.663373	2955.084055
840.978977	2880.714433
841.294537	2806.554019
841.610054	2761.783532
841.925527	2739.564646
842.240957	2713.716130
842.556344	2696.462781
842.871687	2679.078362
843.186987	2671.214162
843.502244	2663.944818
843.817458	2659.672440
844.132629	2648.350008
844.447756	2641.829276
844.762840	2632.039355
845.077881	2638.066055
845.392879	2634.486835
845.707833	2632.170425
846.022745	2625.001904
846.337613	2624.991822
846.652438	2628.255969
846.967221	2626.365537
847.281960	2624.134826
847.596656	2622.249434
847.911309	2621.011831
848.225919	2619.958230
848.540485	2614.964967
848.855009	2616.366408
849.169490	2614.483537
849.483928	2616.709206
849.798323	2616.099227
850.112675	2611.776437
850.426984	2614.168465
850.741251	2611.526900
851.055474	2610.367435
851.369654	2617.457818
851.683792	2614.949844
851.997887	2612.482199
852.311938	2611.073196
852.625947	2613.802981
852.939914	2616.295832
853.253837	2615.257354
853.567718	2615.242231
853.881555	2610.695110
854.195350	2614.917076
854.509103	2613.694596
854.822812	2610.470778
855.136479	2609.782661
855.450103	2613.283742
855.763685	2614.027312
856.077224	2611.453803
856.390720	2609.961622
856.704173	2613.571088
857.017584	2618.067797
857.330953	2620.810185
857.644278	2619.575102
857.957561	2620.026286
858.270802	2615.726181
858.584000	2616.157200
858.897155	2619.103754
859.210268	2620.343878
859.523339	2617.535956
859.836367	2612.111674
860.149352	2610.072527
860.462295	2613.971860
860.775195	2610.188474
861.088054	2610.553957
861.400869	2606.316868
861.713642	2603.632453
862.026373	2607.216714
862.339062	2609.999431
862.651708	2617.611573
862.964312	2619.204577
863.276873	2612.159565
863.589392	2620.021244
863.901869	2622.665330
864.214303	2628.044241
864.526696	2628.588685
864.839045	2630.073305
865.151353	2634.151599
865.463619	2635.157309
865.775842	2633.287041
866.088023	2631.799900
866.400162	2634.297792
866.712258	2633.579428
867.024313	2630.607667
867.336325	2630.489200
867.648296	2631.797380
867.960224	2635.295941
868.272110	2632.482977
868.583954	2626.700773
868.895755	2632.561115
869.207515	2634.081022
869.519233	2641.191570
869.830909	2634.834675
870.142542	2633.707977
870.454134	2636.231075
870.765684	2637.781229
871.077191	2642.179636
871.388657	2644.430511
871.700081	2643.336581
872.011463	2642.978659
872.322803	2644.599390
872.634101	2646.845224
872.945357	2655.974754
873.256571	2659.816113
873.567744	2656.244455
873.878874	2654.447284
874.189963	2657.789569
874.501010	2662.064467
874.812015	2667.309788
875.122979	2664.121258
875.433900	2658.291164
875.744780	2655.475679
876.055618	2662.072029
876.366415	2668.023111
876.677169	2665.721825
876.987882	2660.116062
877.298554	2660.373160
877.609183	2670.221054
877.919771	2678.861592
878.230317	2684.689166
878.540822	2694.426155
878.851285	2707.429811
879.161707	2730.442678
879.472087	2772.438010
879.782425	2818.483910
880.092722	2931.766198
880.402977	3121.091772
880.713191	3376.721122
881.023363	3670.494362
881.333494	3858.516798
881.643583	4030.894012
881.953631	4034.369888
882.263637	3854.670397
882.573602	3634.508086
882.883526	3507.289527
883.193408	3390.223853
883.503248	3288.896660
883.813048	3175.342149
884.122806	3060.497103
884.432522	2974.898311
884.742197	2910.144689
885.051831	2875.048176
885.361424	2841.786643
885.670975	2802.558905
885.980485	2772.690068
886.289954	2755.136770
886.599382	2738.392578
886.908768	2729.502503
887.218113	2710.096581
887.527417	2698.696012
887.836680	2689.463139
888.145901	2686.793848
888.455082	2675.312620
888.764221	2666.740138
889.073319	2657.192192
889.382376	2656.375525
889.691392	2658.485248
890.000366	2657.948365
890.309300	2656.738488
890.618193	2659.191010
890.927044	2660.458860
891.235855	2662.520692
891.544625	2659.700166
891.853353	2662.117400
892.162041	2665.938594
892.470687	2689.221163
892.779293	2699.555529
893.087858	2708.019626
893.396381	2732.126424
893.704864	2771.807866
894.013306	2842.885615
894.321707	2936.726694
894.630068	2986.492964
894.938387	3008.432066
895.246665	2999.468894
895.554903	2953.080197
895.863100	2911.699885
896.171256	2854.399610
896.479371	2793.941052
896.787446	2753.256420
897.095480	2734.306723
897.403473	2728.065774
897.711425	2713.280070
898.019336	2696.997143
898.327207	2679.872343
898.635038	2683.113805
898.942827	2680.048784
899.250576	2671.257012
899.558284	2656.735968
899.865952	2651.523415
900.173579	2651.309166
900.481165	2650.631131
900.788711	2642.512352
901.096216	2634.895169
901.403681	2629.281844
901.711105	2631.159674
902.018489	2628.533233
902.325832	2635.076650
902.633135	2631.978861
902.940397	2649.675832
903.247619	2688.890968
903.554800	2754.814137
903.861941	2881.440359
904.169041	3007.317971
904.476101	3068.308371
904.783121	3065.505489
905.090100	3007.567508
905.397039	2933.462547
905.703938	2858.929087
906.010796	2795.662606
906.317614	2746.463465
906.624391	2706.678679
906.931129	2681.465348
907.237826	2657.842501
907.544483	2644.354894
907.851099	2628.064405
908.157675	2617.891357
908.464211	2613.329113
908.770707	2600.438882
909.077163	2595.440578
909.383578	2594.447471
909.689954	2594.465115
909.996289	2590.185175
910.302584	2591.281626
910.608839	2584.692838
910.915054	2588.241811
911.221229	2590.442274
911.527363	2592.481421
911.833458	2588.146029
912.139513	2589.060998
912.445527	2593.512337
912.751502	2595.433017
913.057436	2603.692947
913.363331	2612.247785
913.669186	2619.156687
913.975000	2635.225364
914.280775	2651.596512
914.586510	2669.613595
914.892205	2704.044676
915.197859	2774.734256
915.503475	2857.411700
915.809050	2918.850762
916.114585	2937.704678
916.420081	2948.838066
916.725536	2960.052113
917.030952	2933.286106
917.336328	2886.254661
917.641665	2837.410922
917.946961	2786.278498
918.252218	2755.131729
918.557435	2728.585013
918.862612	2705.607434
919.167750	2690.617563
919.472848	2673.417146
919.777906	2656.579692
920.082925	2644.606952
920.387904	2632.041876
920.692843	2629.758233
920.997743	2624.018879
921.302603	2616.837756
921.607423	2609.954060
921.912204	2607.625047
922.216946	2604.693616
922.521647	2601.137082
922.826310	2598.064499
923.130932	2591.087542
923.435516	2584.418095
923.740059	2584.707962
924.044564	2584.788620
924.349028	2581.882395
924.653454	2571.051476
924.957840	2570.466702
925.262186	2568.757751
925.566493	2571.142217
925.870761	2564.669375
926.174989	2566.237174
926.479178	2564.442523
926.783328	2565.725497
927.087438	2562.547049
927.391509	2561.437996
927.695541	2562.559652
927.999533	2557.362223
928.303486	2556.749722
928.607400	2557.024465
928.911275	2555.330638
929.215110	2557.216029
929.518906	2556.215360
929.822663	2556.807696
930.126381	2555.711245
930.430060	2555.680998
930.733699	2555.393652
931.037299	2557.795762
931.340861	2556.858107
931.644383	2560.538150
931.947866	2556.119578
932.251309	2555.527243
932.554714	2557.518498
932.858080	2556.878272
933.161407	2556.328786
933.464694	2557.369784
933.767943	2554.453477
934.071153	2552.704197
934.374323	2552.265616
934.677455	2553.956923
934.980548	2552.376522
935.283602	2552.678991
935.586617	2552.799978
935.889593	2554.834084
936.192530	2553.795606
936.495428	2552.648744
936.798287	2552.132026
937.101108	2557.326935
937.403890	2555.983467
937.706632	2562.289951
938.009336	2562.940259
938.312002	2568.485529
938.614628	2571.263204
938.917216	2576.019533
939.219765	2575.177660
939.522275	2575.638926
939.824747	2574.557598
940.127179	2569.801270
940.429573	2565.796073
940.731929	2566.799263
941.034246	2566.625343
941.336524	2565.536454
941.638763	2567.464695
941.940964	2568.230950
942.243126	2563.706515
942.545250	2563.696433
942.847335	2563.862791
943.149381	2560.830537
943.451389	2560.084446
943.753359	2558.030176
944.055290	2559.693756
944.357182	2556.716955
944.659036	2559.325752
944.960851	2557.553787
945.262628	2557.891544
945.564367	2556.447253
945.866067	2558.564538
946.167729	2556.918601
946.469352	2559.146791
946.770937	2558.105793
947.072484	2556.487582
947.373992	2557.684857
947.675462	2558.476318
947.976893	2555.378529
948.278286	2554.745864
948.579641	2555.388611
948.880958	2554.261913
949.182236	2553.846018
949.483476	2553.876265
949.784678	2553.815771
950.085841	2555.660833
950.386967	2555.769218
950.688054	2554.582026
950.989103	2553.248641
951.290114	2555.572613
951.591087	2557.405072
951.892021	2556.948848
952.192917	2560.770043
952.493776	2556.774928
952.794596	2559.252655
953.095378	2562.053016
953.396122	2562.080743
953.696828	2556.905998
953.997496	2558.486400
954.298126	2556.049002
954.598718	2558.380536
954.899272	2553.152859
955.199788	2555.474311
955.500266	2554.395504
955.800706	2551.854762
956.101108	2543.105840
956.401472	2547.468958
956.701798	2547.098433
957.002087	2544.368649
957.302337	2544.547610
957.602550	2545.245809
957.902724	2542.329502
958.202861	2543.589790
958.502960	2544.744215
958.803022	2543.892260
959.103045	2542.626930
959.403031	2544.890408
959.702979	2542.352187
960.002889	2542.548792
960.302762	2541.192722
960.602596	2542.059800
960.902393	2541.147351
961.202153	2539.629964
961.501875	2543.312527
961.801559	2541.139790
962.101205	2539.473688
962.400814	2541.651467
962.700385	2540.139121
962.999918	2539.022505
963.299414	2537.028729
963.598873	2539.514017
963.898293	2538.757844
964.197677	2543.335212
964.497022	2538.657021
964.796331	2538.120138
965.095601	2538.672145
965.394835	2540.746580
965.694030	2536.965714
965.993189	2536.557381
966.292309	2541.217928
966.591393	2537.936136
966.890439	2537.008564
967.189447	2539.234233
967.488419	2537.994110
967.787353	2539.763555
968.086249	2536.247350
968.385108	2539.080478
968.683930	2539.365303
968.982714	2538.344470
969.281462	2536.620395
969.580172	2538.878832
969.878844	2538.462937
970.177480	2538.483102
970.476078	2540.935623
970.774639	2539.193904
971.073162	2537.913451
971.371649	2538.329346
971.670098	2537.172402
971.968510	2538.253729
972.266885	2533.038655
972.565223	2539.876981
972.863524	2539.967721
973.161788	2538.843544
973.460014	2539.423277
973.758204	2540.068544
974.056356	2539.287166
974.354471	2539.569470
974.652550	2537.946219
974.950591	2540.209697
975.248595	2538.241126
975.546563	2540.292876
975.844493	2539.597197
976.142386	2539.806404
976.440243	2536.297761
976.738062	2536.333049
977.035845	2536.743903
977.333590	2539.440921
977.631299	2536.532175
977.928971	2535.750796
978.226606	2537.505118
978.524204	2537.623585
978.821765	2537.547967
979.119290	2538.127700
979.416777	2538.382278
979.714228	2535.047555
980.011642	2536.486805
980.309020	2537.565612
980.606360	2539.763555
980.903664	2537.137113
981.200931	2538.372196
981.498162	2540.590304
981.795356	2542.992414
982.092513	2544.111550
982.389633	2546.657333
982.686717	2550.024823
982.983764	2551.390976
983.280775	2553.190668
983.577749	2553.977088
983.874686	2551.406099
984.171587	2546.899308
984.468451	2548.681356
984.765279	2545.646581
985.062070	2542.170706
985.358824	2544.333361
985.655543	2539.609799
985.952224	2538.132741
986.248869	2537.802546
986.545478	2533.409180
986.842050	2536.098636
987.138586	2530.933974
987.435086	2532.262318
987.731549	2531.627132
988.027975	2536.587628
988.324366	2532.496731
988.620719	2536.927906
988.917037	2535.314736
989.213318	2538.866229
989.509563	2530.674354
989.805772	2534.803059
990.101944	2533.724252
990.398080	2534.394726
990.694180	2538.296579
990.990244	2535.949922
991.286271	2534.195600
991.582262	2532.358100
991.878217	2533.167205
992.174136	2537.295910
992.470019	2532.620240
992.765865	2534.820703
993.061676	2536.315405
993.357450	2533.656197
993.653188	2537.028729
993.948890	2534.588810
994.244556	2534.011598
994.540186	2533.807431
994.835780	2533.525127
995.131337	2538.117618
995.426859	2536.116280
995.722345	2536.176774
996.017795	2537.956301
996.313208	2541.147351
996.608586	2537.842875
996.903928	2538.931764
997.199234	2539.733308
997.494504	2538.490663
997.789738	2536.428831
998.084936	2537.374048
998.380099	2537.278266
998.675225	2534.621578
998.970316	2538.336908
999.265371	2535.791125
999.560390	2537.391692
999.855373	2534.719880
1000.150320	2535.367668
1000.445232	2535.576876
1000.740108	2533.378933
1001.034948	2535.579397
1001.329752	2537.106867
1001.624521	2533.817514
1001.919254	2532.554705
1002.213951	2531.662420
1002.508613	2527.463139
1002.803239	2533.053779
1003.097829	2529.966072
1003.392384	2534.659386
1003.686903	2531.705270
1003.981386	2532.859694
1004.275834	2531.352389
1004.570246	2532.791639
1004.864623	2529.250228
1005.158964	2535.178625
1005.453270	2533.144520
1005.747540	2534.329191
1006.041775	2535.491177
1006.335974	2533.661238
1006.630138	2531.193593
1006.924266	2533.835158
1007.218359	2534.409849
1007.512416	2532.045548
1007.806438	2535.521424
1008.100425	2532.690816
1008.394376	2535.781043
1008.688292	2533.235260
1008.982172	2530.661751
1009.276017	2531.758202
1009.569827	2532.844571
1009.863602	2532.910106
1010.157341	2533.348686
1010.451045	2532.428676
1010.744714	2530.462626
1011.038347	2532.305168
1011.331945	2531.470857
1011.625508	2532.640404
1011.919036	2533.895652
1012.212528	2532.642925
1012.505986	2533.492359
1012.799408	2533.797349
1013.092795	2532.534540
1013.386147	2533.686444
1013.679464	2533.837678
1013.972745	2533.578059
1014.265992	2530.782739
1014.559204	2533.638553
1014.852380	2533.033614
1015.145521	2531.922040
1015.438628	2529.230064
1015.731699	2532.408511
1016.024736	2530.475229
1016.317737	2531.828778
1016.610703	2532.199303
1016.903635	2530.550846
1017.196531	2526.659075
1017.489393	2529.706453
1017.782219	2524.882068
1018.075011	2529.429189
1018.367768	2531.014632
1018.660490	2532.239632
1018.953177	2532.239632
1019.245829	2532.239632
