Dividing Wavelength (nm)	Counts (n)	Blue Motor Position (mm): 39.300000	Red Motor Position (mm): 0.000000	
326.493990	2130.736934
326.888308	2130.736934
327.282561	2130.736934
327.676750	2097.404825
328.070874	2095.905082
328.464933	2100.807604
328.858929	2107.696341
329.252859	2116.054574
329.646726	2127.485390
330.040528	2140.473923
330.434265	2159.257262
330.827938	2175.043636
331.221547	2192.143229
331.615091	2211.211394
332.008571	2231.040773
332.401986	2252.579102
332.795338	2269.882863
333.188625	2288.061264
333.581847	2309.952474
333.975006	2326.598364
334.368100	2344.481858
334.761129	2363.005577
335.154095	2380.982332
335.546996	2402.250960
335.939833	2425.488159
336.332606	2440.291507
336.725315	2453.106120
337.117960	2465.053655
337.510540	2472.668317
337.903056	2484.900677
338.295508	2485.873620
338.687896	2499.278048
339.080220	2506.864985
339.472480	2513.640295
339.864676	2517.544669
340.256807	2522.497603
340.648875	2525.325690
341.040879	2527.319466
341.432818	2527.495907
341.824694	2529.923222
342.216506	2528.914992
342.608253	2530.006401
342.999937	2529.454395
343.391557	2531.123017
343.783113	2529.908099
344.174605	2528.544467
344.566033	2529.552697
344.957397	2525.658406
345.348697	2523.001718
345.739934	2525.202182
346.131106	2520.861748
346.522215	2519.014165
346.913260	2517.501819
347.304241	2514.474606
347.695159	2511.195336
348.086012	2511.306241
348.476802	2509.937568
348.867528	2510.298010
349.258191	2504.969511
349.648789	2508.261384
350.039324	2502.184273
350.429796	2505.670231
350.820203	2499.194869
351.210548	2501.748213
351.600828	2499.429283
351.991045	2500.523213
352.381198	2498.524396
352.771288	2496.991885
353.161314	2495.887872
353.551276	2499.111690
353.941175	2494.940135
354.331010	2500.407267
354.720782	2499.890548
355.110490	2497.780825
355.500135	2500.172853
355.889717	2496.732265
356.279235	2499.399036
356.668689	2499.711587
357.058080	2495.209837
357.447408	2498.365599
357.836672	2493.994919
358.225873	2494.778818
358.615010	2497.536329
359.004084	2499.882987
359.393095	2500.525734
359.782043	2498.085815
360.170927	2502.272493
360.559748	2502.426249
360.948505	2502.219561
361.337199	2504.704850
361.725830	2503.706702
362.114398	2505.612258
362.502903	2506.013030
362.891344	2508.536127
363.279722	2504.951867
363.668037	2508.178205
364.056289	2506.645694
364.444478	2508.863802
364.832603	2505.191322
365.220665	2507.265756
365.608665	2509.854389
365.996601	2508.377331
366.384474	2510.257681
366.772284	2513.884791
367.160031	2510.325737
367.547715	2507.384223
367.935336	2509.577125
368.322893	2510.202228
368.710388	2511.956550
369.097820	2512.763135
369.485189	2510.892867
369.872495	2513.194153
370.259738	2513.085768
370.646918	2510.726508
371.034035	2515.946623
371.421090	2514.739267
371.808081	2512.672394
372.195010	2513.128618
372.581875	2515.389576
372.968678	2516.332272
373.355418	2516.743126
373.742096	2520.309742
374.128710	2517.544669
374.515262	2515.535769
374.901751	2520.997859
375.288177	2518.467200
375.674540	2517.746315
376.060841	2519.634227
376.447079	2519.818229
376.833254	2517.196829
377.219367	2516.226407
377.605417	2516.866634
377.991404	2515.066942
378.377329	2517.297652
378.763191	2516.932169
379.148991	2520.072808
379.534727	2521.176820
379.920402	2524.927439
380.306013	2521.111285
380.691563	2523.057171
381.077049	2523.248735
381.462474	2524.196472
381.847835	2522.205216
382.233134	2525.789476
382.618371	2524.284692
383.003545	2527.546318
383.388657	2524.284692
383.773706	2527.805938
384.158693	2526.381812
384.543618	2528.857018
384.928480	2528.763757
385.313280	2529.469518
385.698017	2526.076822
386.082692	2529.658562
386.467305	2529.068747
386.851856	2530.520599
387.236344	2530.603778
387.620770	2534.072092
388.005133	2529.633356
388.389435	2532.373223
388.773674	2532.786598
389.157851	2534.677030
389.541965	2539.637526
389.926018	2541.956457
390.310008	2545.636499
390.693936	2553.672098
391.077802	2554.047664
391.461606	2563.010836
391.845348	2571.863102
392.229027	2582.046232
392.612645	2592.564600
392.996200	2607.607403
393.379694	2620.482510
393.763125	2643.376910
394.146494	2652.577016
394.529801	2675.020233
394.913047	2696.566124
395.296230	2714.164792
395.679351	2739.541961
396.062410	2764.944335
396.445408	2783.644495
396.828343	2812.822694
397.211217	2838.330932
397.594028	2849.328209
397.976778	2891.610887
398.359466	2925.679005
398.742092	2958.446505
399.124656	2970.237764
399.507158	3023.157276
399.889598	3060.093811
400.271977	3114.613889
400.654294	3141.778147
401.036549	3178.691996
401.418742	3201.856098
401.800874	3277.947274
402.182944	3323.912515
402.564952	3389.891136
402.946898	3420.808533
403.328783	3457.616518
403.710606	3452.252730
404.092367	3594.594750
404.474067	3613.156278
404.855705	3653.392248
405.237282	3651.713544
405.618797	3753.464193
406.000250	3811.946619
406.381642	3902.251328
406.762972	3913.977052
407.144240	3960.151501
407.525447	3993.460925
407.906593	4071.006474
408.287677	4139.873676
408.668700	4118.968011
409.049661	4191.061553
409.430560	4256.200822
409.811399	4227.733426
410.192176	4388.891553
410.572891	4364.036144
410.953545	4484.812108
411.334138	4406.674223
411.714669	4489.891070
412.095139	4423.357922
412.475547	4570.846960
412.855894	4575.578083
413.236180	4606.719811
413.616405	4582.607972
413.996568	4678.374771
414.376670	4643.089215
414.756711	4614.720122
415.136691	4659.188140
415.516609	4745.374227
415.896466	4793.285353
416.276262	4836.122557
416.655997	4831.880427
417.035670	5015.017984
417.415283	5114.870639
417.794834	5068.156787
418.174324	5031.946179
418.553753	4943.027787
418.933121	5131.264471
419.312428	5206.508733
419.691674	5149.652080
420.070859	5275.564979
420.449983	5195.314851
420.829045	5313.489580
421.208047	5222.774016
421.586988	5298.514832
421.965867	5309.968334
422.344686	5445.940856
422.723444	5302.943486
423.102141	5127.347495
423.480777	5420.067134
423.859352	5193.633627
424.237866	5451.919664
424.616319	5446.064364
424.994712	5552.992278
425.373044	5435.208239
425.751314	5573.653447
426.129524	5379.997522
426.507673	5570.369136
426.885762	5656.300644
427.263789	5587.567032
427.641756	5473.616791
428.019662	5593.828145
428.397508	5601.657057
428.775292	5544.187903
429.153016	5650.931815
429.530679	5573.045988
429.908282	5658.823742
430.285824	5525.288617
430.663305	5806.476617
431.040726	5537.009300
431.418086	5539.890320
431.795385	5651.302340
432.172624	5655.325181
432.549802	5653.772506
432.926920	5664.452190
433.303977	5674.312687
433.680974	5715.236774
434.057910	5727.937961
434.434786	5734.914918
434.811601	5706.271082
435.188355	5937.725578
435.565050	5814.940715
435.941683	5797.924300
436.318257	6008.342061
436.694770	5994.279763
437.071222	6024.854361
437.447614	5957.260049
437.823946	5870.703438
438.200218	6027.954670
438.576429	5890.016098
438.952580	5992.883363
439.328670	6036.277615
439.704700	5947.051713
440.080670	5930.496564
440.456580	6196.409867
440.832429	6084.347538
441.208218	5925.505821
441.583947	6086.948773
441.959616	6090.472540
442.335224	6014.678792
442.710773	6149.796838
443.086261	6178.138205
443.461689	5978.440457
443.837057	6123.103929
444.212365	6277.345592
444.587612	6168.300393
444.962800	6323.910730
445.337927	6306.027237
445.712995	5911.761115
446.088002	6487.302088
446.462949	6317.795811
446.837837	6256.717191
447.212664	6426.102481
447.587431	6569.233441
447.962139	7107.885771
448.336786	8032.561936
448.711374	7775.884026
449.085901	6848.508323
449.460369	6772.896057
449.834776	6708.593619
450.209124	7096.149965
450.583412	7247.843325
450.957640	7391.874132
451.331808	7155.630539
451.705917	6709.380039
452.079965	6635.131404
452.453954	6848.324321
452.827883	6724.753037
453.201752	6815.667726
453.575562	6613.179700
453.949311	6823.514282
454.323001	6706.390634
454.696632	6780.394773
455.070202	6921.746206
455.443713	7082.795948
455.817164	7177.741040
456.190556	7262.195490
456.563888	7331.813825
456.937160	7379.004066
457.310373	7033.362393
457.683526	7058.409366
458.056619	6948.905422
458.429653	6935.165758
458.802628	6867.553802
459.175542	6977.191337
459.548398	7337.354053
459.921194	7496.848599
460.293930	7496.397415
460.666607	8031.629322
461.039224	8330.131165
461.411782	8457.843756
461.784280	8477.410995
462.156719	8368.764047
462.529099	8246.173268
462.901419	7840.733429
463.273680	7727.272179
463.645882	7740.185095
464.018024	7608.827749
464.390106	7779.382587
464.762130	8166.517996
465.134094	8637.215572
465.505999	9654.701900
465.877845	10874.996367
466.249631	11521.801611
466.621358	11132.395162
466.993026	10506.407363
467.364634	10257.911245
467.736184	9894.267613
468.107674	9557.727744
468.479105	9595.254093
468.850477	9354.014717
469.221790	9123.626424
469.593043	8801.952918
469.964238	8663.301023
470.335373	8666.824789
470.706449	8730.459274
471.077467	8712.752221
471.448425	10026.471872
471.819324	11091.337484
472.190164	11109.001687
472.560945	9862.694866
472.931667	9078.248478
473.302330	8942.580946
473.672934	8590.564734
474.043479	8947.869116
474.413965	8890.405003
474.784393	8775.761603
475.154761	8926.713914
475.525070	9018.283953
475.895321	8842.516562
476.265513	9023.569603
476.635645	9190.635962
477.005719	9191.745016
477.375734	9304.959249
477.745691	9538.417604
478.115588	9671.196555
478.485427	9917.242671
478.855207	10457.677049
479.224928	11270.666450
479.594591	11897.690207
479.964194	11711.901002
480.333739	11645.879531
480.703226	11563.761655
481.072653	11654.310861
481.442022	11890.080585
481.811333	12077.762743
482.180584	11882.720500
482.549777	11589.728639
482.918912	11416.403687
483.287988	11442.983171
483.657005	11448.813265
484.025964	11134.341047
484.394864	11267.987077
484.763706	11238.677808
485.132489	10992.939203
485.501213	10954.863367
485.869879	11031.786334
486.238487	10872.097704
486.607036	10984.507873
486.975527	10767.345047
487.343959	10958.845879
487.712333	11001.254586
488.080648	10937.403331
488.448905	10973.901285
488.817104	10915.789384
489.185244	11184.797956
489.553326	11341.116575
489.921350	11875.763708
490.289315	12941.171244
490.657222	13273.463941
491.025070	13183.166793
491.392861	13057.700036
491.760593	12683.628777
492.128267	12333.208090
492.495883	12008.303204
492.863440	11663.873930
493.230939	11330.454535
493.598380	11264.864082
493.965763	11130.048505
494.333088	11030.614266
494.700354	10949.076123
495.067563	11008.672644
495.434713	10834.296612
495.801805	10972.489762
496.168839	10896.287680
496.535815	10834.369708
496.902733	10828.038019
497.269593	10762.092165
497.636395	10862.942968
498.003139	10851.277738
498.369825	10725.327030
498.736453	10880.587007
499.103023	10805.143619
499.469535	10836.280306
499.835989	10823.014509
500.202385	10782.781060
500.568723	10638.750254
500.935003	10861.216373
501.301226	10666.035499
501.667390	10927.714233
502.033497	11020.796619
502.399546	10877.789166
502.765537	10784.258118
503.131470	10866.398679
503.497345	11041.951821
503.863163	10645.664196
504.228923	10961.608431
504.594625	11020.801660
504.960269	10763.430591
505.325856	10983.701288
505.691385	10785.926740
506.056856	10936.571541
506.422270	10960.617845
506.787625	10849.490649
507.152924	10965.364091
507.518164	10943.172932
507.883347	10872.531243
508.248472	10787.086206
508.613540	11017.343428
508.978550	10904.575337
509.343503	10878.086594
509.708398	10992.412402
510.073236	11115.353541
510.438016	11119.822524
510.802738	11064.752960
511.167403	11120.858481
511.532010	11016.239416
511.896561	11248.319015
512.261053	11312.341669
512.625488	11187.628564
512.989866	11169.583754
513.354186	11156.751497
513.718449	11066.046016
514.082655	11253.334963
514.446803	11151.163378
514.810894	11272.831626
515.174927	11135.266099
515.538904	11162.170737
515.902822	11312.951649
516.266684	11199.046777
516.630488	11137.542180
516.994235	11198.124246
517.357925	11256.974676
517.721558	11346.324087
518.085133	11361.795388
518.448651	11374.206709
518.812112	11248.634087
519.175516	11272.559403
519.538863	11391.820501
519.902152	11302.486213
520.265385	11462.994031
520.628560	11382.149047
520.991678	11360.454441
521.354739	11422.891652
521.717743	11352.859943
522.080690	11338.832932
522.443580	11474.374436
522.806413	11426.095306
523.169189	11452.594131
523.531908	11514.280210
523.894569	11327.298773
524.257174	11340.867038
524.619722	11454.693771
524.982213	11404.294836
525.344647	11460.448248
525.707025	11400.738302
526.069345	11498.181285
526.431608	11414.089798
526.793815	11526.888136
527.155964	11312.190434
527.518057	11366.839063
527.880093	11317.715539
528.242072	11387.190201
528.603995	11296.502364
528.965860	11206.192613
529.327669	11263.046746
529.689421	11212.993130
530.051117	11181.990033
530.412755	11281.131886
530.774337	11175.116420
531.135862	11159.020016
531.497331	11178.713283
531.858743	11031.990501
532.220098	11200.526356
532.581396	11067.041643
532.942638	11053.649818
533.303824	11016.367965
533.664953	11032.398834
534.026025	10939.071953
534.387040	11043.252438
534.747999	11048.525485
535.108902	11106.047571
535.469748	10859.799809
535.830537	10967.620007
536.191270	10951.042173
536.551947	10970.511109
536.912567	10962.188164
537.273131	10896.943030
537.633638	10875.162725
537.994089	10862.864830
538.354483	10812.607047
538.714821	10964.396189
539.075103	10963.584564
539.435328	10934.098855
539.795497	10756.050342
540.155609	10910.717983
540.515665	11002.706438
540.875665	10733.254244
541.235609	10806.872735
541.595496	10800.893926
541.955328	10959.501229
542.315102	10839.957827
542.674821	10793.846393
543.034483	10787.728953
543.394090	10793.327154
543.753640	10718.955012
544.113134	10943.392222
544.472571	10803.210336
544.831953	10941.055647
545.191278	10750.298386
545.550548	10775.158836
545.909761	10909.230843
546.268918	10886.223017
546.628019	10974.949845
546.987064	10832.373411
547.346053	10754.858109
547.704986	10854.693120
548.063863	10841.404638
548.422684	10839.012611
548.781449	10749.600186
549.140158	10858.017761
549.498811	10735.298432
549.857408	10586.171019
550.215949	10817.943108
550.574434	10671.386684
550.932864	10769.961406
551.291237	10827.264202
551.649555	10774.039700
552.007817	10783.927923
552.366022	10747.072047
552.724173	10742.131716
553.082267	10723.499612
553.440305	10860.588749
553.798288	10663.719089
554.156215	10813.365741
554.514086	10793.750611
554.871902	10643.927519
555.229661	10680.589310
555.587365	10660.865796
555.945014	10551.596266
556.302606	10681.799187
556.660143	10565.779552
557.017625	10720.288397
557.375050	10618.063879
557.732421	10757.242575
558.089735	10668.273771
558.446994	10674.597899
558.804197	10699.793586
559.161345	10707.637621
559.518437	10560.592205
559.875474	10640.507096
560.232455	10673.259472
560.589381	10627.127874
560.946251	10623.223500
561.303065	10731.089069
561.659825	10666.630355
562.016528	10596.885992
562.373177	10478.297889
562.729770	10590.894580
563.086307	10507.365182
563.442789	10601.738102
563.799216	10476.629267
564.155587	10526.095589
564.511904	10481.592283
564.868164	10472.583741
565.224370	10482.207303
565.580520	10415.371686
565.936615	10417.246995
566.292654	10286.950812
566.648638	10414.202138
567.004567	10376.154029
567.360441	10363.689777
567.716260	10267.280230
568.072023	10361.161638
568.427732	10313.472323
568.783385	10224.783303
569.138982	10293.811823
569.494525	10306.422269
569.850013	10183.657570
570.205445	10269.982288
570.560823	10167.651906
570.916145	10077.523637
571.271412	10153.778651
571.626625	10090.214742
571.981782	10067.912678
572.336884	10043.213544
572.691931	10051.856603
573.046923	9994.541204
573.401860	9955.663825
573.756743	9887.330985
574.111570	9932.618191
574.466342	9914.976673
574.821059	9948.603689
575.175722	9836.402728
575.530330	9846.742135
575.884882	9835.563376
576.239380	9765.146019
576.593823	9740.764478
576.948211	9760.742571
577.302544	9644.163367
577.656823	9655.327003
578.011047	9656.204163
578.365216	9623.560172
578.719330	9556.033916
579.073389	9563.895595
579.427394	9510.650928
579.781344	9494.657868
580.135239	9436.009084
580.489080	9447.903687
580.842866	9348.655970
581.196597	9353.064459
581.550273	9388.622238
581.903895	9363.189617
582.257463	9427.073639
582.610975	9307.227768
582.964434	9335.581738
583.317837	9259.785469
583.671186	9241.995237
584.024481	9230.806396
584.377721	9157.293770
584.730906	9130.220253
585.084037	9160.336107
585.437113	9098.380326
585.790135	9117.965208
586.143103	9012.257253
586.496016	8987.749684
586.848874	9050.186895
587.201679	9037.596613
587.554428	8917.675125
587.907124	8968.971386
588.259765	8935.919061
588.612352	8941.907952
588.964884	8814.333992
589.317362	8832.371240
589.669786	8833.644132
590.022155	8878.359166
590.374470	8898.952280
590.726731	8829.275972
591.078937	8681.393724
591.431090	8792.226012
591.783188	8669.181528
592.135232	8663.757247
592.487222	8663.694232
592.839157	8718.529383
593.191038	8650.153693
593.542866	8592.848377
593.894639	8493.734251
594.246358	8541.688227
594.598022	8555.453098
594.949633	8457.027089
595.301190	8431.362575
595.652692	8464.876166
596.004141	8572.741735
596.355535	8351.351902
596.706876	8332.387081
597.058162	8267.691433
597.409395	8341.451076
597.760573	8406.802074
598.111698	8310.626941
598.462768	8296.899879
598.813785	8262.867049
599.164748	8238.314109
599.515657	8225.552428
599.866511	8134.720918
600.217312	8259.282789
600.568060	8113.006148
600.918753	8222.326090
601.269392	8192.124537
601.619978	8103.392668
601.970510	8164.335177
602.320988	8161.557501
602.671412	8221.055719
603.021783	8161.229826
603.372100	8132.714539
603.722363	8132.061710
604.072572	8111.536652
604.422728	8118.790872
604.772830	8049.487610
605.122878	8050.485758
605.472872	8049.772435
605.822813	8078.363339
606.172701	8025.151439
606.522534	8099.939477
606.872314	8101.414015
607.222041	8064.469919
607.571714	8120.003270
607.921333	8077.292094
608.270899	8086.870286
608.620411	8179.418309
608.969870	8081.181344
609.319276	8075.378976
609.668627	8099.614323
610.017926	8127.950649
610.367171	8170.200559
610.716362	8152.201119
611.065500	8141.718040
611.414585	8170.503028
611.763616	8154.240266
612.112594	8135.056155
612.461518	8151.636510
612.810389	8213.231848
613.159207	8151.228177
613.507971	8097.423942
613.856682	8216.710244
614.205340	8174.384717
614.553945	8254.034948
614.902496	8156.075246
615.250994	8203.822535
615.599439	8188.542797
615.947830	8200.492853
616.296169	8173.953698
616.644454	8187.053136
616.992686	8183.962909
617.340864	8238.946774
617.688990	8144.631827
618.037063	8243.181343
618.385082	8187.955503
618.733048	8274.691075
619.080961	8212.609266
619.428821	8231.984941
619.776628	8231.788336
620.124382	8180.126591
620.472083	8170.566043
620.819731	8194.143519
621.167326	8082.149245
621.514868	8098.895958
621.862357	7985.916139
622.209793	7999.663366
622.557176	7935.214734
622.904506	7908.131135
623.251783	7842.137390
623.599007	7794.309443
623.946179	7796.880432
624.293297	7753.665140
624.640363	7674.950043
624.987376	7656.370871
625.334336	7605.982018
625.681243	7550.277268
626.028097	7537.150103
626.374899	7510.394179
626.721647	7507.878643
627.068343	7436.513549
627.414987	7413.926659
627.761577	7366.217179
628.108115	7406.586739
628.454600	7295.368803
628.801032	7348.658840
629.147412	7314.623490
629.493739	7297.687734
629.840014	7238.207159
630.186236	7289.392515
630.532405	7170.325502
630.878521	7227.744245
631.224585	7180.130547
631.570597	7109.113292
631.916556	7141.923642
632.262462	7138.788044
632.608316	7096.041580
632.954117	7072.882519
633.299866	7062.893473
633.645562	7052.380146
633.991206	6971.217569
634.336797	6918.804693
634.682336	6871.284256
635.027823	6839.756880
635.373257	6832.250602
635.718639	6762.745693
636.063968	6776.031654
636.409245	6675.737898
636.754470	6667.195663
637.099642	6626.652183
637.444762	6574.718217
637.789829	6577.087559
638.134845	6525.705598
638.479808	6503.534604
638.824719	6513.624473
639.169577	6439.935407
639.514383	6463.681762
639.859137	6388.755092
640.203839	6390.786677
640.548489	6385.334669
640.893086	6358.608992
641.237632	6330.272667
641.582125	6352.141192
641.926566	6323.812428
642.270955	6338.698955
642.615292	6332.221072
642.959576	6346.230439
643.303809	6332.684859
643.647990	6337.920097
643.992118	6336.992525
644.336195	6283.833557
644.680219	6302.435415
645.024192	6291.884280
645.368112	6393.017388
645.711981	6413.429020
646.055797	6488.794270
646.399562	6444.258196
646.743274	6572.691673
647.086935	6624.542461
647.430544	6617.376460
647.774101	6643.557693
648.117606	6646.839484
648.461059	6642.597353
648.804460	6603.044460
649.147810	6507.325551
649.491108	6481.192210
649.834354	6453.123065
650.177548	6370.458224
650.520690	6289.751872
650.863781	6263.542913
651.206820	6281.038237
651.549807	6204.558892
651.892742	6144.796014
652.235626	6154.724566
652.578458	6138.623121
652.921238	6043.453698
653.263967	6088.496408
653.606644	6023.001737
653.949269	6031.188571
654.291843	5972.191947
654.634365	6019.162898
654.976836	5977.180169
655.319255	5972.065918
655.661622	5947.543225
656.003938	5945.723369
656.346203	5905.321041
656.688416	5938.872441
657.030577	5887.636674
657.372687	5860.449731
657.714746	5846.634449
658.056753	5895.097581
658.398708	5829.739022
658.740612	5819.724770
659.082465	5871.746957
659.424266	5860.595924
659.766016	5858.861768
660.107715	5835.284291
660.449362	5849.850705
660.790958	5847.680488
661.132503	5832.839331
661.473996	5869.526328
661.815438	5856.535275
662.156829	5852.767013
662.498168	5841.913408
662.839456	5822.119318
663.180693	5855.002764
663.521879	5857.402353
663.863013	5845.333831
664.204097	5867.303180
664.545129	5908.653244
664.886110	5903.614611
665.227040	5941.786228
665.567918	5901.260392
665.908746	5932.056801
666.249522	5930.388179
666.590248	5917.629018
666.930922	5949.015242
667.271545	5959.674762
667.612118	5964.889836
667.952639	5934.776503
668.293109	5959.616789
668.633528	5916.262866
668.973896	5917.533237
669.314213	5910.518471
669.654480	5893.673455
669.994695	5881.642742
670.334859	5875.580754
670.674973	5866.579774
671.015035	5876.641917
671.355047	5867.918200
671.695008	5858.360173
672.034918	5828.277087
672.374777	5841.139591
672.714585	5822.199976
673.054342	5828.221634
673.394049	5822.688968
673.733705	5851.736097
674.073310	5839.576833
674.412864	5800.402027
674.752368	5790.649915
675.091820	5799.660977
675.431223	5728.169854
675.770574	5734.138580
676.109875	5684.062278
676.449125	5690.169636
676.788324	5655.330222
677.127473	5598.261840
677.466571	5586.866312
677.805619	5582.934212
678.144616	5565.648095
678.483562	5548.813162
678.822458	5515.591958
679.161303	5515.261762
679.500098	5498.104195
679.838842	5482.693388
680.177535	5484.230940
680.516179	5507.314383
680.854771	5516.816958
681.193314	5594.496098
681.531805	5704.219332
681.870247	5854.226427
682.208638	5955.525893
682.546978	5970.838397
682.885268	5947.747392
683.223508	5863.391244
683.561697	5807.963758
683.899836	5775.680208
684.237925	5732.351491
684.575963	5698.606007
684.913951	5658.997662
685.251889	5717.989244
685.589776	5686.166960
685.927614	5655.839379
686.265401	5724.404112
686.603137	5714.636877
686.940824	5787.703360
687.278460	5811.779911
687.616046	5821.269883
687.953582	5889.156582
688.291068	5873.186206
688.628504	5936.966885
688.965889	5898.439866
689.303224	5840.650599
689.640510	5792.852899
689.977745	5712.360796
690.314930	5619.386795
690.652065	5562.507456
690.989150	5468.043795
691.326185	5395.609976
691.663170	5339.776677
692.000105	5267.516777
692.336990	5190.225807
692.673825	5165.221683
693.010610	5094.108647
693.347345	5025.407802
693.684030	5012.492366
694.020665	4970.716324
694.357251	4874.667220
694.693786	4889.019385
695.030272	4857.623079
695.366707	4821.616637
695.703093	4787.417450
696.039429	4809.964010
696.375716	4793.514725
696.711952	4767.444398
697.048139	4752.268004
697.384276	4733.194799
697.720363	4747.922530
698.056400	4754.428139
698.392388	4706.398546
698.728326	4684.139331
699.064214	4658.744518
699.400053	4654.003313
699.735842	4622.876709
700.071581	4598.732102
700.407270	4570.983071
700.742910	4555.375659
701.078501	4497.180579
701.414042	4500.227956
701.749533	4467.243687
702.084974	4403.967123
702.420366	4461.108602
702.755709	4403.616763
703.091002	4345.144420
703.426246	4394.968664
703.761440	4351.460986
704.096584	4316.573680
704.431679	4334.736958
704.766725	4317.186181
705.101721	4307.325684
705.436668	4338.782484
705.771565	4285.542858
706.106413	4310.128565
706.441212	4346.419832
706.775961	4351.652549
707.110661	4329.577337
707.445311	4362.143191
707.779913	4381.833937
708.114465	4394.020927
708.448967	4419.088064
708.783421	4484.476871
709.117825	4521.983056
709.452180	4526.595711
709.786485	4565.984767
710.120742	4659.334333
710.454949	4642.829596
710.789107	4704.929049
711.123216	4782.759423
711.457275	4771.429430
711.791286	4849.216955
712.125247	4862.424778
712.459159	4763.751753
712.793023	4841.642621
713.126837	4796.667967
713.460602	4791.465496
713.794318	4711.825348
714.127985	4724.337492
714.461602	4636.707114
714.795171	4607.659986
715.128691	4541.797311
715.462162	4482.808249
715.795584	4435.434006
716.128957	4419.861882
716.462281	4366.145867
716.795556	4335.442719
717.128782	4301.039365
717.461960	4233.092173
717.795088	4243.920571
718.128167	4204.468501
718.461198	4144.355262
718.794180	4136.942245
719.127113	4120.528248
719.459997	4098.614353
719.792833	4056.293866
720.125619	4045.079819
720.458357	4012.113194
720.791046	4016.627547
721.123686	3988.981859
721.456278	3945.776650
721.788821	3966.425217
722.121315	3937.826751
722.453761	3910.947318
722.786158	3924.016510
723.118506	3948.826548
723.450805	3898.399887
723.783056	3920.258330
724.115259	3939.167698
724.447412	3943.142647
724.779518	3933.841719
725.111574	3939.767595
725.443582	3968.736586
725.775542	3955.614462
726.107453	4004.642204
726.439315	4006.406608
726.771129	4020.020244
727.102895	4056.747570
727.434612	4103.607616
727.766281	4118.088330
728.097901	4115.277887
728.429473	4121.360039
728.760996	4126.804485
729.092471	4121.977580
729.423897	4105.936629
729.755276	4112.175057
730.086606	4114.183956
730.417887	4150.911283
730.749120	4219.380234
731.080305	4279.438021
731.411442	4307.988595
731.742530	4276.917444
732.073570	4279.957259
732.404562	4334.363912
732.735506	4324.054753
733.066401	4286.190646
733.397249	4224.698652
733.728048	4142.444665
734.058798	4065.609918
734.389501	3992.966892
734.720156	3931.351389
735.050762	3884.670304
735.381320	3880.244171
735.711831	3828.254751
736.042293	3801.962613
736.372707	3825.207374
736.703073	3794.146304
737.033391	3785.225983
737.363661	3801.161070
737.693883	3825.376253
738.024056	3839.478880
738.354182	3831.972602
738.684260	3894.437540
739.014290	3916.187598
739.344272	3911.295158
739.674207	3954.205460
740.004093	3955.054894
740.333931	3955.932055
740.663722	3955.828711
740.993464	3951.505922
741.323159	3927.699073
741.652806	3899.024990
741.982405	3870.194631
742.311956	3837.192717
742.641460	3831.561748
742.970915	3805.688026
743.300323	3766.646810
743.629683	3729.291860
743.958996	3718.733163
744.288260	3693.376160
744.617477	3662.730985
744.946647	3652.709172
745.275768	3623.732619
745.604842	3619.165334
745.933869	3574.881318
746.262847	3564.219278
746.591778	3604.576235
746.920662	3572.887542
747.249498	3540.719939
747.578286	3591.925459
747.907027	3608.241153
748.235720	3605.811317
748.564365	3629.204792
748.892963	3630.976757
749.221514	3611.006226
749.550017	3589.046960
749.878473	3588.346240
750.206881	3560.214081
750.535242	3551.699572
750.863555	3554.028585
751.191821	3551.644119
751.520039	3529.863814
751.848210	3509.653828
752.176334	3543.074158
752.504411	3548.972308
752.832440	3509.832789
753.160421	3491.319152
753.488356	3499.430368
753.816243	3511.173736
754.144082	3466.557004
754.471875	3457.094758
754.799620	3474.527068
755.127318	3464.205306
755.454969	3464.008701
755.782572	3469.952221
756.110129	3449.228038
756.437638	3436.173970
756.765100	3452.771969
757.092515	3465.941983
757.419882	3469.163281
757.747203	3441.658745
758.074477	3441.663786
758.401703	3462.773618
758.728882	3480.934375
759.056014	3487.427381
759.383099	3490.368894
759.710138	3487.528204
760.037129	3504.451358
760.364073	3534.037889
760.690970	3519.892412
761.017820	3495.480624
761.344623	3515.796474
761.671379	3560.909760
761.998088	3614.257771
762.324751	3739.585896
762.651366	3987.041015
762.977935	4462.578099
763.304456	4903.928597
763.630931	5000.655737
763.957359	4638.209378
764.283740	4296.366215
764.610074	4103.539560
764.936362	3906.629570
765.262602	3749.317844
765.588796	3636.484218
765.914943	3547.091957
766.241044	3460.918473
766.567097	3430.651386
766.893104	3383.814025
767.219064	3352.311855
767.544978	3326.049964
767.870845	3269.596603
768.196665	3247.327306
768.522438	3256.305601
768.848165	3253.124632
769.173846	3217.140876
769.499479	3201.442723
769.825066	3182.740042
770.150607	3166.812517
770.476101	3179.614527
770.801548	3178.124866
771.126949	3131.093421
771.452303	3114.780248
771.777611	3121.767287
772.102872	3124.766773
772.428087	3099.576127
772.753256	3090.940631
773.078378	3083.449476
773.403453	3051.949827
773.728482	3039.651932
774.053465	3059.249417
774.378401	3046.696944
774.703291	3015.913138
775.028135	3018.854652
775.352932	3013.170751
775.677683	3002.566683
776.002388	2997.386898
776.327046	3000.681292
776.651658	2986.213180
776.976224	2976.947540
777.300743	2975.750266
777.625216	2967.898668
777.949643	2960.011783
778.274024	2967.069399
778.598359	2953.133129
778.922647	2957.798717
779.246889	2960.049592
779.571086	2942.556788
779.895236	2935.791560
780.219339	2946.756069
780.543397	2959.507668
780.867409	2965.584779
781.191374	2957.511371
781.515294	2952.981894
781.839167	2954.282512
782.162995	2946.483847
782.486776	2953.911987
782.810511	2951.139353
783.134201	2937.311468
783.457844	2944.147272
783.781441	2937.268618
784.104993	2916.199115
784.428498	2916.103333
784.751958	2929.903492
785.075372	2925.232863
785.398739	2908.055131
785.722061	2926.606577
786.045337	2933.482711
786.368568	2924.012904
786.691752	2911.215935
787.014891	2961.519088
787.337983	2989.686535
787.661030	3018.831966
787.984031	3084.803026
788.306987	3127.730972
788.629897	3125.482617
788.952760	3105.360852
789.275579	3093.032710
789.598351	3034.767054
789.921078	2988.176710
790.243759	2981.189671
790.566395	2962.741568
790.888984	2940.270625
791.211529	2923.733120
791.534027	2912.662746
791.856480	2905.544637
792.178888	2888.757594
792.501249	2877.498177
792.823566	2877.460368
793.145836	2873.142620
793.468062	2868.903010
793.790241	2865.986702
794.112375	2873.243443
794.434464	2883.557644
794.756507	2887.998901
795.078505	2897.304871
795.400457	2911.591501
795.722364	2949.231276
796.044226	2970.898155
796.366042	2977.960812
796.687812	2964.737865
797.009538	2982.873416
797.331218	2971.513176
797.652852	2956.639251
797.974442	2937.888680
798.295986	2936.393978
798.617484	2927.695467
798.938938	2914.666604
799.260346	2898.950807
799.581709	2893.050137
799.903026	2888.077038
800.224299	2880.406923
800.545526	2869.888555
800.866708	2856.751308
801.187845	2846.810153
801.508936	2844.395440
801.829983	2854.394569
802.150984	2840.140707
802.471940	2827.275682
802.792851	2828.538491
803.113717	2828.341886
803.434538	2831.784994
803.755314	2827.240394
804.076045	2820.245793
804.396731	2820.223108
804.717372	2818.335196
805.037967	2814.589618
805.358518	2823.003304
805.679024	2835.036538
805.999485	2830.000426
806.319901	2834.245077
806.640272	2824.455156
806.960598	2832.490756
807.280879	2841.826972
807.601115	2846.721933
807.921306	2834.363544
808.241453	2830.186948
808.561554	2835.265911
808.881611	2837.179029
809.201623	2830.461691
809.521590	2831.374140
809.841513	2828.167966
810.161390	2829.284582
810.481223	2825.065136
810.801011	2814.579536
811.120755	2814.798826
811.440453	2815.945689
811.760107	2814.382931
812.079716	2814.214052
812.399281	2798.468008
812.718801	2795.647483
813.038276	2792.295115
813.357707	2795.385343
813.677093	2804.998823
813.996434	2798.853657
814.315731	2795.002215
814.634983	2788.988118
814.954191	2794.621608
815.273354	2806.561581
815.592473	2814.937458
815.911547	2814.443425
816.230577	2821.803509
816.549562	2833.859429
816.868502	2833.619974
817.187399	2840.823783
817.506250	2857.812471
817.825058	2851.304342
818.143821	2863.750951
818.462539	2881.805843
818.781213	2910.374062
819.099843	2942.405553
819.418429	3002.259173
819.736970	3064.908113
820.055466	3137.841006
820.373919	3244.070720
820.692327	3385.956516
821.010691	3554.492371
821.329011	3999.459898
821.647286	4908.279113
821.965517	6299.413243
822.283704	7052.634725
822.601847	7035.073865
822.919945	6396.115177
823.237999	5880.251383
823.556010	5296.309327
823.873976	4735.402824
824.191897	4320.813291
824.509775	4022.979401
824.827609	3752.539141
825.145398	3627.684884
825.463144	3615.533182
825.780845	3708.734035
826.098502	3814.164726
826.416116	4098.382460
826.733685	4415.655039
827.051210	4487.287314
827.368692	4366.927246
827.686129	4097.749795
828.003522	3771.665279
828.320872	3509.109384
828.638177	3313.928510
828.955439	3177.275432
829.272656	3093.055395
829.589830	3022.496885
829.906960	2973.350676
830.224046	2928.640683
830.541088	2892.790517
830.858086	2878.755945
831.175041	2861.648789
831.491952	2861.530322
831.808819	2874.289483
832.125642	2898.900396
832.442421	2942.879422
832.759157	3027.104500
833.075849	3207.159392
833.392497	3493.436436
833.709101	3693.552600
834.025662	3642.871360
834.342179	3479.452276
834.658653	3305.968528
834.975083	3154.063439
835.291469	3060.671023
835.607811	2971.485449
835.924110	2912.327509
836.240366	2861.265662
836.556578	2818.824187
836.872746	2793.888120
837.188871	2771.628905
837.504952	2756.470156
837.820990	2747.688466
838.136984	2728.706001
838.452935	2723.866493
838.768842	2725.283057
839.084706	2740.953484
839.400526	2823.691422
839.716303	2955.565486
840.032037	3036.602034
840.347727	3021.186185
840.663373	2959.386680
840.978977	2885.783313
841.294537	2811.194401
841.610054	2763.797473
841.925527	2741.951632
842.240957	2718.545555
842.556344	2699.928574
842.871687	2680.283198
843.186987	2672.010664
843.502244	2669.144768
843.817458	2662.951711
844.132629	2652.307314
844.447756	2642.250212
844.762840	2635.205200
845.077881	2639.974131
845.392879	2638.769296
845.707833	2631.041207
846.022745	2624.669188
846.337613	2628.039200
846.652438	2625.722789
846.967221	2627.151957
847.281960	2621.846142
847.596656	2621.536111
847.911309	2622.587192
848.225919	2621.231121
848.540485	2613.760131
848.855009	2616.497478
849.169490	2615.655605
849.483928	2617.057046
849.798323	2615.088475
850.112675	2615.658126
850.426984	2613.240892
850.741251	2612.945985
851.055474	2611.592435
851.369654	2619.912860
851.683792	2618.087962
851.997887	2614.481016
852.311938	2611.310131
852.625947	2613.813063
852.939914	2618.355143
853.253837	2618.236676
853.567718	2610.697630
853.881555	2612.267950
854.195350	2616.941099
854.509103	2615.695934
854.822812	2612.812394
855.136479	2612.013372
855.450103	2616.754577
855.763685	2615.058228
856.077224	2616.802468
856.390720	2613.510594
856.704173	2613.271139
857.017584	2617.914042
857.330953	2619.917901
857.644278	2620.109465
857.957561	2620.666512
858.270802	2616.789865
858.584000	2615.733743
858.897155	2621.455453
859.210268	2624.608694
859.523339	2616.147118
859.836367	2610.075048
860.149352	2611.816767
860.462295	2613.354318
860.775195	2611.894904
861.088054	2609.810387
861.400869	2608.996241
861.713642	2606.523555
862.026373	2609.288628
862.339062	2611.539503
862.651708	2617.223404
862.964312	2616.686521
863.276873	2616.956223
863.589392	2618.861779
863.901869	2624.427213
864.214303	2627.847636
864.526696	2628.082049
864.839045	2634.532206
865.151353	2634.746455
865.463619	2634.718728
865.775842	2633.511372
866.088023	2632.450209
866.400162	2636.684778
866.712258	2632.301495
867.024313	2630.950466
867.336325	2626.632718
867.648296	2631.618419
867.960224	2638.650828
868.272110	2635.215282
868.583954	2629.347379
868.895755	2631.772174
869.207515	2634.469191
869.519233	2642.378762
869.830909	2637.398102
870.142542	2633.501290
870.454134	2634.406177
870.765684	2639.727115
871.077191	2643.286169
871.388657	2646.499905
871.700081	2646.189874
872.011463	2643.230717
872.322803	2647.853455
872.634101	2648.186171
872.945357	2656.342758
873.256571	2660.206802
873.567744	2659.899292
873.878874	2658.712100
874.189963	2661.325938
874.501010	2663.667554
874.812015	2667.846671
875.122979	2669.530416
875.433900	2659.846360
875.744780	2657.482059
876.055618	2664.295178
876.366415	2670.334480
876.677169	2665.847853
876.987882	2664.884993
877.298554	2662.402225
877.609183	2676.746828
877.919771	2681.062056
878.230317	2688.558252
878.540822	2698.151567
878.851285	2709.721015
879.161707	2736.824779
879.472087	2776.128135
879.782425	2822.698314
880.092722	2941.465378
880.402977	3132.131899
880.713191	3395.847260
881.023363	3695.589226
881.333494	3892.116088
881.643583	4066.562697
881.953631	4063.449784
882.263637	3884.536713
882.573602	3657.347033
882.883526	3525.629245
883.193408	3409.556678
883.503248	3305.416521
883.813048	3188.645754
884.122806	3072.656366
884.432522	2988.275012
884.742197	2920.658016
885.051831	2881.410113
885.361424	2845.328054
885.670975	2808.356232
885.980485	2778.474792
886.289954	2760.177924
886.599382	2744.867940
886.908768	2733.127093
887.218113	2717.340719
887.527417	2700.556198
887.836680	2691.504806
888.145901	2688.180165
888.455082	2677.392096
888.764221	2670.246260
889.073319	2660.405928
889.382376	2659.904333
889.691392	2661.159580
890.000366	2660.123623
890.309300	2658.394507
890.618193	2662.256031
890.927044	2661.577996
891.235855	2664.030517
891.544625	2662.611433
891.853353	2663.171001
892.162041	2670.833555
892.470687	2690.226873
892.779293	2702.365972
893.087858	2712.241592
893.396381	2737.220510
893.704864	2777.027981
894.013306	2850.079341
894.321707	2941.563681
894.630068	2998.193483
894.938387	3018.000176
895.246665	3008.303517
895.554903	2964.974799
895.863100	2920.932759
896.171256	2863.330014
896.479371	2799.919861
896.787446	2758.680702
897.095480	2739.259656
897.403473	2732.549881
897.711425	2718.575802
898.019336	2698.569983
898.327207	2685.001717
898.635038	2684.868127
898.942827	2679.864782
899.250576	2671.413287
899.558284	2659.269148
899.865952	2655.992398
900.173579	2654.722027
900.481165	2650.096768
900.788711	2643.613844
901.096216	2635.525313
901.403681	2632.626650
901.711105	2633.967597
902.018489	2633.402987
902.325832	2637.594707
902.633135	2635.903400
902.940397	2652.514002
903.247619	2690.572192
903.554800	2761.198758
903.861941	2893.413100
904.169041	3023.416896
904.476101	3083.958633
904.783121	3080.883529
905.090100	3021.753315
905.397039	2943.819597
905.703938	2865.606095
906.010796	2803.781384
906.317614	2752.500247
906.624391	2714.774772
906.931129	2687.161852
907.237826	2663.526402
907.544483	2645.100985
907.851099	2629.642287
908.157675	2620.600977
908.464211	2613.503032
908.770707	2602.031887
909.077163	2596.468974
909.383578	2592.297419
909.689954	2592.589806
909.996289	2593.472008
910.302584	2588.438416
910.608839	2589.673498
910.915054	2591.211050
911.221229	2588.854311
911.527363	2595.937132
911.833458	2590.936307
912.139513	2593.643407
912.445527	2593.487131
912.751502	2601.888214
913.057436	2602.815786
913.363331	2609.916252
913.669186	2623.166924
913.975000	2634.358286
914.280775	2654.293529
914.586510	2673.419667
914.892205	2710.416695
915.197859	2780.307252
915.503475	2863.798842
915.809050	2931.955242
916.114585	2949.490895
916.420081	2964.601754
916.725536	2974.248002
917.030952	2943.456634
917.336328	2898.020714
917.641665	2846.898373
917.946961	2796.239818
918.252218	2760.603902
918.557435	2735.125910
918.862612	2711.187991
919.167750	2692.893644
919.472848	2675.725994
919.777906	2657.582882
920.082925	2648.470996
920.387904	2636.155457
920.692843	2630.791670
920.997743	2626.592388
921.302603	2619.038219
921.607423	2611.436159
921.912204	2606.750407
922.216946	2604.063472
922.521647	2602.586414
922.826310	2597.825044
923.130932	2591.692480
923.435516	2588.151070
923.740059	2584.594536
924.044564	2586.487489
924.349028	2581.998342
924.653454	2572.606672
924.957840	2573.080540
925.262186	2570.126424
925.566493	2571.837896
925.870761	2565.501166
926.174989	2566.305230
926.479178	2565.773388
926.783328	2563.724159
927.087438	2560.641493
927.391509	2566.015363
927.695541	2563.220043
927.999533	2561.211144
928.303486	2558.488921
928.607400	2559.292985
928.911275	2556.674105
929.215110	2556.951369
929.518906	2556.467418
929.822663	2560.467573
930.126381	2555.741492
930.430060	2556.386759
930.733699	2557.435319
931.037299	2555.640669
931.340861	2558.662840
931.644383	2559.814744
931.947866	2558.930022
932.251309	2558.801472
932.554714	2557.208468
932.858080	2558.420865
933.161407	2557.301729
933.464694	2555.010524
933.767943	2553.825853
934.071153	2554.418189
934.374323	2556.757284
934.677455	2557.573951
934.980548	2553.621687
935.283602	2554.549259
935.586617	2553.475493
935.889593	2555.401214
936.192530	2551.335523
936.495428	2556.296019
936.798287	2555.547407
937.101108	2557.165618
937.403890	2557.954558
937.706632	2562.988150
938.009336	2567.598286
938.312002	2568.059551
938.614628	2573.481312
938.917216	2576.027095
939.219765	2577.471385
939.522275	2578.414081
939.824747	2577.776375
940.127179	2571.043914
940.429573	2569.609706
940.731929	2571.679100
941.034246	2565.717935
941.336524	2570.219686
941.638763	2569.077864
941.940964	2566.779098
942.243126	2567.026115
942.545250	2563.341031
942.847335	2561.750547
943.149381	2560.782646
943.451389	2561.848850
943.753359	2559.683674
944.055290	2557.468087
944.357182	2558.748540
944.659036	2557.904147
944.960851	2557.435319
945.262628	2557.324414
945.564367	2557.705021
945.866067	2557.705021
946.167729	2557.717624
946.469352	2560.286092
946.770937	2559.262738
947.072484	2557.500854
947.373992	2557.324414
947.675462	2557.576472
947.976893	2560.462532
948.278286	2554.181255
948.579641	2554.158569
948.880958	2556.679146
949.182236	2555.799465
949.483476	2553.972047
949.784678	2553.054557
950.085841	2553.188147
950.386967	2555.617983
950.688054	2552.716799
950.989103	2555.849877
951.290114	2555.607901
951.591087	2556.346430
951.892021	2560.681823
952.192917	2559.557645
952.493776	2560.092007
952.794596	2561.420352
953.095378	2562.443706
953.396122	2564.808007
953.696828	2562.080743
953.997496	2560.031514
954.298126	2558.287274
954.598718	2556.996739
954.899272	2555.393652
955.199788	2553.450287
955.500266	2553.901471
955.800706	2547.632796
956.101108	2545.671787
956.401472	2547.784030
956.701798	2544.174564
957.002087	2542.614327
957.302337	2544.270346
957.602550	2546.624565
957.902724	2546.170861
958.202861	2542.944523
958.502960	2543.103319
958.803022	2544.035933
959.103045	2541.386806
959.403031	2542.437887
959.702979	2540.638195
960.002889	2540.270191
960.302762	2540.237423
960.602596	2539.443441
960.902393	2540.597866
961.202153	2540.769265
961.501875	2540.131559
961.801559	2542.579039
962.101205	2539.541744
962.400814	2540.098791
962.700385	2540.217258
962.999918	2543.214224
963.299414	2538.694830
963.598873	2539.226672
963.898293	2538.740200
964.197677	2539.571991
964.497022	2540.890253
964.796331	2538.387320
965.095601	2536.852288
965.394835	2538.712474
965.694030	2537.989068
965.993189	2541.185160
966.292309	2537.152237
966.591393	2538.561239
966.890439	2536.741383
967.189447	2537.096784
967.488419	2538.956970
967.787353	2538.299099
968.086249	2536.791794
968.385108	2538.946888
968.683930	2537.583256
968.982714	2537.190046
969.281462	2537.442103
969.580172	2537.290869
969.878844	2538.354552
970.177480	2540.088709
970.476078	2541.742207
970.774639	2539.990407
971.073162	2540.857485
971.371649	2535.876825
971.670098	2534.079654
971.968510	2539.088040
972.266885	2534.994623
972.565223	2537.628626
972.863524	2539.408153
973.161788	2538.898997
973.460014	2538.883873
973.758204	2540.383617
974.056356	2538.868750
974.354471	2536.078471
974.652550	2537.230375
974.950591	2538.604089
975.248595	2539.607279
975.546563	2538.135262
975.844493	2541.837989
976.142386	2540.378575
976.440243	2537.575694
976.738062	2536.693492
977.035845	2537.268183
977.333590	2536.544778
977.631299	2536.534696
977.928971	2536.948070
978.226606	2538.944367
978.524204	2538.846065
978.821765	2537.883204
979.119290	2535.483615
979.416777	2534.629139
979.714228	2536.605272
980.011642	2534.787936
980.309020	2539.161137
980.606360	2538.089892
980.903664	2537.840354
981.200931	2538.304141
981.498162	2540.628112
981.795356	2544.194729
982.092513	2544.963505
982.389633	2546.012065
982.686717	2549.987015
982.983764	2552.820143
983.280775	2553.790565
983.577749	2553.858621
983.874686	2552.565565
984.171587	2546.198587
984.468451	2547.131201
984.765279	2544.184647
985.062070	2541.969059
985.358824	2541.590973
985.655543	2541.202804
985.952224	2538.077289
986.248869	2538.137783
986.545478	2534.177956
986.842050	2534.480425
987.138586	2533.661238
987.435086	2537.114428
987.731549	2532.625281
988.027975	2534.331711
988.324366	2533.288192
988.620719	2534.359438
988.917037	2533.421783
989.213318	2535.740714
989.509563	2532.718542
989.805772	2534.903882
990.101944	2530.462626
990.398080	2534.498069
990.694180	2533.623429
990.990244	2533.394057
991.286271	2534.432534
991.582262	2531.899355
991.878217	2534.878677
992.174136	2533.288192
992.470019	2535.589479
992.765865	2534.717360
993.061676	2532.602596
993.357450	2533.867925
993.653188	2535.846578
993.948890	2534.215765
994.244556	2535.065199
994.540186	2534.545960
994.835780	2535.821372
995.131337	2538.246167
995.426859	2536.237268
995.722345	2538.188194
996.017795	2538.127700
996.313208	2537.661393
996.608586	2540.302958
996.903928	2540.126518
997.199234	2538.926723
997.494504	2539.171219
997.789738	2536.461599
998.084936	2537.721887
998.380099	2535.707946
998.675225	2535.735673
998.970316	2534.112421
999.265371	2537.923533
999.560390	2535.070240
999.855373	2536.106197
1000.150320	2535.458409
1000.445232	2534.853471
1000.740108	2535.415559
1001.034948	2535.977648
1001.329752	2532.108563
1001.624521	2535.478574
1001.919254	2529.008253
1002.213951	2533.111752
1002.508613	2528.645290
1002.803239	2531.876669
1003.097829	2531.312060
1003.392384	2534.266176
1003.686903	2536.048224
1003.981386	2533.373892
1004.275834	2530.755013
1004.570246	2535.629808
1004.864623	2533.255425
1005.158964	2534.717360
1005.453270	2533.220137
1005.747540	2533.691485
1006.041775	2533.199972
1006.335974	2534.815662
1006.630138	2532.418593
1006.924266	2532.549663
1007.218359	2535.014788
1007.512416	2534.813142
1007.806438	2529.008253
1008.100425	2532.718542
1008.394376	2530.838192
1008.688292	2534.031763
1008.982172	2533.031094
1009.276017	2531.793490
1009.569827	2530.931453
1009.863602	2533.779705
1010.157341	2533.222657
1010.451045	2530.785260
1010.744714	2533.147040
1011.038347	2531.052441
1011.331945	2532.637884
1011.625508	2534.520755
1011.919036	2533.628470
1012.212528	2531.024714
1012.505986	2530.538243
1012.799408	2531.528830
1013.092795	2532.179139
1013.386147	2531.067564
1013.679464	2532.249715
1013.972745	2532.554705
1014.265992	2534.649304
1014.559204	2531.710311
1014.852380	2531.090249
1015.145521	2532.688295
1015.438628	2530.432379
1015.731699	2531.342307
1016.024736	2530.991947
1016.317737	2532.315250
1016.610703	2531.831299
1016.903635	2529.656041
1017.196531	2527.783252
1017.489393	2530.097142
1017.782219	2527.722759
1018.075011	2529.300640
1018.367768	2529.076308
1018.660490	2535.851619
1018.953177	2535.851619
1019.245829	2535.851619
