Dividing Wavelength (nm)	Counts (n)	Blue Motor Position (mm): 8.900000	Red Motor Position (mm): 0.000000	
326.493990	2160.134423
326.888308	2160.134423
327.282561	2160.134423
327.676750	2069.393654
328.070874	2044.187885
328.464933	2087.037692
328.858929	2059.311346
329.252859	2097.120000
329.646726	2218.107692
330.040528	2114.764038
330.434265	2192.901923
330.827938	2167.696154
331.221547	2132.408077
331.615091	2208.025385
332.008571	2150.052115
332.401986	2245.834038
332.795338	2182.819615
333.188625	2175.257885
333.581847	2288.683846
333.975006	2364.301154
334.368100	2316.410192
334.761129	2326.492500
335.154095	2371.862885
335.546996	2344.136538
335.939833	2341.615962
336.332606	2356.739423
336.725315	2366.821731
337.117960	2334.054231
337.510540	2376.904038
337.903056	2450.000769
338.295508	2407.150962
338.687896	2432.356731
339.080220	2452.521346
339.472480	2518.056346
339.864676	2505.453462
340.256807	2523.097500
340.648875	2455.041923
341.040879	2505.453462
341.432818	2553.344423
341.824694	2482.768269
342.216506	2490.330000
342.608253	2467.644808
342.999937	2487.809423
343.391557	2429.836154
343.783113	2510.494615
344.174605	2444.959615
344.566033	2492.850577
344.957397	2462.603654
345.348697	2444.959615
345.739934	2409.671538
346.131106	2467.644808
346.522215	2389.506923
346.913260	2424.795000
347.304241	2492.850577
347.695159	2505.453462
348.086012	2467.644808
348.476802	2510.494615
348.867528	2386.986346
349.258191	2535.700385
349.648789	2437.397885
350.039324	2437.397885
350.429796	2359.260000
350.820203	2432.356731
351.210548	2462.603654
351.600828	2543.262115
351.991045	2397.068654
352.381198	2480.247692
352.771288	2434.877308
353.161314	2414.712692
353.551276	2485.288846
353.941175	2407.150962
354.331010	2334.054231
354.720782	2402.109808
355.110490	2513.015192
355.500135	2402.109808
355.889717	2482.768269
356.279235	2422.274423
356.668689	2414.712692
357.058080	2475.206538
357.447408	2414.712692
357.836672	2374.383462
358.225873	2409.671538
358.615010	2437.397885
359.004084	2422.274423
359.393095	2502.932885
359.782043	2381.945192
360.170927	2455.041923
360.559748	2482.768269
360.948505	2404.630385
361.337199	2460.083077
361.725830	2374.383462
362.114398	2381.945192
362.502903	2424.795000
362.891344	2427.315577
363.279722	2379.424615
363.668037	2442.439038
364.056289	2439.918462
364.444478	2518.056346
364.832603	2548.303269
365.220665	2480.247692
365.608665	2419.753846
365.996601	2550.823846
366.384474	2467.644808
366.772284	2472.685962
367.160031	2424.795000
367.547715	2379.424615
367.935336	2455.041923
368.322893	2442.439038
368.710388	2470.165385
369.097820	2518.056346
369.485189	2450.000769
369.872495	2523.097500
370.259738	2460.083077
370.646918	2450.000769
371.034035	2462.603654
371.421090	2475.206538
371.808081	2424.795000
372.195010	2450.000769
372.581875	2460.083077
372.968678	2460.083077
373.355418	2432.356731
373.742096	2497.891731
374.128710	2429.836154
374.515262	2379.424615
374.901751	2379.424615
375.288177	2414.712692
375.674540	2543.262115
376.060841	2490.330000
376.447079	2429.836154
376.833254	2429.836154
377.219367	2447.480192
377.605417	2485.288846
377.991404	2394.548077
378.377329	2485.288846
378.763191	2399.589231
379.148991	2407.150962
379.534727	2407.150962
379.920402	2442.439038
380.306013	2432.356731
380.691563	2465.124231
381.077049	2502.932885
381.462474	2432.356731
381.847835	2525.618077
382.233134	2399.589231
382.618371	2386.986346
383.003545	2505.453462
383.388657	2480.247692
383.773706	2381.945192
384.158693	2565.947308
384.543618	2477.727115
384.928480	2482.768269
385.313280	2424.795000
385.698017	2530.659231
386.082692	2392.027500
386.467305	2492.850577
386.851856	2545.782692
387.236344	2452.521346
387.620770	2394.548077
388.005133	2485.288846
388.389435	2465.124231
388.773674	2452.521346
389.157851	2475.206538
389.541965	2497.891731
389.926018	2538.220962
390.310008	2467.644808
390.693936	2394.548077
391.077802	2432.356731
391.461606	2467.644808
391.845348	2538.220962
392.229027	2482.768269
392.612645	2457.562500
392.996200	2450.000769
393.379694	2447.480192
393.763125	2437.397885
394.146494	2450.000769
394.529801	2397.068654
394.913047	2339.095385
395.296230	2442.439038
395.679351	2477.727115
396.062410	2520.576923
396.445408	2477.727115
396.828343	2419.753846
397.211217	2490.330000
397.594028	2417.233269
397.976778	2404.630385
398.359466	2422.274423
398.742092	2475.206538
399.124656	2455.041923
399.507158	2482.768269
399.889598	2528.138654
400.271977	2505.453462
400.654294	2467.644808
401.036549	2477.727115
401.418742	2490.330000
401.800874	2482.768269
402.182944	2507.974038
402.564952	2467.644808
402.946898	2507.974038
403.328783	2399.589231
403.710606	2495.371154
404.092367	2507.974038
404.474067	2397.068654
404.855705	2452.521346
405.237282	2500.412308
405.618797	2507.974038
406.000250	2467.644808
406.381642	2492.850577
406.762972	2535.700385
407.144240	2434.877308
407.525447	2528.138654
407.906593	2447.480192
408.287677	2475.206538
408.668700	2417.233269
409.049661	2462.603654
409.430560	2437.397885
409.811399	2523.097500
410.192176	2432.356731
410.572891	2366.821731
410.953545	2429.836154
411.334138	2482.768269
411.714669	2540.741538
412.095139	2505.453462
412.475547	2497.891731
412.855894	2520.576923
413.236180	2520.576923
413.616405	2460.083077
413.996568	2497.891731
414.376670	2381.945192
414.756711	2404.630385
415.136691	2525.618077
415.516609	2414.712692
415.896466	2533.179808
416.276262	2465.124231
416.655997	2538.220962
417.035670	2518.056346
417.415283	2472.685962
417.794834	2505.453462
418.174324	2513.015192
418.553753	2376.904038
418.933121	2467.644808
419.312428	2586.111923
419.691674	2407.150962
420.070859	2439.918462
420.449983	2472.685962
420.829045	2472.685962
421.208047	2497.891731
421.586988	2452.521346
421.965867	2510.494615
422.344686	2460.083077
422.723444	2555.865000
423.102141	2442.439038
423.480777	2495.371154
423.859352	2550.823846
424.237866	2419.753846
424.616319	2447.480192
424.994712	2475.206538
425.373044	2412.192115
425.751314	2550.823846
426.129524	2444.959615
426.507673	2533.179808
426.885762	2472.685962
427.263789	2515.535769
427.641756	2490.330000
428.019662	2457.562500
428.397508	2460.083077
428.775292	2490.330000
429.153016	2482.768269
429.530679	2500.412308
429.908282	2457.562500
430.285824	2545.782692
430.663305	2460.083077
431.040726	2500.412308
431.418086	2455.041923
431.795385	2462.603654
432.172624	2442.439038
432.549802	2475.206538
432.926920	2444.959615
433.303977	2412.192115
433.680974	2465.124231
434.057910	2439.918462
434.434786	2558.385577
434.811601	2558.385577
435.188355	2535.700385
435.565050	2427.315577
435.941683	2475.206538
436.318257	2502.932885
436.694770	2513.015192
437.071222	2447.480192
437.447614	2502.932885
437.823946	2437.397885
438.200218	2560.906154
438.576429	2500.412308
438.952580	2507.974038
439.328670	2450.000769
439.704700	2487.809423
440.080670	2444.959615
440.456580	2555.865000
440.832429	2497.891731
441.208218	2550.823846
441.583947	2457.562500
441.959616	2538.220962
442.335224	2502.932885
442.710773	2523.097500
443.086261	2444.959615
443.461689	2502.932885
443.837057	2467.644808
444.212365	2545.782692
444.587612	2470.165385
444.962800	2412.192115
445.337927	2455.041923
445.712995	2548.303269
446.088002	2563.426731
446.462949	2520.576923
446.837837	2465.124231
447.212664	2467.644808
447.587431	2417.233269
447.962139	2480.247692
448.336786	2434.877308
448.711374	2462.603654
449.085901	2477.727115
449.460369	2482.768269
449.834776	2424.795000
450.209124	2518.056346
450.583412	2455.041923
450.957640	2492.850577
451.331808	2515.535769
451.705917	2457.562500
452.079965	2502.932885
452.453954	2548.303269
452.827883	2475.206538
453.201752	2543.262115
453.575562	2437.397885
453.949311	2500.412308
454.323001	2447.480192
454.696632	2502.932885
455.070202	2465.124231
455.443713	2482.768269
455.817164	2419.753846
456.190556	2442.439038
456.563888	2465.124231
456.937160	2543.262115
457.310373	2439.918462
457.683526	2490.330000
458.056619	2409.671538
458.429653	2447.480192
458.802628	2480.247692
459.175542	2460.083077
459.548398	2434.877308
459.921194	2434.877308
460.293930	2487.809423
460.666607	2495.371154
461.039224	2515.535769
461.411782	2457.562500
461.784280	2427.315577
462.156719	2553.344423
462.529099	2523.097500
462.901419	2523.097500
463.273680	2533.179808
463.645882	2452.521346
464.018024	2444.959615
464.390106	2510.494615
464.762130	2480.247692
465.134094	2525.618077
465.505999	2565.947308
465.877845	2523.097500
466.249631	2465.124231
466.621358	2570.988462
466.993026	2558.385577
467.364634	2497.891731
467.736184	2505.453462
468.107674	2523.097500
468.479105	2450.000769
468.850477	2518.056346
469.221790	2457.562500
469.593043	2538.220962
469.964238	2606.276538
470.335373	2520.576923
470.706449	2432.356731
471.077467	2523.097500
471.448425	2497.891731
471.819324	2507.974038
472.190164	2480.247692
472.560945	2495.371154
472.931667	2555.865000
473.302330	2507.974038
473.672934	2502.932885
474.043479	2354.218846
474.413965	2507.974038
474.784393	2472.685962
475.154761	2543.262115
475.525070	2394.548077
475.895321	2462.603654
476.265513	2513.015192
476.635645	2490.330000
477.005719	2515.535769
477.375734	2442.439038
477.745691	2480.247692
478.115588	2455.041923
478.485427	2510.494615
478.855207	2533.179808
479.224928	2409.671538
479.594591	2581.070769
479.964194	2492.850577
480.333739	2485.288846
480.703226	2535.700385
481.072653	2455.041923
481.442022	2439.918462
481.811333	2439.918462
482.180584	2497.891731
482.549777	2507.974038
482.918912	2487.809423
483.287988	2570.988462
483.657005	2455.041923
484.025964	2376.904038
484.394864	2518.056346
484.763706	2482.768269
485.132489	2490.330000
485.501213	2528.138654
485.869879	2518.056346
486.238487	2518.056346
486.607036	2525.618077
486.975527	2505.453462
487.343959	2482.768269
487.712333	2477.727115
488.080648	2457.562500
488.448905	2432.356731
488.817104	2523.097500
489.185244	2510.494615
489.553326	2452.521346
489.921350	2492.850577
490.289315	2505.453462
490.657222	2480.247692
491.025070	2480.247692
491.392861	2510.494615
491.760593	2515.535769
492.128267	2417.233269
492.495883	2500.412308
492.863440	2510.494615
493.230939	2540.741538
493.598380	2447.480192
493.965763	2523.097500
494.333088	2520.576923
494.700354	2545.782692
495.067563	2576.029615
495.434713	2502.932885
495.801805	2505.453462
496.168839	2485.288846
496.535815	2497.891731
496.902733	2422.274423
497.269593	2540.741538
497.636395	2477.727115
498.003139	2497.891731
498.369825	2482.768269
498.736453	2545.782692
499.103023	2475.206538
499.469535	2583.591346
499.835989	2462.603654
500.202385	2480.247692
500.568723	2568.467885
500.935003	2462.603654
501.301226	2530.659231
501.667390	2470.165385
502.033497	2465.124231
502.399546	2548.303269
502.765537	2475.206538
503.131470	2520.576923
503.497345	2434.877308
503.863163	2507.974038
504.228923	2528.138654
504.594625	2543.262115
504.960269	2540.741538
505.325856	2563.426731
505.691385	2487.809423
506.056856	2502.932885
506.422270	2515.535769
506.787625	2525.618077
507.152924	2515.535769
507.518164	2518.056346
507.883347	2460.083077
508.248472	2523.097500
508.613540	2442.439038
508.978550	2467.644808
509.343503	2457.562500
509.708398	2530.659231
510.073236	2460.083077
510.438016	2520.576923
510.802738	2472.685962
511.167403	2482.768269
511.532010	2495.371154
511.896561	2545.782692
512.261053	2530.659231
512.625488	2470.165385
512.989866	2560.906154
513.354186	2543.262115
513.718449	2634.002885
514.082655	2555.865000
514.446803	2490.330000
514.810894	2434.877308
515.174927	2581.070769
515.538904	2505.453462
515.902822	2442.439038
516.266684	2520.576923
516.630488	2502.932885
516.994235	2510.494615
517.357925	2523.097500
517.721558	2384.465769
518.085133	2500.412308
518.448651	2500.412308
518.812112	2515.535769
519.175516	2495.371154
519.538863	2472.685962
519.902152	2591.153077
520.265385	2515.535769
520.628560	2513.015192
520.991678	2442.439038
521.354739	2495.371154
521.717743	2485.288846
522.080690	2452.521346
522.443580	2465.124231
522.806413	2510.494615
523.169189	2533.179808
523.531908	2543.262115
523.894569	2500.412308
524.257174	2386.986346
524.619722	2510.494615
524.982213	2505.453462
525.344647	2485.288846
525.707025	2530.659231
526.069345	2467.644808
526.431608	2515.535769
526.793815	2568.467885
527.155964	2573.509038
527.518057	2485.288846
527.880093	2533.179808
528.242072	2467.644808
528.603995	2487.809423
528.965860	2485.288846
529.327669	2487.809423
529.689421	2439.918462
530.051117	2487.809423
530.412755	2528.138654
530.774337	2492.850577
531.135862	2477.727115
531.497331	2419.753846
531.858743	2518.056346
532.220098	2533.179808
532.581396	2596.194231
532.942638	2462.603654
533.303824	2455.041923
533.664953	2518.056346
534.026025	2475.206538
534.387040	2457.562500
534.747999	2470.165385
535.108902	2502.932885
535.469748	2467.644808
535.830537	2523.097500
536.191270	2563.426731
536.551947	2515.535769
536.912567	2480.247692
537.273131	2477.727115
537.633638	2490.330000
537.994089	2434.877308
538.354483	2497.891731
538.714821	2475.206538
539.075103	2558.385577
539.435328	2480.247692
539.795497	2502.932885
540.155609	2482.768269
540.515665	2523.097500
540.875665	2452.521346
541.235609	2510.494615
541.595496	2455.041923
541.955328	2520.576923
542.315102	2576.029615
542.674821	2470.165385
543.034483	2470.165385
543.394090	2447.480192
543.753640	2565.947308
544.113134	2497.891731
544.472571	2455.041923
544.831953	2495.371154
545.191278	2523.097500
545.550548	2482.768269
545.909761	2472.685962
546.268918	2437.397885
546.628019	2472.685962
546.987064	2495.371154
547.346053	2490.330000
547.704986	2540.741538
548.063863	2472.685962
548.422684	2495.371154
548.781449	2528.138654
549.140158	2555.865000
549.498811	2520.576923
549.857408	2404.630385
550.215949	2492.850577
550.574434	2523.097500
550.932864	2548.303269
551.291237	2475.206538
551.649555	2533.179808
552.007817	2480.247692
552.366022	2515.535769
552.724173	2457.562500
553.082267	2583.591346
553.440305	2480.247692
553.798288	2520.576923
554.156215	2442.439038
554.514086	2457.562500
554.871902	2581.070769
555.229661	2530.659231
555.587365	2475.206538
555.945014	2570.988462
556.302606	2513.015192
556.660143	2530.659231
557.017625	2520.576923
557.375050	2533.179808
557.732421	2475.206538
558.089735	2439.918462
558.446994	2485.288846
558.804197	2525.618077
559.161345	2520.576923
559.518437	2568.467885
559.875474	2530.659231
560.232455	2497.891731
560.589381	2513.015192
560.946251	2576.029615
561.303065	2412.192115
561.659825	2530.659231
562.016528	2467.644808
562.373177	2500.412308
562.729770	2518.056346
563.086307	2465.124231
563.442789	2505.453462
563.799216	2467.644808
564.155587	2495.371154
564.511904	2472.685962
564.868164	2437.397885
565.224370	2507.974038
565.580520	2573.509038
565.936615	2447.480192
566.292654	2500.412308
566.648638	2487.809423
567.004567	2568.467885
567.360441	2455.041923
567.716260	2492.850577
568.072023	2450.000769
568.427732	2442.439038
568.783385	2502.932885
569.138982	2432.356731
569.494525	2515.535769
569.850013	2535.700385
570.205445	2535.700385
570.560823	2429.836154
570.916145	2505.453462
571.271412	2492.850577
571.626625	2528.138654
571.981782	2528.138654
572.336884	2570.988462
572.691931	2467.644808
573.046923	2545.782692
573.401860	2457.562500
573.756743	2507.974038
574.111570	2490.330000
574.466342	2492.850577
574.821059	2487.809423
575.175722	2482.768269
575.530330	2492.850577
575.884882	2550.823846
576.239380	2520.576923
576.593823	2558.385577
576.948211	2475.206538
577.302544	2540.741538
577.656823	2500.412308
578.011047	2550.823846
578.365216	2472.685962
578.719330	2487.809423
579.073389	2560.906154
579.427394	2520.576923
579.781344	2485.288846
580.135239	2576.029615
580.489080	2497.891731
580.842866	2505.453462
581.196597	2560.906154
581.550273	2558.385577
581.903895	2442.439038
582.257463	2472.685962
582.610975	2518.056346
582.964434	2434.877308
583.317837	2497.891731
583.671186	2439.918462
584.024481	2424.795000
584.377721	2502.932885
584.730906	2603.755962
585.084037	2487.809423
585.437113	2560.906154
585.790135	2432.356731
586.143103	2586.111923
586.496016	2550.823846
586.848874	2538.220962
587.201679	2485.288846
587.554428	2515.535769
587.907124	2492.850577
588.259765	2439.918462
588.612352	2538.220962
588.964884	2563.426731
589.317362	2407.150962
589.669786	2409.671538
590.022155	2505.453462
590.374470	2507.974038
590.726731	2419.753846
591.078937	2452.521346
591.431090	2470.165385
591.783188	2467.644808
592.135232	2553.344423
592.487222	2525.618077
592.839157	2576.029615
593.191038	2505.453462
593.542866	2588.632500
593.894639	2565.947308
594.246358	2507.974038
594.598022	2573.509038
594.949633	2497.891731
595.301190	2472.685962
595.652692	2472.685962
596.004141	2533.179808
596.355535	2455.041923
596.706876	2518.056346
597.058162	2591.153077
597.409395	2581.070769
597.760573	2581.070769
598.111698	2457.562500
598.462768	2427.315577
598.813785	2450.000769
599.164748	2419.753846
599.515657	2470.165385
599.866511	2528.138654
600.217312	2533.179808
600.568060	2465.124231
600.918753	2550.823846
601.269392	2485.288846
601.619978	2558.385577
601.970510	2535.700385
602.320988	2482.768269
602.671412	2485.288846
603.021783	2523.097500
603.372100	2477.727115
603.722363	2533.179808
604.072572	2490.330000
604.422728	2513.015192
604.772830	2465.124231
605.122878	2452.521346
605.472872	2409.671538
605.822813	2631.482308
606.172701	2570.988462
606.522534	2487.809423
606.872314	2470.165385
607.222041	2480.247692
607.571714	2450.000769
607.921333	2565.947308
608.270899	2513.015192
608.620411	2540.741538
608.969870	2490.330000
609.319276	2404.630385
609.668627	2543.262115
610.017926	2550.823846
610.367171	2555.865000
610.716362	2560.906154
611.065500	2462.603654
611.414585	2460.083077
611.763616	2444.959615
612.112594	2442.439038
612.461518	2460.083077
612.810389	2434.877308
613.159207	2535.700385
613.507971	2472.685962
613.856682	2515.535769
614.205340	2591.153077
614.553945	2437.397885
614.902496	2538.220962
615.250994	2399.589231
615.599439	2492.850577
615.947830	2475.206538
616.296169	2538.220962
616.644454	2462.603654
616.992686	2480.247692
617.340864	2515.535769
617.688990	2518.056346
618.037063	2487.809423
618.385082	2515.535769
618.733048	2444.959615
619.080961	2452.521346
619.428821	2563.426731
619.776628	2437.397885
620.124382	2467.644808
620.472083	2538.220962
620.819731	2409.671538
621.167326	2596.194231
621.514868	2548.303269
621.862357	2543.262115
622.209793	2492.850577
622.557176	2565.947308
622.904506	2457.562500
623.251783	2513.015192
623.599007	2475.206538
623.946179	2520.576923
624.293297	2497.891731
624.640363	2502.932885
624.987376	2444.959615
625.334336	2422.274423
625.681243	2560.906154
626.028097	2487.809423
626.374899	2596.194231
626.721647	2472.685962
627.068343	2490.330000
627.414987	2535.700385
627.761577	2502.932885
628.108115	2502.932885
628.454600	2570.988462
628.801032	2545.782692
629.147412	2487.809423
629.493739	2424.795000
629.840014	2530.659231
630.186236	2455.041923
630.532405	2452.521346
630.878521	2467.644808
631.224585	2437.397885
631.570597	2520.576923
631.916556	2442.439038
632.262462	2490.330000
632.608316	2533.179808
632.954117	2472.685962
633.299866	2444.959615
633.645562	2515.535769
633.991206	2470.165385
634.336797	2525.618077
634.682336	2470.165385
635.027823	2507.974038
635.373257	2477.727115
635.718639	2565.947308
636.063968	2452.521346
636.409245	2520.576923
636.754470	2543.262115
637.099642	2412.192115
637.444762	2533.179808
637.789829	2505.453462
638.134845	2399.589231
638.479808	2500.412308
638.824719	2434.877308
639.169577	2505.453462
639.514383	2462.603654
639.859137	2500.412308
640.203839	2565.947308
640.548489	2477.727115
640.893086	2573.509038
641.237632	2500.412308
641.582125	2555.865000
641.926566	2477.727115
642.270955	2603.755962
642.615292	2460.083077
642.959576	2535.700385
643.303809	2533.179808
643.647990	2543.262115
643.992118	2500.412308
644.336195	2500.412308
644.680219	2477.727115
645.024192	2535.700385
645.368112	2450.000769
645.711981	2525.618077
646.055797	2444.959615
646.399562	2497.891731
646.743274	2472.685962
647.086935	2525.618077
647.430544	2513.015192
647.774101	2477.727115
648.117606	2472.685962
648.461059	2515.535769
648.804460	2422.274423
649.147810	2505.453462
649.491108	2462.603654
649.834354	2444.959615
650.177548	2492.850577
650.520690	2485.288846
650.863781	2538.220962
651.206820	2565.947308
651.549807	2513.015192
651.892742	2495.371154
652.235626	2543.262115
652.578458	2452.521346
652.921238	2477.727115
653.263967	2515.535769
653.606644	2497.891731
653.949269	2490.330000
654.291843	2490.330000
654.634365	2507.974038
654.976836	2442.439038
655.319255	2492.850577
655.661622	2429.836154
656.003938	2490.330000
656.346203	2432.356731
656.688416	2490.330000
657.030577	2641.564615
657.372687	2560.906154
657.714746	2510.494615
658.056753	2500.412308
658.398708	2475.206538
658.740612	2460.083077
659.082465	2490.330000
659.424266	2475.206538
659.766016	2500.412308
660.107715	2507.974038
660.449362	2485.288846
660.790958	2429.836154
661.132503	2543.262115
661.473996	2429.836154
661.815438	2543.262115
662.156829	2447.480192
662.498168	2414.712692
662.839456	2576.029615
663.180693	2450.000769
663.521879	2555.865000
663.863013	2497.891731
664.204097	2538.220962
664.545129	2528.138654
664.886110	2505.453462
665.227040	2568.467885
665.567918	2366.821731
665.908746	2553.344423
666.249522	2477.727115
666.590248	2457.562500
666.930922	2447.480192
667.271545	2477.727115
667.612118	2490.330000
667.952639	2538.220962
668.293109	2477.727115
668.633528	2523.097500
668.973896	2442.439038
669.314213	2455.041923
669.654480	2472.685962
669.994695	2502.932885
670.334859	2550.823846
670.674973	2470.165385
671.015035	2487.809423
671.355047	2545.782692
671.695008	2520.576923
672.034918	2465.124231
672.374777	2515.535769
672.714585	2447.480192
673.054342	2588.632500
673.394049	2470.165385
673.733705	2568.467885
674.073310	2457.562500
674.412864	2422.274423
674.752368	2538.220962
675.091820	2540.741538
675.431223	2518.056346
675.770574	2477.727115
676.109875	2475.206538
676.449125	2472.685962
676.788324	2475.206538
677.127473	2397.068654
677.466571	2437.397885
677.805619	2462.603654
678.144616	2515.535769
678.483562	2533.179808
678.822458	2422.274423
679.161303	2507.974038
679.500098	2444.959615
679.838842	2497.891731
680.177535	2550.823846
680.516179	2495.371154
680.854771	2482.768269
681.193314	2487.809423
681.531805	2528.138654
681.870247	2495.371154
682.208638	2528.138654
682.546978	2480.247692
682.885268	2482.768269
683.223508	2538.220962
683.561697	2533.179808
683.899836	2492.850577
684.237925	2515.535769
684.575963	2555.865000
684.913951	2412.192115
685.251889	2500.412308
685.589776	2505.453462
685.927614	2452.521346
686.265401	2528.138654
686.603137	2555.865000
686.940824	2530.659231
687.278460	2452.521346
687.616046	2560.906154
687.953582	2588.632500
688.291068	2472.685962
688.628504	2550.823846
688.965889	2565.947308
689.303224	2550.823846
689.640510	2487.809423
689.977745	2429.836154
690.314930	2460.083077
690.652065	2518.056346
690.989150	2495.371154
691.326185	2497.891731
691.663170	2475.206538
692.000105	2480.247692
692.336990	2518.056346
692.673825	2513.015192
693.010610	2487.809423
693.347345	2548.303269
693.684030	2510.494615
694.020665	2528.138654
694.357251	2475.206538
694.693786	2553.344423
695.030272	2492.850577
695.366707	2490.330000
695.703093	2467.644808
696.039429	2487.809423
696.375716	2455.041923
696.711952	2505.453462
697.048139	2439.918462
697.384276	2492.850577
697.720363	2457.562500
698.056400	2487.809423
698.392388	2462.603654
698.728326	2500.412308
699.064214	2475.206538
699.400053	2543.262115
699.735842	2457.562500
700.071581	2409.671538
700.407270	2550.823846
700.742910	2407.150962
701.078501	2475.206538
701.414042	2467.644808
701.749533	2424.795000
702.084974	2545.782692
702.420366	2533.179808
702.755709	2452.521346
703.091002	2523.097500
703.426246	2381.945192
703.761440	2553.344423
704.096584	2535.700385
704.431679	2399.589231
704.766725	2480.247692
705.101721	2434.877308
705.436668	2510.494615
705.771565	2568.467885
706.106413	2480.247692
706.441212	2465.124231
706.775961	2497.891731
707.110661	2470.165385
707.445311	2513.015192
707.779913	2505.453462
708.114465	2477.727115
708.448967	2452.521346
708.783421	2409.671538
709.117825	2394.548077
709.452180	2578.550192
709.786485	2553.344423
710.120742	2490.330000
710.454949	2560.906154
710.789107	2487.809423
711.123216	2457.562500
711.457275	2581.070769
711.791286	2525.618077
712.125247	2485.288846
712.459159	2487.809423
712.793023	2528.138654
713.126837	2570.988462
713.460602	2573.509038
713.794318	2492.850577
714.127985	2558.385577
714.461602	2467.644808
714.795171	2480.247692
715.128691	2384.465769
715.462162	2530.659231
715.795584	2497.891731
716.128957	2452.521346
716.462281	2586.111923
716.795556	2492.850577
717.128782	2505.453462
717.461960	2402.109808
717.795088	2409.671538
718.128167	2543.262115
718.461198	2510.494615
718.794180	2518.056346
719.127113	2424.795000
719.459997	2434.877308
719.792833	2480.247692
720.125619	2505.453462
720.458357	2482.768269
720.791046	2523.097500
721.123686	2513.015192
721.456278	2510.494615
721.788821	2472.685962
722.121315	2545.782692
722.453761	2505.453462
722.786158	2550.823846
723.118506	2470.165385
723.450805	2480.247692
723.783056	2472.685962
724.115259	2432.356731
724.447412	2540.741538
724.779518	2490.330000
725.111574	2525.618077
725.443582	2470.165385
725.775542	2525.618077
726.107453	2500.412308
726.439315	2500.412308
726.771129	2573.509038
727.102895	2399.589231
727.434612	2618.879423
727.766281	2450.000769
728.097901	2455.041923
728.429473	2450.000769
728.760996	2515.535769
729.092471	2538.220962
729.423897	2500.412308
729.755276	2523.097500
730.086606	2455.041923
730.417887	2452.521346
730.749120	2502.932885
731.080305	2465.124231
731.411442	2505.453462
731.742530	2507.974038
732.073570	2434.877308
732.404562	2470.165385
732.735506	2568.467885
733.066401	2563.426731
733.397249	2492.850577
733.728048	2447.480192
734.058798	2520.576923
734.389501	2477.727115
734.720156	2530.659231
735.050762	2525.618077
735.381320	2452.521346
735.711831	2500.412308
736.042293	2533.179808
736.372707	2485.288846
736.703073	2427.315577
737.033391	2500.412308
737.363661	2586.111923
737.693883	2576.029615
738.024056	2548.303269
738.354182	2457.562500
738.684260	2490.330000
739.014290	2432.356731
739.344272	2568.467885
739.674207	2523.097500
740.004093	2497.891731
740.333931	2429.836154
740.663722	2525.618077
740.993464	2477.727115
741.323159	2444.959615
741.652806	2563.426731
741.982405	2500.412308
742.311956	2513.015192
742.641460	2422.274423
742.970915	2487.809423
743.300323	2560.906154
743.629683	2500.412308
743.958996	2520.576923
744.288260	2515.535769
744.617477	2497.891731
744.946647	2444.959615
745.275768	2460.083077
745.604842	2465.124231
745.933869	2543.262115
746.262847	2462.603654
746.591778	2467.644808
746.920662	2495.371154
747.249498	2412.192115
747.578286	2520.576923
747.907027	2460.083077
748.235720	2477.727115
748.564365	2452.521346
748.892963	2470.165385
749.221514	2530.659231
749.550017	2520.576923
749.878473	2427.315577
750.206881	2439.918462
750.535242	2545.782692
750.863555	2535.700385
751.191821	2510.494615
751.520039	2482.768269
751.848210	2540.741538
752.176334	2452.521346
752.504411	2482.768269
752.832440	2414.712692
753.160421	2520.576923
753.488356	2424.795000
753.816243	2535.700385
754.144082	2419.753846
754.471875	2477.727115
754.799620	2470.165385
755.127318	2492.850577
755.454969	2482.768269
755.782572	2444.959615
756.110129	2518.056346
756.437638	2570.988462
756.765100	2434.877308
757.092515	2560.906154
757.419882	2608.797115
757.747203	2412.192115
758.074477	2495.371154
758.401703	2518.056346
758.728882	2500.412308
759.056014	2472.685962
759.383099	2525.618077
759.710138	2437.397885
760.037129	2492.850577
760.364073	2555.865000
760.690970	2470.165385
761.017820	2447.480192
761.344623	2487.809423
761.671379	2515.535769
761.998088	2472.685962
762.324751	2525.618077
762.651366	2472.685962
762.977935	2563.426731
763.304456	2502.932885
763.630931	2565.947308
763.957359	2487.809423
764.283740	2570.988462
764.610074	2470.165385
764.936362	2439.918462
765.262602	2533.179808
765.588796	2518.056346
765.914943	2555.865000
766.241044	2570.988462
766.567097	2525.618077
766.893104	2560.906154
767.219064	2507.974038
767.544978	2477.727115
767.870845	2470.165385
768.196665	2543.262115
768.522438	2525.618077
768.848165	2513.015192
769.173846	2513.015192
769.499479	2434.877308
769.825066	2530.659231
770.150607	2528.138654
770.476101	2520.576923
770.801548	2460.083077
771.126949	2492.850577
771.452303	2434.877308
771.777611	2402.109808
772.102872	2500.412308
772.428087	2465.124231
772.753256	2480.247692
773.078378	2442.439038
773.403453	2465.124231
773.728482	2616.358846
774.053465	2533.179808
774.378401	2429.836154
774.703291	2495.371154
775.028135	2376.904038
775.352932	2452.521346
775.677683	2475.206538
776.002388	2525.618077
776.327046	2447.480192
776.651658	2558.385577
776.976224	2495.371154
777.300743	2502.932885
777.625216	2422.274423
777.949643	2427.315577
778.274024	2442.439038
778.598359	2482.768269
778.922647	2525.618077
779.246889	2495.371154
779.571086	2588.632500
779.895236	2535.700385
780.219339	2475.206538
780.543397	2528.138654
780.867409	2462.603654
781.191374	2386.986346
781.515294	2502.932885
781.839167	2507.974038
782.162995	2523.097500
782.486776	2576.029615
782.810511	2437.397885
783.134201	2586.111923
783.457844	2452.521346
783.781441	2485.288846
784.104993	2528.138654
784.428498	2462.603654
784.751958	2593.673654
785.075372	2555.865000
785.398739	2528.138654
785.722061	2497.891731
786.045337	2455.041923
786.368568	2550.823846
786.691752	2442.439038
787.014891	2487.809423
787.337983	2437.397885
787.661030	2497.891731
787.984031	2450.000769
788.306987	2455.041923
788.629897	2412.192115
788.952760	2482.768269
789.275579	2482.768269
789.598351	2560.906154
789.921078	2457.562500
790.243759	2530.659231
790.566395	2490.330000
790.888984	2545.782692
791.211529	2606.276538
791.534027	2467.644808
791.856480	2510.494615
792.178888	2576.029615
792.501249	2502.932885
792.823566	2513.015192
793.145836	2467.644808
793.468062	2560.906154
793.790241	2442.439038
794.112375	2565.947308
794.434464	2540.741538
794.756507	2482.768269
795.078505	2520.576923
795.400457	2545.782692
795.722364	2513.015192
796.044226	2535.700385
796.366042	2429.836154
796.687812	2434.877308
797.009538	2442.439038
797.331218	2545.782692
797.652852	2397.068654
797.974442	2495.371154
798.295986	2583.591346
798.617484	2429.836154
798.938938	2533.179808
799.260346	2467.644808
799.581709	2442.439038
799.903026	2394.548077
800.224299	2444.959615
800.545526	2424.795000
800.866708	2558.385577
801.187845	2485.288846
801.508936	2467.644808
801.829983	2548.303269
802.150984	2492.850577
802.471940	2502.932885
802.792851	2528.138654
803.113717	2513.015192
803.434538	2462.603654
803.755314	2490.330000
804.076045	2500.412308
804.396731	2482.768269
804.717372	2505.453462
805.037967	2480.247692
805.358518	2470.165385
805.679024	2550.823846
805.999485	2560.906154
806.319901	2492.850577
806.640272	2525.618077
806.960598	2500.412308
807.280879	2515.535769
807.601115	2570.988462
807.921306	2485.288846
808.241453	2487.809423
808.561554	2586.111923
808.881611	2477.727115
809.201623	2510.494615
809.521590	2442.439038
809.841513	2518.056346
810.161390	2417.233269
810.481223	2507.974038
810.801011	2540.741538
811.120755	2485.288846
811.440453	2518.056346
811.760107	2543.262115
812.079716	2437.397885
812.399281	2444.959615
812.718801	2513.015192
813.038276	2437.397885
813.357707	2475.206538
813.677093	2482.768269
813.996434	2497.891731
814.315731	2470.165385
814.634983	2523.097500
814.954191	2422.274423
815.273354	2455.041923
815.592473	2412.192115
815.911547	2434.877308
816.230577	2530.659231
816.549562	2500.412308
816.868502	2457.562500
817.187399	2530.659231
817.506250	2482.768269
817.825058	2500.412308
818.143821	2404.630385
818.462539	2467.644808
818.781213	2465.124231
819.099843	2555.865000
819.418429	2434.877308
819.736970	2457.562500
820.055466	2487.809423
820.373919	2437.397885
820.692327	2467.644808
821.010691	2507.974038
821.329011	2533.179808
821.647286	2558.385577
821.965517	2553.344423
822.283704	2452.521346
822.601847	2437.397885
822.919945	2520.576923
823.237999	2543.262115
823.556010	2495.371154
823.873976	2505.453462
824.191897	2487.809423
824.509775	2404.630385
824.827609	2530.659231
825.145398	2533.179808
825.463144	2543.262115
825.780845	2432.356731
826.098502	2467.644808
826.416116	2515.535769
826.733685	2525.618077
827.051210	2565.947308
827.368692	2525.618077
827.686129	2548.303269
828.003522	2477.727115
828.320872	2432.356731
828.638177	2487.809423
828.955439	2523.097500
829.272656	2507.974038
829.589830	2417.233269
829.906960	2495.371154
830.224046	2507.974038
830.541088	2495.371154
830.858086	2442.439038
831.175041	2402.109808
831.491952	2457.562500
831.808819	2492.850577
832.125642	2513.015192
832.442421	2450.000769
832.759157	2565.947308
833.075849	2482.768269
833.392497	2439.918462
833.709101	2510.494615
834.025662	2455.041923
834.342179	2417.233269
834.658653	2495.371154
834.975083	2505.453462
835.291469	2540.741538
835.607811	2407.150962
835.924110	2462.603654
836.240366	2472.685962
836.556578	2528.138654
836.872746	2480.247692
837.188871	2507.974038
837.504952	2455.041923
837.820990	2439.918462
838.136984	2502.932885
838.452935	2434.877308
838.768842	2487.809423
839.084706	2558.385577
839.400526	2500.412308
839.716303	2480.247692
840.032037	2578.550192
840.347727	2487.809423
840.663373	2593.673654
840.978977	2510.494615
841.294537	2419.753846
841.610054	2603.755962
841.925527	2437.397885
842.240957	2460.083077
842.556344	2465.124231
842.871687	2540.741538
843.186987	2404.630385
843.502244	2497.891731
843.817458	2384.465769
844.132629	2452.521346
844.447756	2535.700385
844.762840	2548.303269
845.077881	2492.850577
845.392879	2538.220962
845.707833	2500.412308
846.022745	2563.426731
846.337613	2392.027500
846.652438	2500.412308
846.967221	2467.644808
847.281960	2470.165385
847.596656	2505.453462
847.911309	2439.918462
848.225919	2540.741538
848.540485	2477.727115
848.855009	2450.000769
849.169490	2467.644808
849.483928	2490.330000
849.798323	2510.494615
850.112675	2432.356731
850.426984	2434.877308
850.741251	2412.192115
851.055474	2530.659231
851.369654	2465.124231
851.683792	2394.548077
851.997887	2467.644808
852.311938	2455.041923
852.625947	2480.247692
852.939914	2447.480192
853.253837	2492.850577
853.567718	2457.562500
853.881555	2513.015192
854.195350	2505.453462
854.509103	2553.344423
854.822812	2450.000769
855.136479	2437.397885
855.450103	2485.288846
855.763685	2457.562500
856.077224	2480.247692
856.390720	2429.836154
856.704173	2497.891731
857.017584	2502.932885
857.330953	2583.591346
857.644278	2485.288846
857.957561	2515.535769
858.270802	2477.727115
858.584000	2500.412308
858.897155	2470.165385
859.210268	2447.480192
859.523339	2482.768269
859.836367	2467.644808
860.149352	2490.330000
860.462295	2480.247692
860.775195	2452.521346
861.088054	2480.247692
861.400869	2513.015192
861.713642	2434.877308
862.026373	2505.453462
862.339062	2460.083077
862.651708	2520.576923
862.964312	2490.330000
863.276873	2462.603654
863.589392	2457.562500
863.901869	2465.124231
864.214303	2505.453462
864.526696	2515.535769
864.839045	2500.412308
865.151353	2482.768269
865.463619	2533.179808
865.775842	2472.685962
866.088023	2487.809423
866.400162	2495.371154
866.712258	2510.494615
867.024313	2500.412308
867.336325	2465.124231
867.648296	2502.932885
867.960224	2507.974038
868.272110	2495.371154
868.583954	2460.083077
868.895755	2452.521346
869.207515	2565.947308
869.519233	2492.850577
869.830909	2543.262115
870.142542	2545.782692
870.454134	2560.906154
870.765684	2553.344423
871.077191	2550.823846
871.388657	2475.206538
871.700081	2422.274423
872.011463	2470.165385
872.322803	2520.576923
872.634101	2455.041923
872.945357	2533.179808
873.256571	2490.330000
873.567744	2495.371154
873.878874	2429.836154
874.189963	2477.727115
874.501010	2444.959615
874.812015	2510.494615
875.122979	2558.385577
875.433900	2455.041923
875.744780	2502.932885
876.055618	2487.809423
876.366415	2434.877308
876.677169	2558.385577
876.987882	2507.974038
877.298554	2515.535769
877.609183	2497.891731
877.919771	2482.768269
878.230317	2452.521346
878.540822	2558.385577
878.851285	2528.138654
879.161707	2422.274423
879.472087	2480.247692
879.782425	2576.029615
880.092722	2376.904038
880.402977	2528.138654
880.713191	2515.535769
881.023363	2480.247692
881.333494	2578.550192
881.643583	2507.974038
881.953631	2467.644808
882.263637	2507.974038
882.573602	2505.453462
882.883526	2538.220962
883.193408	2427.315577
883.503248	2513.015192
883.813048	2538.220962
884.122806	2497.891731
884.432522	2497.891731
884.742197	2533.179808
885.051831	2470.165385
885.361424	2457.562500
885.670975	2523.097500
885.980485	2548.303269
886.289954	2460.083077
886.599382	2606.276538
886.908768	2492.850577
887.218113	2409.671538
887.527417	2477.727115
887.836680	2460.083077
888.145901	2437.397885
888.455082	2515.535769
888.764221	2550.823846
889.073319	2568.467885
889.382376	2545.782692
889.691392	2457.562500
890.000366	2477.727115
890.309300	2490.330000
890.618193	2507.974038
890.927044	2507.974038
891.235855	2563.426731
891.544625	2492.850577
891.853353	2450.000769
892.162041	2528.138654
892.470687	2477.727115
892.779293	2470.165385
893.087858	2500.412308
893.396381	2570.988462
893.704864	2472.685962
894.013306	2518.056346
894.321707	2525.618077
894.630068	2434.877308
894.938387	2460.083077
895.246665	2495.371154
895.554903	2497.891731
895.863100	2477.727115
896.171256	2518.056346
896.479371	2490.330000
896.787446	2437.397885
897.095480	2563.426731
897.403473	2518.056346
897.711425	2467.644808
898.019336	2555.865000
898.327207	2533.179808
898.635038	2490.330000
898.942827	2603.755962
899.250576	2442.439038
899.558284	2417.233269
899.865952	2540.741538
900.173579	2520.576923
900.481165	2525.618077
900.788711	2490.330000
901.096216	2422.274423
901.403681	2530.659231
901.711105	2540.741538
902.018489	2397.068654
902.325832	2495.371154
902.633135	2510.494615
902.940397	2535.700385
903.247619	2369.342308
903.554800	2518.056346
903.861941	2502.932885
904.169041	2480.247692
904.476101	2487.809423
904.783121	2429.836154
905.090100	2482.768269
905.397039	2530.659231
905.703938	2510.494615
906.010796	2447.480192
906.317614	2500.412308
906.624391	2505.453462
906.931129	2475.206538
907.237826	2475.206538
907.544483	2457.562500
907.851099	2384.465769
908.157675	2442.439038
908.464211	2518.056346
908.770707	2482.768269
909.077163	2482.768269
909.383578	2538.220962
909.689954	2525.618077
909.996289	2402.109808
910.302584	2470.165385
910.608839	2419.753846
910.915054	2538.220962
911.221229	2497.891731
911.527363	2515.535769
911.833458	2475.206538
912.139513	2591.153077
912.445527	2457.562500
912.751502	2492.850577
913.057436	2618.879423
913.363331	2563.426731
913.669186	2495.371154
913.975000	2472.685962
914.280775	2444.959615
914.586510	2457.562500
914.892205	2480.247692
915.197859	2487.809423
915.503475	2480.247692
915.809050	2518.056346
916.114585	2437.397885
916.420081	2490.330000
916.725536	2538.220962
917.030952	2520.576923
917.336328	2523.097500
917.641665	2472.685962
917.946961	2510.494615
918.252218	2462.603654
918.557435	2576.029615
918.862612	2540.741538
919.167750	2475.206538
919.472848	2500.412308
919.777906	2490.330000
920.082925	2422.274423
920.387904	2450.000769
920.692843	2422.274423
920.997743	2530.659231
921.302603	2505.453462
921.607423	2515.535769
921.912204	2434.877308
922.216946	2500.412308
922.521647	2570.988462
922.826310	2528.138654
923.130932	2558.385577
923.435516	2477.727115
923.740059	2419.753846
924.044564	2495.371154
924.349028	2472.685962
924.653454	2538.220962
924.957840	2477.727115
925.262186	2460.083077
925.566493	2477.727115
925.870761	2490.330000
926.174989	2533.179808
926.479178	2487.809423
926.783328	2500.412308
927.087438	2457.562500
927.391509	2444.959615
927.695541	2424.795000
927.999533	2523.097500
928.303486	2500.412308
928.607400	2492.850577
928.911275	2583.591346
929.215110	2462.603654
929.518906	2364.301154
929.822663	2419.753846
930.126381	2419.753846
930.430060	2460.083077
930.733699	2384.465769
931.037299	2462.603654
931.340861	2490.330000
931.644383	2545.782692
931.947866	2505.453462
932.251309	2447.480192
932.554714	2399.589231
932.858080	2444.959615
933.161407	2467.644808
933.464694	2427.315577
933.767943	2452.521346
934.071153	2465.124231
934.374323	2502.932885
934.677455	2462.603654
934.980548	2523.097500
935.283602	2550.823846
935.586617	2548.303269
935.889593	2465.124231
936.192530	2490.330000
936.495428	2485.288846
936.798287	2394.548077
937.101108	2573.509038
937.403890	2462.603654
937.706632	2545.782692
938.009336	2538.220962
938.312002	2518.056346
938.614628	2510.494615
938.917216	2480.247692
939.219765	2553.344423
939.522275	2427.315577
939.824747	2487.809423
940.127179	2429.836154
940.429573	2470.165385
940.731929	2475.206538
941.034246	2533.179808
941.336524	2497.891731
941.638763	2490.330000
941.940964	2455.041923
942.243126	2412.192115
942.545250	2480.247692
942.847335	2588.632500
943.149381	2555.865000
943.451389	2477.727115
943.753359	2434.877308
944.055290	2520.576923
944.357182	2487.809423
944.659036	2422.274423
944.960851	2442.439038
945.262628	2543.262115
945.564367	2490.330000
945.866067	2543.262115
946.167729	2500.412308
946.469352	2460.083077
946.770937	2505.453462
947.072484	2450.000769
947.373992	2495.371154
947.675462	2384.465769
947.976893	2510.494615
948.278286	2583.591346
948.579641	2480.247692
948.880958	2502.932885
949.182236	2518.056346
949.483476	2555.865000
949.784678	2429.836154
950.085841	2520.576923
950.386967	2485.288846
950.688054	2482.768269
950.989103	2447.480192
951.290114	2419.753846
951.591087	2424.795000
951.892021	2402.109808
952.192917	2485.288846
952.493776	2487.809423
952.794596	2434.877308
953.095378	2497.891731
953.396122	2490.330000
953.696828	2487.809423
953.997496	2462.603654
954.298126	2497.891731
954.598718	2487.809423
954.899272	2500.412308
955.199788	2492.850577
955.500266	2555.865000
955.800706	2472.685962
956.101108	2442.439038
956.401472	2465.124231
956.701798	2389.506923
957.002087	2507.974038
957.302337	2444.959615
957.602550	2540.741538
957.902724	2553.344423
958.202861	2530.659231
958.502960	2492.850577
958.803022	2462.603654
959.103045	2505.453462
959.403031	2470.165385
959.702979	2465.124231
960.002889	2429.836154
960.302762	2505.453462
960.602596	2502.932885
960.902393	2470.165385
961.202153	2497.891731
961.501875	2455.041923
961.801559	2482.768269
962.101205	2434.877308
962.400814	2495.371154
962.700385	2437.397885
962.999918	2397.068654
963.299414	2404.630385
963.598873	2603.755962
963.898293	2497.891731
964.197677	2467.644808
964.497022	2472.685962
964.796331	2513.015192
965.095601	2545.782692
965.394835	2507.974038
965.694030	2472.685962
965.993189	2475.206538
966.292309	2439.918462
966.591393	2553.344423
966.890439	2543.262115
967.189447	2450.000769
967.488419	2407.150962
967.787353	2525.618077
968.086249	2480.247692
968.385108	2576.029615
968.683930	2576.029615
968.982714	2538.220962
969.281462	2553.344423
969.580172	2475.206538
969.878844	2477.727115
970.177480	2462.603654
970.476078	2417.233269
970.774639	2545.782692
971.073162	2538.220962
971.371649	2462.603654
971.670098	2434.877308
971.968510	2513.015192
972.266885	2518.056346
972.565223	2507.974038
972.863524	2510.494615
973.161788	2467.644808
973.460014	2520.576923
973.758204	2477.727115
974.056356	2513.015192
974.354471	2480.247692
974.652550	2467.644808
974.950591	2465.124231
975.248595	2457.562500
975.546563	2560.906154
975.844493	2470.165385
976.142386	2477.727115
976.440243	2487.809423
976.738062	2528.138654
977.035845	2455.041923
977.333590	2586.111923
977.631299	2492.850577
977.928971	2513.015192
978.226606	2447.480192
978.524204	2543.262115
978.821765	2513.015192
979.119290	2465.124231
979.416777	2565.947308
979.714228	2467.644808
980.011642	2429.836154
980.309020	2550.823846
980.606360	2452.521346
980.903664	2507.974038
981.200931	2386.986346
981.498162	2530.659231
981.795356	2520.576923
982.092513	2520.576923
982.389633	2462.603654
982.686717	2417.233269
982.983764	2570.988462
983.280775	2480.247692
983.577749	2444.959615
983.874686	2465.124231
984.171587	2432.356731
984.468451	2480.247692
984.765279	2495.371154
985.062070	2437.397885
985.358824	2497.891731
985.655543	2404.630385
985.952224	2540.741538
986.248869	2492.850577
986.545478	2492.850577
986.842050	2543.262115
987.138586	2371.862885
987.435086	2450.000769
987.731549	2480.247692
988.027975	2424.795000
988.324366	2439.918462
988.620719	2470.165385
988.917037	2495.371154
989.213318	2429.836154
989.509563	2437.397885
989.805772	2434.877308
990.101944	2485.288846
990.398080	2482.768269
990.694180	2475.206538
990.990244	2432.356731
991.286271	2538.220962
991.582262	2523.097500
991.878217	2500.412308
992.174136	2437.397885
992.470019	2470.165385
992.765865	2472.685962
993.061676	2460.083077
993.357450	2505.453462
993.653188	2427.315577
993.948890	2475.206538
994.244556	2434.877308
994.540186	2480.247692
994.835780	2518.056346
995.131337	2518.056346
995.426859	2487.809423
995.722345	2507.974038
996.017795	2470.165385
996.313208	2417.233269
996.608586	2472.685962
996.903928	2472.685962
997.199234	2588.632500
997.494504	2500.412308
997.789738	2492.850577
998.084936	2460.083077
998.380099	2515.535769
998.675225	2477.727115
998.970316	2565.947308
999.265371	2495.371154
999.560390	2510.494615
999.855373	2442.439038
1000.150320	2533.179808
1000.445232	2513.015192
1000.740108	2417.233269
1001.034948	2550.823846
1001.329752	2495.371154
1001.624521	2465.124231
1001.919254	2480.247692
1002.213951	2447.480192
1002.508613	2510.494615
1002.803239	2417.233269
1003.097829	2482.768269
1003.392384	2444.959615
1003.686903	2538.220962
1003.981386	2485.288846
1004.275834	2457.562500
1004.570246	2419.753846
1004.864623	2523.097500
1005.158964	2533.179808
1005.453270	2533.179808
1005.747540	2507.974038
1006.041775	2500.412308
1006.335974	2520.576923
1006.630138	2460.083077
1006.924266	2565.947308
1007.218359	2472.685962
1007.512416	2444.959615
1007.806438	2550.823846
1008.100425	2485.288846
1008.394376	2477.727115
1008.688292	2444.959615
1008.982172	2563.426731
1009.276017	2520.576923
1009.569827	2553.344423
1009.863602	2472.685962
1010.157341	2568.467885
1010.451045	2520.576923
1010.744714	2394.548077
1011.038347	2520.576923
1011.331945	2450.000769
1011.625508	2492.850577
1011.919036	2434.877308
1012.212528	2492.850577
1012.505986	2444.959615
1012.799408	2525.618077
1013.092795	2500.412308
1013.386147	2412.192115
1013.679464	2515.535769
1013.972745	2603.755962
1014.265992	2432.356731
1014.559204	2540.741538
1014.852380	2576.029615
1015.145521	2442.439038
1015.438628	2560.906154
1015.731699	2510.494615
1016.024736	2480.247692
1016.317737	2518.056346
1016.610703	2510.494615
1016.903635	2444.959615
1017.196531	2530.659231
1017.489393	2550.823846
1017.782219	2518.056346
1018.075011	2480.247692
1018.367768	2492.850577
1018.660490	2475.206538
1018.953177	2475.206538
1019.245829	2475.206538
