Dividing Wavelength (nm)	Counts (n)	Blue Motor Position (mm): 9.600000	Red Motor Position (mm): 0.000000	
326.493990	2060.455688
326.888308	2060.455688
327.282561	2060.455688
327.676750	2036.903417
328.070874	2037.024405
328.464933	2046.131249
328.858929	2054.035779
329.252859	2066.459702
329.646726	2076.834397
330.040528	2094.362489
330.434265	2110.297576
330.827938	2135.195835
331.221547	2152.484472
331.615091	2172.076917
332.008571	2192.173476
332.401986	2212.426312
332.795338	2234.955228
333.188625	2253.947776
333.581847	2272.108532
333.975006	2291.494289
334.368100	2310.290232
334.761129	2322.396563
335.154095	2342.064624
335.546996	2369.775847
335.939833	2426.660227
336.332606	2435.996444
336.725315	2450.414144
337.117960	2462.956535
337.510540	2469.865436
337.903056	2480.237610
338.295508	2485.407313
338.687896	2491.295381
339.080220	2494.846874
339.472480	2502.227123
339.864676	2506.680982
340.256807	2510.882784
340.648875	2508.899090
341.040879	2508.652074
341.432818	2509.763648
341.824694	2514.532580
342.216506	2511.921262
342.608253	2511.303721
342.999937	2510.693741
343.391557	2511.258350
343.783113	2510.058556
344.174605	2505.660149
344.566033	2506.282731
344.957397	2505.201404
345.348697	2501.264263
345.739934	2501.057575
346.131106	2499.552791
346.522215	2496.631442
346.913260	2495.424086
347.304241	2494.872080
347.695159	2492.427120
348.086012	2491.940649
348.476802	2488.646255
348.867528	2485.732468
349.258191	2480.179637
349.648789	2483.040492
350.039324	2479.718371
350.429796	2486.975112
350.820203	2478.511015
351.210548	2484.197436
351.600828	2478.536221
351.991045	2479.988073
352.381198	2477.843062
352.771288	2479.312558
353.161314	2481.145018
353.551276	2476.373566
353.941175	2477.943885
354.331010	2478.858854
354.720782	2479.625110
355.110490	2481.371870
355.500135	2478.531179
355.889717	2479.625110
356.279235	2479.920017
356.668689	2481.749956
357.058080	2481.573516
357.447408	2481.336582
357.836672	2482.012096
358.225873	2480.444297
358.615010	2482.531335
359.004084	2480.928248
359.393095	2484.141984
359.782043	2480.477065
360.170927	2483.474031
360.559748	2486.564258
360.948505	2483.673156
361.337199	2488.157263
361.725830	2483.708444
362.114398	2486.566779
362.502903	2487.353199
362.891344	2487.443939
363.279722	2489.740185
363.668037	2487.915287
364.056289	2487.935452
364.444478	2491.313025
364.832603	2490.950062
365.220665	2487.766573
365.608665	2491.895278
365.996601	2491.323107
366.384474	2493.490803
366.772284	2491.071050
367.160031	2490.758498
367.547715	2490.511482
367.935336	2492.258241
368.322893	2489.793117
368.710388	2488.651296
369.097820	2489.470483
369.485189	2486.770945
369.872495	2492.694301
370.259738	2493.992398
370.646918	2494.645228
371.034035	2494.047851
371.421090	2493.803355
371.808081	2493.422748
372.195010	2493.145484
372.581875	2493.563900
372.968678	2492.941318
373.355418	2494.105824
373.742096	2495.484580
374.128710	2495.892913
374.515262	2496.974241
374.901751	2493.891575
375.288177	2496.306288
375.674540	2496.061792
376.060841	2497.281751
376.447079	2496.265959
376.833254	2496.558346
377.219367	2496.671772
377.605417	2497.725373
377.991404	2497.233860
378.377329	2498.174035
378.763191	2497.906854
379.148991	2497.538850
379.534727	2497.188490
379.920402	2498.373161
380.306013	2498.473984
380.691563	2498.234529
381.077049	2500.515651
381.462474	2497.561535
381.847835	2501.690240
382.233134	2499.363748
382.618371	2501.382730
383.003545	2497.493480
383.388657	2501.828872
383.773706	2502.655621
384.158693	2499.832575
384.543618	2502.063286
384.928480	2499.888028
385.313280	2499.341063
385.698017	2500.437513
386.082692	2501.539006
386.467305	2501.970024
386.851856	2501.889366
387.236344	2500.538337
387.620770	2499.008346
388.005133	2498.287461
388.389435	2499.683861
388.773674	2498.630260
389.157851	2503.923471
389.541965	2503.079078
389.926018	2504.596465
390.310008	2504.271311
390.693936	2505.395488
391.077802	2503.316012
391.461606	2505.793739
391.845348	2503.810045
392.229027	2504.745179
392.612645	2504.510766
392.996200	2503.842813
393.379694	2503.769716
393.763125	2503.172339
394.146494	2505.929851
394.529801	2506.620489
394.913047	2508.208452
395.296230	2505.786178
395.679351	2506.141579
396.062410	2506.439007
396.445408	2508.712568
396.828343	2510.083761
397.211217	2505.937412
397.594028	2508.614265
397.976778	2505.476147
398.359466	2506.933040
398.742092	2507.167454
399.124656	2508.611744
399.507158	2508.689882
399.889598	2511.996879
400.271977	2509.730881
400.654294	2508.707526
401.036549	2510.567712
401.418742	2508.924296
401.800874	2509.554440
402.182944	2509.473782
402.564952	2511.689369
402.946898	2509.403206
403.328783	2509.521673
403.710606	2510.456807
404.092367	2510.565192
404.474067	2512.097702
404.855705	2508.304234
405.237282	2511.205418
405.618797	2509.897239
406.000250	2513.355470
406.381642	2511.341529
406.762972	2508.722650
407.144240	2508.644512
407.525447	2512.289266
407.906593	2507.225427
408.287677	2511.906138
408.668700	2510.570233
409.049661	2514.741788
409.430560	2514.333454
409.811399	2513.625172
410.192176	2513.126098
410.572891	2513.221880
410.953545	2511.822959
411.334138	2514.305728
411.714669	2514.086437
412.095139	2518.058867
412.475547	2513.738598
412.855894	2512.465707
413.236180	2515.137518
413.616405	2511.780110
413.996568	2513.985614
414.376670	2511.079389
414.756711	2510.802126
415.136691	2517.330420
415.516609	2512.599297
415.896466	2515.434946
416.276262	2513.952847
416.655997	2514.376304
417.035670	2513.932682
417.415283	2517.708507
417.794834	2514.656088
418.174324	2515.359329
418.553753	2518.240348
418.933121	2515.387055
419.312428	2515.679442
419.691674	2515.097189
420.070859	2518.658764
420.449983	2516.327230
420.829045	2518.653723
421.208047	2519.737571
421.586988	2516.208763
421.965867	2517.005266
422.344686	2516.788496
422.723444	2520.380318
423.102141	2516.901922
423.480777	2515.946623
423.859352	2513.703310
424.237866	2517.350585
424.616319	2517.204391
424.994712	2516.909484
425.373044	2516.962416
425.751314	2515.989473
426.129524	2511.339009
426.507673	2513.428567
426.885762	2511.147445
427.263789	2518.066428
427.641756	2517.413599
428.019662	2513.294976
428.397508	2520.642458
428.775292	2514.625841
429.153016	2519.470390
429.530679	2517.249762
429.908282	2515.815553
430.285824	2520.491223
430.663305	2518.247910
431.040726	2517.998373
431.418086	2517.222035
431.795385	2517.012827
432.172624	2516.188599
432.549802	2518.182375
432.926920	2519.500637
433.303977	2517.234638
433.680974	2515.732374
434.057910	2517.355626
434.434786	2515.535769
434.811601	2518.489885
435.188355	2518.976357
435.565050	2517.569875
435.941683	2519.263703
436.318257	2517.506860
436.694770	2519.079700
437.071222	2517.940400
437.447614	2516.624658
437.823946	2517.002745
438.200218	2519.321676
438.576429	2517.161541
438.952580	2517.280008
439.328670	2517.632889
439.704700	2516.909484
440.080670	2516.997704
440.456580	2516.886798
440.832429	2517.922756
441.208218	2514.978722
441.583947	2516.728002
441.959616	2520.007273
442.335224	2519.530884
442.710773	2516.932169
443.086261	2516.982580
443.461689	2518.356295
443.837057	2517.529546
444.212365	2518.431912
444.587612	2515.583660
444.962800	2514.338495
445.337927	2515.568537
445.712995	2515.339164
446.088002	2518.469721
446.462949	2519.034330
446.837837	2515.750018
447.212664	2520.269413
447.587431	2517.748836
447.962139	2521.277643
448.336786	2519.533404
448.711374	2519.482993
449.085901	2520.213960
449.460369	2518.941069
449.834776	2519.843435
450.209124	2518.441994
450.583412	2520.239166
450.957640	2517.998373
451.331808	2523.520957
451.705917	2520.072808
452.079965	2518.769669
452.453954	2518.084073
452.827883	2518.988960
453.201752	2518.953672
453.575562	2521.418796
453.949311	2518.522653
454.323001	2520.534073
454.696632	2520.080369
455.070202	2521.486851
455.443713	2518.570544
455.817164	2523.687315
456.190556	2518.774711
456.563888	2521.106244
456.937160	2519.543487
457.310373	2518.827643
457.683526	2519.057015
458.056619	2520.302180
458.429653	2518.930986
458.802628	2520.937366
459.175542	2518.938548
459.548398	2520.161028
459.921194	2518.313445
460.293930	2521.227232
460.666607	2522.046419
461.039224	2523.243693
461.411782	2521.653209
461.784280	2520.866789
462.156719	2520.034999
462.529099	2522.963909
462.901419	2519.218332
463.273680	2518.686490
463.645882	2515.235821
464.018024	2519.051974
464.390106	2515.374452
464.762130	2523.157994
465.134094	2519.724968
465.505999	2519.455266
465.877845	2522.091790
466.249631	2522.308559
466.621358	2523.604136
466.993026	2520.844104
467.364634	2524.249404
467.736184	2522.578261
468.107674	2523.362161
468.479105	2519.256141
468.850477	2520.254289
469.221790	2522.563138
469.593043	2521.864938
469.964238	2522.905936
470.335373	2520.861748
470.706449	2521.852335
471.077467	2522.442150
471.448425	2522.061543
471.819324	2523.989784
472.190164	2523.863755
472.560945	2523.551204
472.931667	2520.740761
473.302330	2522.056502
473.672934	2522.318642
474.043479	2524.173786
474.413965	2523.407531
474.784393	2524.151101
475.154761	2523.357119
475.525070	2522.810154
475.895321	2522.757222
476.265513	2520.498785
476.635645	2521.416275
477.005719	2524.483817
477.375734	2523.357119
477.745691	2523.442819
478.115588	2525.552542
478.485427	2523.417613
478.855207	2526.538087
479.224928	2524.882068
479.594591	2526.948942
479.964194	2523.278982
480.333739	2526.485155
480.703226	2523.347037
481.072653	2523.457942
481.442022	2525.479445
481.811333	2525.504651
482.180584	2520.466018
482.549777	2523.863755
482.918912	2519.288908
483.287988	2526.102028
483.657005	2524.209074
484.025964	2526.220495
484.394864	2525.507172
484.763706	2528.221833
485.132489	2526.240659
485.501213	2527.190917
485.869879	2525.728982
486.238487	2525.481966
486.607036	2525.492048
486.975527	2525.890299
487.343959	2524.408200
487.712333	2524.360309
488.080648	2523.689836
488.448905	2524.569517
488.817104	2527.516071
489.185244	2524.148581
489.553326	2529.653521
489.921350	2529.434230
490.289315	2529.104035
490.657222	2528.317615
491.025070	2526.364168
491.392861	2529.409025
491.760593	2528.867101
492.128267	2526.283509
492.495883	2528.093283
492.863440	2525.849970
493.230939	2526.792666
493.598380	2525.547501
493.965763	2528.851977
494.333088	2527.445495
494.700354	2526.621267
495.067563	2525.945752
495.434713	2527.931967
495.801805	2525.136647
496.168839	2527.863911
496.535815	2527.896678
496.902733	2525.844929
497.269593	2529.938346
497.636395	2526.674199
498.003139	2527.637059
498.369825	2530.281144
498.736453	2525.058509
499.103023	2527.463139
499.469535	2526.764939
499.835989	2525.895340
500.202385	2527.286699
500.568723	2524.110772
500.935003	2527.400125
501.301226	2522.497603
501.667390	2528.758716
502.033497	2528.504138
502.399546	2526.013808
502.765537	2528.093283
503.131470	2525.398787
503.497345	2528.226874
503.863163	2526.860721
504.228923	2528.851977
504.594625	2528.708304
504.960269	2527.657224
505.325856	2526.729651
505.691385	2527.485824
506.056856	2528.610002
506.422270	2527.019518
506.787625	2527.737882
507.152924	2528.766278
507.518164	2528.519261
507.883347	2528.743592
508.248472	2529.565300
508.613540	2526.366688
508.978550	2528.257121
509.343503	2526.853160
509.708398	2528.194107
510.073236	2531.138140
510.438016	2527.798376
510.802738	2528.657893
511.167403	2528.965403
511.532010	2527.609333
511.896561	2530.117307
512.261053	2529.469518
512.625488	2529.708973
512.989866	2530.780218
513.354186	2531.803573
513.718449	2530.061854
514.082655	2530.845753
514.446803	2532.844571
514.810894	2530.518078
515.174927	2531.707791
515.538904	2531.186031
515.902822	2533.978831
516.266684	2528.695701
516.630488	2532.589993
516.994235	2530.939015
517.357925	2534.500590
517.721558	2534.291382
518.085133	2534.251053
518.448651	2532.496731
518.812112	2531.380116
519.175516	2534.329191
519.538863	2533.096629
519.902152	2538.868750
520.265385	2537.610982
520.628560	2538.072247
520.991678	2537.689120
521.354739	2537.731970
521.717743	2538.629295
522.080690	2541.885880
522.443580	2541.389327
522.806413	2540.824718
523.169189	2541.835469
523.531908	2546.145655
523.894569	2541.878319
524.257174	2545.830583
524.619722	2544.973587
524.982213	2547.784030
525.344647	2547.161448
525.707025	2550.065153
526.069345	2546.206149
526.431608	2549.067004
526.793815	2551.915256
527.155964	2549.056922
527.518057	2554.045143
527.880093	2552.192519
528.242072	2551.958106
528.603995	2554.987839
528.965860	2554.871893
529.327669	2553.586398
529.689421	2556.417006
530.051117	2555.766697
530.412755	2560.485217
530.774337	2559.829868
531.135862	2559.494631
531.497331	2559.890361
531.858743	2561.143088
532.220098	2564.765157
532.581396	2564.790363
532.942638	2563.948490
533.303824	2564.747513
533.664953	2566.340518
534.026025	2566.204407
534.387040	2564.969324
534.747999	2568.840930
535.108902	2571.318657
535.469748	2568.137689
535.830537	2572.742783
536.191270	2574.701271
536.551947	2571.295972
536.912567	2570.930488
537.273131	2574.169430
537.633638	2573.199007
537.994089	2578.058680
538.354483	2579.545820
538.714821	2578.288052
539.075103	2581.718558
539.435328	2581.090934
539.795497	2580.211253
540.155609	2584.844073
540.515665	2585.824577
540.875665	2585.721234
541.235609	2587.389856
541.595496	2587.692325
541.955328	2587.359609
542.315102	2588.657706
542.674821	2586.772314
543.034483	2592.456215
543.394090	2591.710124
543.753640	2590.774990
544.113134	2596.189190
544.472571	2592.799014
544.831953	2597.986361
545.191278	2596.842019
545.550548	2597.845209
545.909761	2599.874273
546.268918	2599.937287
546.628019	2601.535333
546.987064	2600.822010
547.346053	2601.147164
547.704986	2604.620519
548.063863	2604.023143
548.422684	2604.179418
548.781449	2603.841661
549.140158	2605.222937
549.498811	2606.757969
549.857408	2605.969028
550.215949	2606.899121
550.574434	2606.062289
550.932864	2609.638988
551.291237	2609.439862
551.649555	2610.344750
552.007817	2609.883484
552.366022	2611.337857
552.724173	2610.775768
553.082267	2612.308279
553.440305	2614.337343
553.798288	2614.324741
554.156215	2613.016561
554.514086	2613.606376
554.871902	2612.769545
555.229661	2613.026643
555.587365	2610.037239
555.945014	2616.978908
556.302606	2616.018568
556.660143	2616.910852
557.017625	2616.379011
557.375050	2620.570730
557.732421	2616.313476
558.089735	2618.776079
558.446994	2618.491254
558.804197	2622.856893
559.161345	2619.242386
559.518437	2619.134001
559.875474	2619.063425
560.232455	2621.906636
560.589381	2620.530401
560.946251	2621.762963
561.303065	2622.781276
561.659825	2623.295474
562.016528	2620.994187
562.373177	2622.020062
562.729770	2623.101389
563.086307	2621.263889
563.442789	2624.777573
563.799216	2625.503499
564.155587	2624.094497
564.511904	2622.425875
564.868164	2623.456791
565.224370	2626.466360
565.580520	2626.599950
565.936615	2624.543159
566.292654	2623.514764
566.648638	2624.717079
567.004567	2625.995012
567.360441	2627.870321
567.716260	2625.576596
568.072023	2625.853859
568.427732	2627.272944
568.783385	2627.603140
569.138982	2623.751698
569.494525	2628.329066
569.850013	2627.270424
570.205445	2627.358644
570.560823	2625.904271
570.916145	2628.071967
571.271412	2627.363685
571.626625	2626.075670
571.981782	2626.514251
572.336884	2624.689353
572.691931	2622.589712
573.046923	2626.574744
573.401860	2622.312449
573.756743	2625.143057
574.111570	2623.474435
574.466342	2626.065588
574.821059	2625.765639
575.175722	2627.358644
575.530330	2627.870321
575.884882	2625.926956
576.239380	2626.000053
576.593823	2625.175824
576.948211	2624.102058
577.302544	2622.521657
577.656823	2623.925618
578.011047	2627.774539
578.365216	2624.903602
578.719330	2624.752367
579.073389	2622.756070
579.427394	2627.227574
579.781344	2627.156998
580.135239	2625.334621
580.489080	2623.091307
580.842866	2621.823457
581.196597	2628.939046
581.550273	2627.426699
581.903895	2627.187245
582.257463	2629.493572
582.610975	2624.770011
582.964434	2628.777729
583.317837	2628.709673
583.671186	2628.376957
584.024481	2628.777729
584.377721	2626.776391
584.730906	2628.008953
585.084037	2627.903088
585.437113	2627.000722
585.790135	2629.528861
586.143103	2624.381842
586.496016	2629.168418
586.848874	2630.965589
587.201679	2633.196300
587.554428	2632.273769
587.907124	2630.688326
588.259765	2631.867956
588.612352	2631.048768
588.964884	2631.925929
589.317362	2632.727473
589.669786	2635.046403
590.022155	2632.798049
590.374470	2632.218316
590.726731	2636.712505
591.078937	2632.336783
591.431090	2635.709315
591.783188	2636.321815
592.135232	2637.695530
592.487222	2638.620582
592.839157	2640.952115
593.191038	2641.582259
593.542866	2642.545120
593.894639	2643.886067
594.246358	2647.961840
594.598022	2645.012765
594.949633	2644.531334
595.301190	2646.545275
595.652692	2649.060811
596.004141	2651.830925
596.355535	2651.435195
596.706876	2650.948723
597.058162	2651.352016
597.409395	2653.643220
597.760573	2657.262768
598.111698	2657.051040
598.462768	2657.058602
598.813785	2661.514982
599.164748	2663.107986
599.515657	2665.542864
599.866511	2665.479849
600.217312	2669.001095
600.568060	2667.685354
600.918753	2678.329750
601.269392	2677.752538
601.619978	2678.193639
601.970510	2681.190605
602.320988	2682.576922
602.671412	2689.561441
603.021783	2688.134795
603.372100	2691.835002
603.722363	2694.602595
604.072572	2698.706094
604.422728	2703.089377
604.772830	2704.649615
605.122878	2709.267312
605.472872	2709.622713
605.822813	2714.971377
606.172701	2718.439691
606.522534	2723.460680
606.872314	2730.155332
607.222041	2733.621126
607.571714	2737.212948
607.921333	2735.118348
608.270899	2746.294587
608.620411	2750.352715
608.969870	2757.153232
609.319276	2763.144643
609.668627	2771.170160
610.017926	2774.479678
610.367171	2786.059208
610.716362	2790.916360
611.065500	2798.518420
611.414585	2803.788946
611.763616	2811.743887
612.112594	2820.018941
612.461518	2829.045127
612.810389	2837.524348
613.159207	2842.883094
613.507971	2850.729650
613.856682	2864.739017
614.205340	2872.746890
614.553945	2887.910680
614.902496	2890.726165
615.250994	2901.733524
615.599439	2913.214752
615.947830	2926.525919
616.296169	2939.343053
616.644454	2950.708334
616.992686	2966.489666
617.340864	2987.027327
617.688990	2990.810713
618.037063	3015.771986
618.385082	3029.783873
618.733048	3048.559651
619.080961	3060.872669
619.428821	3077.153075
619.776628	3089.289653
620.124382	3101.665686
620.472083	3113.436780
620.819731	3129.177783
621.167326	3134.728093
621.514868	3144.235709
621.862357	3148.190495
622.209793	3161.279851
622.557176	3165.214471
622.904506	3171.450378
623.251783	3178.192922
623.599007	3185.815146
623.946179	3195.418544
624.293297	3208.031511
624.640363	3211.963611
624.987376	3222.290415
625.334336	3229.993298
625.681243	3241.451841
626.028097	3251.682863
626.374899	3273.011984
626.721647	3286.734005
627.068343	3303.268990
627.414987	3312.161585
627.761577	3329.858556
628.108115	3353.090713
628.454600	3356.317052
628.801032	3382.379817
629.147412	3398.940008
629.493739	3418.857606
629.840014	3432.531736
630.186236	3462.554328
630.532405	3473.486070
630.878521	3501.136799
631.224585	3519.887371
631.570597	3538.842109
631.916556	3567.806058
632.262462	3588.288267
632.608316	3610.108901
632.954117	3630.233187
633.299866	3653.674553
633.645562	3669.811286
633.991206	3673.778674
634.336797	3677.771268
634.682336	3695.039740
635.027823	3707.249415
635.373257	3718.902042
635.718639	3727.232549
636.063968	3744.806011
636.409245	3738.295361
636.754470	3758.583485
637.099642	3772.189559
637.444762	3771.481277
637.789829	3799.774753
638.134845	3811.654232
638.479808	3825.978670
638.824719	3850.513966
639.169577	3853.687373
639.514383	3880.881877
639.859137	3884.907238
640.203839	3920.515428
640.548489	3928.684618
640.893086	3955.856438
641.237632	3966.400011
641.582125	3993.884382
641.926566	4010.338708
642.270955	4037.835681
642.615292	4059.114392
642.959576	4082.301179
643.303809	4105.641721
643.647990	4140.536588
643.992118	4166.140608
644.336195	4189.143393
644.680219	4221.472313
645.024192	4264.619549
645.368112	4327.477696
645.711981	4360.504816
646.055797	4441.511117
646.399562	4477.683916
646.743274	4568.535591
647.086935	4629.044560
647.430544	4669.134336
647.774101	4710.789391
648.117606	4763.565230
648.461059	4804.169204
648.804460	4808.045851
649.147810	4799.085200
649.491108	4801.227691
649.834354	4816.053724
650.177548	4786.250423
650.520690	4779.059217
650.863781	4804.892609
651.206820	4822.657636
651.549807	4820.563036
651.892742	4808.585255
652.235626	4831.824974
652.578458	4855.523438
652.921238	4833.382690
653.263967	4887.708685
653.606644	4897.785951
653.949269	4921.355866
654.291843	4921.857461
654.634365	4988.078058
654.976836	4981.136389
655.319255	5019.121483
655.661622	5038.489596
656.003938	5062.732505
656.346203	5073.087035
656.688416	5121.640908
657.030577	5135.864524
657.372687	5151.819776
657.714746	5196.260068
658.056753	5248.650259
658.398708	5223.497422
658.740612	5257.857927
659.082465	5313.950845
659.424266	5337.369526
659.766016	5372.768508
660.107715	5394.710130
660.449362	5431.868475
660.790958	5474.604857
661.132503	5500.879351
661.473996	5544.608840
661.815438	5588.497125
662.156829	5637.431605
662.498168	5651.055324
662.839456	5686.708884
663.180693	5732.245627
663.521879	5778.251197
663.863013	5811.905940
664.204097	5839.680177
664.545129	5929.349701
664.886110	5965.701462
665.227040	6019.490573
665.567918	6053.422580
665.908746	6099.844045
666.249522	6160.148848
666.590248	6200.848603
666.930922	6251.481953
667.271545	6299.413243
667.612118	6341.332958
667.952639	6351.800914
668.293109	6394.103757
668.633528	6414.119658
668.973896	6445.387415
669.314213	6482.936449
669.654480	6491.803839
669.994695	6523.991606
670.334859	6552.970679
670.674973	6567.035498
671.015035	6628.353573
671.355047	6663.770199
671.695008	6692.335897
672.034918	6722.313119
672.374777	6775.643485
672.714585	6799.233565
673.054342	6862.028698
673.394049	6882.054681
673.733705	6957.452699
674.073310	6953.941535
674.412864	7000.363000
674.752368	6989.945456
675.091820	7070.533341
675.431223	7034.345418
675.770574	7040.488064
676.109875	7051.245887
676.449125	7050.197327
676.788324	7069.585604
677.127473	7023.829572
677.466571	7042.529732
677.805619	7038.758949
678.144616	7061.766775
678.483562	7084.998932
678.822458	7069.134421
679.161303	7095.991168
679.500098	7113.932635
679.838842	7141.969012
680.177535	7195.869029
680.516179	7280.661237
680.854771	7351.940631
681.193314	7545.793161
681.531805	7796.323384
681.870247	8003.066144
682.208638	8188.131943
682.546978	8285.428733
682.885268	8358.303653
683.223508	8306.384810
683.561697	8296.413407
683.899836	8311.115933
684.237925	8276.042105
684.575963	8287.457798
684.913951	8260.031400
685.251889	8345.907456
685.589776	8392.374291
685.927614	8455.353426
686.265401	8532.977113
686.603137	8615.387376
686.940824	8772.799925
687.278460	8903.897652
687.616046	8999.530861
687.953582	9196.120737
688.291068	9243.598324
688.628504	9364.681798
688.965889	9404.280062
689.303224	9384.123008
689.640510	9364.825471
689.977745	9256.881764
690.314930	9114.000341
690.652065	9054.842401
690.989150	8921.158562
691.326185	8754.238397
691.663170	8638.924523
692.000105	8493.903130
692.336990	8383.390955
692.673825	8312.449318
693.010610	8232.990651
693.347345	8132.124724
693.684030	8009.428081
694.020665	7990.922005
694.357251	7853.316149
694.693786	7888.863845
695.030272	7865.024229
695.366707	7772.587111
695.703093	7725.757312
696.039429	7781.888040
696.375716	7745.778255
696.711952	7782.465252
697.048139	7780.221939
697.384276	7764.153261
697.720363	7828.526275
698.056400	7839.667225
698.392388	7820.657034
698.728326	7851.269440
699.064214	7837.565064
699.400053	7869.062193
699.735842	7786.288967
700.071581	7753.929801
700.407270	7714.071918
700.742910	7693.415790
701.078501	7653.235273
701.414042	7624.752754
701.749533	7560.709936
702.084974	7497.183835
702.420366	7582.409582
702.755709	7503.329002
703.091002	7433.493898
703.426246	7476.588201
703.761440	7490.776529
704.096584	7442.038653
704.431679	7441.476565
704.766725	7461.497507
705.101721	7461.653783
705.436668	7525.252980
705.771565	7467.509083
706.106413	7582.961589
706.441212	7638.396637
706.775961	7700.307047
707.110661	7752.437619
707.445311	7893.320225
707.779913	7885.211529
708.114465	8008.291300
708.448967	8134.942729
708.783421	8356.766101
709.117825	8514.768466
709.452180	8622.669322
709.786485	8791.931104
710.120742	9067.294051
710.454949	9136.471284
710.789107	9329.575203
711.123216	9587.210932
711.457275	9700.712511
711.791286	9911.397453
712.125247	9998.281740
712.459159	9939.693450
712.793023	10215.568074
713.126837	9917.872816
713.460602	10027.381801
713.794318	9949.301889
714.127985	9894.693590
714.461602	9625.148135
714.795171	9648.483636
715.128691	9340.038118
715.462162	9190.714100
715.795584	9059.276095
716.128957	8995.873503
716.462281	8884.794199
716.795556	8816.151328
717.128782	8672.425511
717.461960	8487.568920
717.795088	8491.044796
718.128167	8397.125579
718.461198	8259.096266
718.794180	8232.980568
719.127113	8137.120507
719.459997	8088.440605
719.792833	7977.147052
720.125619	8012.634254
720.458357	7903.488232
720.791046	7870.509004
721.123686	7832.947367
721.456278	7772.667770
721.788821	7787.347610
722.121315	7703.520783
722.453761	7766.555371
722.786158	7736.137048
723.118506	7794.690050
723.450805	7760.442972
723.783056	7854.972168
724.115259	7829.345462
724.447412	7850.263730
724.779518	7959.571069
725.111574	7991.269844
725.443582	8117.424719
725.775542	8122.067622
726.107453	8351.641768
726.439315	8333.609561
726.771129	8523.570320
727.102895	8702.927012
727.434612	8830.170777
727.766281	8916.855938
728.097901	9058.688801
728.429473	9126.036096
728.760996	9153.185230
729.092471	9222.228873
729.423897	9207.269249
729.755276	9178.592645
730.086606	9248.357173
730.417887	9506.718828
730.749120	9761.960009
731.080305	9886.625223
731.411442	10086.196943
731.742530	10166.038737
732.073570	10260.744374
732.404562	10416.019474
732.735506	10375.299554
733.066401	10311.725563
733.397249	10127.718406
733.728048	9893.314835
734.058798	9556.701869
734.389501	9259.195654
734.720156	9060.266682
735.050762	8829.812855
735.381320	8678.747118
735.711831	8578.163496
736.042293	8433.865508
736.372707	8460.397101
736.703073	8386.776090
737.033391	8488.879620
737.363661	8505.787650
737.693883	8567.294768
738.024056	8673.582456
738.354182	8780.306203
738.684260	8954.427657
739.014290	9096.726827
739.344272	9211.282007
739.674207	9378.860043
740.004093	9475.955187
740.333931	9519.694758
740.663722	9576.117873
740.993464	9611.897462
741.323159	9571.442203
741.652806	9457.731416
741.982405	9406.745186
742.311956	9265.792004
742.641460	9246.212162
742.970915	9113.960012
743.300323	8968.535326
743.629683	8891.241835
743.958996	8760.708718
744.288260	8641.656828
744.617477	8507.592383
744.946647	8504.481991
745.275768	8373.291003
745.604842	8290.316132
745.933869	8219.422385
746.262847	8222.399187
746.591778	8196.500259
746.920662	8145.216601
747.249498	8170.714757
747.578286	8262.748582
747.907027	8357.061009
748.235720	8508.477106
748.564365	8555.553921
748.892963	8523.829940
749.221514	8592.810568
749.550017	8542.819966
749.878473	8535.951394
750.206881	8445.641643
750.535242	8418.026203
750.863555	8397.879231
751.191821	8357.045885
751.520039	8386.453456
751.848210	8368.675827
752.176334	8401.581959
752.504411	8374.450469
752.832440	8296.390722
753.160421	8362.434879
753.488356	8315.161458
753.816243	8284.294473
754.144082	8209.025005
754.471875	8195.673509
754.799620	8188.424330
755.127318	8185.074483
755.454969	8196.623767
755.782572	8190.690329
756.110129	8212.137918
756.437638	8175.859254
756.765100	8189.661933
757.092515	8208.437711
757.419882	8245.394410
757.747203	8255.191892
758.074477	8311.380593
758.401703	8307.425808
758.728882	8422.159949
759.056014	8456.424672
759.383099	8553.907984
759.710138	8633.908575
760.037129	8705.351807
760.364073	8751.743026
760.690970	8778.710678
761.017820	8804.695306
761.344623	8949.421791
761.671379	9182.292852
761.998088	9596.695863
762.324751	10566.772659
762.651366	12393.699416
762.977935	14832.019832
763.304456	16486.864281
763.630931	17128.978732
763.957359	16528.703338
764.283740	15330.748743
764.610074	14111.694400
764.936362	12682.338241
765.262602	11652.453196
765.588796	10616.065062
765.914943	9907.394777
766.241044	9297.097569
766.567097	8862.197227
766.893104	8475.697003
767.219064	8225.428920
767.544978	7958.807334
767.870845	7749.836384
768.196665	7624.893906
768.522438	7503.011409
768.848165	7396.000316
769.173846	7291.943339
769.499479	7225.004377
769.825066	7131.019626
770.150607	7007.486151
770.476101	6968.581046
770.801548	6904.699544
771.126949	6826.859088
771.452303	6768.593432
771.777611	6658.575290
772.102872	6663.997051
772.428087	6586.511996
772.753256	6500.323389
773.078378	6454.602644
773.403453	6354.593713
773.728482	6291.042407
774.053465	6253.919350
774.378401	6198.885074
774.703291	6129.886801
775.028135	6064.200567
775.352932	6048.630963
775.677683	5995.923179
776.002388	5934.095948
776.327046	5938.673315
776.651658	5892.123301
776.976224	5834.155073
777.300743	5840.181772
777.625216	5791.640502
777.949643	5768.715854
778.274024	5786.692609
778.598359	5735.925669
778.922647	5750.923102
779.246889	5722.261622
779.571086	5725.944185
779.895236	5735.734105
780.219339	5744.057050
780.543397	5749.345221
780.867409	5798.766173
781.191374	5818.545140
781.515294	5797.873888
781.839167	5866.829311
782.162995	5858.103074
782.486776	5835.289332
782.810511	5805.917049
783.134201	5757.015336
783.457844	5762.830307
783.781441	5733.155555
784.104993	5701.388724
784.428498	5690.477147
784.751958	5687.850706
785.075372	5673.586761
785.398739	5644.799252
785.722061	5676.540877
786.045337	5686.509759
786.368568	5794.453465
786.691752	5813.267052
787.014891	6026.391913
787.337983	6249.657055
787.661030	6618.727490
787.984031	7021.291351
788.306987	7290.093235
788.629897	7445.751463
788.952760	7428.808145
789.275579	7304.803322
789.598351	7065.005716
789.921078	6851.386822
790.243759	6588.654486
790.566395	6406.734367
790.888984	6248.089256
791.211529	6115.310305
791.534027	5977.792669
791.856480	5847.178893
792.178888	5803.673736
792.501249	5740.039251
792.823566	5642.379498
793.145836	5644.335466
793.468062	5629.731243
793.790241	5603.015648
794.112375	5652.376106
794.434464	5762.217807
794.756507	5786.508607
795.078505	5895.899125
795.400457	6092.725936
795.722364	6320.278579
796.044226	6507.978381
796.366042	6694.349838
796.687812	6671.546179
797.009538	6736.627475
797.331218	6676.733526
797.652852	6632.033615
797.974442	6535.460231
798.295986	6483.750595
798.617484	6361.910948
798.938938	6268.571464
799.260346	6209.821857
799.581709	6077.032824
799.903026	6031.717892
800.224299	5961.298014
800.545526	5844.721331
800.866708	5781.737155
801.187845	5739.000773
801.508936	5667.043343
801.829983	5646.626670
802.150984	5543.277975
802.471940	5513.031052
802.792851	5505.880175
803.113717	5485.090457
803.434538	5457.953926
803.755314	5425.037712
804.076045	5425.201549
804.396731	5389.626126
804.717372	5412.626391
805.037967	5411.562707
805.358518	5445.260300
805.679024	5498.515049
805.999485	5508.085680
806.319901	5535.915370
806.640272	5554.088729
806.960598	5613.244149
807.280879	5619.510303
807.601115	5678.753943
807.921306	5637.194671
808.241453	5654.543802
808.561554	5671.628272
808.881611	5654.442979
809.201623	5664.986552
809.521590	5635.052181
809.841513	5624.725377
810.161390	5658.818701
810.481223	5571.813426
810.801011	5561.095933
811.120755	5550.542278
811.440453	5500.554196
811.760107	5483.313450
812.079716	5466.337364
812.399281	5428.954688
812.718801	5420.619140
813.038276	5392.466817
813.357707	5353.372668
813.677093	5389.517742
813.996434	5324.809491
814.315731	5360.251323
814.634983	5353.294531
814.954191	5371.707345
815.273354	5448.118634
815.592473	5500.395400
815.911547	5587.501497
816.230577	5653.323843
816.549562	5765.267705
816.868502	5839.591957
817.187399	5919.486684
817.506250	6036.733840
817.825058	6068.152831
818.143821	6267.971567
818.462539	6472.536549
818.781213	6741.870275
819.099843	7139.859289
819.418429	7872.618727
819.736970	8575.418587
820.055466	9445.400754
820.373919	10555.293952
820.692327	12278.630038
821.010691	15173.767213
821.329011	21205.101977
821.647286	29557.749455
821.965517	38905.130013
822.283704	44405.139765
822.601847	47455.088253
822.919945	44554.950254
823.237999	40643.072843
823.556010	35915.700577
823.873976	31228.821379
824.191897	26654.012072
824.509775	23337.089117
824.827609	20235.070551
825.145398	18462.116908
825.463144	17539.898305
825.780845	17790.224361
826.098502	19053.827382
826.416116	21683.497394
826.733685	24254.327060
827.051210	25111.030827
827.368692	23906.396703
827.686129	21137.043879
828.003522	18204.229121
828.320872	15546.694130
828.638177	13522.451571
828.955439	11948.366406
829.272656	10619.828283
829.589830	9573.199045
829.906960	8649.337026
830.224046	7958.691388
830.541088	7408.615803
830.858086	7071.135759
831.175041	6795.167874
831.491952	6719.752213
831.808819	6763.990858
832.125642	7072.189360
832.442421	7758.769308
832.759157	9099.940563
833.075849	11207.745288
833.392497	13543.016958
833.709101	15098.212919
834.025662	15017.234345
834.342179	13839.250281
834.658653	12248.310018
834.975083	10832.726292
835.291469	9653.423967
835.607811	8659.235332
835.924110	7971.170764
836.240366	7312.697769
836.556578	6708.896088
836.872746	6230.561164
837.188871	5851.083267
837.504952	5540.961565
837.820990	5300.730419
838.136984	5130.059635
838.452935	5056.045415
838.768842	5086.536834
839.084706	5414.743675
839.400526	6317.069885
839.716303	7494.023032
840.032037	8333.284407
840.347727	8288.385370
840.663373	7564.483239
840.978977	6779.741943
841.294537	6174.173338
841.610054	5707.521288
841.925527	5378.691864
842.240957	5094.726188
842.556344	4841.443495
842.871687	4623.549703
843.186987	4406.928801
843.502244	4238.206423
843.817458	4112.795118
844.132629	4003.480218
844.447756	3931.520267
844.762840	3872.543808
845.077881	3814.472237
845.392879	3763.561624
845.707833	3727.509812
846.022745	3693.038402
846.337613	3671.810103
846.652438	3638.198210
846.967221	3626.076756
847.281960	3602.305195
847.596656	3585.117381
847.911309	3572.862336
848.225919	3555.654357
848.540485	3540.919064
848.855009	3531.466901
849.169490	3515.287318
849.483928	3504.592510
849.798323	3501.845081
850.112675	3487.250941
850.426984	3492.221518
850.741251	3478.421360
851.055474	3477.030001
851.369654	3481.307420
851.683792	3474.443889
851.997887	3481.335147
852.311938	3483.853203
852.625947	3490.046260
852.939914	3477.647543
853.253837	3488.894357
853.567718	3486.444356
853.881555	3478.658294
854.195350	3489.519460
854.509103	3487.049294
854.822812	3490.746981
855.136479	3482.121567
855.450103	3494.177486
855.763685	3478.595279
856.077224	3480.158037
856.390720	3497.996160
856.704173	3510.518386
857.017584	3522.085314
857.330953	3533.843805
857.644278	3549.650343
857.957561	3558.185016
858.270802	3552.455745
858.584000	3557.824574
858.897155	3556.755849
859.210268	3540.493087
859.523339	3522.012217
859.836367	3525.659492
860.149352	3517.495343
860.462295	3515.884694
860.775195	3504.345493
861.088054	3500.965400
861.400869	3497.628156
861.713642	3501.797190
862.026373	3511.146010
862.339062	3517.021475
862.651708	3530.599822
862.964312	3556.980181
863.276873	3568.957962
863.589392	3614.131742
863.901869	3654.881909
864.214303	3687.145293
864.526696	3714.637226
864.839045	3747.931527
865.151353	3773.596041
865.463619	3781.724901
865.775842	3787.567599
866.088023	3802.749033
866.400162	3794.663023
866.712258	3802.978406
867.024313	3804.795742
867.336325	3804.057213
867.648296	3808.793377
867.960224	3815.220848
868.272110	3824.917507
868.583954	3823.884071
868.895755	3838.664734
869.207515	3834.236080
869.519233	3869.627501
869.830909	3881.416239
870.142542	3898.236049
870.454134	3913.442690
870.765684	3939.568469
871.077191	3969.638952
871.388657	3986.564626
871.700081	4016.030170
872.011463	4050.068041
872.322803	4079.694902
872.634101	4103.612657
872.945357	4133.201709
873.256571	4176.054038
873.567744	4199.180331
873.878874	4216.713464
874.189963	4249.917024
874.501010	4260.014455
874.812015	4261.630145
875.122979	4295.965443
875.433900	4295.973005
875.744780	4307.033297
876.055618	4334.341227
876.366415	4335.382225
876.677169	4352.222200
876.987882	4395.500506
877.298554	4440.689409
877.609183	4507.610726
877.919771	4603.616980
878.230317	4723.369590
878.540822	4903.245521
878.851285	5170.744268
879.161707	5547.094128
879.472087	6172.335837
879.782425	7160.011302
880.092722	8859.159932
880.402977	11243.751730
880.713191	13772.850723
881.023363	16153.500339
881.333494	17599.230166
881.643583	18596.816538
881.953631	18841.536831
882.263637	18456.576680
882.573602	17508.065939
882.883526	16450.905731
883.193408	15259.731489
883.503248	14045.062949
883.813048	12885.990774
884.122806	11796.267233
884.432522	10703.579492
884.742197	9758.158979
885.051831	8930.986292
885.361424	8161.159250
885.670975	7525.421859
885.980485	6984.997563
886.289954	6540.720675
886.599382	6160.398385
886.908768	5862.183888
887.218113	5568.589608
887.527417	5338.597047
887.836680	5123.322133
888.145901	4945.482828
888.455082	4811.307478
888.764221	4691.935475
889.073319	4579.779884
889.382376	4523.515566
889.691392	4474.387002
890.000366	4454.703816
890.309300	4437.079942
890.618193	4443.436838
890.927044	4429.888737
891.235855	4447.880615
891.544625	4481.285821
891.853353	4530.268192
892.162041	4621.573570
892.470687	4778.408908
892.779293	4982.421883
893.087858	5291.346312
893.396381	5758.026088
893.704864	6401.834366
894.013306	7311.044271
894.321707	8246.972291
894.630068	8903.781705
894.938387	9081.154703
895.246665	8908.843023
895.554903	8442.586704
895.863100	7888.732775
896.171256	7430.355779
896.479371	7029.962135
896.787446	6625.482636
897.095480	6279.412465
897.403473	6016.614595
897.711425	5748.294140
898.019336	5537.649527
898.327207	5312.912368
898.635038	5125.724243
898.942827	4924.103295
899.250576	4769.866672
899.558284	4611.191314
899.865952	4508.132485
900.173579	4389.720823
900.481165	4302.554232
900.788711	4225.001121
901.096216	4162.296729
901.403681	4109.294037
901.711105	4089.878033
902.018489	4080.907300
902.325832	4138.298316
902.633135	4241.004264
902.940397	4530.628634
903.247619	5172.861552
903.554800	6314.960162
903.861941	7812.324006
904.169041	9014.596349
904.476101	9524.839256
904.783121	9275.750803
905.090100	8722.196823
905.397039	8060.994043
905.703938	7445.827081
906.010796	6891.421145
906.317614	6451.338497
906.624391	6012.458163
906.931129	5663.663249
907.237826	5337.011604
907.544483	5030.098596
907.851099	4722.686514
908.157675	4434.524077
908.464211	4173.651928
908.770707	3980.066579
909.077163	3814.971311
909.383578	3692.859441
909.689954	3595.860080
909.996289	3538.403529
910.302584	3485.806650
910.608839	3460.152218
910.915054	3432.680450
911.221229	3421.012700
911.527363	3431.342024
911.833458	3444.668314
912.139513	3465.102631
912.445527	3495.364678
912.751502	3564.725913
913.057436	3649.079541
913.363331	3763.435595
913.669186	3940.206175
913.975000	4153.482271
914.280775	4511.550388
914.586510	4993.691383
914.892205	5640.521833
915.197859	6473.622917
915.503475	7433.098167
915.809050	8277.544368
916.114585	8801.625243
916.420081	9028.343575
916.725536	9018.462914
917.030952	8674.799894
917.336328	8355.677212
917.641665	8031.253756
917.946961	7628.944473
918.252218	7291.822351
918.557435	6877.263065
918.862612	6530.224993
919.167750	6227.720474
919.472848	5881.325149
919.777906	5568.549279
920.082925	5276.018683
920.387904	4974.504751
920.692843	4752.663735
920.997743	4552.920617
921.302603	4356.096327
921.607423	4224.814598
921.912204	4088.466510
922.216946	3987.212414
922.521647	3885.807084
922.826310	3798.516985
923.130932	3716.144531
923.435516	3637.101759
923.740059	3574.888880
924.044564	3506.919002
924.349028	3458.685242
924.653454	3403.093918
924.957840	3347.961339
925.262186	3309.129331
925.566493	3256.061105
925.870761	3207.323229
926.174989	3174.931295
926.479178	3145.564053
926.783328	3106.109463
927.087438	3085.365115
927.391509	3053.084086
927.695541	3031.381919
927.999533	3005.677075
928.303486	2988.310300
928.607400	2973.784216
928.911275	2961.967751
929.215110	2948.248251
929.518906	2940.885646
929.822663	2939.532096
930.126381	2939.890018
930.430060	2946.446038
930.733699	2950.357974
931.037299	2955.159673
931.340861	2952.692028
931.644383	2963.623770
931.947866	2958.083542
932.251309	2956.639251
932.554714	2958.769139
932.858080	2950.514249
933.161407	2943.393620
933.464694	2937.215686
933.767943	2932.000612
934.071153	2926.283943
934.374323	2919.117943
934.677455	2915.211049
934.980548	2909.446490
935.283602	2902.809811
935.586617	2901.610016
935.889593	2907.823238
936.192530	2914.144845
936.495428	2924.945517
936.798287	2946.282201
937.101108	2972.556695
937.403890	3019.567975
937.706632	3071.645615
938.009336	3138.970224
938.312002	3201.059596
938.614628	3257.286105
938.917216	3302.827889
939.219765	3328.124399
939.522275	3355.192874
939.824747	3362.764688
940.127179	3360.707897
940.429573	3355.218080
940.731929	3355.588605
941.034246	3342.103518
941.336524	3332.835357
941.638763	3315.541679
941.940964	3307.465750
942.243126	3269.299175
942.545250	3248.222110
942.847335	3220.326886
943.149381	3187.224149
943.451389	3162.663647
943.753359	3130.778349
944.055290	3112.126080
944.357182	3089.314859
944.659036	3076.953950
944.960851	3069.382137
945.262628	3057.585837
945.564367	3057.742112
945.866067	3051.554096
946.167729	3050.177861
946.469352	3049.240206
946.770937	3041.108825
947.072484	3028.079963
947.373992	3033.496683
947.675462	3025.874458
947.976893	3010.859382
948.278286	3003.826972
948.579641	2998.669872
948.880958	2994.493276
949.182236	2997.822958
949.483476	2992.713748
949.784678	2994.702483
950.085841	2996.234994
950.386967	3004.459637
950.688054	3019.530166
950.989103	3034.956097
951.290114	3053.421843
951.591087	3080.528128
951.892021	3103.611571
952.192917	3126.548821
952.493776	3146.025319
952.794596	3150.723674
953.095378	3154.277688
953.396122	3150.963129
953.696828	3148.954229
953.997496	3140.255718
954.298126	3113.709002
954.598718	3098.252825
954.899272	3074.531675
955.199788	3052.340516
955.500266	3027.795138
955.800706	2993.764829
956.101108	2959.300981
956.401472	2935.340376
956.701798	2908.705440
957.002087	2870.957280
957.302337	2846.255626
957.602550	2823.772080
957.902724	2796.814510
958.202861	2778.164761
958.502960	2756.790269
958.803022	2739.670510
959.103045	2723.964796
959.403031	2706.386292
959.702979	2694.166535
960.002889	2684.391738
960.302762	2674.543844
960.602596	2661.177224
960.902393	2654.646410
961.202153	2649.209525
961.501875	2643.528145
961.801559	2636.404994
962.101205	2630.078346
962.400814	2625.349744
962.700385	2618.652571
962.999918	2611.226952
963.299414	2606.468102
963.598873	2606.339553
963.898293	2598.545929
964.197677	2601.457195
964.497022	2601.399222
964.796331	2598.634149
965.095601	2594.434868
965.394835	2592.335227
965.694030	2591.574013
965.993189	2591.150556
966.292309	2589.910432
966.591393	2587.407500
966.890439	2591.321956
967.189447	2584.891964
967.488419	2590.444795
967.787353	2590.621235
968.086249	2588.118302
968.385108	2591.216091
968.683930	2593.063674
968.982714	2599.234047
969.281462	2603.818976
969.580172	2607.791405
969.878844	2613.321551
970.177480	2619.648199
970.476078	2626.544497
970.774639	2632.661938
971.073162	2640.637043
971.371649	2646.946047
971.670098	2650.709268
971.968510	2656.380567
972.266885	2663.259221
972.565223	2663.823830
972.863524	2665.817607
973.161788	2668.925478
973.460014	2672.461847
973.758204	2674.742969
974.056356	2676.013340
974.354471	2678.002075
974.652550	2677.805470
974.950591	2674.795902
975.248595	2676.855213
975.546563	2672.366065
975.844493	2669.396826
976.142386	2664.756444
976.440243	2661.202430
976.738062	2656.995587
977.035845	2651.289001
977.333590	2648.896974
977.631299	2642.262815
977.928971	2636.558750
978.226606	2630.569859
978.524204	2629.309570
978.821765	2623.628190
979.119290	2628.707152
979.416777	2624.465022
979.714228	2628.926443
980.011642	2632.498100
980.309020	2641.839358
980.606360	2652.544248
980.903664	2674.407733
981.200931	2707.036601
981.498162	2746.110584
981.795356	2814.549289
982.092513	2887.255330
982.389633	2974.875625
982.686717	3054.893860
982.983764	3115.415433
983.280775	3155.031340
983.577749	3166.734379
983.874686	3151.149652
984.171587	3124.050929
984.468451	3092.037082
984.765279	3056.212122
985.062070	3014.093282
985.358824	2978.117087
985.655543	2927.798810
985.952224	2882.435987
986.248869	2828.641835
986.545478	2780.438322
986.842050	2735.055334
987.138586	2695.172245
987.435086	2661.479694
987.731549	2634.380971
988.027975	2613.971860
988.324366	2594.991916
988.620719	2586.593353
988.917037	2576.248906
989.213318	2566.302709
989.509563	2561.513613
989.805772	2561.022100
990.101944	2554.093034
990.398080	2551.345606
990.694180	2549.233362
990.990244	2552.978939
991.286271	2551.627910
991.582262	2554.569423
991.878217	2554.629917
992.174136	2561.768191
992.470019	2563.288099
992.765865	2565.241546
993.061676	2565.415466
993.357450	2575.129769
993.653188	2581.756366
993.948890	2598.999633
994.244556	2615.408589
994.540186	2633.672689
994.835780	2661.426762
995.131337	2695.381453
995.426859	2731.947463
995.722345	2771.364245
996.017795	2815.781851
996.313208	2846.681604
996.608586	2869.167670
996.903928	2882.980432
997.199234	2882.499002
997.494504	2877.974566
997.789738	2866.732793
998.084936	2844.604648
998.380099	2821.324600
998.675225	2794.898871
998.970316	2768.120262
999.265371	2737.351580
999.560390	2704.611806
999.855373	2680.033660
1000.150320	2659.616987
1000.445232	2631.925929
1000.740108	2615.769031
1001.034948	2596.186669
1001.329752	2585.383476
1001.624521	2574.103895
1001.919254	2560.903633
1002.213951	2559.166956
1002.508613	2551.758980
1002.803239	2545.639019
1003.097829	2539.849254
1003.392384	2536.612833
1003.686903	2527.705115
1003.981386	2529.101514
1004.275834	2524.322500
1004.570246	2521.680936
1004.864623	2521.567510
1005.158964	2520.448374
1005.453270	2518.651202
1005.747540	2513.249606
1006.041775	2516.851510
1006.335974	2514.030985
1006.630138	2511.094513
1006.924266	2510.371107
1007.218359	2510.605521
1007.512416	2509.297341
1007.806438	2506.640653
1008.100425	2508.689882
1008.394376	2503.946157
1008.688292	2508.773061
1008.982172	2508.314316
1009.276017	2508.457989
1009.569827	2507.217865
1009.863602	2506.060921
1010.157341	2507.301044
1010.451045	2508.316837
1010.744714	2502.670745
1011.038347	2504.692247
1011.331945	2503.615961
1011.625508	2503.767196
1011.919036	2502.232164
1012.212528	2500.019098
1012.505986	2499.744355
1012.799408	2500.969355
1013.092795	2500.450116
1013.386147	2499.608244
1013.679464	2501.372648
1013.972745	2499.421721
1014.265992	2498.012718
1014.559204	2500.185456
1014.852380	2498.499190
1015.145521	2501.939777
1015.438628	2501.080261
1015.731699	2498.602533
1016.024736	2500.964314
1016.317737	2501.022287
1016.610703	2502.365755
1016.903635	2501.516320
1017.196531	2505.622340
1017.489393	2504.024294
1017.782219	2508.294152
1018.075011	2509.161230
1018.367768	2508.775582
1018.660490	2508.939419
1018.953177	2508.939419
1019.245829	2508.939419
