Dividing Wavelength (nm)	Counts (n)	Blue Motor Position (mm): 9.500000	Red Motor Position (mm): 0.000000	
326.493990	2140.836886
326.888308	2140.836886
327.282561	2140.836886
327.676750	2109.425457
328.070874	2106.340270
328.464933	2109.821187
328.858929	2118.055912
329.252859	2122.923146
329.646726	2138.407050
330.040528	2148.532208
330.434265	2166.791267
330.827938	2183.656447
331.221547	2203.057328
331.615091	2219.146170
332.008571	2240.109808
332.401986	2262.694178
332.795338	2278.112547
333.188625	2296.432100
333.581847	2318.782055
333.975006	2334.265959
334.368100	2353.752539
334.761129	2373.125694
335.154095	2392.582027
335.546996	2406.021743
335.939833	2423.680905
336.332606	2437.589448
336.725315	2451.041767
337.117960	2459.014352
337.510540	2465.920733
337.903056	2479.322641
338.295508	2485.614001
338.687896	2494.834271
339.080220	2503.502535
339.472480	2509.168792
339.864676	2514.053670
340.256807	2515.306397
340.648875	2520.710514
341.040879	2523.611698
341.432818	2525.819723
341.824694	2527.072450
342.216506	2527.760567
342.608253	2529.434230
342.999937	2527.218643
343.391557	2530.855836
343.783113	2527.448016
344.174605	2525.630680
344.566033	2524.687984
344.957397	2524.156142
345.348697	2521.461646
345.739934	2519.175482
346.131106	2516.886798
346.522215	2515.555934
346.913260	2515.175327
347.304241	2510.396313
347.695159	2510.320696
348.086012	2506.726353
348.476802	2506.675941
348.867528	2503.041269
349.258191	2504.840961
349.648789	2501.228975
350.039324	2498.186638
350.429796	2500.558501
350.820203	2499.832575
351.210548	2496.787718
351.600828	2494.982985
351.991045	2495.149343
352.381198	2493.833602
352.771288	2494.337717
353.161314	2493.291678
353.551276	2494.181442
353.941175	2493.631956
354.331010	2492.580875
354.720782	2494.806545
355.110490	2492.429641
355.500135	2495.575321
355.889717	2495.751761
356.279235	2494.320073
356.668689	2494.902327
357.058080	2495.008191
357.447408	2492.754795
357.836672	2491.217243
358.225873	2493.211019
358.615010	2488.863024
359.004084	2500.621516
359.393095	2497.740496
359.782043	2497.783346
360.170927	2499.469612
360.559748	2502.055724
360.948505	2495.608088
361.337199	2500.659324
361.725830	2501.775940
362.114398	2500.729900
362.502903	2500.543378
362.891344	2502.751403
363.279722	2504.556136
363.668037	2504.069665
364.056289	2503.462206
364.444478	2502.007833
364.832603	2503.361383
365.220665	2502.350631
365.608665	2506.812053
365.996601	2504.916579
366.384474	2503.134531
366.772284	2506.378513
367.160031	2503.568070
367.547715	2506.055879
367.935336	2508.566374
368.322893	2506.413801
368.710388	2505.773575
369.097820	2510.393792
369.485189	2507.391785
369.872495	2506.345746
370.259738	2506.433966
370.646918	2508.241220
371.034035	2508.841117
371.421090	2508.047135
371.808081	2507.565705
372.195010	2511.333968
372.581875	2509.239368
372.968678	2509.841786
373.355418	2509.877074
373.742096	2509.594769
374.128710	2509.188957
374.515262	2509.882115
374.901751	2510.991169
375.288177	2514.275481
375.674540	2510.290449
376.060841	2511.646519
376.447079	2512.526200
376.833254	2511.218021
377.219367	2509.965294
377.605417	2510.799605
377.991404	2506.920437
378.377329	2512.427898
378.763191	2508.818432
379.148991	2511.757424
379.534727	2512.364883
379.920402	2513.599966
380.306013	2511.966632
380.691563	2514.852693
381.077049	2513.269771
381.462474	2517.312776
381.847835	2511.764986
382.233134	2514.605676
382.618371	2517.075842
383.003545	2514.734226
383.388657	2514.895543
383.773706	2515.495440
384.158693	2514.209946
384.543618	2517.229597
384.928480	2518.575585
385.313280	2517.214473
385.698017	2517.121212
386.082692	2518.250431
386.467305	2521.169259
386.851856	2516.753208
387.236344	2518.394103
387.620770	2517.549710
388.005133	2518.956192
388.389435	2518.593229
388.773674	2516.803619
389.157851	2517.307735
389.541965	2517.857221
389.926018	2521.002901
390.310008	2519.969464
390.693936	2521.141532
391.077802	2516.060049
391.461606	2520.304701
391.845348	2522.323683
392.229027	2521.703621
392.612645	2520.455935
392.996200	2522.507685
393.379694	2521.529701
393.763125	2522.810154
394.146494	2517.882426
394.529801	2522.721934
394.913047	2521.789321
395.296230	2523.883920
395.679351	2518.079031
396.062410	2523.107582
396.445408	2523.142870
396.828343	2524.360309
397.211217	2521.469207
397.594028	2518.222704
397.976778	2519.508198
398.359466	2522.910977
398.742092	2519.911491
399.124656	2524.637573
399.507158	2522.202695
399.889598	2525.227387
400.271977	2525.650844
400.654294	2523.079856
401.036549	2523.561286
401.418742	2524.204033
401.800874	2525.035824
402.182944	2523.299146
402.564952	2526.648993
402.946898	2526.860721
403.328783	2524.163704
403.710606	2526.346524
404.092367	2525.885258
404.474067	2524.844260
404.855705	2526.943900
405.237282	2529.046062
405.618797	2524.045237
406.000250	2527.397604
406.381642	2527.818541
406.762972	2527.523633
407.144240	2525.063550
407.525447	2528.887265
407.906593	2526.326359
408.287677	2527.949611
408.668700	2530.361803
409.049661	2528.592358
409.430560	2531.312060
409.811399	2529.222502
410.192176	2530.402132
410.572891	2528.925074
410.953545	2528.597399
411.334138	2530.800383
411.714669	2527.556401
412.095139	2529.817358
412.475547	2528.025228
412.855894	2532.332894
413.236180	2528.121010
413.616405	2529.741741
413.996568	2527.858870
414.376670	2531.022194
414.756711	2530.268541
415.136691	2530.805424
415.516609	2530.800383
415.896466	2530.613860
416.276262	2532.743748
416.655997	2526.306194
417.035670	2530.530681
417.415283	2530.510517
417.794834	2528.315094
418.174324	2531.541433
418.553753	2531.334745
418.933121	2533.963707
419.312428	2532.756351
419.691674	2533.764582
420.070859	2531.034797
420.449983	2530.613860
420.829045	2531.145702
421.208047	2530.888603
421.586988	2531.337266
421.965867	2533.666279
422.344686	2531.044879
422.723444	2532.708460
423.102141	2531.644776
423.480777	2533.000847
423.859352	2531.037317
424.237866	2536.549819
424.616319	2535.455889
424.994712	2533.000847
425.373044	2533.857843
425.751314	2532.983203
426.129524	2533.056299
426.507673	2533.948584
426.885762	2534.961856
427.263789	2535.647452
427.641756	2536.602751
428.019662	2535.957483
428.397508	2532.963038
428.775292	2536.360776
429.153016	2531.362472
429.530679	2534.863553
429.908282	2534.372041
430.285824	2532.665610
430.663305	2533.981351
431.040726	2535.468492
431.418086	2533.784746
431.795385	2535.221475
432.172624	2535.712988
432.549802	2536.814480
432.926920	2535.886907
433.303977	2536.091074
433.680974	2537.187525
434.057910	2537.230375
434.434786	2532.267359
434.811601	2538.447813
435.188355	2535.440765
435.565050	2535.624767
435.941683	2536.343132
436.318257	2537.437062
436.694770	2535.057637
437.071222	2534.193080
437.447614	2535.395395
437.823946	2534.213244
438.200218	2537.643749
438.576429	2539.256919
438.952580	2540.025695
439.328670	2539.821528
439.704700	2539.022505
440.080670	2536.391023
440.456580	2537.245498
440.832429	2537.434542
441.208218	2537.459747
441.583947	2539.929913
441.959616	2536.537216
442.335224	2538.152906
442.710773	2537.527803
443.086261	2537.489994
443.461689	2537.111908
443.837057	2539.582073
444.212365	2538.878832
444.587612	2541.114584
444.962800	2539.529141
445.337927	2538.369676
445.712995	2539.571991
446.088002	2538.934285
446.462949	2538.964532
446.837837	2541.492670
447.212664	2539.340098
447.587431	2539.481250
447.962139	2538.077289
448.336786	2539.254398
448.711374	2540.076106
449.085901	2536.572504
449.460369	2538.069727
449.834776	2538.440252
450.209124	2541.139790
450.583412	2540.582742
450.957640	2539.045190
451.331808	2539.461085
451.705917	2539.826569
452.079965	2540.179450
452.453954	2539.146013
452.827883	2540.323123
453.201752	2540.224820
453.575562	2541.855633
453.949311	2541.502753
454.323001	2539.617361
454.696632	2541.704399
455.070202	2540.560057
455.443713	2540.875129
455.817164	2540.068544
456.190556	2536.953111
456.563888	2541.744728
456.937160	2537.071578
457.310373	2539.861857
457.683526	2540.242464
458.056619	2542.009389
458.429653	2541.311189
458.802628	2542.664739
459.175542	2540.721374
459.548398	2540.993596
459.921194	2539.461085
460.293930	2543.246992
460.666607	2541.706919
461.039224	2542.357228
461.411782	2541.860675
461.784280	2544.792106
462.156719	2541.119625
462.529099	2542.034594
462.901419	2542.818494
463.273680	2543.700696
463.645882	2540.300438
464.018024	2541.843031
464.390106	2541.933771
464.762130	2543.299924
465.134094	2541.848072
465.505999	2544.023330
465.877845	2543.680531
466.249631	2545.548279
466.621358	2544.817311
466.993026	2545.240768
467.364634	2546.954761
467.736184	2542.067362
468.107674	2542.337064
468.479105	2545.530635
468.850477	2540.275232
469.221790	2545.891077
469.593043	2541.976621
469.964238	2542.863864
470.335373	2542.241282
470.706449	2543.819163
471.077467	2541.747249
471.448425	2544.865202
471.819324	2546.251520
472.190164	2546.289328
472.560945	2541.469985
472.931667	2547.632796
473.302330	2547.032898
473.672934	2547.363094
474.043479	2543.400747
474.413965	2544.396375
474.784393	2539.670293
475.154761	2545.936448
475.525070	2542.536189
475.895321	2540.693647
476.265513	2539.566950
476.635645	2545.427291
477.005719	2544.736653
477.375734	2545.213042
477.745691	2544.703885
478.115588	2545.180274
478.485427	2543.196580
478.855207	2549.636654
479.224928	2545.583567
479.594591	2544.353525
479.964194	2544.645912
480.333739	2547.864689
480.703226	2546.833773
481.072653	2546.886705
481.442022	2546.697662
481.811333	2545.142466
482.180584	2547.544576
482.549777	2548.252858
482.918912	2546.281767
483.287988	2545.938968
483.657005	2547.526932
484.025964	2548.000800
484.394864	2546.707744
484.763706	2548.038609
485.132489	2545.475182
485.501213	2548.797302
485.869879	2547.534493
486.238487	2546.599359
486.607036	2545.344112
486.975527	2547.342929
487.343959	2544.809750
487.712333	2548.613300
488.080648	2549.089689
488.448905	2545.754966
488.817104	2545.883515
489.185244	2547.559699
489.553326	2546.768238
489.921350	2548.270502
490.289315	2547.494164
490.657222	2545.165151
491.025070	2546.790923
491.392861	2550.140770
491.760593	2550.476007
492.128267	2547.985677
492.495883	2549.611449
492.863440	2546.294369
493.230939	2548.121788
493.598380	2547.857127
493.965763	2543.156251
494.333088	2547.204298
494.700354	2542.178267
495.067563	2544.537527
495.434713	2544.013247
495.801805	2548.663712
496.168839	2544.555171
496.535815	2547.438711
496.902733	2546.279246
497.269593	2551.259906
497.636395	2547.385779
498.003139	2546.571633
498.369825	2549.593805
498.736453	2548.514998
499.103023	2547.211859
499.469535	2546.962322
499.835989	2547.872251
500.202385	2545.823022
500.568723	2551.146480
500.935003	2551.204453
501.301226	2549.755122
501.667390	2548.988866
502.033497	2550.775955
502.399546	2548.963660
502.765537	2550.574309
503.131470	2548.318393
503.497345	2552.613456
503.863163	2548.653629
504.228923	2549.223280
504.594625	2550.589432
504.960269	2547.048022
505.325856	2550.395348
505.691385	2548.290666
506.056856	2550.158414
506.422270	2549.021634
506.787625	2547.229503
507.152924	2550.702858
507.518164	2549.543393
507.883347	2548.809905
508.248472	2551.118754
508.613540	2548.212528
508.978550	2549.235883
509.343503	2547.854607
509.708398	2550.561706
510.073236	2549.009031
510.438016	2549.180430
510.802738	2548.905687
511.167403	2551.269988
511.532010	2548.162117
511.896561	2549.770245
512.261053	2550.523897
512.625488	2546.501057
512.989866	2547.141283
513.354186	2547.842004
513.718449	2546.674977
514.082655	2549.079607
514.446803	2550.937272
514.810894	2550.039947
515.174927	2549.946685
515.538904	2549.833259
515.902822	2549.399720
516.266684	2550.554144
516.630488	2552.184958
516.994235	2551.421223
517.357925	2552.409289
517.721558	2552.139587
518.085133	2550.586912
518.448651	2553.238559
518.812112	2549.102292
519.175516	2551.209494
519.538863	2550.854093
519.902152	2553.835936
520.265385	2548.545245
520.628560	2551.038095
520.991678	2548.925852
521.354739	2550.239072
521.717743	2547.836962
522.080690	2553.311656
522.443580	2551.085986
522.806413	2551.118754
523.169189	2552.396686
523.531908	2552.336192
523.894569	2551.464073
524.257174	2551.708569
524.619722	2549.581202
524.982213	2555.270144
525.344647	2553.188147
525.707025	2550.037426
526.069345	2553.089845
526.431608	2550.831408
526.793815	2551.285112
527.155964	2553.346944
527.518057	2550.324772
527.880093	2552.875596
528.242072	2553.538507
528.603995	2552.489947
528.965860	2555.718807
529.327669	2555.164280
529.689421	2553.218394
530.051117	2552.905843
530.412755	2553.384752
530.774337	2556.142263
531.135862	2551.088507
531.497331	2554.398024
531.858743	2550.861655
532.220098	2554.103117
532.581396	2549.440049
532.942638	2551.262427
533.303824	2551.753939
533.664953	2558.287274
534.026025	2554.032541
534.387040	2555.474311
534.747999	2554.425751
535.108902	2555.547407
535.469748	2553.815771
535.830537	2555.479352
536.191270	2553.273847
536.551947	2557.168138
536.912567	2555.048333
537.273131	2556.981616
537.633638	2554.264434
537.994089	2555.058415
538.354483	2556.182593
538.714821	2559.691236
539.075103	2559.426575
539.435328	2558.002449
539.795497	2556.507747
540.155609	2559.020762
540.515665	2557.631924
540.875665	2559.008159
541.235609	2559.328273
541.595496	2557.770556
541.955328	2559.083777
542.315102	2563.855229
542.674821	2559.540001
543.034483	2560.651576
543.394090	2559.076215
543.753640	2561.203582
544.113134	2558.199054
544.472571	2560.190310
544.831953	2562.300033
545.191278	2560.772563
545.550548	2562.141237
545.909761	2559.817265
546.268918	2560.752399
546.628019	2560.167625
546.987064	2562.037893
547.346053	2560.709549
547.704986	2559.381205
548.063863	2562.199210
548.422684	2561.679971
548.781449	2560.780125
549.140158	2561.148129
549.498811	2566.736248
549.857408	2562.836916
550.215949	2559.766853
550.574434	2559.666030
550.932864	2561.077553
551.291237	2558.103272
551.649555	2561.541339
552.007817	2563.308264
552.366022	2564.520661
552.724173	2561.836247
553.082267	2563.323387
553.440305	2561.495969
553.798288	2564.124931
554.156215	2563.119220
554.514086	2560.964127
554.871902	2559.870197
555.229661	2565.102914
555.587365	2563.678788
555.945014	2562.478994
556.302606	2563.192317
556.660143	2564.936556
557.017625	2563.444375
557.375050	2562.085784
557.732421	2563.220043
558.089735	2563.663665
558.446994	2563.711556
558.804197	2564.848336
559.161345	2562.453788
559.518437	2562.998233
559.875474	2563.167111
560.232455	2561.561504
560.589381	2562.894889
560.946251	2566.678275
561.303065	2564.288768
561.659825	2564.354303
562.016528	2562.053016
562.373177	2564.603840
562.729770	2563.986299
563.086307	2561.286761
563.442789	2564.079560
563.799216	2566.131310
564.155587	2562.494117
564.511904	2562.683161
564.868164	2560.964127
565.224370	2561.624518
565.580520	2561.740465
565.936615	2560.444888
566.292654	2561.493448
566.648638	2562.841957
567.004567	2561.869014
567.360441	2561.770712
567.716260	2562.642831
568.072023	2561.788356
568.427732	2556.709393
568.783385	2558.897254
569.138982	2558.289795
569.494525	2559.169476
569.850013	2553.906512
570.205445	2564.074519
570.560823	2560.205433
570.916145	2563.603171
571.271412	2562.211813
571.626625	2562.264745
571.981782	2561.145609
572.336884	2563.144426
572.691931	2560.003787
573.046923	2558.892213
573.401860	2560.815413
573.756743	2561.722821
574.111570	2561.511092
574.466342	2560.127296
574.821059	2560.439847
575.175722	2557.291647
575.530330	2559.935732
575.884882	2562.504200
576.239380	2561.223747
576.593823	2559.192162
576.948211	2559.343396
577.302544	2558.829198
577.656823	2559.897923
578.011047	2556.734599
578.365216	2561.054868
578.719330	2560.696946
579.073389	2558.675443
579.427394	2557.873900
579.781344	2558.645196
580.135239	2560.679302
580.489080	2560.187789
580.842866	2560.341545
581.196597	2563.532595
581.550273	2559.449260
581.903895	2557.626883
582.257463	2558.246945
582.610975	2557.485731
582.964434	2555.123950
583.317837	2559.136709
583.671186	2559.754250
584.024481	2560.588561
584.377721	2557.354661
584.730906	2561.112841
585.084037	2558.178890
585.437113	2561.758109
585.790135	2558.413303
586.143103	2556.492624
586.496016	2558.902295
586.848874	2554.902140
587.201679	2555.960782
587.554428	2554.826522
587.907124	2559.048489
588.259765	2552.865513
588.612352	2558.756102
588.964884	2556.540515
589.317362	2559.819785
589.669786	2560.460012
590.022155	2560.586041
590.374470	2559.396328
590.726731	2556.664023
591.078937	2560.182748
591.431090	2559.247614
591.783188	2557.669733
592.135232	2561.246432
592.487222	2557.868859
592.839157	2558.526729
593.191038	2558.604867
593.542866	2556.905998
593.894639	2559.794579
594.246358	2558.040258
594.598022	2557.803324
594.949633	2557.208467
595.301190	2559.023283
595.652692	2558.176369
596.004141	2559.519837
596.355535	2556.986657
596.706876	2558.539332
597.058162	2557.102603
597.409395	2558.183931
597.760573	2556.875751
598.111698	2558.476318
598.462768	2558.562017
598.813785	2559.681153
599.164748	2558.841801
599.515657	2555.444064
599.866511	2559.908005
600.217312	2557.032027
600.568060	2561.511092
600.918753	2559.403890
601.269392	2557.493293
601.619978	2557.495813
601.970510	2558.597305
602.320988	2558.183931
602.671412	2559.620660
603.021783	2557.357182
603.372100	2559.161915
603.722363	2560.712069
604.072572	2560.291133
604.422728	2559.716442
604.772830	2556.250648
605.122878	2558.645196
605.472872	2557.195865
605.822813	2553.714948
606.172701	2560.553273
606.522534	2557.818447
606.872314	2559.693756
607.222041	2560.843139
607.571714	2559.671071
607.921333	2561.445557
608.270899	2561.831206
608.620411	2562.196689
608.969870	2562.355486
609.319276	2563.086453
609.668627	2567.973852
610.017926	2567.358831
610.367171	2573.869481
610.716362	2567.661300
611.065500	2568.432597
611.414585	2565.909499
611.763616	2563.431772
612.112594	2566.370765
612.461518	2566.355641
612.810389	2567.285734
613.159207	2563.935887
613.507971	2563.759447
613.856682	2565.733059
614.205340	2564.563511
614.553945	2566.128789
614.902496	2564.291289
615.250994	2563.343552
615.599439	2566.055693
615.947830	2564.813048
616.296169	2562.252142
616.644454	2569.085426
616.992686	2567.303378
617.340864	2567.792370
617.688990	2564.760116
618.037063	2566.274983
618.385082	2563.628377
618.733048	2568.120045
619.080961	2567.237843
619.428821	2567.242884
619.776628	2569.803790
620.124382	2567.774726
620.472083	2568.581311
620.819731	2570.675910
621.167326	2569.007288
621.514868	2568.916547
621.862357	2567.376475
622.209793	2567.147102
622.557176	2565.896896
622.904506	2566.985785
623.251783	2564.049313
623.599007	2565.284396
623.946179	2565.969993
624.293297	2567.696588
624.640363	2572.238668
624.987376	2570.716239
625.334336	2570.030642
625.681243	2571.301013
626.028097	2569.748338
626.374899	2570.098698
626.721647	2573.952660
627.068343	2572.299162
627.414987	2572.107598
627.761577	2573.647670
628.108115	2571.979048
628.454600	2574.431570
628.801032	2574.872671
629.147412	2573.955181
629.493739	2574.524831
629.840014	2575.908628
630.186236	2576.392578
630.532405	2577.257136
630.878521	2576.258988
631.224585	2578.603124
631.570597	2576.576581
631.916556	2581.194277
632.262462	2579.006417
632.608316	2582.222673
632.954117	2580.037333
633.299866	2584.781058
633.645562	2580.964905
633.991206	2582.227714
634.336797	2579.311407
634.682336	2587.226018
635.027823	2583.765266
635.373257	2583.528332
635.718639	2583.921542
636.063968	2585.532190
636.409245	2583.329206
636.754470	2586.439598
637.099642	2585.474217
637.444762	2588.806420
637.789829	2586.230390
638.134845	2586.968919
638.479808	2589.537387
638.824719	2588.665268
639.169577	2588.788776
639.514383	2592.221802
639.859137	2592.282295
640.203839	2596.214395
640.548489	2592.899837
640.893086	2590.555700
641.237632	2591.977306
641.582125	2591.725248
641.926566	2592.735999
642.270955	2598.114910
642.615292	2600.075919
642.959576	2599.791094
643.303809	2602.241095
643.647990	2604.549943
643.992118	2604.307968
644.336195	2605.321240
644.680219	2608.219903
645.024192	2607.887187
645.368112	2610.795933
645.711981	2613.543362
646.055797	2616.817591
646.399562	2623.189610
646.743274	2625.095166
647.086935	2631.646145
647.430544	2629.145733
647.774101	2636.775519
648.117606	2634.141516
648.461059	2636.606641
648.804460	2639.853144
649.147810	2640.137969
649.491108	2641.027732
649.834354	2640.619399
650.177548	2642.388844
650.520690	2640.846251
650.863781	2645.020326
651.206820	2646.124339
651.549807	2642.668628
651.892742	2647.876140
652.235626	2647.009062
652.578458	2648.057622
652.921238	2648.395379
653.263967	2653.582726
653.606644	2648.261788
653.949269	2653.544917
654.291843	2653.857469
654.634365	2655.647079
654.976836	2661.746875
655.319255	2666.780467
655.661622	2663.987668
656.003938	2669.457320
656.346203	2665.542864
656.688416	2672.333298
657.030577	2670.546209
657.372687	2677.210614
657.714746	2674.828669
658.056753	2676.640964
658.398708	2675.259688
658.740612	2678.133145
659.082465	2686.877027
659.424266	2687.880216
659.766016	2683.892664
660.107715	2696.855991
660.449362	2694.642924
660.790958	2701.433358
661.132503	2703.447299
661.473996	2710.903166
661.815438	2709.970552
662.156829	2713.617827
662.498168	2714.429453
662.839456	2714.926007
663.180693	2724.731051
663.521879	2722.528067
663.863013	2725.759446
664.204097	2737.369224
664.545129	2737.870818
664.886110	2740.343504
665.227040	2748.265678
665.567918	2744.081520
665.908746	2755.691297
666.249522	2761.465939
666.590248	2760.427461
666.930922	2764.495672
667.271545	2772.203597
667.612118	2776.332302
667.952639	2770.338370
668.293109	2784.388066
668.633528	2784.362860
668.973896	2782.734567
669.314213	2789.600619
669.654480	2795.256793
669.994695	2793.320990
670.334859	2794.427523
670.674973	2800.539922
671.015035	2803.690644
671.355047	2811.375883
671.695008	2814.869402
672.034918	2812.275729
672.374777	2817.722695
672.714585	2824.737461
673.054342	2825.884323
673.394049	2827.182421
673.733705	2840.924606
674.073310	2846.308558
674.412864	2835.989316
674.752368	2846.452231
675.091820	2849.355936
675.431223	2843.432580
675.770574	2850.273426
676.109875	2842.817559
676.449125	2850.364167
676.788324	2846.850482
677.127473	2848.927438
677.466571	2847.475585
677.805619	2856.380784
678.144616	2863.012422
678.483562	2861.857997
678.822458	2859.251721
679.161303	2863.544263
679.500098	2866.208513
679.838842	2868.522403
680.177535	2877.427601
680.516179	2874.695296
680.854771	2882.957747
681.193314	2897.942577
681.531805	2915.846234
681.870247	2951.116667
682.208638	2966.978658
682.546978	2971.460244
682.885268	2972.297075
683.223508	2969.330356
683.561697	2966.230047
683.899836	2968.740541
684.237925	2967.026549
684.575963	2965.120993
684.913951	2960.094962
685.251889	2987.874241
685.589776	2981.277891
685.927614	2978.974083
686.265401	3002.634739
686.603137	2999.983092
686.940824	3021.481093
687.278460	3029.047865
687.616046	3041.212169
687.953582	3053.580640
688.291068	3054.851011
688.628504	3083.242789
688.965889	3074.251891
689.303224	3065.951631
689.640510	3066.909451
689.977745	3057.348902
690.314930	3045.968497
690.652065	3041.930533
690.989150	3022.648120
691.326185	3018.423633
691.663170	3018.647964
692.000105	3008.621109
692.336990	2989.298367
692.673825	3000.033504
693.010610	2987.786020
693.347345	2964.334573
693.684030	2982.785196
694.020665	2978.714464
694.357251	2961.037658
694.693786	2968.843885
695.030272	2969.302630
695.366707	2969.121148
695.703093	2961.488841
696.039429	2970.341108
696.375716	2978.255719
696.711952	2969.647949
697.048139	2968.811117
697.384276	2971.760192
697.720363	2982.533138
698.056400	2990.588902
698.392388	2978.538024
698.728326	2977.199597
699.064214	2972.907055
699.400053	2979.032057
699.735842	2980.620020
700.071581	2974.303454
700.407270	2971.437558
700.742910	2973.912765
701.078501	2961.055302
701.414042	2969.897486
701.749533	2966.598051
702.084974	2945.326902
702.420366	2968.760706
702.755709	2962.003039
703.091002	2946.352777
703.426246	2971.588793
703.761440	2953.012141
704.096584	2941.304061
704.431679	2959.311063
704.766725	2959.376598
705.101721	2960.301650
705.436668	2974.875625
705.771565	2951.829991
706.106413	2962.469346
706.441212	2986.815598
706.775961	2992.494458
707.110661	2979.158086
707.445311	2985.336020
707.779913	3007.736387
708.114465	3010.483816
708.448967	3010.420801
708.783421	3035.109852
709.117825	3049.010834
709.452180	3048.935217
709.786485	3065.341652
710.120742	3093.814089
710.454949	3084.921493
710.789107	3106.711881
711.123216	3131.169039
711.457275	3130.221302
711.791286	3160.221208
712.125247	3172.405677
712.459159	3129.560911
712.793023	3150.138901
713.126837	3173.728980
713.460602	3168.677744
713.794318	3129.450005
714.127985	3144.906183
714.461602	3136.215234
714.795171	3117.618417
715.128691	3105.318002
715.462162	3099.245932
715.795584	3088.941813
716.128957	3088.815785
716.462281	3064.928277
716.795556	3064.658575
717.128782	3062.989953
717.461960	3048.191646
717.795088	3053.878068
718.128167	3044.410781
718.461198	3021.415558
718.794180	3020.296422
719.127113	3030.144316
719.459997	3026.184489
719.792833	3011.252592
720.125619	3006.090450
720.458357	3001.485356
720.791046	3010.120852
721.123686	2999.365551
721.456278	2987.385249
721.788821	2997.230622
722.121315	2993.588388
722.453761	2979.079948
722.786158	2993.908502
723.118506	3005.997189
723.450805	2982.893581
723.783056	2994.397494
724.115259	3010.435925
724.447412	3013.531193
724.779518	3007.350738
725.111574	3013.316944
725.443582	3025.203985
725.775542	3025.733306
726.107453	3046.628889
726.439315	3047.952192
726.771129	3048.839435
727.102895	3061.820406
727.434612	3088.924169
727.766281	3090.421392
728.097901	3083.308324
728.429473	3092.052205
728.760996	3097.592433
729.092471	3092.027000
729.423897	3095.001280
729.755276	3109.920575
730.086606	3106.863115
730.417887	3113.378807
730.749120	3148.298879
731.080305	3182.722398
731.411442	3187.856814
731.742530	3172.299813
732.073570	3178.797860
732.404562	3207.824824
732.735506	3208.752396
733.066401	3190.790765
733.397249	3170.366530
733.728048	3145.001965
734.058798	3130.760705
734.389501	3105.106273
734.720156	3074.985379
735.050762	3065.901220
735.381320	3071.365831
735.711831	3045.020761
736.042293	3037.070861
736.372707	3055.380332
736.703073	3043.052190
737.033391	3033.511806
737.363661	3042.422046
737.693883	3061.888461
738.024056	3066.947259
738.354182	3054.974519
738.684260	3089.022472
739.014290	3094.779470
739.344272	3090.491968
739.674207	3114.802933
740.004093	3116.663118
740.333931	3113.275463
740.663722	3120.199488
740.993464	3120.776700
741.323159	3108.708178
741.652806	3102.005964
741.982405	3095.248297
742.311956	3085.523911
742.641460	3086.713623
742.970915	3077.725246
743.300323	3062.652196
743.629683	3050.261040
743.958996	3050.258519
744.288260	3043.374824
744.617477	3031.661703
744.946647	3025.486289
745.275768	3023.797503
745.604842	3022.665764
745.933869	2995.597288
746.262847	2996.638287
746.591778	3026.161804
746.920662	3009.972138
747.249498	2989.762153
747.578286	3022.491844
747.907027	3025.813964
748.235720	3014.070597
748.564365	3037.527085
748.892963	3044.241902
749.221514	3035.687064
749.550017	3021.047553
749.878473	3025.319931
750.206881	3012.583456
750.535242	3012.301152
750.863555	3019.449508
751.191821	3019.794827
751.520039	3001.840757
751.848210	2990.102431
752.176334	3018.617717
752.504411	3027.795138
752.832440	2998.107783
753.160421	2988.602687
753.488356	3004.237826
753.816243	3013.387520
754.144082	2987.924652
754.471875	2980.622541
754.799620	2996.144253
755.127318	2988.731237
755.454969	2991.672750
755.782572	2998.183400
756.110129	2981.497181
756.437638	2976.211531
756.765100	2989.605877
757.092515	2997.548215
757.419882	3002.304543
757.747203	2985.880464
758.074477	2982.303766
758.401703	3000.033504
758.728882	3010.410719
759.056014	3013.367356
759.383099	3017.904394
759.710138	3005.815707
760.037129	3018.461442
760.364073	3045.114022
760.690970	3037.466592
761.017820	3022.111237
761.344623	3031.838143
761.671379	3059.604819
761.998088	3087.981474
762.324751	3154.078562
762.651366	3268.749689
762.977935	3480.183243
763.304456	3700.262376
763.630931	3778.979993
763.957359	3599.068774
764.283740	3439.377623
764.610074	3358.749408
764.936362	3262.912033
765.262602	3175.599248
765.588796	3121.379118
765.914943	3079.383786
766.241044	3031.422248
766.567097	3020.331710
766.893104	2992.199551
767.219064	2978.376707
767.544978	2970.144503
767.870845	2933.404573
768.196665	2922.745053
768.522438	2937.331632
768.848165	2939.096036
769.173846	2916.057963
769.499479	2907.316602
769.825066	2897.561969
770.150607	2889.115516
770.476101	2904.087743
770.801548	2903.225706
771.126949	2874.838968
771.452303	2864.353368
771.777611	2875.035573
772.102872	2879.968342
772.428087	2861.913450
772.753256	2858.382122
773.078378	2854.039168
773.403453	2836.697598
773.728482	2828.578820
774.053465	2845.290245
774.378401	2836.997547
774.703291	2819.303097
775.028135	2820.097079
775.352932	2819.736636
775.677683	2811.461582
776.002388	2811.895122
776.327046	2811.605255
776.651658	2806.359935
776.976224	2799.574542
777.300743	2801.573359
777.625216	2799.214099
777.949643	2790.916360
778.274024	2795.108079
778.598359	2789.577933
778.922647	2792.159004
779.246889	2795.690332
779.571086	2784.093158
779.895236	2778.999072
780.219339	2785.043416
780.543397	2798.435241
780.867409	2796.827113
781.191374	2792.337965
781.515294	2792.952986
781.839167	2792.597585
782.162995	2790.129940
782.486776	2794.533388
782.810511	2793.351237
783.134201	2787.430402
783.457844	2791.659930
783.781441	2787.475772
784.104993	2775.805501
784.428498	2776.949843
784.751958	2787.826132
785.075372	2784.604835
785.398739	2772.783329
785.722061	2788.325207
786.045337	2796.471711
786.368568	2785.683642
786.691752	2778.068979
787.014891	2811.514514
787.337983	2826.459015
787.661030	2835.457475
787.984031	2876.394164
788.306987	2907.646798
788.629897	2902.003226
788.952760	2900.574059
789.275579	2897.015004
789.598351	2859.062678
789.921078	2831.265755
790.243759	2829.834067
790.566395	2819.235042
790.888984	2805.480253
791.211529	2793.792338
791.534027	2788.196657
791.856480	2783.954526
792.178888	2774.073865
792.501249	2768.034562
792.823566	2767.406939
793.145836	2766.197062
793.468062	2761.856628
793.790241	2761.198758
794.112375	2767.593462
794.434464	2774.063782
794.756507	2777.549740
795.078505	2779.072169
795.400457	2786.805299
795.722364	2809.901345
796.044226	2821.012048
796.366042	2821.750577
796.687812	2817.364773
797.009538	2837.204234
797.331218	2829.390446
797.652852	2820.518015
797.974442	2809.571150
798.295986	2809.049390
798.617484	2804.706436
798.938938	2796.111269
799.260346	2787.977367
799.581709	2784.952675
799.903026	2782.638785
800.224299	2775.288783
800.545526	2770.449275
800.866708	2759.182296
801.187845	2751.587798
801.508936	2753.495875
801.829983	2762.111207
802.150984	2752.979157
802.471940	2741.457599
802.792851	2741.034142
803.113717	2739.778895
803.434538	2750.156110
803.755314	2742.798546
804.076045	2738.390057
804.396731	2737.601117
804.717372	2737.540623
805.037967	2734.253791
805.358518	2738.571539
805.679024	2745.939185
805.999485	2742.901890
806.319901	2748.023702
806.640272	2738.427866
806.960598	2742.188567
807.280879	2753.014445
807.601115	2757.329672
807.921306	2747.927920
808.241453	2742.808629
808.561554	2750.665267
808.881611	2755.676174
809.201623	2749.440267
809.521590	2747.907756
809.841513	2745.024216
810.161390	2751.308014
810.481223	2745.717374
810.801011	2738.082547
811.120755	2737.036507
811.440453	2742.657394
811.760107	2741.016498
812.079716	2741.235789
812.399281	2732.171794
812.718801	2726.089642
813.038276	2724.967985
813.357707	2732.834706
813.677093	2737.971642
813.996434	2734.677247
814.315731	2731.438306
814.634983	2727.070146
814.954191	2728.693398
815.273354	2738.574059
815.592473	2747.519587
815.911547	2747.040677
816.230577	2751.393714
816.549562	2760.369488
816.868502	2758.937800
817.187399	2770.449275
817.506250	2781.565019
817.825058	2776.128135
818.143821	2786.936369
818.462539	2799.070426
818.781213	2819.204795
819.099843	2844.723115
819.418429	2886.962943
819.736970	2930.135385
820.055466	2982.190340
820.373919	3067.423648
820.692327	3176.098322
821.010691	3296.097948
821.329011	3588.505036
821.647286	4131.485196
821.965517	4956.447338
822.283704	5398.357405
822.601847	5421.365231
822.919945	5097.652578
823.237999	4855.473027
823.556010	4496.220239
823.873976	4122.690903
824.191897	3843.960466
824.509775	3639.967655
824.827609	3439.730504
825.145398	3350.711289
825.463144	3346.895135
825.780845	3416.737801
826.098502	3483.003768
826.416116	3679.714633
826.733685	3886.643916
827.051210	3932.704938
827.368692	3872.697564
827.686129	3697.061243
828.003522	3462.279585
828.320872	3271.434103
828.638177	3128.169552
828.955439	3020.326668
829.272656	2962.260138
829.589830	2910.525297
829.906960	2878.561861
830.224046	2843.359483
830.541088	2815.219762
830.858086	2806.382620
831.175041	2790.349230
831.491952	2794.238480
831.808819	2805.785243
832.125642	2824.480362
832.442421	2860.834643
832.759157	2920.637851
833.075849	3047.259033
833.392497	3260.923297
833.709101	3411.903335
834.025662	3373.671224
834.342179	3257.142432
834.658653	3129.906230
834.975083	3018.158972
835.291469	2943.121397
835.607811	2879.192005
835.924110	2835.412104
836.240366	2795.158491
836.556578	2761.521392
836.872746	2743.216962
837.188871	2725.827502
837.504952	2715.470451
837.820990	2708.601879
838.136984	2696.046886
838.452935	2690.685618
838.768842	2690.400793
839.084706	2704.505942
839.400526	2764.208327
839.716303	2862.069726
840.032037	2918.323962
840.347727	2909.343146
840.663373	2865.800180
840.978977	2812.789926
841.294537	2757.496030
841.610054	2721.134188
841.925527	2704.851261
842.240957	2685.359639
842.556344	2667.766012
842.871687	2655.997439
843.186987	2648.551655
843.502244	2646.943527
843.817458	2641.854482
844.132629	2632.137658
844.447756	2623.754219
844.762840	2618.176182
845.077881	2619.864969
845.392879	2620.152314
845.707833	2617.803137
846.022745	2610.707713
846.337613	2613.336674
846.652438	2610.725357
846.967221	2615.096037
847.281960	2611.141252
847.596656	2609.649070
847.911309	2609.490274
848.225919	2606.117742
848.540485	2603.539192
848.855009	2603.304778
849.169490	2603.521548
849.483928	2604.625561
849.798323	2601.643718
850.112675	2603.738317
850.426984	2604.731425
850.741251	2603.264449
851.055474	2602.667072
851.369654	2605.908534
851.683792	2609.704523
851.997887	2603.193873
852.311938	2600.733790
852.625947	2603.634974
852.939914	2607.085644
853.253837	2607.627568
853.567718	2603.130858
853.881555	2602.382247
854.195350	2606.667228
854.509103	2601.747062
854.822812	2601.598348
855.136479	2603.758482
855.450103	2604.476847
855.763685	2606.841148
856.077224	2604.436517
856.390720	2601.137082
856.704173	2605.522886
857.017584	2605.666559
857.330953	2609.260902
857.644278	2610.261571
857.957561	2609.414657
858.270802	2603.682865
858.584000	2602.921651
858.897155	2609.122270
859.210268	2607.574636
859.523339	2604.149172
859.836367	2602.893924
860.149352	2601.676486
860.462295	2605.233020
860.775195	2600.353183
861.088054	2601.777309
861.400869	2596.312698
861.713642	2596.705908
862.026373	2598.659355
862.339062	2602.266301
862.651708	2602.964500
862.964312	2605.951384
863.276873	2602.689757
863.589392	2605.664038
863.901869	2608.494646
864.214303	2615.675770
864.526696	2614.801130
864.839045	2616.058897
865.151353	2621.735237
865.463619	2618.561830
865.775842	2619.277674
866.088023	2620.578292
866.400162	2624.281019
866.712258	2620.328755
867.024313	2617.054525
867.336325	2616.641151
867.648296	2617.286418
867.960224	2623.068622
868.272110	2620.963940
868.583954	2616.694083
868.895755	2616.492437
869.207515	2624.283540
869.519233	2626.821761
869.830909	2624.044085
870.142542	2619.943107
870.454134	2620.243055
870.765684	2626.383181
871.077191	2628.558438
871.388657	2628.606329
871.700081	2629.775877
872.011463	2627.439302
872.322803	2627.262862
872.634101	2632.578759
872.945357	2637.453554
873.256571	2639.863226
873.567744	2638.779378
873.878874	2641.972949
874.189963	2639.686786
874.501010	2644.682569
874.812015	2649.499392
875.122979	2647.419916
875.433900	2640.689975
875.744780	2638.245016
876.055618	2644.642240
876.366415	2647.145173
876.677169	2648.581902
876.987882	2644.281797
877.298554	2643.853299
877.609183	2652.972747
877.919771	2657.519867
878.230317	2666.634273
878.540822	2672.471930
878.851285	2684.853003
879.161707	2705.680531
879.472087	2738.536251
879.782425	2778.590739
880.092722	2875.078423
880.402977	3025.564427
880.713191	3216.651884
881.023363	3413.486257
881.333494	3543.043911
881.643583	3687.039429
881.953631	3703.035010
882.263637	3575.221596
882.573602	3404.621388
882.883526	3311.685196
883.193408	3228.523802
883.503248	3152.518325
883.813048	3062.432906
884.122806	2968.846405
884.432522	2902.988772
884.742197	2847.405009
885.051831	2818.010041
885.361424	2793.787297
885.670975	2764.331835
885.980485	2735.952659
886.289954	2723.206102
886.599382	2710.404092
886.908768	2699.850436
887.218113	2685.170596
887.527417	2674.246416
887.836680	2668.930519
888.145901	2663.286947
888.455082	2656.408293
888.764221	2649.388486
889.073319	2641.670480
889.382376	2641.451189
889.691392	2641.927578
890.000366	2642.726601
890.309300	2640.379944
890.618193	2643.618886
890.927044	2644.309524
891.235855	2644.521252
891.544625	2642.736684
891.853353	2642.048566
892.162041	2650.285812
892.470687	2668.161743
892.779293	2677.137517
893.087858	2683.648168
893.396381	2702.746579
893.704864	2735.761096
894.013306	2793.182358
894.321707	2869.633977
894.630068	2911.818353
894.938387	2925.421906
895.246665	2923.266813
895.554903	2887.399003
895.863100	2850.903570
896.171256	2804.025880
896.479371	2754.662902
896.787446	2721.756770
897.095480	2706.537527
897.403473	2702.907896
897.711425	2688.457428
898.019336	2670.634429
898.327207	2660.403407
898.635038	2658.465084
898.942827	2658.707059
899.250576	2650.419402
899.558284	2642.025881
899.865952	2636.886425
900.173579	2635.744603
900.481165	2634.869963
900.788711	2628.508027
901.096216	2622.952675
901.403681	2617.104937
901.711105	2621.299177
902.018489	2615.612755
902.325832	2620.618621
902.633135	2621.430247
902.940397	2637.151085
903.247619	2665.421876
903.554800	2718.948847
903.861941	2825.044971
904.169041	2924.028027
904.476101	2972.423104
904.783121	2970.741879
905.090100	2923.609611
905.397039	2865.429655
905.703938	2803.405818
906.010796	2755.567789
906.317614	2709.403423
906.624391	2683.620441
906.931129	2659.904333
907.237826	2641.239461
907.544483	2626.501648
907.851099	2613.931531
908.157675	2607.269646
908.464211	2602.218410
908.770707	2589.343303
909.077163	2588.546800
909.383578	2583.581264
909.689954	2583.987077
909.996289	2579.253433
910.302584	2583.493044
910.608839	2579.518094
910.915054	2581.781572
911.221229	2583.903898
911.527363	2584.284505
911.833458	2583.409865
912.139513	2583.147725
912.445527	2584.216449
912.751502	2591.132912
913.057436	2595.617019
913.363331	2599.045003
913.669186	2610.463217
913.975000	2616.946141
914.280775	2635.028759
914.586510	2649.330513
914.892205	2678.130625
915.197859	2738.011971
915.503475	2802.818524
915.809050	2858.031762
916.114585	2863.390508
916.420081	2876.026160
916.725536	2884.157541
917.030952	2865.943853
917.336328	2827.983964
917.641665	2787.780762
917.946961	2744.391551
918.252218	2717.073538
918.557435	2696.084694
918.862612	2677.155162
919.167750	2665.114366
919.472848	2651.984680
919.777906	2636.944398
920.082925	2629.307050
920.387904	2619.723816
920.692843	2614.080245
920.997743	2611.781478
921.302603	2605.767382
921.607423	2602.127669
921.912204	2596.816813
922.216946	2593.814806
922.521647	2594.351689
922.826310	2590.159970
923.130932	2586.575709
923.435516	2579.016499
923.740059	2581.214442
924.044564	2578.605645
924.349028	2576.710171
924.653454	2569.239181
924.957840	2568.246074
925.262186	2564.397153
925.566493	2566.746331
925.870761	2562.443706
926.174989	2565.402863
926.479178	2561.856411
926.783328	2559.933211
927.087438	2559.315670
927.391509	2561.256514
927.695541	2558.065464
927.999533	2556.482541
928.303486	2556.268292
928.607400	2555.222253
928.911275	2557.009342
929.215110	2556.366595
929.518906	2554.400545
929.822663	2556.112017
930.126381	2553.909032
930.430060	2555.529763
930.733699	2555.103786
931.037299	2557.001780
931.340861	2557.011863
931.644383	2556.142263
931.947866	2555.433981
932.251309	2557.626883
932.554714	2557.866338
932.858080	2558.630073
933.161407	2557.029507
933.464694	2553.530946
933.767943	2553.094886
934.071153	2554.710576
934.374323	2550.836449
934.677455	2554.725699
934.980548	2552.086655
935.283602	2552.552962
935.586617	2552.883158
935.889593	2551.693445
936.192530	2553.490617
936.495428	2553.979608
936.798287	2552.736964
937.101108	2557.301729
937.403890	2556.979095
937.706632	2560.207954
938.009336	2561.959755
938.312002	2564.626525
938.614628	2569.944943
938.917216	2573.020047
939.219765	2569.874367
939.522275	2572.258832
939.824747	2572.906621
940.127179	2568.553584
940.429573	2562.589899
940.731929	2562.967986
941.034246	2563.141906
941.336524	2563.782132
941.638763	2562.874724
941.940964	2564.946639
942.243126	2560.883469
942.545250	2560.442368
942.847335	2562.554611
943.149381	2559.240052
943.451389	2558.108313
943.753359	2556.893395
944.055290	2560.170145
944.357182	2553.803168
944.659036	2556.691749
944.960851	2553.294012
945.262628	2557.929352
945.564367	2557.236194
945.866067	2556.510268
946.167729	2555.582695
946.469352	2556.144784
946.770937	2558.627552
947.072484	2553.687222
947.373992	2559.179559
947.675462	2557.808365
947.976893	2554.642520
948.278286	2554.778631
948.579641	2554.897098
948.880958	2551.474155
949.182236	2554.829043
949.483476	2556.154866
949.784678	2553.253682
950.085841	2552.361398
950.386967	2555.703683
950.688054	2551.854762
950.989103	2556.056564
951.290114	2553.349464
951.591087	2554.569423
951.892021	2560.076884
952.192917	2556.046482
952.493776	2554.473642
952.794596	2559.512275
953.095378	2560.384394
953.396122	2561.349775
953.696828	2557.321893
953.997496	2559.691236
954.298126	2554.869372
954.598718	2556.280895
954.899272	2556.268292
955.199788	2553.997252
955.500266	2552.857952
955.800706	2548.242775
956.101108	2545.165151
956.401472	2546.669935
956.701798	2544.156920
957.002087	2545.538196
957.302337	2548.613300
957.602550	2548.772097
957.902724	2544.683721
958.202861	2545.003834
958.502960	2546.405275
958.803022	2545.747404
959.103045	2545.470141
959.403031	2543.620037
959.702979	2544.565254
960.002889	2544.381252
960.302762	2543.693134
960.602596	2544.096426
960.902393	2544.232538
961.202153	2543.254554
961.501875	2542.420243
961.801559	2542.258926
962.101205	2543.897301
962.400814	2541.018802
962.700385	2542.868905
962.999918	2544.136756
963.299414	2540.431507
963.598873	2542.183308
963.898293	2544.030891
964.197677	2543.577188
964.497022	2543.647764
964.796331	2543.246992
965.095601	2541.117104
965.394835	2542.137938
965.694030	2541.666590
965.993189	2541.540561
966.292309	2541.258257
966.591393	2541.875798
966.890439	2543.032743
967.189447	2541.427135
967.488419	2542.221117
967.787353	2541.961498
968.086249	2541.298586
968.385108	2543.582229
968.683930	2541.192722
968.982714	2543.005017
969.281462	2544.144317
969.580172	2539.957639
969.878844	2540.492001
970.177480	2542.894111
970.476078	2544.290511
970.774639	2542.621889
971.073162	2541.717002
971.371649	2541.459903
971.670098	2540.111394
971.968510	2543.073072
972.266885	2539.619882
972.565223	2546.165820
972.863524	2541.192722
973.161788	2545.991900
973.460014	2543.347815
973.758204	2542.079965
974.056356	2544.328319
974.354471	2544.333361
974.652550	2543.002496
974.950591	2546.881664
975.248595	2544.035932
975.546563	2543.793957
975.844493	2545.941489
976.142386	2545.384441
976.440243	2541.374203
976.738062	2541.517876
977.035845	2540.154244
977.333590	2542.039636
977.631299	2542.548792
977.928971	2543.158772
978.226606	2540.746580
978.524204	2542.929399
978.821765	2540.050900
979.119290	2541.830428
979.416777	2541.522917
979.714228	2539.420756
980.011642	2541.744728
980.309020	2542.127856
980.606360	2542.430325
980.903664	2541.767413
981.200931	2540.645757
981.498162	2543.763710
981.795356	2545.268495
982.092513	2547.642878
982.389633	2549.591284
982.686717	2551.456511
982.983764	2554.030020
983.280775	2553.800647
983.577749	2554.728220
983.874686	2554.539177
984.171587	2551.421223
984.468451	2551.060780
984.765279	2546.334699
985.062070	2548.361242
985.358824	2544.923176
985.655543	2542.178267
985.952224	2541.744728
986.248869	2542.430325
986.545478	2540.670962
986.842050	2539.032587
987.138586	2536.627957
987.435086	2542.029553
987.731549	2535.776002
988.027975	2541.601055
988.324366	2540.154244
988.620719	2540.217258
988.917037	2540.050900
989.213318	2539.972762
989.509563	2538.669624
989.805772	2540.953267
990.101944	2542.727753
990.398080	2538.014274
990.694180	2540.781868
990.990244	2541.248174
991.286271	2539.539223
991.582262	2540.217258
991.878217	2541.636343
992.174136	2541.535520
992.470019	2540.708771
992.765865	2539.105684
993.061676	2540.852444
993.357450	2539.824048
993.653188	2541.588452
993.948890	2541.485109
994.244556	2538.488143
994.540186	2540.890252
994.835780	2540.494522
995.131337	2542.495860
995.426859	2540.149203
995.722345	2541.054090
996.017795	2543.846889
996.313208	2543.383103
996.608586	2546.314534
996.903928	2544.895449
997.199234	2543.549461
997.494504	2545.417209
997.789738	2544.842517
998.084936	2541.890922
998.380099	2541.618699
998.675225	2539.224151
998.970316	2540.476878
999.265371	2544.729091
999.560390	2540.028215
999.855373	2543.299924
1000.150320	2541.510314
1000.445232	2541.585932
1000.740108	2538.190715
1001.034948	2541.540561
1001.329752	2539.151054
1001.624521	2539.012423
1001.919254	2534.324150
1002.213951	2540.141641
1002.508613	2536.159130
1002.803239	2536.207021
1003.097829	2534.094777
1003.392384	2541.109543
1003.686903	2541.901004
1003.981386	2540.696168
1004.275834	2539.125849
1004.570246	2540.776827
1004.864623	2537.487474
1005.158964	2538.571322
1005.453270	2538.893956
1005.747540	2539.864378
1006.041775	2537.673996
1006.335974	2541.472506
1006.630138	2536.670807
1006.924266	2540.943185
1007.218359	2538.561239
1007.512416	2542.042156
1007.806438	2537.817669
1008.100425	2539.854295
1008.394376	2538.757844
1008.688292	2540.411343
1008.982172	2538.407484
1009.276017	2536.287679
1009.569827	2536.544778
1009.863602	2540.665921
1010.157341	2540.562578
1010.451045	2540.416384
1010.744714	2539.377906
1011.038347	2539.551826
1011.331945	2539.398071
1011.625508	2538.740200
1011.919036	2539.105684
1012.212528	2540.648277
1012.505986	2537.439583
1012.799408	2539.554347
1013.092795	2539.524100
1013.386147	2540.930582
1013.679464	2538.677186
1013.972745	2539.362783
1014.265992	2540.227341
1014.559204	2540.910417
1014.852380	2537.477391
1015.145521	2537.805066
1015.438628	2539.980324
1015.731699	2538.614172
1016.024736	2538.276414
1016.317737	2540.817156
1016.610703	2542.289173
1016.903635	2535.231557
1017.196531	2535.103008
1017.489393	2534.341794
1017.782219	2536.224665
1018.075011	2534.170394
1018.367768	2538.868750
1018.660490	2540.479398
1018.953177	2540.479398
1019.245829	2540.479398
