Dividing Wavelength (nm)	Counts (n)	Blue Motor Position (mm): 0.700000	Red Motor Position (mm): 0.000000	
326.493990	2122.325769
326.888308	2122.325769
327.282561	2122.325769
327.676750	2119.805192
328.070874	2089.558269
328.464933	2089.558269
328.858929	2061.831923
329.252859	2026.543846
329.646726	2026.543846
330.040528	2036.626154
330.434265	2097.120000
330.827938	2190.381346
331.221547	2182.819615
331.615091	2112.243462
332.008571	2228.190000
332.401986	2142.490385
332.795338	2223.148846
333.188625	2200.463654
333.581847	2255.916346
333.975006	2258.436923
334.368100	2291.204423
334.761129	2255.916346
335.154095	2334.054231
335.546996	2381.945192
335.939833	2389.506923
336.332606	2399.589231
336.725315	2437.397885
337.117960	2386.986346
337.510540	2480.247692
337.903056	2424.795000
338.295508	2384.465769
338.687896	2361.780577
339.080220	2447.480192
339.472480	2485.288846
339.864676	2462.603654
340.256807	2442.439038
340.648875	2444.959615
341.040879	2457.562500
341.432818	2497.891731
341.824694	2414.712692
342.216506	2495.371154
342.608253	2502.932885
342.999937	2407.150962
343.391557	2487.809423
343.783113	2533.179808
344.174605	2437.397885
344.566033	2500.412308
344.957397	2432.356731
345.348697	2472.685962
345.739934	2510.494615
346.131106	2578.550192
346.522215	2586.111923
346.913260	2444.959615
347.304241	2374.383462
347.695159	2414.712692
348.086012	2518.056346
348.476802	2558.385577
348.867528	2462.603654
349.258191	2427.315577
349.648789	2442.439038
350.039324	2442.439038
350.429796	2427.315577
350.820203	2485.288846
351.210548	2513.015192
351.600828	2404.630385
351.991045	2515.535769
352.381198	2427.315577
352.771288	2417.233269
353.161314	2460.083077
353.551276	2477.727115
353.941175	2583.591346
354.331010	2437.397885
354.720782	2513.015192
355.110490	2379.424615
355.500135	2513.015192
355.889717	2374.383462
356.279235	2437.397885
356.668689	2424.795000
357.058080	2455.041923
357.447408	2480.247692
357.836672	2417.233269
358.225873	2412.192115
358.615010	2417.233269
359.004084	2407.150962
359.393095	2520.576923
359.782043	2397.068654
360.170927	2444.959615
360.559748	2437.397885
360.948505	2432.356731
361.337199	2485.288846
361.725830	2492.850577
362.114398	2467.644808
362.502903	2412.192115
362.891344	2480.247692
363.279722	2442.439038
363.668037	2455.041923
364.056289	2472.685962
364.444478	2490.330000
364.832603	2429.836154
365.220665	2470.165385
365.608665	2427.315577
365.996601	2409.671538
366.384474	2475.206538
366.772284	2379.424615
367.160031	2399.589231
367.547715	2457.562500
367.935336	2475.206538
368.322893	2497.891731
368.710388	2444.959615
369.097820	2530.659231
369.485189	2392.027500
369.872495	2518.056346
370.259738	2442.439038
370.646918	2513.015192
371.034035	2490.330000
371.421090	2515.535769
371.808081	2462.603654
372.195010	2480.247692
372.581875	2354.218846
372.968678	2495.371154
373.355418	2442.439038
373.742096	2465.124231
374.128710	2439.918462
374.515262	2518.056346
374.901751	2452.521346
375.288177	2429.836154
375.674540	2397.068654
376.060841	2434.877308
376.447079	2432.356731
376.833254	2470.165385
377.219367	2364.301154
377.605417	2472.685962
377.991404	2452.521346
378.377329	2485.288846
378.763191	2434.877308
379.148991	2507.974038
379.534727	2490.330000
379.920402	2500.412308
380.306013	2407.150962
380.691563	2417.233269
381.077049	2447.480192
381.462474	2439.918462
381.847835	2475.206538
382.233134	2518.056346
382.618371	2422.274423
383.003545	2513.015192
383.388657	2409.671538
383.773706	2497.891731
384.158693	2447.480192
384.543618	2450.000769
384.928480	2465.124231
385.313280	2419.753846
385.698017	2507.974038
386.082692	2427.315577
386.467305	2465.124231
386.851856	2437.397885
387.236344	2480.247692
387.620770	2412.192115
388.005133	2432.356731
388.389435	2533.179808
388.773674	2538.220962
389.157851	2480.247692
389.541965	2389.506923
389.926018	2550.823846
390.310008	2515.535769
390.693936	2407.150962
391.077802	2485.288846
391.461606	2520.576923
391.845348	2450.000769
392.229027	2492.850577
392.612645	2513.015192
392.996200	2457.562500
393.379694	2434.877308
393.763125	2369.342308
394.146494	2500.412308
394.529801	2434.877308
394.913047	2442.439038
395.296230	2497.891731
395.679351	2490.330000
396.062410	2530.659231
396.445408	2452.521346
396.828343	2505.453462
397.211217	2513.015192
397.594028	2455.041923
397.976778	2545.782692
398.359466	2439.918462
398.742092	2432.356731
399.124656	2450.000769
399.507158	2543.262115
399.889598	2513.015192
400.271977	2510.494615
400.654294	2460.083077
401.036549	2485.288846
401.418742	2470.165385
401.800874	2520.576923
402.182944	2485.288846
402.564952	2480.247692
402.946898	2538.220962
403.328783	2444.959615
403.710606	2439.918462
404.092367	2422.274423
404.474067	2475.206538
404.855705	2422.274423
405.237282	2412.192115
405.618797	2434.877308
406.000250	2520.576923
406.381642	2336.574808
406.762972	2444.959615
407.144240	2429.836154
407.525447	2412.192115
407.906593	2475.206538
408.287677	2427.315577
408.668700	2487.809423
409.049661	2465.124231
409.430560	2450.000769
409.811399	2457.562500
410.192176	2407.150962
410.572891	2376.904038
410.953545	2548.303269
411.334138	2490.330000
411.714669	2538.220962
412.095139	2548.303269
412.475547	2452.521346
412.855894	2427.315577
413.236180	2535.700385
413.616405	2457.562500
413.996568	2477.727115
414.376670	2394.548077
414.756711	2462.603654
415.136691	2487.809423
415.516609	2507.974038
415.896466	2502.932885
416.276262	2427.315577
416.655997	2490.330000
417.035670	2513.015192
417.415283	2427.315577
417.794834	2591.153077
418.174324	2457.562500
418.553753	2505.453462
418.933121	2510.494615
419.312428	2538.220962
419.691674	2419.753846
420.070859	2457.562500
420.449983	2397.068654
420.829045	2485.288846
421.208047	2457.562500
421.586988	2455.041923
421.965867	2523.097500
422.344686	2457.562500
422.723444	2528.138654
423.102141	2472.685962
423.480777	2467.644808
423.859352	2465.124231
424.237866	2447.480192
424.616319	2467.644808
424.994712	2500.412308
425.373044	2457.562500
425.751314	2568.467885
426.129524	2437.397885
426.507673	2432.356731
426.885762	2565.947308
427.263789	2437.397885
427.641756	2518.056346
428.019662	2543.262115
428.397508	2429.836154
428.775292	2497.891731
429.153016	2381.945192
429.530679	2397.068654
429.908282	2505.453462
430.285824	2520.576923
430.663305	2407.150962
431.040726	2394.548077
431.418086	2507.974038
431.795385	2447.480192
432.172624	2505.453462
432.549802	2513.015192
432.926920	2477.727115
433.303977	2482.768269
433.680974	2427.315577
434.057910	2467.644808
434.434786	2520.576923
434.811601	2422.274423
435.188355	2535.700385
435.565050	2467.644808
435.941683	2533.179808
436.318257	2540.741538
436.694770	2419.753846
437.071222	2467.644808
437.447614	2518.056346
437.823946	2389.506923
438.200218	2394.548077
438.576429	2565.947308
438.952580	2548.303269
439.328670	2487.809423
439.704700	2530.659231
440.080670	2497.891731
440.456580	2568.467885
440.832429	2502.932885
441.208218	2447.480192
441.583947	2550.823846
441.959616	2462.603654
442.335224	2497.891731
442.710773	2374.383462
443.086261	2482.768269
443.461689	2444.959615
443.837057	2520.576923
444.212365	2397.068654
444.587612	2513.015192
444.962800	2500.412308
445.337927	2452.521346
445.712995	2530.659231
446.088002	2528.138654
446.462949	2414.712692
446.837837	2404.630385
447.212664	2450.000769
447.587431	2586.111923
447.962139	2482.768269
448.336786	2548.303269
448.711374	2518.056346
449.085901	2515.535769
449.460369	2528.138654
449.834776	2490.330000
450.209124	2518.056346
450.583412	2578.550192
450.957640	2422.274423
451.331808	2427.315577
451.705917	2354.218846
452.079965	2472.685962
452.453954	2452.521346
452.827883	2460.083077
453.201752	2467.644808
453.575562	2523.097500
453.949311	2455.041923
454.323001	2480.247692
454.696632	2429.836154
455.070202	2502.932885
455.443713	2460.083077
455.817164	2497.891731
456.190556	2530.659231
456.563888	2591.153077
456.937160	2505.453462
457.310373	2530.659231
457.683526	2447.480192
458.056619	2520.576923
458.429653	2495.371154
458.802628	2447.480192
459.175542	2424.795000
459.548398	2568.467885
459.921194	2455.041923
460.293930	2427.315577
460.666607	2472.685962
461.039224	2402.109808
461.411782	2523.097500
461.784280	2447.480192
462.156719	2462.603654
462.529099	2470.165385
462.901419	2505.453462
463.273680	2480.247692
463.645882	2437.397885
464.018024	2530.659231
464.390106	2535.700385
464.762130	2518.056346
465.134094	2424.795000
465.505999	2528.138654
465.877845	2520.576923
466.249631	2392.027500
466.621358	2492.850577
466.993026	2528.138654
467.364634	2563.426731
467.736184	2505.453462
468.107674	2505.453462
468.479105	2455.041923
468.850477	2523.097500
469.221790	2540.741538
469.593043	2452.521346
469.964238	2482.768269
470.335373	2518.056346
470.706449	2434.877308
471.077467	2485.288846
471.448425	2424.795000
471.819324	2490.330000
472.190164	2462.603654
472.560945	2422.274423
472.931667	2467.644808
473.302330	2472.685962
473.672934	2525.618077
474.043479	2419.753846
474.413965	2470.165385
474.784393	2452.521346
475.154761	2480.247692
475.525070	2437.397885
475.895321	2419.753846
476.265513	2465.124231
476.635645	2540.741538
477.005719	2460.083077
477.375734	2573.509038
477.745691	2480.247692
478.115588	2548.303269
478.485427	2480.247692
478.855207	2450.000769
479.224928	2429.836154
479.594591	2455.041923
479.964194	2432.356731
480.333739	2460.083077
480.703226	2490.330000
481.072653	2530.659231
481.442022	2397.068654
481.811333	2500.412308
482.180584	2439.918462
482.549777	2495.371154
482.918912	2480.247692
483.287988	2497.891731
483.657005	2500.412308
484.025964	2545.782692
484.394864	2492.850577
484.763706	2510.494615
485.132489	2417.233269
485.501213	2520.576923
485.869879	2487.809423
486.238487	2480.247692
486.607036	2485.288846
486.975527	2518.056346
487.343959	2429.836154
487.712333	2563.426731
488.080648	2465.124231
488.448905	2487.809423
488.817104	2513.015192
489.185244	2475.206538
489.553326	2510.494615
489.921350	2507.974038
490.289315	2518.056346
490.657222	2455.041923
491.025070	2437.397885
491.392861	2570.988462
491.760593	2502.932885
492.128267	2563.426731
492.495883	2482.768269
492.863440	2518.056346
493.230939	2455.041923
493.598380	2515.535769
493.965763	2550.823846
494.333088	2460.083077
494.700354	2533.179808
495.067563	2588.632500
495.434713	2507.974038
495.801805	2510.494615
496.168839	2465.124231
496.535815	2550.823846
496.902733	2497.891731
497.269593	2518.056346
497.636395	2550.823846
498.003139	2472.685962
498.369825	2495.371154
498.736453	2523.097500
499.103023	2497.891731
499.469535	2480.247692
499.835989	2480.247692
500.202385	2573.509038
500.568723	2384.465769
500.935003	2472.685962
501.301226	2500.412308
501.667390	2540.741538
502.033497	2480.247692
502.399546	2472.685962
502.765537	2450.000769
503.131470	2490.330000
503.497345	2500.412308
503.863163	2586.111923
504.228923	2434.877308
504.594625	2470.165385
504.960269	2379.424615
505.325856	2404.630385
505.691385	2487.809423
506.056856	2603.755962
506.422270	2475.206538
506.787625	2444.959615
507.152924	2432.356731
507.518164	2523.097500
507.883347	2434.877308
508.248472	2523.097500
508.613540	2513.015192
508.978550	2485.288846
509.343503	2485.288846
509.708398	2452.521346
510.073236	2475.206538
510.438016	2434.877308
510.802738	2518.056346
511.167403	2538.220962
511.532010	2465.124231
511.896561	2513.015192
512.261053	2533.179808
512.625488	2427.315577
512.989866	2452.521346
513.354186	2507.974038
513.718449	2480.247692
514.082655	2485.288846
514.446803	2518.056346
514.810894	2535.700385
515.174927	2558.385577
515.538904	2460.083077
515.902822	2376.904038
516.266684	2407.150962
516.630488	2477.727115
516.994235	2548.303269
517.357925	2560.906154
517.721558	2528.138654
518.085133	2558.385577
518.448651	2457.562500
518.812112	2442.439038
519.175516	2505.453462
519.538863	2538.220962
519.902152	2523.097500
520.265385	2533.179808
520.628560	2475.206538
520.991678	2497.891731
521.354739	2533.179808
521.717743	2450.000769
522.080690	2460.083077
522.443580	2487.809423
522.806413	2492.850577
523.169189	2485.288846
523.531908	2490.330000
523.894569	2545.782692
524.257174	2447.480192
524.619722	2520.576923
524.982213	2477.727115
525.344647	2450.000769
525.707025	2538.220962
526.069345	2447.480192
526.431608	2550.823846
526.793815	2533.179808
527.155964	2414.712692
527.518057	2507.974038
527.880093	2477.727115
528.242072	2560.906154
528.603995	2434.877308
528.965860	2533.179808
529.327669	2427.315577
529.689421	2573.509038
530.051117	2450.000769
530.412755	2482.768269
530.774337	2545.782692
531.135862	2563.426731
531.497331	2510.494615
531.858743	2429.836154
532.220098	2525.618077
532.581396	2467.644808
532.942638	2515.535769
533.303824	2520.576923
533.664953	2520.576923
534.026025	2487.809423
534.387040	2457.562500
534.747999	2593.673654
535.108902	2424.795000
535.469748	2490.330000
535.830537	2452.521346
536.191270	2523.097500
536.551947	2485.288846
536.912567	2432.356731
537.273131	2560.906154
537.633638	2480.247692
537.994089	2515.535769
538.354483	2492.850577
538.714821	2470.165385
539.075103	2535.700385
539.435328	2535.700385
539.795497	2492.850577
540.155609	2540.741538
540.515665	2490.330000
540.875665	2513.015192
541.235609	2502.932885
541.595496	2450.000769
541.955328	2394.548077
542.315102	2419.753846
542.674821	2555.865000
543.034483	2495.371154
543.394090	2560.906154
543.753640	2477.727115
544.113134	2470.165385
544.472571	2543.262115
544.831953	2427.315577
545.191278	2545.782692
545.550548	2543.262115
545.909761	2500.412308
546.268918	2576.029615
546.628019	2518.056346
546.987064	2427.315577
547.346053	2510.494615
547.704986	2535.700385
548.063863	2502.932885
548.422684	2442.439038
548.781449	2477.727115
549.140158	2475.206538
549.498811	2437.397885
549.857408	2560.906154
550.215949	2394.548077
550.574434	2513.015192
550.932864	2538.220962
551.291237	2487.809423
551.649555	2485.288846
552.007817	2422.274423
552.366022	2515.535769
552.724173	2477.727115
553.082267	2492.850577
553.440305	2477.727115
553.798288	2470.165385
554.156215	2497.891731
554.514086	2432.356731
554.871902	2500.412308
555.229661	2563.426731
555.587365	2434.877308
555.945014	2392.027500
556.302606	2485.288846
556.660143	2455.041923
557.017625	2439.918462
557.375050	2573.509038
557.732421	2450.000769
558.089735	2477.727115
558.446994	2492.850577
558.804197	2439.918462
559.161345	2525.618077
559.518437	2510.494615
559.875474	2543.262115
560.232455	2495.371154
560.589381	2455.041923
560.946251	2538.220962
561.303065	2525.618077
561.659825	2419.753846
562.016528	2513.015192
562.373177	2492.850577
562.729770	2558.385577
563.086307	2462.603654
563.442789	2480.247692
563.799216	2525.618077
564.155587	2460.083077
564.511904	2467.644808
564.868164	2576.029615
565.224370	2450.000769
565.580520	2452.521346
565.936615	2520.576923
566.292654	2477.727115
566.648638	2457.562500
567.004567	2495.371154
567.360441	2505.453462
567.716260	2465.124231
568.072023	2558.385577
568.427732	2492.850577
568.783385	2502.932885
569.138982	2507.974038
569.494525	2432.356731
569.850013	2502.932885
570.205445	2510.494615
570.560823	2550.823846
570.916145	2477.727115
571.271412	2565.947308
571.626625	2485.288846
571.981782	2485.288846
572.336884	2500.412308
572.691931	2578.550192
573.046923	2497.891731
573.401860	2543.262115
573.756743	2563.426731
574.111570	2480.247692
574.466342	2523.097500
574.821059	2523.097500
575.175722	2525.618077
575.530330	2586.111923
575.884882	2535.700385
576.239380	2530.659231
576.593823	2429.836154
576.948211	2507.974038
577.302544	2518.056346
577.656823	2427.315577
578.011047	2490.330000
578.365216	2475.206538
578.719330	2492.850577
579.073389	2462.603654
579.427394	2492.850577
579.781344	2545.782692
580.135239	2472.685962
580.489080	2535.700385
580.842866	2475.206538
581.196597	2525.618077
581.550273	2472.685962
581.903895	2399.589231
582.257463	2588.632500
582.610975	2457.562500
582.964434	2472.685962
583.317837	2500.412308
583.671186	2460.083077
584.024481	2553.344423
584.377721	2502.932885
584.730906	2565.947308
585.084037	2530.659231
585.437113	2490.330000
585.790135	2530.659231
586.143103	2444.959615
586.496016	2573.509038
586.848874	2505.453462
587.201679	2591.153077
587.554428	2530.659231
587.907124	2528.138654
588.259765	2490.330000
588.612352	2497.891731
588.964884	2429.836154
589.317362	2419.753846
589.669786	2533.179808
590.022155	2545.782692
590.374470	2502.932885
590.726731	2535.700385
591.078937	2500.412308
591.431090	2419.753846
591.783188	2457.562500
592.135232	2465.124231
592.487222	2543.262115
592.839157	2555.865000
593.191038	2434.877308
593.542866	2513.015192
593.894639	2482.768269
594.246358	2475.206538
594.598022	2492.850577
594.949633	2583.591346
595.301190	2465.124231
595.652692	2505.453462
596.004141	2467.644808
596.355535	2460.083077
596.706876	2439.918462
597.058162	2407.150962
597.409395	2502.932885
597.760573	2482.768269
598.111698	2515.535769
598.462768	2419.753846
598.813785	2523.097500
599.164748	2475.206538
599.515657	2495.371154
599.866511	2472.685962
600.217312	2515.535769
600.568060	2475.206538
600.918753	2497.891731
601.269392	2487.809423
601.619978	2530.659231
601.970510	2477.727115
602.320988	2548.303269
602.671412	2507.974038
603.021783	2467.644808
603.372100	2550.823846
603.722363	2523.097500
604.072572	2533.179808
604.422728	2472.685962
604.772830	2487.809423
605.122878	2414.712692
605.472872	2434.877308
605.822813	2485.288846
606.172701	2525.618077
606.522534	2507.974038
606.872314	2477.727115
607.222041	2563.426731
607.571714	2528.138654
607.921333	2538.220962
608.270899	2558.385577
608.620411	2523.097500
608.969870	2535.700385
609.319276	2492.850577
609.668627	2578.550192
610.017926	2467.644808
610.367171	2530.659231
610.716362	2457.562500
611.065500	2460.083077
611.414585	2492.850577
611.763616	2513.015192
612.112594	2404.630385
612.461518	2432.356731
612.810389	2480.247692
613.159207	2530.659231
613.507971	2515.535769
613.856682	2518.056346
614.205340	2505.453462
614.553945	2475.206538
614.902496	2520.576923
615.250994	2437.397885
615.599439	2487.809423
615.947830	2482.768269
616.296169	2432.356731
616.644454	2455.041923
616.992686	2553.344423
617.340864	2543.262115
617.688990	2414.712692
618.037063	2515.535769
618.385082	2548.303269
618.733048	2470.165385
619.080961	2394.548077
619.428821	2432.356731
619.776628	2482.768269
620.124382	2618.879423
620.472083	2444.959615
620.819731	2533.179808
621.167326	2419.753846
621.514868	2490.330000
621.862357	2543.262115
622.209793	2528.138654
622.557176	2520.576923
622.904506	2525.618077
623.251783	2455.041923
623.599007	2515.535769
623.946179	2543.262115
624.293297	2455.041923
624.640363	2588.632500
624.987376	2457.562500
625.334336	2497.891731
625.681243	2480.247692
626.028097	2573.509038
626.374899	2452.521346
626.721647	2598.714808
627.068343	2502.932885
627.414987	2424.795000
627.761577	2505.453462
628.108115	2470.165385
628.454600	2427.315577
628.801032	2520.576923
629.147412	2462.603654
629.493739	2528.138654
629.840014	2510.494615
630.186236	2417.233269
630.532405	2480.247692
630.878521	2525.618077
631.224585	2492.850577
631.570597	2460.083077
631.916556	2518.056346
632.262462	2485.288846
632.608316	2593.673654
632.954117	2535.700385
633.299866	2409.671538
633.645562	2492.850577
633.991206	2472.685962
634.336797	2510.494615
634.682336	2457.562500
635.027823	2490.330000
635.373257	2455.041923
635.718639	2505.453462
636.063968	2465.124231
636.409245	2513.015192
636.754470	2475.206538
637.099642	2457.562500
637.444762	2538.220962
637.789829	2553.344423
638.134845	2540.741538
638.479808	2462.603654
638.824719	2472.685962
639.169577	2538.220962
639.514383	2535.700385
639.859137	2530.659231
640.203839	2475.206538
640.548489	2515.535769
640.893086	2583.591346
641.237632	2528.138654
641.582125	2540.741538
641.926566	2558.385577
642.270955	2482.768269
642.615292	2535.700385
642.959576	2432.356731
643.303809	2495.371154
643.647990	2482.768269
643.992118	2540.741538
644.336195	2578.550192
644.680219	2475.206538
645.024192	2432.356731
645.368112	2530.659231
645.711981	2480.247692
646.055797	2472.685962
646.399562	2538.220962
646.743274	2540.741538
647.086935	2500.412308
647.430544	2475.206538
647.774101	2525.618077
648.117606	2548.303269
648.461059	2485.288846
648.804460	2565.947308
649.147810	2452.521346
649.491108	2553.344423
649.834354	2563.426731
650.177548	2573.509038
650.520690	2472.685962
650.863781	2490.330000
651.206820	2500.412308
651.549807	2485.288846
651.892742	2555.865000
652.235626	2500.412308
652.578458	2545.782692
652.921238	2581.070769
653.263967	2432.356731
653.606644	2497.891731
653.949269	2439.918462
654.291843	2457.562500
654.634365	2535.700385
654.976836	2576.029615
655.319255	2593.673654
655.661622	2581.070769
656.003938	2437.397885
656.346203	2407.150962
656.688416	2371.862885
657.030577	2510.494615
657.372687	2480.247692
657.714746	2467.644808
658.056753	2568.467885
658.398708	2475.206538
658.740612	2505.453462
659.082465	2520.576923
659.424266	2422.274423
659.766016	2507.974038
660.107715	2528.138654
660.449362	2482.768269
660.790958	2525.618077
661.132503	2434.877308
661.473996	2467.644808
661.815438	2502.932885
662.156829	2444.959615
662.498168	2543.262115
662.839456	2432.356731
663.180693	2513.015192
663.521879	2465.124231
663.863013	2573.509038
664.204097	2525.618077
664.545129	2470.165385
664.886110	2540.741538
665.227040	2452.521346
665.567918	2439.918462
665.908746	2533.179808
666.249522	2576.029615
666.590248	2470.165385
666.930922	2550.823846
667.271545	2394.548077
667.612118	2540.741538
667.952639	2457.562500
668.293109	2444.959615
668.633528	2565.947308
668.973896	2472.685962
669.314213	2409.671538
669.654480	2477.727115
669.994695	2442.439038
670.334859	2518.056346
670.674973	2490.330000
671.015035	2510.494615
671.355047	2548.303269
671.695008	2419.753846
672.034918	2502.932885
672.374777	2455.041923
672.714585	2621.400000
673.054342	2467.644808
673.394049	2545.782692
673.733705	2570.988462
674.073310	2487.809423
674.412864	2515.535769
674.752368	2507.974038
675.091820	2518.056346
675.431223	2439.918462
675.770574	2507.974038
676.109875	2523.097500
676.449125	2513.015192
676.788324	2482.768269
677.127473	2515.535769
677.466571	2497.891731
677.805619	2560.906154
678.144616	2419.753846
678.483562	2455.041923
678.822458	2507.974038
679.161303	2477.727115
679.500098	2596.194231
679.838842	2535.700385
680.177535	2447.480192
680.516179	2472.685962
680.854771	2457.562500
681.193314	2487.809423
681.531805	2487.809423
681.870247	2518.056346
682.208638	2480.247692
682.546978	2467.644808
682.885268	2492.850577
683.223508	2487.809423
683.561697	2502.932885
683.899836	2505.453462
684.237925	2452.521346
684.575963	2520.576923
684.913951	2462.603654
685.251889	2424.795000
685.589776	2533.179808
685.927614	2596.194231
686.265401	2439.918462
686.603137	2470.165385
686.940824	2497.891731
687.278460	2495.371154
687.616046	2507.974038
687.953582	2490.330000
688.291068	2525.618077
688.628504	2558.385577
688.965889	2462.603654
689.303224	2487.809423
689.640510	2490.330000
689.977745	2538.220962
690.314930	2502.932885
690.652065	2581.070769
690.989150	2543.262115
691.326185	2480.247692
691.663170	2563.426731
692.000105	2394.548077
692.336990	2409.671538
692.673825	2480.247692
693.010610	2555.865000
693.347345	2550.823846
693.684030	2543.262115
694.020665	2424.795000
694.357251	2555.865000
694.693786	2482.768269
695.030272	2490.330000
695.366707	2450.000769
695.703093	2548.303269
696.039429	2427.315577
696.375716	2565.947308
696.711952	2485.288846
697.048139	2540.741538
697.384276	2432.356731
697.720363	2513.015192
698.056400	2437.397885
698.392388	2432.356731
698.728326	2505.453462
699.064214	2465.124231
699.400053	2480.247692
699.735842	2447.480192
700.071581	2525.618077
700.407270	2507.974038
700.742910	2467.644808
701.078501	2495.371154
701.414042	2518.056346
701.749533	2482.768269
702.084974	2487.809423
702.420366	2533.179808
702.755709	2533.179808
703.091002	2432.356731
703.426246	2439.918462
703.761440	2523.097500
704.096584	2535.700385
704.431679	2419.753846
704.766725	2500.412308
705.101721	2470.165385
705.436668	2540.741538
705.771565	2477.727115
706.106413	2470.165385
706.441212	2414.712692
706.775961	2505.453462
707.110661	2565.947308
707.445311	2497.891731
707.779913	2500.412308
708.114465	2467.644808
708.448967	2538.220962
708.783421	2447.480192
709.117825	2452.521346
709.452180	2434.877308
709.786485	2402.109808
710.120742	2507.974038
710.454949	2482.768269
710.789107	2525.618077
711.123216	2487.809423
711.457275	2540.741538
711.791286	2487.809423
712.125247	2535.700385
712.459159	2472.685962
712.793023	2427.315577
713.126837	2490.330000
713.460602	2538.220962
713.794318	2482.768269
714.127985	2384.465769
714.461602	2422.274423
714.795171	2495.371154
715.128691	2462.603654
715.462162	2565.947308
715.795584	2568.467885
716.128957	2480.247692
716.462281	2543.262115
716.795556	2424.795000
717.128782	2492.850577
717.461960	2563.426731
717.795088	2510.494615
718.128167	2480.247692
718.461198	2538.220962
718.794180	2455.041923
719.127113	2444.959615
719.459997	2565.947308
719.792833	2505.453462
720.125619	2568.467885
720.458357	2502.932885
720.791046	2533.179808
721.123686	2482.768269
721.456278	2472.685962
721.788821	2492.850577
722.121315	2540.741538
722.453761	2490.330000
722.786158	2510.494615
723.118506	2485.288846
723.450805	2444.959615
723.783056	2540.741538
724.115259	2475.206538
724.447412	2434.877308
724.779518	2457.562500
725.111574	2452.521346
725.443582	2535.700385
725.775542	2583.591346
726.107453	2502.932885
726.439315	2502.932885
726.771129	2485.288846
727.102895	2528.138654
727.434612	2465.124231
727.766281	2560.906154
728.097901	2550.823846
728.429473	2462.603654
728.760996	2427.315577
729.092471	2437.397885
729.423897	2535.700385
729.755276	2475.206538
730.086606	2505.453462
730.417887	2573.509038
730.749120	2462.603654
731.080305	2427.315577
731.411442	2507.974038
731.742530	2578.550192
732.073570	2470.165385
732.404562	2460.083077
732.735506	2447.480192
733.066401	2513.015192
733.397249	2447.480192
733.728048	2490.330000
734.058798	2419.753846
734.389501	2553.344423
734.720156	2439.918462
735.050762	2523.097500
735.381320	2470.165385
735.711831	2540.741538
736.042293	2540.741538
736.372707	2409.671538
736.703073	2460.083077
737.033391	2525.618077
737.363661	2545.782692
737.693883	2540.741538
738.024056	2510.494615
738.354182	2515.535769
738.684260	2553.344423
739.014290	2543.262115
739.344272	2560.906154
739.674207	2480.247692
740.004093	2447.480192
740.333931	2505.453462
740.663722	2570.988462
740.993464	2510.494615
741.323159	2545.782692
741.652806	2543.262115
741.982405	2487.809423
742.311956	2505.453462
742.641460	2495.371154
742.970915	2507.974038
743.300323	2505.453462
743.629683	2528.138654
743.958996	2507.974038
744.288260	2513.015192
744.617477	2573.509038
744.946647	2518.056346
745.275768	2482.768269
745.604842	2477.727115
745.933869	2404.630385
746.262847	2505.453462
746.591778	2502.932885
746.920662	2475.206538
747.249498	2442.439038
747.578286	2553.344423
747.907027	2507.974038
748.235720	2500.412308
748.564365	2578.550192
748.892963	2576.029615
749.221514	2470.165385
749.550017	2548.303269
749.878473	2460.083077
750.206881	2507.974038
750.535242	2457.562500
750.863555	2434.877308
751.191821	2477.727115
751.520039	2510.494615
751.848210	2603.755962
752.176334	2507.974038
752.504411	2507.974038
752.832440	2513.015192
753.160421	2495.371154
753.488356	2510.494615
753.816243	2482.768269
754.144082	2528.138654
754.471875	2510.494615
754.799620	2538.220962
755.127318	2515.535769
755.454969	2455.041923
755.782572	2462.603654
756.110129	2535.700385
756.437638	2598.714808
756.765100	2538.220962
757.092515	2502.932885
757.419882	2520.576923
757.747203	2427.315577
758.074477	2482.768269
758.401703	2477.727115
758.728882	2500.412308
759.056014	2570.988462
759.383099	2548.303269
759.710138	2480.247692
760.037129	2588.632500
760.364073	2485.288846
760.690970	2450.000769
761.017820	2477.727115
761.344623	2535.700385
761.671379	2497.891731
761.998088	2482.768269
762.324751	2485.288846
762.651366	2452.521346
762.977935	2482.768269
763.304456	2447.480192
763.630931	2475.206538
763.957359	2472.685962
764.283740	2480.247692
764.610074	2550.823846
764.936362	2528.138654
765.262602	2487.809423
765.588796	2540.741538
765.914943	2520.576923
766.241044	2414.712692
766.567097	2518.056346
766.893104	2518.056346
767.219064	2560.906154
767.544978	2465.124231
767.870845	2538.220962
768.196665	2518.056346
768.522438	2497.891731
768.848165	2470.165385
769.173846	2523.097500
769.499479	2538.220962
769.825066	2361.780577
770.150607	2538.220962
770.476101	2505.453462
770.801548	2460.083077
771.126949	2467.644808
771.452303	2560.906154
771.777611	2513.015192
772.102872	2543.262115
772.428087	2480.247692
772.753256	2487.809423
773.078378	2570.988462
773.403453	2465.124231
773.728482	2460.083077
774.053465	2480.247692
774.378401	2502.932885
774.703291	2505.453462
775.028135	2528.138654
775.352932	2480.247692
775.677683	2545.782692
776.002388	2520.576923
776.327046	2452.521346
776.651658	2386.986346
776.976224	2505.453462
777.300743	2472.685962
777.625216	2495.371154
777.949643	2465.124231
778.274024	2447.480192
778.598359	2563.426731
778.922647	2495.371154
779.246889	2492.850577
779.571086	2598.714808
779.895236	2482.768269
780.219339	2414.712692
780.543397	2513.015192
780.867409	2500.412308
781.191374	2507.974038
781.515294	2480.247692
781.839167	2462.603654
782.162995	2550.823846
782.486776	2586.111923
782.810511	2467.644808
783.134201	2530.659231
783.457844	2555.865000
783.781441	2414.712692
784.104993	2573.509038
784.428498	2427.315577
784.751958	2495.371154
785.075372	2437.397885
785.398739	2381.945192
785.722061	2470.165385
786.045337	2457.562500
786.368568	2553.344423
786.691752	2472.685962
787.014891	2490.330000
787.337983	2439.918462
787.661030	2523.097500
787.984031	2545.782692
788.306987	2455.041923
788.629897	2515.535769
788.952760	2414.712692
789.275579	2520.576923
789.598351	2513.015192
789.921078	2482.768269
790.243759	2518.056346
790.566395	2477.727115
790.888984	2465.124231
791.211529	2505.453462
791.534027	2475.206538
791.856480	2457.562500
792.178888	2533.179808
792.501249	2543.262115
792.823566	2502.932885
793.145836	2497.891731
793.468062	2578.550192
793.790241	2505.453462
794.112375	2450.000769
794.434464	2485.288846
794.756507	2457.562500
795.078505	2533.179808
795.400457	2472.685962
795.722364	2570.988462
796.044226	2528.138654
796.366042	2462.603654
796.687812	2389.506923
797.009538	2429.836154
797.331218	2560.906154
797.652852	2492.850577
797.974442	2450.000769
798.295986	2525.618077
798.617484	2455.041923
798.938938	2545.782692
799.260346	2490.330000
799.581709	2429.836154
799.903026	2452.521346
800.224299	2502.932885
800.545526	2442.439038
800.866708	2510.494615
801.187845	2520.576923
801.508936	2525.618077
801.829983	2525.618077
802.150984	2455.041923
802.471940	2500.412308
802.792851	2530.659231
803.113717	2472.685962
803.434538	2507.974038
803.755314	2477.727115
804.076045	2460.083077
804.396731	2495.371154
804.717372	2455.041923
805.037967	2507.974038
805.358518	2553.344423
805.679024	2439.918462
805.999485	2492.850577
806.319901	2502.932885
806.640272	2553.344423
806.960598	2510.494615
807.280879	2495.371154
807.601115	2465.124231
807.921306	2505.453462
808.241453	2505.453462
808.561554	2460.083077
808.881611	2432.356731
809.201623	2442.439038
809.521590	2502.932885
809.841513	2482.768269
810.161390	2470.165385
810.481223	2520.576923
810.801011	2550.823846
811.120755	2465.124231
811.440453	2404.630385
811.760107	2495.371154
812.079716	2510.494615
812.399281	2439.918462
812.718801	2502.932885
813.038276	2492.850577
813.357707	2548.303269
813.677093	2505.453462
813.996434	2404.630385
814.315731	2520.576923
814.634983	2450.000769
814.954191	2462.603654
815.273354	2407.150962
815.592473	2583.591346
815.911547	2560.906154
816.230577	2429.836154
816.549562	2515.535769
816.868502	2507.974038
817.187399	2505.453462
817.506250	2525.618077
817.825058	2444.959615
818.143821	2543.262115
818.462539	2452.521346
818.781213	2452.521346
819.099843	2442.439038
819.418429	2502.932885
819.736970	2439.918462
820.055466	2495.371154
820.373919	2560.906154
820.692327	2520.576923
821.010691	2490.330000
821.329011	2460.083077
821.647286	2573.509038
821.965517	2611.317692
822.283704	2581.070769
822.601847	2485.288846
822.919945	2475.206538
823.237999	2520.576923
823.556010	2550.823846
823.873976	2439.918462
824.191897	2462.603654
824.509775	2548.303269
824.827609	2475.206538
825.145398	2429.836154
825.463144	2490.330000
825.780845	2490.330000
826.098502	2538.220962
826.416116	2507.974038
826.733685	2455.041923
827.051210	2500.412308
827.368692	2545.782692
827.686129	2477.727115
828.003522	2452.521346
828.320872	2477.727115
828.638177	2505.453462
828.955439	2507.974038
829.272656	2447.480192
829.589830	2500.412308
829.906960	2452.521346
830.224046	2447.480192
830.541088	2533.179808
830.858086	2442.439038
831.175041	2565.947308
831.491952	2470.165385
831.808819	2513.015192
832.125642	2495.371154
832.442421	2560.906154
832.759157	2392.027500
833.075849	2570.988462
833.392497	2540.741538
833.709101	2523.097500
834.025662	2560.906154
834.342179	2485.288846
834.658653	2485.288846
834.975083	2485.288846
835.291469	2495.371154
835.607811	2555.865000
835.924110	2543.262115
836.240366	2467.644808
836.556578	2523.097500
836.872746	2422.274423
837.188871	2507.974038
837.504952	2424.795000
837.820990	2507.974038
838.136984	2515.535769
838.452935	2444.959615
838.768842	2417.233269
839.084706	2417.233269
839.400526	2386.986346
839.716303	2538.220962
840.032037	2553.344423
840.347727	2437.397885
840.663373	2528.138654
840.978977	2487.809423
841.294537	2392.027500
841.610054	2470.165385
841.925527	2513.015192
842.240957	2507.974038
842.556344	2477.727115
842.871687	2510.494615
843.186987	2565.947308
843.502244	2490.330000
843.817458	2477.727115
844.132629	2437.397885
844.447756	2480.247692
844.762840	2452.521346
845.077881	2424.795000
845.392879	2467.644808
845.707833	2376.904038
846.022745	2475.206538
846.337613	2525.618077
846.652438	2457.562500
846.967221	2482.768269
847.281960	2497.891731
847.596656	2528.138654
847.911309	2462.603654
848.225919	2432.356731
848.540485	2450.000769
848.855009	2492.850577
849.169490	2472.685962
849.483928	2490.330000
849.798323	2475.206538
850.112675	2515.535769
850.426984	2480.247692
850.741251	2560.906154
851.055474	2465.124231
851.369654	2487.809423
851.683792	2462.603654
851.997887	2495.371154
852.311938	2480.247692
852.625947	2482.768269
852.939914	2497.891731
853.253837	2475.206538
853.567718	2487.809423
853.881555	2540.741538
854.195350	2465.124231
854.509103	2497.891731
854.822812	2477.727115
855.136479	2432.356731
855.450103	2560.906154
855.763685	2548.303269
856.077224	2507.974038
856.390720	2497.891731
856.704173	2581.070769
857.017584	2470.165385
857.330953	2487.809423
857.644278	2563.426731
857.957561	2477.727115
858.270802	2480.247692
858.584000	2414.712692
858.897155	2528.138654
859.210268	2439.918462
859.523339	2538.220962
859.836367	2485.288846
860.149352	2381.945192
860.462295	2502.932885
860.775195	2540.741538
861.088054	2477.727115
861.400869	2497.891731
861.713642	2389.506923
862.026373	2581.070769
862.339062	2530.659231
862.651708	2427.315577
862.964312	2462.603654
863.276873	2409.671538
863.589392	2530.659231
863.901869	2510.494615
864.214303	2487.809423
864.526696	2444.959615
864.839045	2419.753846
865.151353	2530.659231
865.463619	2480.247692
865.775842	2457.562500
866.088023	2437.397885
866.400162	2495.371154
866.712258	2515.535769
867.024313	2404.630385
867.336325	2452.521346
867.648296	2402.109808
867.960224	2442.439038
868.272110	2513.015192
868.583954	2548.303269
868.895755	2560.906154
869.207515	2490.330000
869.519233	2550.823846
869.830909	2505.453462
870.142542	2528.138654
870.454134	2470.165385
870.765684	2515.535769
871.077191	2500.412308
871.388657	2573.509038
871.700081	2467.644808
872.011463	2550.823846
872.322803	2502.932885
872.634101	2470.165385
872.945357	2460.083077
873.256571	2613.838269
873.567744	2485.288846
873.878874	2525.618077
874.189963	2480.247692
874.501010	2389.506923
874.812015	2540.741538
875.122979	2518.056346
875.433900	2543.262115
875.744780	2475.206538
876.055618	2485.288846
876.366415	2470.165385
876.677169	2442.439038
876.987882	2560.906154
877.298554	2528.138654
877.609183	2548.303269
877.919771	2500.412308
878.230317	2555.865000
878.540822	2495.371154
878.851285	2487.809423
879.161707	2397.068654
879.472087	2500.412308
879.782425	2518.056346
880.092722	2528.138654
880.402977	2422.274423
880.713191	2462.603654
881.023363	2475.206538
881.333494	2502.932885
881.643583	2543.262115
881.953631	2510.494615
882.263637	2404.630385
882.573602	2482.768269
882.883526	2455.041923
883.193408	2414.712692
883.503248	2429.836154
883.813048	2482.768269
884.122806	2470.165385
884.432522	2442.439038
884.742197	2477.727115
885.051831	2455.041923
885.361424	2475.206538
885.670975	2540.741538
885.980485	2455.041923
886.289954	2543.262115
886.599382	2397.068654
886.908768	2507.974038
887.218113	2485.288846
887.527417	2523.097500
887.836680	2475.206538
888.145901	2397.068654
888.455082	2417.233269
888.764221	2442.439038
889.073319	2510.494615
889.382376	2447.480192
889.691392	2502.932885
890.000366	2457.562500
890.309300	2555.865000
890.618193	2520.576923
890.927044	2452.521346
891.235855	2535.700385
891.544625	2502.932885
891.853353	2513.015192
892.162041	2490.330000
892.470687	2540.741538
892.779293	2487.809423
893.087858	2591.153077
893.396381	2500.412308
893.704864	2495.371154
894.013306	2540.741538
894.321707	2543.262115
894.630068	2515.535769
894.938387	2515.535769
895.246665	2452.521346
895.554903	2450.000769
895.863100	2389.506923
896.171256	2528.138654
896.479371	2417.233269
896.787446	2409.671538
897.095480	2515.535769
897.403473	2475.206538
897.711425	2482.768269
898.019336	2538.220962
898.327207	2434.877308
898.635038	2427.315577
898.942827	2523.097500
899.250576	2475.206538
899.558284	2502.932885
899.865952	2437.397885
900.173579	2477.727115
900.481165	2465.124231
900.788711	2578.550192
901.096216	2394.548077
901.403681	2457.562500
901.711105	2392.027500
902.018489	2497.891731
902.325832	2502.932885
902.633135	2361.780577
902.940397	2472.685962
903.247619	2450.000769
903.554800	2447.480192
903.861941	2545.782692
904.169041	2485.288846
904.476101	2515.535769
904.783121	2434.877308
905.090100	2447.480192
905.397039	2502.932885
905.703938	2432.356731
906.010796	2528.138654
906.317614	2502.932885
906.624391	2412.192115
906.931129	2525.618077
907.237826	2419.753846
907.544483	2477.727115
907.851099	2404.630385
908.157675	2515.535769
908.464211	2502.932885
908.770707	2475.206538
909.077163	2533.179808
909.383578	2447.480192
909.689954	2492.850577
909.996289	2485.288846
910.302584	2492.850577
910.608839	2470.165385
910.915054	2462.603654
911.221229	2465.124231
911.527363	2558.385577
911.833458	2535.700385
912.139513	2510.494615
912.445527	2470.165385
912.751502	2558.385577
913.057436	2457.562500
913.363331	2497.891731
913.669186	2485.288846
913.975000	2535.700385
914.280775	2452.521346
914.586510	2447.480192
914.892205	2442.439038
915.197859	2513.015192
915.503475	2407.150962
915.809050	2450.000769
916.114585	2402.109808
916.420081	2460.083077
916.725536	2510.494615
917.030952	2502.932885
917.336328	2465.124231
917.641665	2581.070769
917.946961	2480.247692
918.252218	2490.330000
918.557435	2591.153077
918.862612	2573.509038
919.167750	2450.000769
919.472848	2465.124231
919.777906	2450.000769
920.082925	2450.000769
920.387904	2565.947308
920.692843	2475.206538
920.997743	2492.850577
921.302603	2475.206538
921.607423	2490.330000
921.912204	2497.891731
922.216946	2467.644808
922.521647	2515.535769
922.826310	2376.904038
923.130932	2419.753846
923.435516	2558.385577
923.740059	2437.397885
924.044564	2492.850577
924.349028	2467.644808
924.653454	2505.453462
924.957840	2462.603654
925.262186	2548.303269
925.566493	2485.288846
925.870761	2548.303269
926.174989	2472.685962
926.479178	2475.206538
926.783328	2497.891731
927.087438	2447.480192
927.391509	2573.509038
927.695541	2525.618077
927.999533	2487.809423
928.303486	2482.768269
928.607400	2452.521346
928.911275	2505.453462
929.215110	2452.521346
929.518906	2447.480192
929.822663	2470.165385
930.126381	2505.453462
930.430060	2447.480192
930.733699	2475.206538
931.037299	2457.562500
931.340861	2606.276538
931.644383	2588.632500
931.947866	2538.220962
932.251309	2467.644808
932.554714	2412.192115
932.858080	2523.097500
933.161407	2407.150962
933.464694	2467.644808
933.767943	2482.768269
934.071153	2490.330000
934.374323	2485.288846
934.677455	2528.138654
934.980548	2497.891731
935.283602	2439.918462
935.586617	2555.865000
935.889593	2447.480192
936.192530	2402.109808
936.495428	2482.768269
936.798287	2409.671538
937.101108	2507.974038
937.403890	2472.685962
937.706632	2485.288846
938.009336	2424.795000
938.312002	2404.630385
938.614628	2477.727115
938.917216	2414.712692
939.219765	2492.850577
939.522275	2492.850577
939.824747	2507.974038
940.127179	2472.685962
940.429573	2528.138654
940.731929	2460.083077
941.034246	2485.288846
941.336524	2462.603654
941.638763	2470.165385
941.940964	2432.356731
942.243126	2465.124231
942.545250	2467.644808
942.847335	2475.206538
943.149381	2419.753846
943.451389	2409.671538
943.753359	2533.179808
944.055290	2467.644808
944.357182	2523.097500
944.659036	2444.959615
944.960851	2510.494615
945.262628	2525.618077
945.564367	2497.891731
945.866067	2480.247692
946.167729	2472.685962
946.469352	2565.947308
946.770937	2528.138654
947.072484	2472.685962
947.373992	2651.646923
947.675462	2510.494615
947.976893	2583.591346
948.278286	2528.138654
948.579641	2490.330000
948.880958	2520.576923
949.182236	2490.330000
949.483476	2560.906154
949.784678	2462.603654
950.085841	2419.753846
950.386967	2510.494615
950.688054	2490.330000
950.989103	2475.206538
951.290114	2450.000769
951.591087	2470.165385
951.892021	2450.000769
952.192917	2404.630385
952.493776	2528.138654
952.794596	2570.988462
953.095378	2495.371154
953.396122	2429.836154
953.696828	2447.480192
953.997496	2482.768269
954.298126	2530.659231
954.598718	2487.809423
954.899272	2510.494615
955.199788	2497.891731
955.500266	2586.111923
955.800706	2510.494615
956.101108	2477.727115
956.401472	2475.206538
956.701798	2437.397885
957.002087	2467.644808
957.302337	2576.029615
957.602550	2452.521346
957.902724	2457.562500
958.202861	2538.220962
958.502960	2472.685962
958.803022	2513.015192
959.103045	2439.918462
959.403031	2518.056346
959.702979	2376.904038
960.002889	2530.659231
960.302762	2500.412308
960.602596	2490.330000
960.902393	2457.562500
961.202153	2507.974038
961.501875	2394.548077
961.801559	2530.659231
962.101205	2394.548077
962.400814	2538.220962
962.700385	2518.056346
962.999918	2487.809423
963.299414	2429.836154
963.598873	2467.644808
963.898293	2407.150962
964.197677	2523.097500
964.497022	2558.385577
964.796331	2465.124231
965.095601	2528.138654
965.394835	2502.932885
965.694030	2530.659231
965.993189	2442.439038
966.292309	2492.850577
966.591393	2538.220962
966.890439	2470.165385
967.189447	2439.918462
967.488419	2510.494615
967.787353	2429.836154
968.086249	2533.179808
968.385108	2450.000769
968.683930	2495.371154
968.982714	2455.041923
969.281462	2480.247692
969.580172	2434.877308
969.878844	2510.494615
970.177480	2497.891731
970.476078	2437.397885
970.774639	2475.206538
971.073162	2477.727115
971.371649	2525.618077
971.670098	2502.932885
971.968510	2472.685962
972.266885	2482.768269
972.565223	2482.768269
972.863524	2437.397885
973.161788	2510.494615
973.460014	2434.877308
973.758204	2485.288846
974.056356	2470.165385
974.354471	2467.644808
974.652550	2444.959615
974.950591	2538.220962
975.248595	2492.850577
975.546563	2429.836154
975.844493	2427.315577
976.142386	2457.562500
976.440243	2361.780577
976.738062	2490.330000
977.035845	2465.124231
977.333590	2452.521346
977.631299	2497.891731
977.928971	2505.453462
978.226606	2409.671538
978.524204	2513.015192
978.821765	2480.247692
979.119290	2487.809423
979.416777	2381.945192
979.714228	2444.959615
980.011642	2460.083077
980.309020	2555.865000
980.606360	2447.480192
980.903664	2495.371154
981.200931	2487.809423
981.498162	2470.165385
981.795356	2583.591346
982.092513	2472.685962
982.389633	2437.397885
982.686717	2482.768269
982.983764	2485.288846
983.280775	2460.083077
983.577749	2535.700385
983.874686	2407.150962
984.171587	2500.412308
984.468451	2467.644808
984.765279	2515.535769
985.062070	2442.439038
985.358824	2513.015192
985.655543	2439.918462
985.952224	2528.138654
986.248869	2513.015192
986.545478	2490.330000
986.842050	2500.412308
987.138586	2444.959615
987.435086	2472.685962
987.731549	2555.865000
988.027975	2439.918462
988.324366	2520.576923
988.620719	2513.015192
988.917037	2550.823846
989.213318	2457.562500
989.509563	2530.659231
989.805772	2500.412308
990.101944	2399.589231
990.398080	2505.453462
990.694180	2568.467885
990.990244	2455.041923
991.286271	2434.877308
991.582262	2495.371154
991.878217	2533.179808
992.174136	2502.932885
992.470019	2462.603654
992.765865	2427.315577
993.061676	2417.233269
993.357450	2601.235385
993.653188	2480.247692
993.948890	2424.795000
994.244556	2543.262115
994.540186	2502.932885
994.835780	2495.371154
995.131337	2450.000769
995.426859	2407.150962
995.722345	2520.576923
996.017795	2485.288846
996.313208	2497.891731
996.608586	2460.083077
996.903928	2412.192115
997.199234	2480.247692
997.494504	2442.439038
997.789738	2447.480192
998.084936	2455.041923
998.380099	2470.165385
998.675225	2500.412308
998.970316	2439.918462
999.265371	2573.509038
999.560390	2452.521346
999.855373	2444.959615
1000.150320	2490.330000
1000.445232	2495.371154
1000.740108	2505.453462
1001.034948	2555.865000
1001.329752	2538.220962
1001.624521	2515.535769
1001.919254	2472.685962
1002.213951	2523.097500
1002.508613	2593.673654
1002.803239	2528.138654
1003.097829	2467.644808
1003.392384	2540.741538
1003.686903	2490.330000
1003.981386	2535.700385
1004.275834	2462.603654
1004.570246	2513.015192
1004.864623	2495.371154
1005.158964	2540.741538
1005.453270	2452.521346
1005.747540	2485.288846
1006.041775	2535.700385
1006.335974	2472.685962
1006.630138	2465.124231
1006.924266	2450.000769
1007.218359	2497.891731
1007.512416	2482.768269
1007.806438	2545.782692
1008.100425	2558.385577
1008.394376	2419.753846
1008.688292	2543.262115
1008.982172	2439.918462
1009.276017	2472.685962
1009.569827	2412.192115
1009.863602	2495.371154
1010.157341	2460.083077
1010.451045	2424.795000
1010.744714	2495.371154
1011.038347	2505.453462
1011.331945	2457.562500
1011.625508	2485.288846
1011.919036	2497.891731
1012.212528	2427.315577
1012.505986	2462.603654
1012.799408	2477.727115
1013.092795	2457.562500
1013.386147	2472.685962
1013.679464	2442.439038
1013.972745	2490.330000
1014.265992	2533.179808
1014.559204	2376.904038
1014.852380	2505.453462
1015.145521	2560.906154
1015.438628	2470.165385
1015.731699	2515.535769
1016.024736	2538.220962
1016.317737	2543.262115
1016.610703	2495.371154
1016.903635	2409.671538
1017.196531	2538.220962
1017.489393	2381.945192
1017.782219	2455.041923
1018.075011	2528.138654
1018.367768	2465.124231
1018.660490	2487.809423
1018.953177	2487.809423
1019.245829	2487.809423
