Dividing Wavelength (nm)	Counts (n)	Blue Motor Position (mm): 23.200000	Red Motor Position (mm): 0.000000	
326.493990	2193.922757
326.888308	2193.922757
327.282561	2193.922757
327.676750	2152.560089
328.070874	2148.940541
328.464933	2152.915491
328.858929	2155.680564
329.252859	2159.506799
329.646726	2169.909220
330.040528	2180.853565
330.434265	2192.982582
330.827938	2213.106868
331.221547	2228.134547
331.615091	2246.078534
332.008571	2264.100659
332.401986	2282.760490
332.795338	2302.610034
333.188625	2320.596871
333.581847	2337.356187
333.975006	2357.094824
334.368100	2378.960829
334.761129	2394.928684
335.154095	2409.721950
335.546996	2435.915785
335.939833	2470.798049
336.332606	2487.239773
336.725315	2497.521206
337.117960	2509.350273
337.510540	2523.621780
337.903056	2531.163346
338.295508	2540.701209
338.687896	2552.434495
339.080220	2557.611760
339.472480	2564.813048
339.864676	2569.471074
340.256807	2576.959708
340.648875	2580.438104
341.040879	2581.993300
341.432818	2586.363981
341.824694	2587.725092
342.216506	2586.545462
342.608253	2589.973447
342.999937	2589.880186
343.391557	2589.154259
343.783113	2589.955803
344.174605	2586.106882
344.566033	2589.020669
344.957397	2588.587130
345.348697	2584.647468
345.739934	2585.181830
346.131106	2581.600090
346.522215	2580.846438
346.913260	2578.671180
347.304241	2578.285532
347.695159	2572.185736
348.086012	2575.495253
348.476802	2570.128945
348.867528	2567.696588
349.258191	2563.827503
349.648789	2564.646690
350.039324	2557.490772
350.429796	2562.990671
350.820203	2561.314487
351.210548	2563.532595
351.600828	2561.135526
351.991045	2557.848694
352.381198	2555.706204
352.771288	2556.502706
353.161314	2555.544887
353.551276	2557.979764
353.941175	2556.185113
354.331010	2552.918446
354.720782	2555.764177
355.110490	2555.219732
355.500135	2556.905998
355.889717	2553.664536
356.279235	2556.878272
356.668689	2555.184444
357.058080	2556.127140
357.447408	2555.852397
357.836672	2555.413817
358.225873	2553.346944
358.615010	2557.556307
359.004084	2558.355330
359.393095	2556.429609
359.782043	2558.645196
360.170927	2560.094528
360.559748	2558.413303
360.948505	2560.722152
361.337199	2562.312636
361.725830	2558.592264
362.114398	2560.618808
362.502903	2561.279199
362.891344	2564.646690
363.279722	2561.044786
363.668037	2563.031000
364.056289	2564.016546
364.444478	2565.339849
364.832603	2562.554611
365.220665	2566.075857
365.608665	2563.237687
365.996601	2564.235836
366.384474	2568.324212
366.772284	2564.739951
367.160031	2567.031156
367.547715	2567.623491
367.935336	2564.629046
368.322893	2562.978068
368.710388	2566.002760
369.097820	2564.306412
369.485189	2565.372616
369.872495	2565.291958
370.259738	2568.924109
370.646918	2570.033163
371.034035	2569.708008
371.421090	2571.527865
371.808081	2569.715570
372.195010	2573.567012
372.581875	2570.736404
372.968678	2574.814697
373.355418	2570.547361
373.742096	2572.684810
374.128710	2573.519121
374.515262	2575.769996
374.901751	2572.626837
375.288177	2572.868812
375.674540	2571.212793
376.060841	2572.727660
376.447079	2572.657083
376.833254	2574.421487
377.219367	2577.020202
377.605417	2575.722105
377.991404	2574.794533
378.377329	2574.814697
378.763191	2573.473750
379.148991	2574.489543
379.534727	2576.296797
379.920402	2575.815366
380.306013	2576.780747
380.691563	2577.746128
381.077049	2578.514904
381.462474	2575.094481
381.847835	2576.942064
382.233134	2576.183371
382.618371	2574.199677
383.003545	2578.096488
383.388657	2577.332754
383.773706	2575.001220
384.158693	2578.323340
384.543618	2576.725295
384.928480	2577.642785
385.313280	2577.998186
385.698017	2579.979359
386.082692	2580.279308
386.467305	2579.729822
386.851856	2576.042218
387.236344	2579.618917
387.620770	2580.034812
388.005133	2577.133628
388.389435	2577.191601
388.773674	2574.061045
389.157851	2583.745101
389.541965	2584.143352
389.926018	2581.224524
390.310008	2585.388518
390.693936	2583.614031
391.077802	2582.646130
391.461606	2585.834660
391.845348	2580.591860
392.229027	2584.155955
392.612645	2580.566654
392.996200	2583.619073
393.379694	2585.396079
393.763125	2583.291398
394.146494	2582.842735
394.529801	2584.281984
394.913047	2584.460945
395.296230	2585.249886
395.679351	2585.950606
396.062410	2586.179979
396.445408	2587.984712
396.828343	2587.924218
397.211217	2588.062850
397.594028	2588.831626
397.976778	2588.330031
398.359466	2587.115113
398.742092	2586.253075
399.124656	2586.484968
399.507158	2590.003694
399.889598	2589.285329
400.271977	2588.826584
400.654294	2588.871955
401.036549	2589.308015
401.418742	2589.824733
401.800874	2588.698035
402.182944	2588.539239
402.564952	2590.023858
402.946898	2590.084352
403.328783	2592.332707
403.710606	2590.081832
404.092367	2592.912440
404.474067	2590.855649
404.855705	2594.074426
405.237282	2590.490165
405.618797	2591.185844
406.000250	2594.016452
406.381642	2592.889754
406.762972	2591.773139
407.144240	2591.644589
407.525447	2592.882193
407.906593	2588.516553
408.287677	2593.187182
408.668700	2595.213726
409.049661	2596.852101
409.430560	2596.332862
409.811399	2595.896803
410.192176	2594.689446
410.572891	2594.996957
410.953545	2593.232553
411.334138	2594.817996
411.714669	2598.258583
412.095139	2595.667430
412.475547	2594.455033
412.855894	2597.575507
413.236180	2595.523757
413.616405	2596.589961
413.996568	2597.210023
414.376670	2599.221444
414.756711	2595.009560
415.136691	2597.683892
415.516609	2601.217741
415.896466	2599.775971
416.276262	2596.103490
416.655997	2598.417380
417.035670	2598.646752
417.415283	2602.745210
417.794834	2597.817482
418.174324	2599.095415
418.553753	2599.203800
418.933121	2601.401743
419.312428	2598.455188
419.691674	2601.157247
420.070859	2601.290837
420.449983	2600.574993
420.829045	2600.746393
421.208047	2603.622371
421.586988	2602.805704
421.965867	2601.721856
422.344686	2600.511979
422.723444	2605.371651
423.102141	2602.599017
423.480777	2601.351331
423.859352	2602.798142
424.237866	2605.109511
424.616319	2602.624222
424.994712	2603.561877
425.373044	2605.474995
425.751314	2601.414346
426.129524	2600.020467
426.507673	2602.803183
426.885762	2600.703543
427.263789	2603.932402
427.641756	2606.150510
428.019662	2607.524224
428.397508	2607.163782
428.775292	2605.467433
429.153016	2605.321240
429.530679	2606.092536
429.908282	2610.332147
430.285824	2607.105808
430.663305	2605.056579
431.040726	2604.305447
431.418086	2607.204111
431.795385	2607.372989
432.172624	2608.194697
432.549802	2611.413474
432.926920	2607.478854
433.303977	2609.883484
433.680974	2609.157558
434.057910	2607.299893
434.434786	2610.806015
434.811601	2611.171499
435.188355	2610.788371
435.565050	2610.102774
435.941683	2608.424070
436.318257	2611.902466
436.694770	2610.122939
437.071222	2609.656632
437.447614	2611.020264
437.823946	2613.634102
438.200218	2612.925820
438.576429	2612.305758
438.952580	2614.939761
439.328670	2613.190481
439.704700	2612.192333
440.080670	2613.457662
440.456580	2614.793568
440.832429	2614.060080
441.208218	2612.764503
441.583947	2616.610904
441.959616	2613.316510
442.335224	2615.595111
442.710773	2615.612755
443.086261	2615.842128
443.461689	2617.765328
443.837057	2616.673918
444.212365	2617.256172
444.587612	2615.945472
444.962800	2617.039402
445.337927	2618.282046
445.712995	2612.840121
446.088002	2620.283384
446.462949	2618.216511
446.837837	2618.385390
447.212664	2619.776748
447.587431	2621.730196
447.962139	2622.677932
448.336786	2626.294960
448.711374	2626.763788
449.085901	2620.847994
449.460369	2624.966616
449.834776	2625.995012
450.209124	2624.578447
450.583412	2629.322173
450.957640	2629.491052
451.331808	2629.748151
451.705917	2626.292440
452.079965	2626.267234
452.453954	2632.215796
452.827883	2629.995167
453.201752	2631.696557
453.575562	2633.909623
453.949311	2633.599592
454.323001	2633.546660
454.696632	2633.337452
455.070202	2635.157309
455.443713	2636.677217
455.817164	2639.286014
456.190556	2640.528658
456.563888	2643.697023
456.937160	2643.523104
457.310373	2643.722229
457.683526	2643.402116
458.056619	2645.973104
458.429653	2648.259268
458.802628	2649.267498
459.175542	2650.454690
459.548398	2658.303767
459.921194	2661.356185
460.293930	2665.583193
460.666607	2672.121569
461.039224	2681.125070
461.411782	2689.652182
461.784280	2695.948583
462.156719	2698.010415
462.529099	2703.565767
462.901419	2704.742876
463.273680	2708.768237
463.645882	2711.550954
464.018024	2720.257027
464.390106	2729.182390
464.762130	2751.529825
465.134094	2773.615120
465.505999	2824.051864
465.877845	2905.758886
466.249631	2965.221816
466.621358	2979.211018
466.993026	2969.342959
467.364634	2982.165134
467.736184	2984.259733
468.107674	2996.340858
468.479105	3034.557846
468.850477	3061.044068
469.221790	3086.317893
469.593043	3102.167281
469.964238	3119.977677
470.335373	3149.629744
470.706449	3203.996068
471.077467	3230.368864
471.448425	3361.869883
471.819324	3628.355357
472.190164	3806.537461
472.560945	3690.132177
472.931667	3625.030716
473.302330	3653.724964
473.672934	3688.239224
474.043479	3789.415182
474.413965	3852.064121
474.784393	3904.552615
475.154761	4041.029252
475.525070	4122.635451
475.895321	4171.587575
476.265513	4319.495029
476.635645	4472.138647
477.005719	4546.926685
477.375734	4674.225902
477.745691	4843.028938
478.115588	5008.192262
478.485427	5201.412127
478.855207	5463.403413
479.224928	5869.032295
479.594591	6398.895373
479.964194	6537.212032
480.333739	6743.843887
480.703226	6770.277177
481.072653	6891.516927
481.442022	7199.922117
481.811333	7554.161477
482.180584	7745.629541
482.549777	7691.500152
482.918912	7830.280596
483.287988	8034.071761
483.657005	8168.410949
484.025964	8266.932740
484.394864	8431.745703
484.763706	8542.250316
485.132489	8622.283674
485.501213	8807.021798
485.869879	9014.538376
486.238487	9075.367458
486.607036	9380.546309
486.975527	9461.121592
487.343959	9749.543648
487.712333	9977.156785
488.080648	10008.457309
488.448905	10411.192569
488.817104	10516.688796
489.185244	10944.977665
489.553326	11194.482013
489.921350	11726.893394
490.289315	12869.188608
490.657222	13872.867216
491.025070	14341.926417
491.392861	14507.566129
491.760593	14410.120625
492.128267	14326.991998
492.495883	14069.288214
492.863440	13946.228607
493.230939	13737.340836
493.598380	13904.865940
493.965763	13922.827571
494.333088	13916.901695
494.700354	14096.994395
495.067563	14279.912662
495.434713	14362.184293
495.801805	14584.612604
496.168839	14760.697587
496.535815	14871.744124
496.902733	15180.781978
497.269593	15158.421940
497.636395	15512.200035
498.003139	15695.541759
498.369825	15797.506657
498.736453	16069.650827
499.103023	16181.801377
499.469535	16402.727424
499.835989	16729.091724
500.202385	16965.637786
500.568723	16822.587483
500.935003	17153.665262
501.301226	17074.380515
501.667390	17785.856202
502.033497	18207.286581
502.399546	18144.438516
502.765537	18108.318648
503.131470	18526.235343
503.497345	18818.065219
503.863163	18392.062513
504.228923	19044.476041
504.594625	19358.983547
504.960269	19116.849366
505.325856	19689.388332
505.691385	19403.015506
506.056856	19992.649024
506.422270	20162.334263
506.787625	19967.163471
507.152924	20474.565688
507.518164	20593.027762
507.883347	20574.640153
508.248472	20454.111206
508.613540	21243.016495
508.978550	21213.651774
509.343503	21317.839821
509.708398	21690.048374
510.073236	21932.386722
510.438016	22225.643244
510.802738	22092.382862
511.167403	22404.541191
511.532010	22236.214543
511.896561	23051.449779
512.261053	23143.453357
512.625488	23087.292383
512.989866	23107.267955
513.354186	23055.144944
513.718449	23243.139654
514.082655	23680.568135
514.446803	23548.726838
514.810894	24032.634757
515.174927	23647.147805
515.538904	23764.173151
515.902822	24280.624239
516.266684	24138.115861
516.630488	24105.993628
516.994235	24178.180431
517.357925	24494.918647
517.721558	24752.597226
518.085133	24889.792228
518.448651	24882.280909
518.812112	24662.842003
519.175516	24881.880137
519.538863	25114.403358
519.902152	24929.274545
520.265385	25281.981395
520.628560	25111.111485
520.991678	25177.042216
521.354739	25281.510047
521.717743	25374.219387
522.080690	25197.153899
522.443580	25562.408180
522.806413	25592.627377
523.169189	25721.002880
523.531908	25806.011857
523.894569	25438.615086
524.257174	25534.563367
524.619722	25760.195331
524.982213	25464.831606
525.344647	25564.351545
525.707025	25688.812592
526.069345	25726.104528
526.431608	25683.816809
526.793815	25901.834110
527.155964	25355.937642
527.518057	25538.513111
527.880093	25489.437478
528.242072	25733.668779
528.603995	25434.294817
528.965860	25256.881490
529.327669	25311.666229
529.689421	25318.867517
530.051117	25151.206302
530.412755	25347.052608
530.774337	25156.910368
531.135862	25030.833631
531.497331	25252.626756
531.858743	24787.539984
532.220098	25287.458608
532.581396	24964.366017
532.942638	24933.685555
533.303824	25010.479972
533.664953	25042.773603
534.026025	24723.900458
534.387040	24949.114006
534.747999	25020.428689
535.108902	25185.997825
535.469748	24677.478993
535.830537	24870.028385
536.191270	24987.167156
536.551947	24885.250149
536.912567	24564.980604
537.273131	24858.774009
537.633638	24593.339615
537.994089	24797.478619
538.354483	24365.174471
538.714821	24860.369534
539.075103	24903.794033
539.435328	24694.364338
539.795497	24236.345264
540.155609	24652.512678
540.515665	24932.798312
540.875665	24193.397154
541.235609	24446.654641
541.595496	24437.827580
541.955328	24784.875734
542.315102	24699.133269
542.674821	24281.486276
543.034483	24155.212934
543.394090	24320.928264
543.753640	24104.017496
544.113134	24740.705144
544.472571	24354.923285
544.831953	24634.382169
545.191278	24233.713782
545.550548	24171.069883
545.909761	24404.492950
546.268918	24615.676967
546.628019	24568.335492
546.987064	24279.958806
547.346053	24058.163161
547.704986	24173.335882
548.063863	24335.842517
548.422684	24323.635363
548.781449	23894.355908
549.140158	24282.413848
549.498811	23857.104301
549.857408	23588.471295
550.215949	24053.036307
550.574434	23719.082550
550.932864	23935.713534
551.291237	24076.059257
551.649555	23955.084167
552.007817	24000.603266
552.366022	23873.954358
552.724173	23920.819445
553.082267	23855.685216
553.440305	24322.052441
553.798288	23604.161886
554.156215	24143.981243
554.514086	24210.295101
554.871902	23571.535539
555.229661	23866.251475
555.587365	23738.667433
555.945014	23584.637498
556.302606	23842.505120
556.660143	23763.527883
557.017625	24027.381875
557.375050	23581.048196
557.732421	23955.323622
558.089735	23757.107973
558.446994	23837.121167
558.804197	23850.644063
559.161345	23814.415810
559.518437	23546.680130
559.875474	23759.280711
560.232455	23932.474592
560.589381	23762.648202
560.946251	23741.833277
561.303065	24059.375558
561.659825	24140.414627
562.016528	23748.389298
562.373177	23498.955526
562.729770	23850.873435
563.086307	23713.030645
563.442789	23884.082036
563.799216	23719.682447
564.155587	23728.633016
564.511904	23719.589186
564.868164	23640.662361
565.224370	23639.117247
565.580520	23519.513352
565.936615	23661.757069
566.292654	23335.755732
566.648638	23653.507221
567.004567	23476.386280
567.360441	23421.624226
567.716260	23155.554647
568.072023	23476.890396
568.427732	23233.407706
568.783385	23029.850955
569.138982	23254.988886
569.494525	23291.091109
569.850013	23049.786198
570.205445	23138.260968
570.560823	22933.759001
570.916145	22709.838509
571.271412	22874.772460
571.626625	22628.827167
571.981782	22758.541096
572.336884	22551.576525
572.691931	22681.764323
573.046923	22421.943254
573.401860	22305.626191
573.756743	22298.215694
574.111570	22218.537737
574.466342	22160.786279
574.821059	22246.135534
575.175722	21936.341507
575.530330	21938.957866
575.884882	21955.949075
576.239380	21865.782997
576.593823	21759.583529
576.948211	21746.675655
577.302544	21582.155079
577.656823	21456.771500
578.011047	21552.051828
578.365216	21417.689955
578.719330	21307.407153
579.073389	21204.759178
579.427394	21354.123526
579.781344	21126.094493
580.135239	21014.939571
580.489080	21001.391470
580.842866	20748.441494
581.196597	20935.536357
581.550273	20921.879871
581.903895	20818.760549
582.257463	21136.496914
582.610975	20653.390538
582.964434	20957.465376
583.317837	20669.353352
583.671186	20770.337746
584.024481	20723.848225
584.377721	20509.516007
584.730906	20549.462110
585.084037	20590.076166
585.437113	20484.350567
585.790135	20687.861948
586.143103	20161.094139
586.496016	20172.101498
586.848874	20411.967160
587.201679	20364.625684
587.554428	20011.770121
587.907124	20349.222438
588.259765	20132.485591
588.612352	20206.472085
588.964884	19783.252096
589.317362	19950.363826
589.669786	19992.303705
590.022155	20060.132430
590.374470	20225.434385
590.726731	20043.630213
591.078937	19786.972468
591.431090	19885.247241
591.783188	19625.741244
592.135232	19616.089955
592.487222	19698.764878
592.839157	19741.082844
593.191038	19612.513257
593.542866	19508.660446
593.894639	19228.226099
594.246358	19449.815057
594.598022	19355.174956
594.949633	19100.160627
595.301190	19067.148631
595.652692	19233.163909
596.004141	19482.945520
596.355535	18797.482188
596.706876	18813.092121
597.058162	18711.361636
597.409395	18930.263660
597.760573	19022.788997
598.111698	18799.672569
598.462768	18726.527947
598.813785	18686.251649
599.164748	18525.595117
599.515657	18549.679229
599.866511	18342.119802
600.217312	18707.822746
600.568060	18228.887925
600.918753	18546.644455
601.269392	18437.584132
601.619978	18215.337303
601.970510	18428.925951
602.320988	18379.338641
602.671412	18590.837730
603.021783	18479.622314
603.372100	18219.975165
603.722363	18361.394654
604.072572	18298.667577
604.422728	18438.461293
604.772830	18202.341209
605.122878	18139.828381
605.472872	18128.453017
605.822813	18120.745093
606.172701	18088.529599
606.522534	18286.241132
606.872314	18313.503692
607.222041	18136.302093
607.571714	18360.146968
607.921333	18184.576183
608.270899	18254.615454
608.620411	18462.197566
608.969870	18203.578812
609.319276	18214.288743
609.668627	18244.412158
610.017926	18377.783445
610.367171	18497.556219
610.716362	18540.499288
611.065500	18358.669910
611.414585	18485.013828
611.763616	18473.134349
612.112594	18430.778575
612.461518	18391.334067
612.810389	18588.067616
613.159207	18438.632693
613.507971	18345.968723
613.856682	18620.827554
614.205340	18548.970947
614.553945	18701.627168
614.902496	18443.825081
615.250994	18685.755095
615.599439	18616.779508
615.947830	18607.637375
616.296169	18653.486669
616.644454	18622.982648
616.992686	18587.341690
617.340864	18804.701120
617.688990	18567.469461
618.037063	18740.136542
618.385082	18581.899764
618.733048	18863.324698
619.080961	18729.676148
619.428821	18767.852806
619.776628	18659.599068
620.124382	18578.612932
620.472083	18622.511300
620.819731	18646.129105
621.167326	18339.682404
621.514868	18382.091111
621.862357	18136.087844
622.209793	18155.760947
622.557176	17986.552098
622.904506	17821.025811
623.251783	17720.709370
623.599007	17489.627919
623.946179	17433.721523
624.293297	17381.023821
624.640363	17137.568858
624.987376	17153.030077
625.334336	16941.820854
625.681243	16780.889579
626.028097	16790.245961
626.374899	16735.602374
626.721647	16590.699448
627.068343	16429.115343
627.414987	16362.473810
627.761577	16339.266858
628.108115	16377.146088
628.454600	16100.422030
628.801032	16192.327306
629.147412	16123.608817
629.493739	16135.430323
629.840014	15955.478775
630.186236	16056.316975
630.532405	15817.184802
630.878521	16013.331057
631.224585	15899.579941
631.570597	15730.570217
631.916556	15767.562204
632.262462	15750.500418
632.608316	15663.026317
632.954117	15601.133551
633.299866	15602.081287
633.645562	15529.644948
633.991206	15272.392347
634.336797	15143.134641
634.682336	15112.766731
635.027823	15008.308982
635.373257	14899.725048
635.718639	14782.014106
636.063968	14738.450975
636.409245	14489.944776
636.754470	14519.992573
637.099642	14357.415362
637.444762	14138.616682
637.789829	14176.785778
638.134845	14018.609494
638.479808	14043.727043
638.824719	13998.409591
639.169577	13846.832177
639.514383	13891.789187
639.859137	13708.664232
640.203839	13790.411583
640.548489	13627.327735
640.893086	13615.992701
641.237632	13486.596364
641.582125	13639.887770
641.926566	13476.713182
642.270955	13486.054440
642.615292	13446.856948
642.959576	13456.959421
643.303809	13488.229698
643.647990	13424.506993
643.992118	13474.792502
644.336195	13251.648348
644.680219	13451.870376
645.024192	13377.599056
645.368112	13614.190488
645.711981	13667.692254
646.055797	13854.456922
646.399562	13816.330675
646.743274	14084.686418
647.086935	14361.100445
647.430544	14321.756760
647.774101	14355.779507
648.117606	14508.402961
648.461059	14474.619668
648.804460	14471.816787
649.147810	14205.152351
649.491108	14101.072689
649.834354	14122.295946
650.177548	13821.850739
650.520690	13631.312768
650.863781	13547.054922
651.206820	13593.690636
651.549807	13419.685129
651.892742	13227.009708
652.235626	13167.337570
652.578458	13166.384792
652.921238	12844.363446
653.263967	13054.420765
653.606644	12876.679763
653.949269	12848.444260
654.291843	12659.280003
654.634365	12814.474445
654.976836	12664.467351
655.319255	12675.840194
655.661622	12633.373514
656.003938	12547.820092
656.346203	12478.594967
656.688416	12548.571224
657.030577	12514.616532
657.372687	12422.096236
657.714746	12400.837690
658.056753	12585.381729
658.398708	12406.738360
658.740612	12412.639031
659.082465	12512.688291
659.424266	12473.571458
659.766016	12489.834220
660.107715	12405.929255
660.449362	12478.138743
660.790958	12435.004110
661.132503	12387.430741
661.473996	12446.737396
661.815438	12467.892598
662.156829	12477.256541
662.498168	12453.726955
662.839456	12458.687451
663.180693	12470.818988
663.521879	12570.570819
663.863013	12535.807022
664.204097	12516.549815
664.545129	12645.721820
664.886110	12612.737551
665.227040	12697.922968
665.567918	12700.246940
665.908746	12736.679359
666.249522	12707.654916
666.590248	12766.923762
666.930922	12881.063046
667.271545	12866.466385
667.612118	12951.699694
667.952639	12851.998274
668.293109	12857.041948
668.633528	12812.619301
668.973896	12787.416052
669.314213	12880.737892
669.654480	12619.482614
669.994695	12682.955783
670.334859	12700.541848
670.674973	12648.668375
671.015035	12684.344620
671.355047	12630.953760
671.695008	12601.410078
672.034918	12610.418620
672.374777	12643.780976
672.714585	12552.142881
673.054342	12591.123603
673.394049	12539.512270
673.733705	12635.301755
674.073310	12553.045248
674.412864	12565.675859
674.752368	12438.336313
675.091820	12446.868466
675.431223	12434.789861
675.770574	12303.215746
676.109875	12232.783265
676.449125	12193.623582
676.788324	12133.349026
677.127473	11975.064357
677.466571	11968.210908
677.805619	11856.370389
678.144616	11779.807865
678.483562	11752.802404
678.822458	11614.662186
679.161303	11590.073958
679.500098	11583.959038
679.838842	11542.848429
680.177535	11556.930892
680.516179	11617.538164
680.854771	11568.175186
681.193314	11780.430448
681.531805	11926.565936
681.870247	12337.311590
682.208638	12744.861152
682.546978	13062.844533
682.885268	13119.000467
683.223508	12820.725476
683.561697	12664.757217
683.899836	12558.590517
684.237925	12362.512318
684.575963	12274.700459
684.913951	12204.222607
685.251889	12144.217753
685.589776	12236.470869
685.927614	12170.353615
686.265401	12136.008234
686.603137	12179.735203
686.940824	12327.420846
687.278460	12440.607353
687.616046	12494.093995
687.953582	12666.433401
688.291068	12582.377202
688.628504	12817.274806
688.965889	12839.652488
689.303224	12798.514152
689.640510	12697.590252
689.977745	12388.622974
690.314930	12165.083089
690.652065	12080.011097
690.989150	11792.667849
691.326185	11567.300545
691.663170	11358.765655
692.000105	11119.759510
692.336990	11007.460246
692.673825	10758.293656
693.010610	10638.309153
693.347345	10430.558162
693.684030	10230.192461
694.020665	10169.577627
694.357251	9977.486980
694.693786	9927.778683
695.030272	9751.343339
695.366707	9641.599941
695.703093	9568.450278
696.039429	9569.418179
696.375716	9494.120985
696.711952	9356.116878
697.048139	9391.324296
697.384276	9350.133028
697.720363	9368.056851
698.056400	9303.104104
698.392388	9259.425027
698.728326	9219.007576
699.064214	9159.683277
699.400053	9201.179535
699.735842	9015.070217
700.071581	8971.418866
700.407270	8902.682733
700.742910	8823.639962
701.078501	8733.889779
701.414042	8604.574101
701.749533	8538.865181
702.084974	8403.487515
702.420366	8516.585802
702.755709	8395.905620
703.091002	8269.412987
703.426246	8294.069271
703.761440	8251.819360
704.096584	8203.338584
704.431679	8128.840412
704.766725	8125.051985
705.101721	8071.746824
705.436668	8110.248637
705.771565	8008.550920
706.106413	8085.534380
706.441212	8130.524158
706.775961	8088.259124
707.110661	8119.335317
707.445311	8265.377544
707.779913	8164.375506
708.114465	8287.004094
708.448967	8334.085950
708.783421	8459.817368
709.117825	8651.043457
709.452180	8687.178448
709.786485	8770.851519
710.120742	9050.880054
710.454949	9052.883912
710.789107	9156.514912
711.123216	9363.010656
711.457275	9524.897229
711.791286	9688.064256
712.125247	9684.563174
712.459159	9672.081277
712.793023	9928.098796
713.126837	9497.831274
713.460602	9649.796857
713.794318	9480.691351
714.127985	9508.112707
714.461602	9198.235501
714.795171	9142.719794
715.128691	8900.283144
715.462162	8646.612283
715.795584	8592.074560
716.128957	8447.708517
716.462281	8279.649050
716.795556	8331.701484
717.128782	8122.478476
717.461960	7851.423196
717.795088	7921.608660
718.128167	7836.937440
718.461198	7666.720360
718.794180	7610.100640
719.127113	7597.134793
719.459997	7455.133051
719.792833	7221.616722
720.125619	7284.139633
720.458357	7142.727706
720.791046	7124.766074
721.123686	7128.161292
721.456278	6975.981460
721.788821	6987.407235
722.121315	6879.957561
722.453761	6943.430729
722.786158	6895.290231
723.118506	6902.120994
723.450805	6864.352670
723.783056	6935.944616
724.115259	6839.991294
724.447412	6844.198137
724.779518	6887.209261
725.111574	6889.442492
725.443582	6967.005685
725.775542	6947.078004
726.107453	7139.508929
726.439315	7049.121040
726.771129	7103.424350
727.102895	7273.938858
727.434612	7386.888430
727.766281	7414.972698
728.097901	7501.065524
728.429473	7496.402457
728.760996	7473.490412
729.092471	7445.388500
729.423897	7387.682412
729.755276	7399.420739
730.086606	7326.026580
730.417887	7428.379647
730.749120	7618.491641
731.080305	7808.149931
731.411442	7935.625588
731.742530	7929.719877
732.073570	8040.491671
732.404562	8122.304556
732.735506	7963.137685
733.066401	8108.917772
733.397249	8048.771766
733.728048	7808.293604
734.058798	7482.065415
734.389501	7253.134016
734.720156	7078.445432
735.050762	6842.917683
735.381320	6746.160297
735.711831	6697.959305
736.042293	6587.522747
736.372707	6611.143074
736.703073	6474.568134
737.033391	6502.513770
737.363661	6523.245515
737.693883	6545.711417
738.024056	6629.528162
738.354182	6673.154307
738.684260	6709.710234
739.014290	6819.130999
739.344272	6930.664007
739.674207	6956.530168
740.004093	7027.116404
740.333931	7042.514608
740.663722	7049.249590
740.993464	7127.521065
741.323159	7123.145343
741.652806	6873.983794
741.982405	6870.709565
742.311956	6942.248579
742.641460	6783.346368
742.970915	6582.809268
743.300323	6577.586633
743.629683	6523.676534
743.958996	6393.274487
744.288260	6304.658564
744.617477	6250.541777
744.946647	6260.606441
745.275768	6094.601245
745.604842	6043.829264
745.933869	6026.175143
746.262847	5983.032948
746.591778	5973.921063
746.920662	5931.164517
747.249498	5920.625984
747.578286	5970.145239
747.907027	6047.501744
748.235720	6105.638851
748.564365	6076.201033
748.892963	6095.591832
749.221514	6256.535709
749.550017	6095.783395
749.878473	5970.533408
750.206881	6019.803125
750.535242	5965.751873
750.863555	5897.257716
751.191821	5912.519809
751.520039	5915.743627
751.848210	5824.534030
752.176334	5837.656154
752.504411	5893.242437
752.832440	5821.705943
753.160421	5744.583851
753.488356	5791.663187
753.816243	5823.775337
754.144082	5677.241597
754.471875	5647.718080
754.799620	5695.450245
755.127318	5706.765115
755.454969	5655.622609
755.782572	5626.134380
756.110129	5665.694834
756.437638	5658.362476
756.765100	5593.651705
757.092515	5590.914358
757.419882	5639.982429
757.747203	5623.694461
758.074477	5682.824675
758.401703	5677.158418
758.728882	5624.667404
759.056014	5670.304970
759.383099	5802.526873
759.710138	5815.795190
760.037129	5802.110978
760.364073	5806.443850
760.690970	5890.089195
761.017820	5876.576382
761.344623	5826.351366
761.671379	5925.664618
761.998088	6038.543614
762.324751	6272.382576
762.651366	6858.076433
762.977935	8138.469016
763.304456	9755.358618
763.630931	10678.966059
763.957359	10318.105143
764.283740	9384.304490
764.610074	8563.690343
764.936362	7572.319713
765.262602	6974.950544
765.588796	6439.486744
765.914943	6096.353046
766.241044	5935.073931
766.567097	5742.388428
766.893104	5481.677596
767.219064	5302.144463
767.544978	5235.722220
767.870845	5162.456611
768.196665	5054.318819
768.522438	4983.099918
768.848165	4951.033139
769.173846	4886.466040
769.499479	4844.654710
769.825066	4788.173623
770.150607	4729.587853
770.476101	4704.684553
770.801548	4701.498544
771.126949	4630.725785
771.452303	4575.527671
771.777611	4532.710631
772.102872	4548.804515
772.428087	4513.526520
772.753256	4472.534377
773.078378	4428.696504
773.403453	4358.770659
773.728482	4346.157692
774.053465	4296.477121
774.378401	4285.477323
774.703291	4286.614103
775.028135	4217.595666
775.352932	4169.273686
775.677683	4151.717867
776.002388	4177.284079
776.327046	4186.363197
776.651658	4113.032053
776.976224	4049.200963
777.300743	4053.821180
777.625216	4073.637956
777.949643	4074.343717
778.274024	4027.534083
778.598359	3981.389882
778.922647	4005.035414
779.246889	3999.704394
779.571086	3992.210718
779.895236	3976.124397
780.219339	3963.382880
780.543397	3956.426088
780.867409	4004.203623
781.191374	4019.861447
781.515294	3963.032520
781.839167	3954.313844
782.162995	3974.755723
782.486776	3959.962457
782.810511	3967.982933
783.134201	3969.487717
783.457844	3924.785286
783.781441	3866.146584
784.104993	3868.805793
784.428498	3890.268505
784.751958	3890.598701
785.075372	3869.682954
785.398739	3832.045699
785.722061	3838.833613
786.045337	3882.482443
786.368568	3922.186571
786.691752	3827.574196
787.014891	3875.881052
787.337983	4001.380577
787.661030	4157.986542
787.984031	4317.970080
788.306987	4488.262777
788.629897	4571.401487
788.952760	4530.028737
789.275579	4460.118016
789.598351	4403.674737
789.921078	4263.139970
790.243759	4064.208478
790.566395	4040.802400
790.888984	4040.852812
791.211529	3931.439609
791.534027	3871.696895
791.856480	3864.959392
792.178888	3804.573931
792.501249	3750.499994
792.823566	3760.612549
793.145836	3794.335348
793.468062	3741.579673
793.790241	3695.828681
794.112375	3722.566961
794.434464	3784.058956
794.756507	3809.715908
795.078505	3794.325265
795.400457	3825.497240
795.722364	3957.704020
796.044226	4063.943817
796.366042	4132.591730
796.687812	4118.282414
797.009538	4125.398003
797.331218	4082.833021
797.652852	4052.830593
797.974442	4036.101524
798.295986	4034.551370
798.617484	3956.136222
798.938938	3869.400649
799.260346	3909.666865
799.581709	3908.585538
799.903026	3835.375381
800.224299	3799.497489
800.545526	3791.040954
800.866708	3752.569388
801.187845	3687.732588
801.508936	3728.676839
801.829983	3726.811613
802.150984	3648.401506
802.471940	3638.271307
802.792851	3645.631392
803.113717	3647.584839
803.434538	3651.128770
803.755314	3591.834718
804.076045	3563.730286
804.396731	3583.410950
804.717372	3613.123511
805.037967	3600.843260
805.358518	3590.382866
805.679024	3613.090743
805.999485	3622.820170
806.319901	3632.358033
806.640272	3643.657780
806.960598	3660.233094
807.280879	3630.906181
807.601115	3647.421001
807.921306	3661.329545
808.241453	3702.987119
808.561554	3678.595497
808.881611	3614.000672
809.201623	3648.661125
809.521590	3660.616221
809.841513	3635.012201
810.161390	3661.763084
810.481223	3646.072492
810.801011	3586.637289
811.120755	3579.577153
811.440453	3610.464302
811.760107	3616.795992
812.079716	3577.918613
812.399281	3540.195659
812.718801	3566.144998
813.038276	3541.029970
813.357707	3537.738096
813.677093	3557.000345
813.996434	3503.070081
814.315731	3511.657687
814.634983	3514.100126
814.954191	3528.301056
815.273354	3558.915984
815.592473	3552.178482
815.911547	3558.195099
816.230577	3595.792024
816.549562	3648.734222
816.868502	3689.509595
817.187399	3715.123697
817.506250	3711.978017
817.825058	3683.863502
818.143821	3771.231740
818.462539	3877.037997
818.781213	3923.905604
819.099843	3975.534582
819.418429	4211.773133
819.736970	4454.164413
820.055466	4691.391031
820.373919	5055.826124
820.692327	5458.213545
821.010691	5884.448144
821.329011	7218.097997
821.647286	9895.361543
821.965517	14372.884142
822.283704	18391.654180
822.601847	20612.741194
822.919945	18854.434623
823.237999	16319.656770
823.556010	13853.310059
823.873976	11787.238526
824.191897	9712.309685
824.509775	8356.067901
824.827609	7228.903710
825.145398	6679.523805
825.463144	6564.008285
825.780845	6672.020048
826.098502	6851.991760
826.416116	7695.495266
826.733685	8999.906427
827.051210	10106.532957
827.368692	10191.521770
827.686129	8968.976427
828.003522	7459.206303
828.320872	6446.501510
828.638177	5755.893680
828.955439	5203.519329
829.272656	4711.018763
829.589830	4420.877674
829.906960	4243.310592
830.224046	4067.906164
830.541088	3938.149385
830.858086	3891.117940
831.175041	3818.232937
831.491952	3800.137716
831.808819	3809.179025
832.125642	3879.422463
832.442421	4018.596118
832.759157	4288.809526
833.075849	4825.231145
833.392497	5673.964847
833.709101	6441.881292
834.025662	6790.502286
834.342179	6452.248425
834.658653	5793.331809
834.975083	5153.374972
835.291469	4582.547478
835.607811	4172.333666
835.924110	4033.570865
836.240366	3841.303778
836.556578	3633.409114
836.872746	3525.263761
837.188871	3487.482834
837.504952	3420.904315
837.820990	3338.436079
838.136984	3291.777680
838.452935	3315.098057
838.768842	3313.721822
839.084706	3333.911643
839.400526	3485.277329
839.716303	3811.419818
840.032037	4326.325793
840.347727	4599.957103
840.663373	4337.751568
840.978977	3961.522694
841.294537	3654.786127
841.610054	3425.257351
841.925527	3319.602328
842.240957	3249.999117
842.556344	3197.382074
842.871687	3139.980976
843.186987	3088.667071
843.502244	3055.604663
843.817458	3017.203674
844.132629	2984.476503
844.447756	2997.485200
844.762840	2982.137408
845.077881	2951.033488
845.392879	2932.935746
845.707833	2929.275868
846.022745	2925.734458
846.337613	2930.009356
846.652438	2915.788261
846.967221	2914.364135
847.281960	2899.964079
847.596656	2896.062226
847.911309	2895.941238
848.225919	2889.987636
848.540485	2884.054198
848.855009	2885.359857
849.169490	2876.394164
849.483928	2868.487115
849.798323	2864.676002
850.112675	2858.626618
850.426984	2874.228989
850.741251	2868.366127
851.055474	2859.281968
851.369654	2853.650999
851.683792	2862.105014
851.997887	2870.720346
852.311938	2866.795807
852.625947	2857.225177
852.939914	2862.702391
853.253837	2867.148688
853.567718	2854.253417
853.881555	2848.501460
854.195350	2867.836806
854.509103	2859.977647
854.822812	2854.455063
855.136479	2851.125381
855.450103	2855.173427
855.763685	2844.738239
856.077224	2843.717405
856.390720	2856.857173
856.704173	2867.065509
857.017584	2857.373891
857.330953	2853.368694
857.644278	2862.720035
857.957561	2871.395860
858.270802	2875.892570
858.584000	2873.765203
858.897155	2861.898327
859.210268	2864.330683
859.523339	2858.843387
859.836367	2859.642410
860.149352	2856.448839
860.462295	2848.214114
860.775195	2857.013448
861.088054	2857.363809
861.400869	2841.146417
861.713642	2839.984431
862.026373	2850.646471
862.339062	2852.864579
862.651708	2859.430682
862.964312	2864.355889
863.276873	2855.380115
863.589392	2866.460571
863.901869	2880.822818
864.214303	2900.221178
864.526696	2916.650298
864.839045	2913.925555
865.151353	2909.885070
865.463619	2907.520769
865.775842	2909.668300
866.088023	2929.326280
866.400162	2937.107301
866.712258	2907.119997
867.024313	2894.784294
867.336325	2905.960532
867.648296	2926.271341
867.960224	2918.795309
868.272110	2905.216962
868.583954	2911.120153
868.895755	2928.469284
869.207515	2909.716191
869.519233	2912.539238
869.830909	2923.609611
870.142542	2936.078905
870.454134	2936.439348
870.765684	2938.259204
871.077191	2936.401539
871.388657	2942.617282
871.700081	2957.934828
872.011463	2969.431179
872.322803	2970.484780
872.634101	2969.937815
872.945357	2984.778972
873.256571	3008.701768
873.567744	3003.889986
873.878874	2995.897237
874.189963	3023.464787
874.501010	3020.992101
874.812015	3013.732839
875.122979	3012.470030
875.433900	3007.907786
875.744780	3012.739732
876.055618	3018.131246
876.366415	3018.015299
876.677169	3029.587268
876.987882	3024.094931
877.298554	3019.585619
877.609183	3040.521531
877.919771	3064.351065
878.230317	3087.658840
878.540822	3143.265287
878.851285	3179.617048
879.161707	3220.006772
879.472087	3313.903304
879.782425	3533.997560
880.092722	3961.510092
880.402977	4482.004185
880.713191	5098.822126
881.023363	6227.405402
881.333494	7496.132755
881.643583	8061.636790
881.953631	7773.726412
882.263637	7157.200858
882.573602	6586.912768
882.883526	6014.192320
883.193408	5445.540084
883.503248	4979.561028
883.813048	4680.222354
884.122806	4391.699476
884.432522	4077.668358
884.742197	3841.906196
885.051831	3651.900066
885.361424	3512.615506
885.670975	3443.990279
885.980485	3361.327959
886.289954	3284.079838
886.599382	3241.887901
886.908768	3203.764175
887.218113	3160.879079
887.527417	3104.110645
887.836680	3054.049467
888.145901	3047.490926
888.455082	3038.694113
888.764221	2991.539159
889.073319	2962.660910
889.382376	2960.084880
889.691392	2960.478090
890.000366	2960.213429
890.309300	2948.550720
890.618193	2960.281485
890.927044	2978.951398
891.235855	2978.868219
891.544625	2960.772998
891.853353	2972.970069
892.162041	2990.039416
892.470687	3029.932587
892.779293	3079.484609
893.087858	3129.497896
893.396381	3194.541384
893.704864	3312.428766
894.013306	3544.440310
894.321707	3838.800845
894.630068	4048.810273
894.938387	4045.024367
895.246665	4004.301926
895.554903	3887.455542
895.863100	3690.772404
896.171256	3525.472969
896.479371	3387.698234
896.787446	3266.765995
897.095480	3165.305212
897.403473	3101.922785
897.711425	3063.368040
898.019336	3056.693552
898.327207	3028.979809
898.635038	2992.970847
898.942827	2980.778817
899.250576	2966.487145
899.558284	2936.719132
899.865952	2917.033426
900.173579	2895.926115
900.481165	2890.282543
900.788711	2878.403064
901.096216	2855.460773
901.403681	2840.296982
901.711105	2847.951974
902.018489	2848.302335
902.325832	2847.014320
902.633135	2857.825074
902.940397	2886.998232
903.247619	2964.584110
903.554800	3149.309631
903.861941	3483.298676
904.169041	3908.348604
904.476101	4206.522771
904.783121	4171.262421
905.090100	3936.261472
905.397039	3662.874658
905.703938	3417.030188
906.010796	3234.895820
906.317614	3123.456073
906.624391	3030.802186
906.931129	2960.367185
907.237826	2901.247053
907.544483	2853.686287
907.851099	2824.689570
908.157675	2803.438586
908.464211	2780.148455
908.770707	2769.408277
909.077163	2757.554004
909.383578	2740.101529
909.689954	2731.730693
909.996289	2730.596433
910.302584	2731.644993
910.608839	2729.676423
910.915054	2721.552603
911.221229	2717.204608
911.527363	2720.909856
911.833458	2727.299519
912.139513	2730.409911
912.445527	2733.111969
912.751502	2742.952302
913.057436	2751.320617
913.363331	2764.190683
913.669186	2783.919238
913.975000	2817.858807
914.280775	2874.400388
914.586510	2946.917386
914.892205	3024.551155
915.197859	3147.905669
915.503475	3336.749813
915.809050	3543.951318
916.114585	3689.091179
916.420081	3713.959191
916.725536	3657.087414
917.030952	3543.626164
917.336328	3414.376021
917.641665	3288.420271
917.946961	3187.423274
918.252218	3117.121863
918.557435	3043.208466
918.862612	2983.604383
919.167750	2934.619491
919.472848	2893.642472
919.777906	2870.725387
920.082925	2844.657580
920.387904	2815.169351
920.692843	2795.566824
920.997743	2784.183899
921.302603	2772.672424
921.607423	2764.125148
921.912204	2752.341451
922.216946	2739.176477
922.521647	2729.804972
922.826310	2723.163252
923.130932	2718.038919
923.435516	2709.229503
923.740059	2701.612319
924.044564	2691.766946
924.349028	2688.389373
924.653454	2684.273271
924.957840	2677.661797
925.262186	2670.334480
925.566493	2666.820796
925.870761	2663.652431
926.174989	2659.440547
926.479178	2653.282777
926.783328	2650.540390
927.087438	2648.029895
927.391509	2647.442601
927.695541	2642.386323
927.999533	2640.909265
928.303486	2637.284676
928.607400	2638.118987
928.911275	2636.536064
929.215110	2637.884573
929.518906	2634.537247
929.822663	2633.806280
930.126381	2634.751496
930.430060	2635.681589
930.733699	2633.345014
931.037299	2635.973976
931.340861	2640.654687
931.644383	2636.503297
931.947866	2635.694192
932.251309	2637.551857
932.554714	2635.207720
932.858080	2635.545478
933.161407	2632.185549
933.464694	2630.206896
933.767943	2627.688839
934.071153	2629.271762
934.374323	2630.068264
934.677455	2628.046761
934.980548	2625.614405
935.283602	2627.431741
935.586617	2626.579786
935.889593	2624.434775
936.192530	2625.193468
936.495428	2626.967954
936.798287	2629.226391
937.101108	2632.389715
937.403890	2636.934316
937.706632	2638.890283
938.009336	2648.498722
938.312002	2657.784528
938.614628	2664.252328
938.917216	2668.859943
939.219765	2669.114521
939.522275	2670.251301
939.824747	2666.389777
940.127179	2665.318532
940.429573	2663.657472
940.731929	2660.741165
941.034246	2655.672284
941.336524	2657.807213
941.638763	2650.610966
941.940964	2649.035605
942.243126	2648.334885
942.545250	2648.476037
942.847335	2643.177785
943.149381	2639.094450
943.451389	2637.493884
943.753359	2634.559932
944.055290	2632.142699
944.357182	2633.483646
944.659036	2630.970631
944.960851	2630.620270
945.262628	2629.430558
945.564367	2629.299488
945.866067	2629.967441
946.167729	2628.694550
946.469352	2629.813686
946.770937	2628.502986
947.072484	2629.228912
947.373992	2627.487193
947.675462	2622.768673
947.976893	2620.691718
948.278286	2619.708693
948.579641	2621.795731
948.880958	2618.682818
949.182236	2619.149125
949.483476	2621.425206
949.784678	2618.980246
950.085841	2621.342027
950.386967	2621.710031
950.688054	2621.732716
950.989103	2621.316821
951.290114	2622.882099
951.591087	2623.179527
951.892021	2629.778398
952.192917	2628.162708
952.493776	2630.264869
952.794596	2633.271917
953.095378	2630.927781
953.396122	2629.619601
953.696828	2629.617081
953.997496	2627.804786
954.298126	2626.257152
954.598718	2624.064250
954.899272	2621.848663
955.199788	2619.620473
955.500266	2616.356326
955.800706	2615.234669
956.101108	2612.686366
956.401472	2610.506067
956.701798	2609.094543
957.002087	2605.820314
957.302337	2607.753597
957.602550	2606.321909
957.902724	2600.431321
958.202861	2600.731269
958.502960	2597.386464
958.803022	2599.201279
959.103045	2601.439551
959.403031	2598.382092
959.702979	2596.373192
960.002889	2598.447627
960.302762	2597.484766
960.602596	2597.255394
960.902393	2596.345465
961.202153	2596.121134
961.501875	2596.519385
961.801559	2593.993767
962.101205	2596.239601
962.400814	2595.483428
962.700385	2593.968561
962.999918	2590.802717
963.299414	2589.232397
963.598873	2591.889085
963.898293	2590.427151
964.197677	2592.322625
964.497022	2594.253387
964.796331	2593.376226
965.095601	2589.925556
965.394835	2591.642069
965.694030	2591.831112
965.993189	2592.461256
966.292309	2591.616863
966.591393	2591.251379
966.890439	2594.066864
967.189447	2593.285485
967.488419	2590.774990
967.787353	2592.617532
968.086249	2591.939497
968.385108	2592.355392
968.683930	2594.018973
968.982714	2589.335741
969.281462	2588.864393
969.580172	2592.083170
969.878844	2589.963365
970.177480	2592.854466
970.476078	2591.417737
970.774639	2592.005032
971.073162	2591.873962
971.371649	2591.591657
971.670098	2592.804055
971.968510	2591.788262
972.266885	2593.575351
972.565223	2590.906060
972.863524	2592.841863
973.161788	2593.991247
973.460014	2592.602409
973.758204	2593.729107
974.056356	2592.899837
974.354471	2594.518047
974.652550	2595.090218
974.950591	2594.835640
975.248595	2592.146184
975.546563	2593.091401
975.844493	2592.163828
976.142386	2591.873962
976.440243	2590.530494
976.738062	2590.006214
977.035845	2591.566452
977.333590	2593.058633
977.631299	2593.545104
977.928971	2589.154259
978.226606	2585.222159
978.524204	2588.103179
978.821765	2583.276274
979.119290	2589.996132
979.416777	2589.197109
979.714228	2590.732141
980.011642	2586.991604
980.309020	2590.361616
980.606360	2589.371029
980.903664	2592.751123
981.200931	2589.489496
981.498162	2589.681060
981.795356	2593.091401
982.092513	2593.797162
982.389633	2595.755650
982.686717	2598.634149
982.983764	2602.283945
983.280775	2605.434666
983.577749	2607.935078
983.874686	2607.010026
984.171587	2604.194542
984.468451	2601.000971
984.765279	2596.660537
985.062070	2599.523913
985.358824	2597.202462
985.655543	2594.258428
985.952224	2590.895978
986.248869	2591.969744
986.545478	2591.435382
986.842050	2589.963365
987.138586	2591.117789
987.435086	2589.814651
987.731549	2587.115113
988.027975	2587.495720
988.324366	2588.493868
988.620719	2587.369691
988.917037	2586.464804
989.213318	2587.016810
989.509563	2586.421954
989.805772	2586.278281
990.101944	2587.825915
990.398080	2585.958168
990.694180	2586.822726
990.990244	2586.618559
991.286271	2584.745770
991.582262	2587.036975
991.878217	2586.215267
992.174136	2586.351378
992.470019	2588.398086
992.765865	2584.297108
993.061676	2581.574885
993.357450	2584.145873
993.653188	2581.670667
993.948890	2585.927921
994.244556	2586.656368
994.540186	2586.638724
994.835780	2585.980853
995.131337	2588.297263
995.426859	2587.556214
995.722345	2587.825915
996.017795	2587.316759
996.313208	2589.328179
996.608586	2591.826071
996.903928	2593.935794
997.199234	2589.539908
997.494504	2591.357244
997.789738	2588.579568
998.084936	2591.558890
998.380099	2587.155442
998.675225	2588.020000
998.970316	2586.958837
999.265371	2586.240472
999.560390	2588.004876
999.855373	2584.329875
1000.150320	2585.612849
1000.445232	2587.208374
1000.740108	2585.678384
1001.034948	2586.910946
1001.329752	2586.815164
1001.624521	2585.247365
1001.919254	2584.287025
1002.213951	2588.738364
1002.508613	2584.733167
1002.803239	2584.375246
1003.097829	2583.724937
1003.392384	2586.721903
1003.686903	2585.426326
1003.981386	2583.309042
1004.275834	2584.087900
1004.570246	2583.180492
1004.864623	2584.904567
1005.158964	2584.897005
1005.453270	2582.661253
1005.747540	2584.274422
1006.041775	2584.327355
1006.335974	2583.850966
1006.630138	2585.322983
1006.924266	2586.752150
1007.218359	2582.504977
1007.512416	2583.659402
1007.806438	2580.193608
1008.100425	2583.004052
1008.394376	2579.419791
1008.688292	2584.460945
1008.982172	2584.453383
1009.276017	2584.743250
1009.569827	2584.551686
1009.863602	2581.466500
1010.157341	2582.278126
1010.451045	2582.751994
1010.744714	2583.210739
1011.038347	2583.361974
1011.331945	2586.174937
1011.625508	2583.321644
1011.919036	2583.772828
1012.212528	2583.026737
1012.505986	2579.039184
1012.799408	2582.320975
1013.092795	2582.850297
1013.386147	2582.986408
1013.679464	2582.704103
1013.972745	2584.327355
1014.265992	2583.203177
1014.559204	2583.298959
1014.852380	2584.594536
1015.145521	2580.312076
1015.438628	2583.165369
1015.731699	2583.586305
1016.024736	2583.934145
1016.317737	2581.647981
1016.610703	2583.324165
1016.903635	2586.106882
1017.196531	2582.774679
1017.489393	2584.801223
1017.782219	2584.977663
1018.075011	2580.959864
1018.367768	2580.221335
1018.660490	2583.039340
1018.953177	2583.039340
1019.245829	2583.039340
