Dividing Wavelength (nm)	Counts (n)	Blue Motor Position (mm): 46.200000	Red Motor Position (mm): 0.000000	
326.493990	2047.709131
326.888308	2047.709131
327.282561	2047.709131
327.676750	2022.457991
328.070874	2023.093176
328.464933	2030.468384
328.858929	2040.379293
329.252859	2050.741385
329.646726	2060.604402
330.040528	2080.718606
330.434265	2094.793508
330.827938	2117.163628
331.221547	2139.117853
331.615091	2159.617705
332.008571	2179.134532
332.401986	2199.997347
332.795338	2218.727754
333.188625	2239.444376
333.581847	2256.498599
333.975006	2276.701023
334.368100	2296.235495
334.761129	2310.338123
335.154095	2326.074084
335.546996	2377.753473
335.939833	2484.532673
336.332606	2494.373005
336.725315	2508.377331
337.117960	2521.612880
337.510540	2527.871473
337.903056	2538.737680
338.295508	2541.860675
338.687896	2551.585060
339.080220	2556.331307
339.472480	2560.444888
339.864676	2565.475960
340.256807	2567.252967
340.648875	2568.946794
341.040879	2569.443348
341.432818	2573.516600
341.824694	2571.908472
342.216506	2571.845458
342.608253	2572.107598
342.999937	2570.068451
343.391557	2570.065930
343.783113	2566.148954
344.174605	2572.518452
344.566033	2561.256514
344.957397	2566.280024
345.348697	2563.409087
345.739934	2560.586041
346.131106	2559.101421
346.522215	2558.937583
346.913260	2556.658982
347.304241	2556.031358
347.695159	2552.603373
348.086012	2551.713610
348.476802	2550.221428
348.867528	2547.297559
349.258191	2544.217414
349.648789	2545.596170
350.039324	2538.273894
350.429796	2543.592311
350.820203	2544.650953
351.210548	2539.786240
351.600828	2541.230530
351.991045	2539.012423
352.381198	2539.667773
352.771288	2538.568801
353.161314	2539.478729
353.551276	2540.670962
353.941175	2539.849254
354.331010	2539.602238
354.720782	2541.855633
355.110490	2546.700182
355.500135	2540.413863
355.889717	2542.526107
356.279235	2539.398071
356.668689	2542.531148
357.058080	2541.021323
357.447408	2541.288504
357.836672	2543.771272
358.225873	2543.118442
358.615010	2545.182795
359.004084	2545.576005
359.393095	2546.813608
359.782043	2545.777651
360.170927	2547.549617
360.559748	2545.865871
360.948505	2548.073897
361.337199	2548.635985
361.725830	2549.429967
362.114398	2547.491643
362.502903	2548.993907
362.891344	2552.197561
363.279722	2549.956768
363.668037	2552.406768
364.056289	2551.776624
364.444478	2550.591953
364.832603	2554.108158
365.220665	2553.576316
365.608665	2555.534804
365.996601	2551.958106
366.384474	2553.662016
366.772284	2554.942469
367.160031	2554.309804
367.547715	2557.805844
367.935336	2553.848538
368.322893	2554.337530
368.710388	2553.674619
369.097820	2552.033723
369.485189	2556.583364
369.872495	2556.059084
370.259738	2558.002449
370.646918	2561.745506
371.034035	2557.780638
371.421090	2559.504713
371.808081	2558.123437
372.195010	2561.057388
372.581875	2559.824826
372.968678	2560.200392
373.355418	2563.777091
373.742096	2560.976730
374.128710	2561.579148
374.515262	2567.114335
374.901751	2564.228274
375.288177	2567.986454
375.674540	2563.580486
376.060841	2568.911506
376.447079	2569.350087
376.833254	2569.433266
377.219367	2570.491908
377.605417	2570.454099
377.991404	2572.866291
378.377329	2573.655232
378.763191	2572.173133
379.148991	2577.108422
379.534727	2580.145717
379.920402	2583.223342
380.306013	2585.595205
380.691563	2592.927563
381.077049	2591.281626
381.462474	2594.767584
381.847835	2599.478542
382.233134	2605.164964
382.618371	2608.673607
383.003545	2619.781790
383.388657	2624.661627
383.773706	2635.676548
384.158693	2642.275418
384.543618	2649.937972
384.928480	2655.324445
385.313280	2667.214006
385.698017	2675.423525
386.082692	2688.749815
386.467305	2698.499407
386.851856	2712.556664
387.236344	2725.681308
387.620770	2736.023236
388.005133	2747.244844
388.389435	2767.079264
388.773674	2777.038063
389.157851	2799.965231
389.541965	2818.073056
389.926018	2828.951866
390.310008	2854.147553
390.693936	2871.002650
391.077802	2894.023079
391.461606	2914.918662
391.845348	2933.127310
392.229027	2955.625979
392.612645	2986.883654
392.996200	3014.937675
393.379694	3044.602345
393.763125	3081.359918
394.146494	3101.537136
394.529801	3136.235398
394.913047	3174.959022
395.296230	3194.261600
395.679351	3217.597101
396.062410	3260.404059
396.445408	3256.716455
396.828343	3300.544246
397.211217	3335.363496
397.594028	3329.782938
397.976778	3375.760782
398.359466	3410.890063
398.742092	3431.573917
399.124656	3457.810602
399.507158	3508.854805
399.889598	3528.117054
400.271977	3591.814554
400.654294	3591.857403
401.036549	3650.226403
401.418742	3661.508506
401.800874	3724.469997
402.182944	3757.761777
402.564952	3839.597348
402.946898	3845.034232
403.328783	3854.657795
403.710606	3906.417842
404.092367	3973.797904
404.474067	4038.244015
404.855705	4027.781100
405.237282	4009.940457
405.618797	4108.109366
406.000250	4179.746683
406.381642	4262.706431
406.762972	4269.363275
407.144240	4233.611412
407.525447	4294.932007
407.906593	4321.498888
408.287677	4401.007966
408.668700	4428.094086
409.049661	4467.551197
409.430560	4503.043441
409.811399	4496.255527
410.192176	4536.730951
410.572891	4614.205924
410.953545	4710.837282
411.334138	4616.366058
411.714669	4726.253130
412.095139	4648.624402
412.475547	4749.742386
412.855894	4756.457203
413.236180	4850.832644
413.616405	4782.928302
413.996568	4880.628384
414.376670	4888.563160
414.756711	4878.382550
415.136691	4945.061892
415.516609	5027.653636
415.896466	5062.324172
416.276262	5141.422396
416.655997	5249.696298
417.035670	5334.065049
417.415283	5456.444100
417.794834	5513.124313
418.174324	5470.801306
418.553753	5477.354806
418.933121	5626.225120
419.312428	5638.102079
419.691674	5580.123768
420.070859	5786.995078
420.449983	5677.891906
420.829045	5855.277507
421.208047	5790.211334
421.586988	5937.019817
421.965867	6009.307442
422.344686	6080.102886
422.723444	6240.749336
423.102141	5888.919647
423.480777	6242.286888
423.859352	6082.484832
424.237866	6423.574342
424.616319	6414.023876
424.994712	6564.424180
425.373044	6488.098591
425.751314	6775.512415
426.129524	6520.054465
426.507673	6774.080728
426.885762	6811.304608
427.263789	6848.838519
427.641756	6933.310613
428.019662	6992.922257
428.397508	7031.227465
428.775292	7030.105808
429.153016	7173.745925
429.530679	7122.333718
429.908282	7168.351891
430.285824	7116.332224
430.663305	7361.602003
431.040726	7272.953312
431.418086	7265.235306
431.795385	7404.068683
432.172624	7582.986794
432.549802	7456.587423
432.926920	7590.233453
433.303977	7546.859365
433.680974	7595.080523
434.057910	7777.897967
434.434786	7823.893454
434.811601	7787.042620
435.188355	8115.022610
435.565050	8014.098710
435.941683	8023.515585
436.318257	8335.547885
436.694770	8277.015047
437.071222	8485.391142
437.447614	8261.006863
437.823946	8236.395950
438.200218	8380.945996
438.576429	8281.577292
438.952580	8430.538347
439.328670	8439.383051
439.704700	8521.841204
440.080670	8416.382787
440.456580	8662.791866
440.832429	8646.975246
441.208218	8391.383705
441.583947	8510.982559
441.959616	8613.438970
442.335224	8649.205956
442.710773	8724.959375
443.086261	8906.665245
443.461689	8642.753279
443.837057	8793.135940
444.212365	8990.325714
444.587612	8982.428746
444.962800	8882.664312
445.337927	9017.222790
445.712995	8575.756345
446.088002	9208.809321
446.462949	9274.324157
446.837837	9284.078789
447.212664	9340.534671
447.587431	10239.087577
447.962139	11203.215812
448.336786	11942.246445
448.711374	11533.665967
449.085901	10394.060208
449.460369	10377.023628
449.834776	10301.184510
450.209124	11218.732483
450.583412	10983.623150
450.957640	11186.849706
451.331808	10782.602099
451.705917	10303.064860
452.079965	10235.231094
452.453954	10424.967522
452.827883	10380.610409
453.201752	10344.026756
453.575562	10361.837152
453.949311	10710.604340
454.323001	10790.516711
454.696632	10711.884793
455.070202	11293.938937
455.443713	11351.680313
455.817164	11490.193577
456.190556	11806.316773
456.563888	11635.202367
456.937160	11855.221006
457.310373	11355.980417
457.683526	11398.512632
458.056619	11430.342478
458.429653	11513.067812
458.802628	11693.936851
459.175542	11745.152453
459.548398	12285.483487
459.921194	12873.158517
460.293930	13198.189432
460.666607	14019.690822
461.039224	14749.259209
461.411782	14989.969264
461.784280	14585.031020
462.156719	14499.805273
462.529099	14399.395570
462.901419	13823.473990
463.273680	13482.664264
463.645882	13702.861864
464.018024	13666.905834
464.390106	14085.195575
464.762130	15256.565644
465.134094	16942.241791
465.505999	19205.495536
465.877845	21190.996828
466.249631	22059.822050
466.621358	21399.078015
466.993026	20541.192097
467.364634	19845.898515
467.736184	19145.016813
468.107674	18602.422302
468.479105	18457.005178
468.850477	18189.592131
469.221790	17776.595602
469.593043	17144.936504
469.964238	16818.670507
470.335373	16927.279646
470.706449	17787.270245
471.077467	18927.148227
471.448425	21264.058271
471.819324	22743.873859
472.190164	22220.397923
472.560945	20550.770290
472.931667	19148.464963
473.302330	18905.473786
473.672934	18461.607751
474.043479	18896.987003
474.413965	18703.625986
474.784393	18556.628460
475.154761	19174.260547
475.525070	19317.767073
475.895321	19154.635335
476.265513	19667.776906
476.635645	20251.136708
477.005719	20312.593415
477.375734	20702.632529
477.745691	21300.934311
478.115588	21971.259059
478.485427	23216.179563
478.855207	25107.895229
479.224928	26810.418912
479.594591	27966.143760
479.964194	27422.530935
480.333739	27770.809131
480.703226	28069.396673
481.072653	28581.499766
481.442022	29067.013293
481.811333	29353.214720
482.180584	28864.008548
482.549777	28665.200564
482.918912	28461.169944
483.287988	28407.426203
483.657005	28227.726713
484.025964	27891.796823
484.394864	28076.391274
484.763706	28018.430608
485.132489	27530.184775
485.501213	27610.109749
485.869879	27795.442729
486.238487	27752.086285
486.607036	28019.426236
486.975527	27755.612572
487.343959	28070.919102
487.712333	28394.457835
488.080648	28362.580098
488.448905	28792.953485
488.817104	28725.028978
489.185244	29629.258222
489.553326	30789.308381
489.921350	32722.802609
490.289315	35099.610866
490.657222	35761.463954
491.025070	36150.378891
491.392861	35747.794866
491.760593	34930.701965
492.128267	33934.723720
492.495883	32981.852382
492.863440	32159.342762
493.230939	31264.056524
493.598380	30782.293615
493.965763	30669.031491
494.333088	30221.908872
494.700354	30058.852750
495.067563	30029.427535
495.434713	29948.728745
495.801805	30241.443343
496.168839	30103.550141
496.535815	29984.626801
496.902733	30130.636261
497.269593	29954.216041
497.636395	30118.184611
498.003139	30405.616079
498.369825	30189.393429
498.736453	30591.450654
499.103023	30435.472313
499.469535	30537.265812
499.835989	30667.395637
500.202385	30531.241633
500.568723	30623.101539
500.935003	30944.649016
501.301226	30845.076145
501.667390	31537.818904
502.033497	31728.175394
502.399546	31533.178522
502.765537	31147.873051
503.131470	31623.654631
503.497345	32045.430329
503.863163	31056.814689
504.228923	31811.825780
504.594625	32218.044478
504.960269	31702.069779
505.325856	32373.992572
505.691385	32069.443865
506.056856	32383.439694
506.422270	32882.849162
506.787625	32425.727413
507.152924	32894.514392
507.518164	33098.202213
507.883347	32658.787517
508.248472	32825.178362
508.613540	33506.442413
508.978550	33760.798872
509.343503	33618.363590
509.708398	33970.873835
510.073236	34584.987196
510.438016	34686.087537
510.802738	34373.926688
511.167403	34947.267197
511.532010	35212.555397
511.896561	35680.762643
512.261053	36431.632426
512.625488	36219.722483
512.989866	36163.485891
513.354186	36215.752574
513.718449	36183.181679
514.082655	37072.985662
514.446803	36792.969731
514.810894	37401.268122
515.174927	37422.166225
515.538904	37431.590662
515.902822	38072.560771
516.266684	37765.879656
516.630488	38140.485278
516.994235	38161.393463
517.357925	38756.098382
517.721558	39001.073253
518.085133	39390.119260
518.448651	39565.437988
518.812112	39474.031787
519.175516	39642.078650
519.538863	40055.072658
519.902152	40137.361933
520.265385	40685.975583
520.628560	40699.740453
520.991678	40669.914467
521.354739	40890.228013
521.717743	41273.406117
522.080690	41182.456140
522.443580	41854.930940
522.806413	41879.236863
523.169189	42018.657534
523.531908	42262.672066
523.894569	42124.579738
524.257174	42314.853049
524.619722	42659.360462
524.982213	42803.199704
525.344647	42830.842872
525.707025	42968.277328
526.069345	43406.068772
526.431608	43304.043380
526.793815	43695.635170
527.155964	43268.553657
527.518057	43517.803427
527.880093	43392.971855
528.242072	43998.681613
528.603995	43757.714459
528.965860	43659.754757
529.327669	43902.410698
529.689421	43958.062516
530.051117	43896.026076
530.412755	44200.668044
530.774337	44256.894554
531.135862	44205.021081
531.497331	44356.948855
531.858743	44360.288619
532.220098	44765.776349
532.581396	44486.937527
532.942638	44260.569555
533.303824	44502.950753
533.664953	44553.143001
534.026025	44250.192340
534.387040	44819.242827
534.747999	44883.671294
535.108902	45201.584099
535.469748	44530.034352
535.830537	44791.995391
536.191270	45029.388366
536.551947	44764.485814
536.912567	45060.953551
537.273131	45214.290328
537.633638	44817.463300
537.994089	45041.779522
538.354483	44790.553621
538.714821	45429.565241
539.075103	45708.910699
539.435328	45567.191262
539.795497	45323.340568
540.155609	45444.698785
540.515665	46035.748868
540.875665	45356.743253
541.235609	45627.327186
541.595496	45749.086175
541.955328	46315.180025
542.315102	45748.556853
542.674821	45645.782850
543.034483	45534.403597
543.394090	45558.028964
543.753640	45523.880188
544.113134	46590.807632
544.472571	45701.303598
544.831953	46831.212697
545.191278	46085.731908
545.550548	45784.369210
545.909761	46426.781089
546.268918	46575.353975
546.628019	46982.888414
546.987064	46420.925789
547.346053	45702.286623
547.704986	46615.289996
548.063863	46259.276150
548.422684	46458.041284
548.781449	46058.784420
549.140158	46585.411077
549.498811	46354.959770
549.857408	45749.013078
550.215949	46585.257322
550.574434	46417.487722
550.932864	46372.381998
551.291237	47079.550018
551.649555	46832.437698
552.007817	47013.473094
552.366022	46677.792742
552.724173	46756.777540
553.082267	47135.930283
553.440305	47498.303545
553.798288	46753.551202
554.156215	47144.296078
554.514086	47346.774022
554.871902	46966.587843
555.229661	47135.312742
555.587365	46819.154258
555.945014	46954.279866
556.302606	46962.628017
556.660143	47060.378510
557.017625	47277.914381
557.375050	46981.179463
557.732421	47391.173984
558.089735	47441.852704
558.446994	47319.085484
558.804197	47783.630332
559.161345	47641.759660
559.518437	46989.293200
559.875474	47253.046369
560.232455	47492.753234
560.589381	47549.743479
560.946251	47342.758743
561.303065	48004.213580
561.659825	47695.077423
562.016528	47478.542222
562.373177	47069.966785
562.729770	47692.372844
563.086307	47225.372955
563.442789	47769.537786
563.799216	47610.403683
564.155587	47506.714710
564.511904	47471.219946
564.868164	47514.581431
565.224370	47827.654728
565.580520	47564.587156
565.936615	47761.000592
566.292654	47411.661234
566.648638	47777.714538
567.004567	47726.141013
567.360441	47823.122731
567.716260	47528.666414
568.072023	47896.078310
568.427732	47815.051844
568.783385	47368.108185
569.138982	47778.150598
569.494525	47903.456038
569.850013	47493.794233
570.205445	47638.067015
570.560823	47394.279335
570.916145	47271.668391
571.271412	47508.443826
571.626625	47167.681990
571.981782	47245.376253
572.336884	46835.099427
572.691931	47154.106163
573.046923	46822.438569
573.401860	46666.303952
573.756743	46668.615321
574.111570	46816.522775
574.466342	46729.129332
574.821059	46880.033752
575.175722	46379.923564
575.530330	46494.133425
575.884882	46121.340098
576.239380	46025.996755
576.593823	46122.633154
576.948211	46033.840791
577.302544	45587.071052
577.656823	45580.535196
578.011047	45850.957812
578.365216	45663.436971
578.719330	45388.610907
579.073389	45380.396347
579.427394	45426.283450
579.781344	45348.342170
580.135239	45119.251975
580.489080	45163.909036
580.842866	44667.254559
581.196597	45154.151883
581.550273	45145.430687
581.903895	45094.913284
582.257463	45539.220419
582.610975	44951.603363
582.964434	45301.961034
583.317837	44805.818234
583.671186	44754.854690
584.024481	45027.281164
584.377721	44576.264253
584.730906	44785.923321
585.084037	44914.969298
585.437113	44613.946878
585.790135	44739.514458
586.143103	44293.228670
586.496016	44455.644565
586.848874	44560.649279
587.201679	44602.478253
587.554428	44095.915388
587.907124	44377.547009
588.259765	44142.195701
588.612352	44301.022294
588.964884	43757.190179
589.317362	44057.620263
589.669786	44069.860184
590.022155	43910.199280
590.374470	44373.929982
590.726731	43939.354794
591.078937	43292.728510
591.431090	43614.613745
591.783188	43156.004856
592.135232	42932.008747
592.487222	43207.406982
592.839157	43345.711037
593.191038	43005.549099
593.542866	42814.625480
593.894639	42220.112124
594.246358	42518.044317
594.598022	42493.186387
594.949633	42066.276273
595.301190	42051.281361
595.652692	42001.333609
596.004141	42463.816625
596.355535	41389.372820
596.706876	41407.717579
597.058162	41133.960240
597.409395	41617.810186
597.760573	41836.928979
598.111698	41442.708228
598.462768	41359.874508
598.813785	41373.450336
599.164748	40981.014153
599.515657	41262.030753
599.866511	40765.734198
600.217312	41451.948663
600.568060	40397.888764
600.918753	41221.827552
601.269392	41127.593263
601.619978	40852.613444
601.970510	41061.856617
602.320988	41184.220544
602.671412	41458.469395
603.021783	41339.268792
603.372100	40902.256206
603.722363	41008.329645
604.072572	41045.624101
604.422728	41039.115972
604.772830	40821.262508
605.122878	40972.227422
605.472872	40842.800838
605.822813	41098.871289
606.172701	40843.136075
606.522534	41165.260764
606.872314	41384.243446
607.222041	41208.705428
607.571714	41542.016438
607.921333	41037.044057
608.270899	41244.444688
608.620411	41651.550629
608.969870	41390.481874
609.319276	41390.244940
609.668627	41431.973091
610.017926	41838.249762
610.367171	41973.443425
610.716362	42008.265196
611.065500	41902.688311
611.414585	42113.325362
611.763616	42289.894296
612.112594	42205.636451
612.461518	42329.197652
612.810389	42716.769122
613.159207	42503.563602
613.507971	42482.526867
613.856682	42975.949964
614.205340	42801.450424
614.553945	43486.578520
614.902496	42820.755523
615.250994	43240.290428
615.599439	43304.529852
615.947830	43423.306998
616.296169	43404.188422
616.644454	43463.237978
616.992686	43634.720387
617.340864	44077.197584
617.688990	43601.093371
618.037063	44280.333399
618.385082	44089.545890
618.733048	44443.092092
619.080961	44297.682530
619.428821	44321.300335
619.776628	44341.606103
620.124382	44151.640303
620.472083	44267.183549
620.819731	44349.036764
621.167326	43902.569494
621.514868	43884.761618
621.862357	43352.763612
622.209793	43434.843678
622.557176	43002.153882
622.904506	42760.344856
623.251783	42398.284145
623.599007	42077.102151
623.946179	42004.915349
624.293297	41742.298960
624.640363	41196.205887
624.987376	41052.328836
625.334336	40847.128668
625.681243	40436.836719
626.028097	40346.584941
626.374899	40175.742758
626.721647	40146.042800
627.068343	39933.406931
627.414987	39653.854786
627.761577	39382.804546
628.108115	39699.515037
628.454600	38961.036410
628.801032	39201.315446
629.147412	39094.127912
629.493739	39008.534161
629.840014	38581.238399
630.186236	39001.680713
630.532405	38451.695869
630.878521	38687.142959
631.224585	38455.559913
631.570597	38116.247410
631.916556	38281.917369
632.262462	38180.756535
632.608316	38099.498176
632.954117	37955.227915
633.299866	37924.640714
633.645562	37833.045469
633.991206	37296.623850
634.336797	36900.152223
634.682336	36780.792824
635.027823	36544.607204
635.373257	36416.914778
635.718639	36091.820848
636.063968	35987.594992
636.409245	35332.355898
636.754470	35298.819622
637.099642	35065.268005
637.444762	34506.370402
637.789829	34651.018750
638.134845	34279.062254
638.479808	34185.309396
638.824719	34142.971265
639.169577	33632.990498
639.514383	33716.661049
639.859137	33346.320243
640.203839	33513.028681
640.548489	33218.171592
640.893086	33211.176991
641.237632	32952.926241
641.582125	33023.562889
641.926566	32847.588811
642.270955	32876.552761
642.615292	32800.375885
642.959576	32699.169680
643.303809	32701.014743
643.647990	32794.898671
643.992118	32746.831269
644.336195	32592.100614
644.680219	32675.687986
645.024192	32887.119019
645.368112	33413.299534
645.711981	33434.089253
646.055797	34162.654450
646.399562	33995.106661
646.743274	34853.355542
647.086935	35254.465030
647.430544	35196.557296
647.774101	35242.577989
648.117606	35527.995517
648.461059	35662.851423
648.804460	35248.866828
649.147810	34739.574179
649.491108	34390.207094
649.834354	34230.256323
650.177548	33411.013371
650.520690	32902.842378
650.863781	32893.992632
651.206820	32728.010121
651.549807	32318.920487
651.892742	31740.248957
652.235626	31640.245068
652.578458	31523.925484
652.921238	30839.772852
653.263967	31147.883133
653.606644	30849.015807
653.949269	30763.875760
654.291843	30361.609327
654.634365	30732.897869
654.976836	30282.858942
655.319255	30356.457268
655.661622	30241.213970
656.003938	30097.838514
656.346203	29913.654917
656.688416	30154.901855
657.030577	29932.561764
657.372687	29741.562527
657.714746	29918.179352
658.056753	30096.396744
658.398708	29482.684154
658.740612	29549.053465
659.082465	29775.494534
659.424266	29649.359823
659.766016	29663.520425
660.107715	29526.335505
660.449362	29629.043973
660.790958	29621.378899
661.132503	29536.453101
661.473996	29608.009759
661.815438	29683.417859
662.156829	29811.634566
662.498168	29612.156108
662.839456	29603.974315
663.180693	29718.968076
663.521879	29809.981067
663.863013	29766.276784
664.204097	29749.338507
664.545129	30151.461267
664.886110	30094.768451
665.227040	30202.470182
665.567918	30199.730315
665.908746	30272.305287
666.249522	30369.521418
666.590248	30382.946011
666.930922	30478.987553
667.271545	30475.637706
667.612118	30522.901044
667.952639	30343.909836
668.293109	30376.821009
668.633528	30241.715565
668.973896	30199.594204
669.314213	30175.648723
669.654480	29990.913120
669.994695	29977.445678
670.334859	29885.452182
670.674973	29730.381248
671.015035	29911.963610
671.355047	29853.604692
671.695008	29778.652817
672.034918	29702.349912
672.374777	29791.132193
672.714585	29666.698872
673.054342	29796.657298
673.394049	29660.468006
673.733705	29869.701096
674.073310	29592.793036
674.412864	29647.358485
674.752368	29349.995943
675.091820	29564.469313
675.431223	29156.627364
675.770574	28963.203332
676.109875	28808.858325
676.449125	28598.574154
676.788324	28493.599687
677.127473	28012.119083
677.466571	27923.626668
677.805619	27641.037228
678.144616	27576.528103
678.483562	27530.877934
678.822458	27210.638636
679.161303	27161.240369
679.500098	27078.731804
679.838842	27012.047421
680.177535	27097.270648
680.516179	27342.908431
680.854771	27478.399522
681.193314	28262.992104
681.531805	29293.519897
681.870247	30060.115559
682.208638	30765.514135
682.546978	31040.766176
682.885268	31169.045897
683.223508	30712.332482
683.561697	30432.031726
683.899836	30277.222932
684.237925	29862.086433
684.575963	29726.746576
684.913951	29346.504944
685.251889	29529.544199
685.589776	29550.830472
685.927614	29575.333000
686.265401	29758.248747
686.603137	29868.783606
686.940824	30382.943490
687.278460	30716.446064
687.616046	30902.865412
687.953582	31561.671123
688.291068	31467.194859
688.628504	31793.322225
688.965889	31774.405295
689.303224	31493.358448
689.640510	31198.529086
689.977745	30543.562213
690.314930	29811.203547
690.652065	29371.655261
690.989150	28688.490695
691.326185	27854.187295
691.663170	27204.531278
692.000105	26489.985529
692.336990	25872.613062
692.673825	25456.049916
693.010610	24971.940351
693.347345	24476.072294
693.684030	23861.028839
694.020665	23652.304906
694.357251	22981.896979
694.693786	22986.809583
695.030272	22757.729470
695.366707	22273.461108
695.703093	21994.967605
696.039429	22067.779511
696.375716	21844.053103
696.711952	21849.585770
697.048139	21700.254190
697.384276	21547.363555
697.720363	21661.583499
698.056400	21556.699772
698.392388	21398.384856
698.728326	21390.084597
699.064214	21228.195502
699.400053	21238.061041
699.735842	20852.150631
700.071581	20650.181844
700.407270	20395.845550
700.742910	20233.185159
701.078501	19964.234560
701.414042	19767.405229
701.749533	19473.057297
702.084974	19158.751437
702.420366	19384.872393
702.755709	18983.042020
703.091002	18680.983643
703.426246	18749.712214
703.761440	18676.428961
704.096584	18447.583261
704.431679	18373.730357
704.766725	18329.315271
705.101721	18257.287265
705.436668	18386.718890
705.771565	18112.500286
706.106413	18437.563968
706.441212	18500.417074
706.775961	18618.508623
707.110661	18696.906128
707.445311	19067.831707
707.779913	18940.784548
708.114465	19238.305886
708.448967	19568.309899
708.783421	20190.632780
709.117825	20563.307639
709.452180	20791.440016
709.786485	21243.361814
710.120742	22020.274198
710.454949	22135.673771
710.789107	22643.572542
711.123216	23350.851467
711.457275	23559.338467
711.791286	24121.636329
712.125247	24268.492702
712.459159	23995.703264
712.793023	24730.471602
713.126837	23700.158058
713.460602	23924.857409
713.794318	23583.616664
714.127985	23312.904182
714.461602	22412.138210
714.795171	22382.498746
715.128691	21403.463819
715.462162	20883.957792
715.795584	20462.287957
716.128957	20183.963333
716.462281	19818.842642
716.795556	19537.717657
717.128782	19053.610612
717.461960	18467.861303
717.795088	18423.572245
718.128167	18080.299915
718.461198	17628.068086
718.794180	17509.981578
719.127113	17170.293508
719.459997	16987.392885
719.792833	16623.096423
720.125619	16663.408010
720.458357	16335.964903
720.791046	16202.306270
721.123686	16050.456634
721.456278	15832.341031
721.788821	15825.185113
722.121315	15558.162755
722.453761	15667.949004
722.786158	15561.835236
723.118506	15638.511186
723.450805	15521.652198
723.783056	15704.192379
724.115259	15595.739516
724.447412	15586.496560
724.779518	15815.861499
725.111574	15869.068357
725.443582	16134.041485
725.775542	16096.547904
726.107453	16607.791480
726.439315	16533.434461
726.771129	16946.196576
727.102895	17372.622738
727.434612	17648.275551
727.766281	17819.132858
728.097901	18131.986866
728.429473	18213.887972
728.760996	18225.507831
729.092471	18335.485644
729.423897	18226.195949
729.755276	18099.809181
730.086606	18219.955000
730.417887	18793.484553
730.749120	19357.897179
731.080305	19577.492361
731.411442	19975.458689
731.742530	20088.378015
732.073570	20248.845504
732.404562	20561.578524
732.735506	20394.280272
733.066401	20180.323620
733.397249	19674.970632
733.728048	19046.374036
734.058798	18192.694961
734.389501	17428.466120
734.720156	16918.112308
735.050762	16342.725090
735.381320	15973.480735
735.711831	15697.648962
736.042293	15334.476677
736.372707	15377.119797
736.703073	15176.471792
737.033391	15372.048396
737.363661	15378.687596
737.693883	15499.473642
738.024056	15704.527616
738.354182	15930.197388
738.684260	16299.940817
739.014290	16582.868015
739.344272	16803.867159
739.674207	17155.318761
740.004093	17323.930233
740.333931	17385.258391
740.663722	17446.082432
740.993464	17486.872929
741.323159	17323.378227
741.652806	17019.283224
741.982405	16840.405442
742.311956	16484.530227
742.641460	16372.102414
742.970915	16041.914399
743.300323	15695.987901
743.629683	15471.323839
743.958996	15161.872610
744.288260	14848.658160
744.617477	14540.840265
744.946647	14512.277087
745.275768	14195.879148
745.604842	13998.248274
745.933869	13823.234536
746.262847	13797.270073
746.591778	13717.143453
746.920662	13600.130710
747.249498	13614.399696
747.578286	13774.660498
747.907027	13952.139360
748.235720	14210.299369
748.564365	14288.354075
748.892963	14218.710534
749.221514	14316.599660
749.550017	14171.994162
749.878473	14153.324248
750.206881	13928.110700
750.535242	13853.095810
750.863555	13775.577988
751.191821	13675.165765
751.520039	13688.015666
751.848210	13619.859266
752.176334	13662.895596
752.504411	13594.671141
752.832440	13413.025765
753.160421	13532.783416
753.488356	13423.891972
753.816243	13326.174246
754.144082	13170.929393
754.471875	13117.432668
754.799620	13077.768869
755.127318	13053.347000
755.454969	13050.423130
755.782572	13015.261082
756.110129	13025.519830
756.437638	12935.986418
756.765100	12939.326182
757.092515	12965.562867
757.419882	13005.009896
757.747203	13014.494827
758.074477	13117.679684
758.401703	13095.894338
758.728882	13297.532930
759.056014	13335.921317
759.383099	13509.415147
759.710138	13637.810815
760.037129	13752.983536
760.364073	13813.588288
760.690970	13846.597763
761.017820	13865.277759
761.344623	14089.455350
761.671379	14474.143279
761.998088	15175.090516
762.324751	16954.532124
762.651366	20388.974457
762.977935	24881.812082
763.304456	27849.597324
763.630931	28885.113339
763.957359	27647.915882
764.283740	25346.767783
764.610074	23069.237490
764.936362	20434.594379
765.262602	18560.338749
765.588796	16633.244266
765.914943	15355.155490
766.241044	14248.781017
766.567097	13475.795692
766.893104	12754.023449
767.219064	12291.142182
767.544978	11812.870273
767.870845	11434.604773
768.196665	11211.402646
768.522438	10979.522172
768.848165	10775.993147
769.173846	10568.980685
769.499479	10445.288413
769.825066	10276.961766
770.150607	10042.714470
770.476101	9961.297315
770.801548	9838.567904
771.126949	9682.521507
771.452303	9570.552439
771.777611	9370.146409
772.102872	9360.560655
772.428087	9226.080314
772.753256	9062.641066
773.078378	8973.785688
773.403453	8790.073439
773.728482	8678.217797
774.053465	8606.532589
774.378401	8507.418463
774.703291	8384.336172
775.028135	8266.471474
775.352932	8225.363385
775.677683	8129.858725
776.002388	8019.099534
776.327046	8027.450206
776.651658	7928.457067
776.976224	7825.168866
777.300743	7828.322108
777.625216	7742.415805
777.949643	7696.954680
778.274024	7714.656692
778.598359	7627.240563
778.922647	7645.446691
779.246889	7597.399453
779.571086	7608.195084
779.895236	7618.771425
780.219339	7627.248125
780.543397	7630.913044
780.867409	7710.182668
781.191374	7720.557362
781.515294	7684.465221
781.839167	7779.884181
782.162995	7754.317970
782.486776	7696.599279
782.810511	7644.672873
783.134201	7559.086684
783.457844	7550.995632
783.781441	7499.192735
784.104993	7431.898373
784.428498	7408.835094
784.751958	7397.981489
785.075372	7367.038887
785.398739	7309.534445
785.722061	7358.421035
786.045337	7357.117896
786.368568	7521.245263
786.691752	7543.789303
787.014891	7887.094400
787.337983	8249.535718
787.661030	8844.913631
787.984031	9480.963573
788.306987	9889.057580
788.629897	10084.430018
788.952760	10032.453201
789.275579	9809.374582
789.598351	9403.017253
789.921078	9047.275629
790.243759	8630.382288
790.566395	8341.501487
790.888984	8090.726769
791.211529	7876.717185
791.534027	7660.471850
791.856480	7461.769730
792.178888	7386.399438
792.501249	7291.756816
792.823566	7128.541899
793.145836	7135.586911
793.468062	7107.737057
793.790241	7058.573204
794.112375	7132.295038
794.434464	7286.025024
794.756507	7327.037331
795.078505	7490.975654
795.400457	7806.899725
795.722364	8163.092532
796.044226	8453.231101
796.366042	8725.362668
796.687812	8670.905603
797.009538	8748.569619
797.331218	8635.630129
797.652852	8555.705155
797.974442	8398.557267
798.295986	8305.858009
798.617484	8112.381045
798.938938	7971.014488
799.260346	7864.825103
799.581709	7666.637181
799.903026	7588.864780
800.224299	7484.278482
800.545526	7310.446894
800.866708	7219.060857
801.187845	7148.406565
801.508936	7041.985287
801.829983	7007.549165
802.150984	6851.651483
802.471940	6807.556510
802.792851	6795.177957
803.113717	6760.509942
803.434538	6729.007771
803.755314	6674.212949
804.076045	6678.835688
804.396731	6620.980885
804.717372	6657.539333
805.037967	6656.853736
805.358518	6699.925355
805.679024	6788.059847
805.999485	6802.908566
806.319901	6840.369380
806.640272	6863.112546
806.960598	6950.778211
807.280879	6952.371216
807.601115	7025.904006
807.921306	6966.254553
808.241453	6985.567214
808.561554	7006.427508
808.881611	6961.641898
809.201623	6970.461396
809.521590	6918.827378
809.841513	6898.438431
810.161390	6938.984432
810.481223	6805.096427
810.801011	6785.410721
811.120755	6760.739314
811.440453	6680.350554
811.760107	6651.850391
812.079716	6623.675382
812.399281	6557.028808
812.718801	6542.611108
813.038276	6495.317523
813.357707	6434.072545
813.677093	6477.136602
813.996434	6380.948866
814.315731	6425.346307
814.634983	6420.799187
814.954191	6431.176402
815.273354	6540.645058
815.592473	6605.602846
815.911547	6727.182873
816.230577	6809.890564
816.549562	6954.307019
816.868502	7061.378606
817.187399	7154.803790
817.506250	7304.851213
817.825058	7338.891605
818.143821	7604.399095
818.462539	7879.809933
818.781213	8250.251562
819.099843	8806.905852
819.418429	9809.732504
819.736970	10784.900866
820.055466	11970.860034
820.373919	13516.767670
820.692327	15852.755183
821.010691	20005.183853
821.329011	29034.369301
821.647286	42084.744541
821.965517	55558.695170
822.283704	60929.878235
822.601847	62907.248146
822.919945	60185.987930
823.237999	55964.896224
823.556010	49756.765674
823.873976	42999.078778
824.191897	36470.976111
824.509775	31602.779213
824.827609	27080.385303
825.145398	24482.701411
825.463144	23121.478967
825.780845	23429.957253
826.098502	25226.135492
826.416116	29056.008454
826.733685	32755.630603
827.051210	33979.937829
827.368692	32168.638649
827.686129	28175.424741
828.003522	24017.498693
828.320872	20286.896133
828.638177	17419.185356
828.955439	15250.299490
829.272656	13437.465279
829.589830	11955.043414
829.906960	10677.438589
830.224046	9739.030321
830.541088	8982.758942
830.858086	8525.122996
831.175041	8152.957292
831.491952	8036.325157
831.808819	8081.085562
832.125642	8486.260741
832.442421	9374.507007
832.759157	11185.239057
833.075849	14135.329850
833.392497	17382.576497
833.709101	19585.671633
834.025662	19425.002498
834.342179	17711.952886
834.658653	15495.080277
834.975083	13544.748594
835.291469	11922.021336
835.607811	10595.557648
835.924110	9683.534779
836.240366	8810.893404
836.556578	8006.753748
836.872746	7358.834409
837.188871	6851.127202
837.504952	6433.354180
837.820990	6128.450072
838.136984	5902.934055
838.452935	5812.710004
838.768842	5845.084294
839.084706	6271.172699
839.400526	7482.803944
839.716303	9079.760824
840.032037	10177.335963
840.347727	10110.386919
840.663373	9114.396072
840.978977	8075.913338
841.294537	7258.880931
841.610054	6656.090001
841.925527	6220.188990
842.240957	5861.808322
842.556344	5531.955543
842.871687	5241.416203
843.186987	4959.724088
843.502244	4739.017332
843.817458	4572.132454
844.132629	4435.370991
844.447756	4347.027291
844.762840	4264.715331
845.077881	4190.098692
845.392879	4126.791882
845.707833	4079.384871
846.022745	4039.620250
846.337613	4008.508769
846.652438	3966.974702
846.967221	3947.480560
847.281960	3914.503853
847.596656	3900.398704
847.911309	3878.142010
848.225919	3853.127804
848.540485	3837.243129
848.855009	3823.216118
849.169490	3801.990340
849.483928	3791.459369
849.798323	3785.475520
850.112675	3762.949124
850.426984	3770.581431
850.741251	3757.429060
851.055474	3752.400509
851.369654	3758.149945
851.683792	3755.994852
851.997887	3761.023403
852.311938	3760.042899
852.625947	3765.719238
852.939914	3755.236158
853.253837	3763.198661
853.567718	3761.847632
853.881555	3753.691045
854.195350	3768.285185
854.509103	3763.102879
854.822812	3762.654216
855.136479	3753.123915
855.450103	3765.353754
855.763685	3749.456476
856.077224	3756.587188
856.390720	3772.209723
856.704173	3789.412661
857.017584	3806.834889
857.330953	3814.804953
857.644278	3836.950742
857.957561	3845.601362
858.270802	3838.203468
858.584000	3849.619161
858.897155	3835.887058
859.210268	3821.338288
859.523339	3798.383394
859.836367	3793.629586
860.149352	3790.751087
860.462295	3779.746248
860.775195	3770.402470
861.088054	3765.943569
861.400869	3765.777211
861.713642	3769.018673
862.026373	3779.501753
862.339062	3784.915952
862.651708	3803.611071
862.964312	3837.568283
863.276873	3850.483719
863.589392	3907.342893
863.901869	3958.094710
864.214303	3998.202130
864.526696	4033.003735
864.839045	4079.674738
865.151353	4108.754634
865.463619	4113.747897
865.775842	4119.313330
866.088023	4140.554232
866.400162	4127.805154
866.712258	4137.257318
867.024313	4139.359479
867.336325	4134.456957
867.648296	4144.682937
867.960224	4146.172598
868.272110	4150.346673
868.583954	4152.532014
868.895755	4166.445598
869.207515	4166.808561
869.519233	4209.257597
869.830909	4223.783682
870.142542	4249.191098
870.454134	4263.828088
870.765684	4290.316831
871.077191	4326.971060
871.388657	4350.233465
871.700081	4387.722005
872.011463	4434.738327
872.322803	4467.596567
872.634101	4499.638141
872.945357	4539.639697
873.256571	4597.822174
873.567744	4625.034322
873.878874	4640.417403
874.189963	4681.979196
874.501010	4687.718550
874.812015	4688.668807
875.122979	4731.390066
875.433900	4730.366712
875.744780	4742.563783
876.055618	4766.761322
876.366415	4762.516670
876.677169	4787.810660
876.987882	4831.426723
877.298554	4886.884456
877.609183	4967.331189
877.919771	5073.911264
878.230317	5224.354418
878.540822	5439.808292
878.851285	5760.045070
879.161707	6222.835596
879.472087	6984.082594
879.782425	8222.736944
880.092722	10413.226675
880.402977	13748.312907
880.713191	17537.861679
881.023363	21299.031276
881.333494	23535.007338
881.643583	24759.795994
881.953631	24745.035496
882.263637	23878.327559
882.573602	22378.987582
882.883526	20802.293620
883.193408	19111.969529
883.503248	17397.120226
883.813048	15842.791343
884.122806	14406.420418
884.432522	12934.133793
884.742197	11660.582056
885.051831	10559.785620
885.361424	9557.155573
885.670975	8740.531499
885.980485	8044.975777
886.289954	7466.808363
886.599382	7003.143197
886.908768	6619.481142
887.218113	6252.044041
887.527417	5965.131811
887.836680	5700.186409
888.145901	5478.862111
888.455082	5317.567873
888.764221	5164.568854
889.073319	5032.253689
889.382376	4958.930106
889.691392	4900.596395
890.000366	4875.640162
890.309300	4860.652812
890.618193	4864.098441
890.927044	4848.460782
891.235855	4868.910222
891.544625	4900.402310
891.853353	4964.132577
892.162041	5081.856122
892.470687	5266.702631
892.779293	5517.356362
893.087858	5892.299741
893.396381	6476.561910
893.704864	7287.963348
894.013306	8447.206922
894.321707	9643.714705
894.630068	10471.772115
894.938387	10681.791625
895.246665	10437.222567
895.554903	9826.665740
895.863100	9118.965878
896.171256	8552.514105
896.479371	8042.311527
896.787446	7538.395268
897.095480	7103.636078
897.403473	6783.744620
897.711425	6467.308872
898.019336	6200.820877
898.327207	5923.343166
898.635038	5691.782806
898.942827	5444.136123
899.250576	5244.766050
899.558284	5049.363365
899.865952	4929.152011
900.173579	4779.903610
900.481165	4668.090817
900.788711	4580.009257
901.096216	4508.109800
901.403681	4441.047331
901.711105	4416.849792
902.018489	4403.785642
902.325832	4476.206858
902.633135	4593.723716
902.940397	4941.598619
903.247619	5740.187965
903.554800	7195.190994
903.861941	9129.121282
904.169041	10660.223049
904.476101	11300.893209
904.783121	10928.974522
905.090100	10178.838227
905.397039	9334.008898
905.703938	8574.793484
906.010796	7878.448821
906.317614	7319.452915
906.624391	6785.650176
906.931129	6354.109762
907.237826	5954.313495
907.544483	5575.795938
907.851099	5201.391962
908.157675	4846.993806
908.464211	4519.558261
908.770707	4283.062610
909.077163	4083.115325
909.383578	3940.962348
909.689954	3819.846107
909.996289	3750.802464
910.302584	3689.615459
910.608839	3658.211591
910.915054	3626.152373
911.221229	3613.146196
911.527363	3624.508957
911.833458	3635.866677
912.139513	3660.011283
912.445527	3697.835060
912.751502	3774.810959
913.057436	3879.152761
913.363331	4016.002444
913.669186	4219.702868
913.975000	4475.642249
914.280775	4901.405500
914.586510	5481.687678
914.892205	6286.283558
915.197859	7330.593865
915.503475	8566.546157
915.809050	9641.093305
916.114585	10304.488986
916.420081	10569.767105
916.725536	10530.461228
917.030952	10079.958515
917.336328	9667.808900
917.641665	9251.764993
917.946961	8760.426413
918.252218	8330.171494
918.557435	7815.038668
918.862612	7382.530353
919.167750	7006.672004
919.472848	6580.747437
919.777906	6203.807761
920.082925	5838.548438
920.387904	5474.511595
920.692843	5202.319535
920.997743	4957.153100
921.302603	4723.941761
921.607423	4560.192481
921.912204	4391.049167
922.216946	4274.036424
922.521647	4151.296931
922.826310	4050.952764
923.130932	3953.109009
923.435516	3853.687373
923.740059	3784.850417
924.044564	3708.681103
924.349028	3646.450579
924.653454	3583.045467
924.957840	3514.609283
925.262186	3465.483238
925.566493	3405.720359
925.870761	3349.372862
926.174989	3309.396512
926.479178	3274.708333
926.783328	3233.081005
927.087438	3205.226109
927.391509	3170.787467
927.695541	3142.161275
927.999533	3116.519446
928.303486	3093.262082
928.607400	3080.954105
928.911275	3065.155129
929.215110	3045.721481
929.518906	3039.548588
929.822663	3038.870553
930.126381	3034.789739
930.430060	3044.977911
930.733699	3047.339691
931.037299	3058.397462
931.340861	3054.719941
931.644383	3062.281671
931.947866	3062.939542
932.251309	3055.289591
932.554714	3057.346382
932.858080	3050.934034
933.161407	3042.701830
933.464694	3033.894934
933.767943	3027.429654
934.071153	3017.400279
934.374323	3011.643281
934.677455	3008.048938
934.980548	3000.260356
935.283602	2992.764160
935.586617	2988.532111
935.889593	3001.273628
936.192530	3004.439472
936.495428	3022.217101
936.798287	3041.738969
937.101108	3074.393043
937.403890	3127.723410
937.706632	3190.571475
938.009336	3271.287910
938.312002	3346.731298
938.614628	3409.428128
938.917216	3463.600367
939.219765	3491.130108
939.522275	3526.007331
939.824747	3530.864483
940.127179	3528.253165
940.429573	3519.453831
940.731929	3517.702030
941.034246	3506.732480
941.336524	3489.983246
941.638763	3473.959938
941.940964	3462.667754
942.243126	3417.889705
942.545250	3396.885737
942.847335	3356.460725
943.149381	3319.892195
943.451389	3286.822225
943.753359	3252.333171
944.055290	3226.162021
944.357182	3201.538505
944.659036	3187.907225
944.960851	3179.057480
945.262628	3164.428051
945.564367	3169.633042
945.866067	3163.601302
946.167729	3156.883964
946.469352	3155.162410
946.770937	3153.045126
947.072484	3133.510655
947.373992	3138.788743
947.675462	3132.830099
947.976893	3115.765793
948.278286	3106.711881
948.579641	3099.684512
948.880958	3094.290478
949.182236	3096.891713
949.483476	3091.094386
949.784678	3088.646906
950.085841	3089.672781
950.386967	3101.022939
950.688054	3119.375259
950.989103	3139.260091
951.290114	3160.410252
951.591087	3188.232380
951.892021	3216.828325
952.192917	3248.408633
952.493776	3271.335801
952.794596	3277.196142
953.095378	3283.089251
953.396122	3276.361831
953.696828	3272.497787
953.997496	3258.531270
954.298126	3234.878176
954.598718	3213.170968
954.899272	3193.520550
955.199788	3162.855211
955.500266	3128.277937
955.800706	3092.435333
956.101108	3054.803120
956.401472	3023.394211
956.701798	2988.451453
957.002087	2947.545010
957.302337	2917.519898
957.602550	2892.304046
957.902724	2862.737679
958.202861	2838.134327
958.502960	2815.176913
958.803022	2794.044396
959.103045	2775.361880
959.403031	2757.238932
959.702979	2743.010275
960.002889	2730.309088
960.302762	2719.793241
960.602596	2707.339070
960.902393	2697.617205
961.202153	2691.973633
961.501875	2680.250430
961.801559	2675.809173
962.101205	2669.517813
962.400814	2663.725528
962.700385	2657.010711
962.999918	2650.636172
963.299414	2643.238278
963.598873	2643.059317
963.898293	2635.888276
964.197677	2638.955818
964.497022	2635.414408
964.796331	2633.314767
965.095601	2629.488531
965.394835	2628.258490
965.694030	2624.399487
965.993189	2624.686832
966.292309	2623.726492
966.591393	2622.771194
966.890439	2620.336317
967.189447	2620.865638
967.488419	2621.445370
967.787353	2622.057871
968.086249	2624.175155
968.385108	2624.606174
968.683930	2628.994498
968.982714	2630.060702
969.281462	2638.605458
969.580172	2641.254584
969.878844	2647.734988
970.177480	2656.685556
970.476078	2664.217040
970.774639	2673.039059
971.073162	2680.031140
971.371649	2684.341326
971.670098	2690.741071
971.968510	2697.191227
972.266885	2699.555529
972.565223	2705.705736
972.863524	2704.296734
973.161788	2708.848896
973.460014	2712.846531
973.758204	2714.316027
974.056356	2715.220914
974.354471	2722.618807
974.652550	2719.599156
974.950591	2719.768035
975.248595	2720.458673
975.546563	2714.820142
975.844493	2709.368135
976.142386	2704.861343
976.440243	2700.606609
976.738062	2695.205013
977.035845	2691.023376
977.333590	2685.485668
977.631299	2677.926458
977.928971	2673.732218
978.226606	2664.675785
978.524204	2661.799807
978.821765	2659.294353
979.119290	2660.481545
979.416777	2659.070022
979.714228	2662.437513
980.011642	2669.480005
980.309020	2673.160047
980.606360	2688.160000
980.903664	2712.324771
981.200931	2750.791296
981.498162	2797.023718
981.795356	2871.242105
982.092513	2962.832309
982.389633	3070.218968
982.686717	3166.671365
982.983764	3242.442427
983.280775	3289.274747
983.577749	3296.743216
983.874686	3284.455404
984.171587	3247.266812
984.468451	3209.843806
984.765279	3165.965603
985.062070	3116.017851
985.358824	3071.938002
985.655543	3014.201667
985.952224	2963.863225
986.248869	2899.775036
986.545478	2839.147599
986.842050	2785.534928
987.138586	2739.093298
987.435086	2699.396732
987.731549	2667.629901
988.027975	2643.202990
988.324366	2626.920063
988.620719	2613.576129
988.917037	2599.995261
989.213318	2592.874631
989.509563	2584.788620
989.805772	2580.362487
990.101944	2574.784450
990.398080	2573.060376
990.694180	2574.986097
990.990244	2576.009451
991.286271	2572.815880
991.582262	2575.008782
991.878217	2577.123546
992.174136	2581.650502
992.470019	2581.698393
992.765865	2583.740060
993.061676	2584.801223
993.357450	2596.136257
993.653188	2604.567587
993.948890	2625.458129
994.244556	2640.256436
994.540186	2667.529078
994.835780	2697.274407
995.131337	2735.050293
995.426859	2776.360028
995.722345	2825.710404
996.017795	2876.162271
996.313208	2914.807757
996.608586	2943.103753
996.903928	2955.535239
997.199234	2955.908284
997.494504	2950.662963
997.789738	2938.344904
998.084936	2912.312386
998.380099	2882.435987
998.675225	2852.660412
998.970316	2820.555824
999.265371	2784.801440
999.560390	2746.022364
999.855373	2717.877602
1000.150320	2688.817871
1000.445232	2662.747544
1000.740108	2641.796508
1001.034948	2623.746657
1001.329752	2608.812239
1001.624521	2594.208016
1001.919254	2583.119998
1002.213951	2577.599935
1002.508613	2567.076526
1002.803239	2562.481514
1003.097829	2553.238559
1003.392384	2548.167158
1003.686903	2548.126829
1003.981386	2541.792619
1004.275834	2538.614172
1004.570246	2534.737524
1004.864623	2531.939684
1005.158964	2531.470857
1005.453270	2529.557739
1005.747540	2528.090763
1006.041775	2526.613705
1006.335974	2526.344003
1006.630138	2521.872500
1006.924266	2522.996677
1007.218359	2520.198837
1007.512416	2519.407375
1007.806438	2516.216325
1008.100425	2517.516943
1008.394376	2516.654905
1008.688292	2520.624814
1008.982172	2516.614576
1009.276017	2521.595236
1009.569827	2515.503002
1009.863602	2519.054495
1010.157341	2515.981911
1010.451045	2515.790348
1010.744714	2512.097702
1011.038347	2514.139370
1011.331945	2511.359173
1011.625508	2513.655419
1011.919036	2510.784482
1012.212528	2513.173989
1012.505986	2509.826663
1012.799408	2510.471930
1013.092795	2509.176354
1013.386147	2506.524707
1013.679464	2506.950684
1013.972745	2507.404388
1014.265992	2508.357166
1014.559204	2507.968997
1014.852380	2508.337002
1015.145521	2509.065448
1015.438628	2506.537310
1015.731699	2507.106960
1016.024736	2507.485047
1016.317737	2510.620644
1016.610703	2511.102074
1016.903635	2513.705830
1017.196531	2515.238341
1017.489393	2514.000738
1017.782219	2515.450070
1018.075011	2517.456449
1018.367768	2516.702796
1018.660490	2516.765811
1018.953177	2516.765811
1019.245829	2516.765811
