Dividing Wavelength (nm)	Counts (n)	Blue Motor Position (mm): 45.500000	Red Motor Position (mm): 0.000000	
326.493990	2152.562610
326.888308	2152.562610
327.282561	2152.562610
327.676750	2128.647376
328.070874	2130.983951
328.464933	2135.800773
328.858929	2140.874695
329.252859	2158.705256
329.646726	2168.543068
330.040528	2184.163083
330.434265	2203.291741
330.827938	2219.620038
331.221547	2241.985118
331.615091	2262.492531
332.008571	2280.738988
332.401986	2305.823769
332.795338	2319.875986
333.188625	2342.954388
333.581847	2362.072964
333.975006	2379.253216
334.368100	2399.702657
334.761129	2416.792168
335.154095	2434.126176
335.546996	2459.823457
335.939833	2488.898312
336.332606	2503.905827
336.725315	2515.702127
337.117960	2520.957530
337.510540	2529.900537
337.903056	2538.896476
338.295508	2547.032898
338.687896	2552.880637
339.080220	2564.437482
339.472480	2567.444530
339.864676	2570.176836
340.256807	2576.042218
340.648875	2575.616241
341.040879	2575.175140
341.432818	2578.247723
341.824694	2579.419791
342.216506	2579.815522
342.608253	2580.049936
342.999937	2578.126735
343.391557	2578.109091
343.783113	2577.410892
344.174605	2574.441652
344.566033	2574.353432
344.957397	2572.773030
345.348697	2571.706826
345.739934	2570.103739
346.131106	2568.687175
346.522215	2564.384550
346.913260	2563.383881
347.304241	2565.128120
347.695159	2561.014539
348.086012	2558.577141
348.476802	2558.425906
348.867528	2557.205947
349.258191	2551.368291
349.648789	2555.176883
350.039324	2550.806202
350.429796	2553.281409
350.820203	2550.705379
351.210548	2549.929041
351.600828	2552.943651
351.991045	2548.436860
352.381198	2548.769576
352.771288	2546.619524
353.161314	2551.469114
353.551276	2547.380738
353.941175	2546.511139
354.331010	2547.960471
354.720782	2546.551468
355.110490	2549.137580
355.500135	2551.055739
355.889717	2550.440718
356.279235	2546.435522
356.668689	2551.229659
357.058080	2550.750749
357.447408	2547.489123
357.836672	2544.114070
358.225873	2546.420398
358.615010	2545.497867
359.004084	2553.014227
359.393095	2553.409958
359.782043	2552.295863
360.170927	2551.080945
360.559748	2554.670247
360.948505	2557.548745
361.337199	2556.154866
361.725830	2554.576985
362.114398	2555.766697
362.502903	2557.929352
362.891344	2556.258210
363.279722	2560.102090
363.668037	2557.236194
364.056289	2557.780638
364.444478	2560.177707
364.832603	2559.353478
365.220665	2560.989333
365.608665	2560.026472
365.996601	2561.203582
366.384474	2558.998077
366.772284	2561.380022
367.160031	2561.979920
367.547715	2561.231308
367.935336	2560.490259
368.322893	2563.157029
368.710388	2563.454457
369.097820	2565.634756
369.485189	2563.154508
369.872495	2564.024108
370.259738	2561.604354
370.646918	2562.915054
371.034035	2566.925292
371.421090	2562.753737
371.808081	2564.334138
372.195010	2567.104252
372.581875	2564.137533
372.968678	2565.130641
373.355418	2566.542164
373.742096	2565.501166
374.128710	2572.566343
374.515262	2568.503173
374.901751	2567.429407
375.288177	2569.544171
375.674540	2568.462843
376.060841	2568.518296
376.447079	2567.416804
376.833254	2569.090467
377.219367	2566.874880
377.605417	2567.512586
377.991404	2570.073492
378.377329	2570.549881
378.763191	2567.588203
379.148991	2573.390571
379.534727	2575.608679
379.920402	2573.584656
380.306013	2574.025757
380.691563	2577.418453
381.077049	2578.063721
381.462474	2582.169741
381.847835	2580.221335
382.233134	2584.823908
382.618371	2586.666450
383.003545	2587.205853
383.388657	2590.122161
383.773706	2592.194075
384.158693	2593.497213
384.543618	2597.056268
384.928480	2602.616661
385.313280	2607.539348
385.698017	2609.966663
386.082692	2612.809874
386.467305	2621.621811
386.851856	2623.774383
387.236344	2631.936012
387.620770	2636.916672
388.005133	2643.729791
388.389435	2649.804381
388.773674	2655.513488
389.157851	2661.204951
389.541965	2670.699964
389.926018	2675.710871
390.310008	2686.370391
390.693936	2692.122347
391.077802	2700.107535
391.461606	2713.287632
391.845348	2718.059084
392.229027	2729.419324
392.612645	2740.754358
392.996200	2750.314907
393.379694	2762.141454
393.763125	2779.402364
394.146494	2787.465690
394.529801	2800.537402
394.913047	2818.597336
395.296230	2825.914570
395.679351	2836.465705
396.062410	2855.223839
396.445408	2857.101669
396.828343	2871.852085
397.211217	2880.480020
397.594028	2883.320710
397.976778	2897.483832
398.359466	2915.316913
398.742092	2920.678180
399.124656	2936.877928
399.507158	2951.729168
399.889598	2963.671661
400.271977	2981.197232
400.654294	2991.831546
401.036549	3004.812518
401.418742	3016.891122
401.800874	3041.519679
402.182944	3049.880433
402.564952	3080.258426
402.946898	3077.087540
403.328783	3088.094900
403.710606	3109.217334
404.092367	3131.090901
404.474067	3158.920591
404.855705	3154.181906
405.237282	3157.226763
405.618797	3188.126515
406.000250	3213.538972
406.381642	3243.289341
406.762972	3252.111361
407.144240	3239.553846
407.525447	3264.936056
407.906593	3265.432610
408.287677	3287.434726
408.668700	3309.363745
409.049661	3308.050524
409.430560	3326.909481
409.811399	3327.259841
410.192176	3351.638861
410.572891	3360.191178
410.953545	3400.283475
411.334138	3365.824668
411.714669	3419.195364
412.095139	3363.374667
412.475547	3416.639499
412.855894	3410.988365
413.236180	3434.928805
413.616405	3419.512956
413.996568	3441.492387
414.376670	3444.446503
414.756711	3440.819393
415.136691	3467.061119
415.516609	3488.319665
415.896466	3494.679081
416.276262	3522.412989
416.655997	3552.934655
417.035670	3560.269533
417.415283	3626.500213
417.794834	3649.540806
418.174324	3631.687560
418.553753	3629.386273
418.933121	3674.663397
419.312428	3667.986388
419.691674	3658.647651
420.070859	3698.238352
420.449983	3680.916948
420.829045	3728.966706
421.208047	3712.915672
421.586988	3760.468876
421.965867	3788.709420
422.344686	3800.793066
422.723444	3835.950073
423.102141	3743.512955
423.480777	3844.081454
423.859352	3809.857060
424.237866	3910.765837
424.616319	3894.976943
424.994712	3954.707054
425.373044	3943.699695
425.751314	4007.311495
426.129524	3944.992751
426.507673	4045.576373
426.885762	4018.215511
427.263789	4040.381464
427.641756	4048.114594
428.019662	4076.476126
428.397508	4077.827155
428.775292	4118.083289
429.153016	4119.691417
429.530679	4134.338489
429.908282	4144.299809
430.285824	4118.854585
430.663305	4196.321997
431.040726	4152.932785
431.418086	4142.545488
431.795385	4217.605748
432.172624	4252.913990
432.549802	4220.481726
432.926920	4235.527050
433.303977	4233.578644
433.680974	4276.441055
434.057910	4299.007780
434.434786	4302.523985
434.811601	4294.069970
435.188355	4401.073501
435.565050	4373.725242
435.941683	4372.326321
436.318257	4462.268068
436.694770	4463.835867
437.071222	4519.744783
437.447614	4455.888487
437.823946	4459.470227
438.200218	4472.988081
438.576429	4454.126604
438.952580	4478.251046
439.328670	4488.252695
439.704700	4530.643758
440.080670	4495.983305
440.456580	4555.761307
440.832429	4591.256071
441.208218	4494.324765
441.583947	4548.010533
441.959616	4563.199529
442.335224	4583.505297
442.710773	4608.973206
443.086261	4663.616793
443.461689	4613.595944
443.837057	4626.004745
444.212365	4700.339079
444.587612	4704.268658
444.962800	4673.507537
445.337927	4712.359710
445.712995	4606.387094
446.088002	4796.299963
446.462949	4814.438034
446.837837	4832.447556
447.212664	4826.650229
447.587431	5049.481832
447.962139	5350.804201
448.336786	5686.913051
448.711374	5667.050905
449.085901	5305.842149
449.460369	5245.789404
449.834776	5187.410322
450.209124	5424.500829
450.583412	5433.801757
450.957640	5554.978493
451.331808	5416.349283
451.705917	5267.279843
452.079965	5255.959932
452.453954	5299.389473
452.827883	5261.308596
453.201752	5270.859062
453.575562	5301.980626
453.949311	5435.404844
454.323001	5440.433395
454.696632	5433.380821
455.070202	5586.208441
455.443713	5617.617350
455.817164	5710.664447
456.190556	5782.747906
456.563888	5758.797384
456.937160	5833.605587
457.310373	5674.610115
457.683526	5730.997941
458.056619	5727.572477
458.429653	5707.054981
458.802628	5755.392085
459.175542	5782.760509
459.548398	5925.226037
459.921194	6116.303412
460.293930	6177.971847
460.666607	6429.800167
461.039224	6640.769935
461.411782	6771.900429
461.784280	6680.521953
462.156719	6685.638725
462.529099	6648.193034
462.901419	6505.944275
463.273680	6376.830243
463.645882	6368.461928
464.018024	6369.034098
464.390106	6436.862823
464.762130	6695.975611
465.134094	7088.217709
465.505999	7728.219916
465.877845	8429.598171
466.249631	8786.199312
466.621358	8707.428763
466.993026	8504.582814
467.364634	8289.247407
467.736184	8005.493460
468.107674	7848.017896
468.479105	7772.924868
468.850477	7697.045421
469.221790	7530.848661
469.593043	7306.003117
469.964238	7207.816563
470.335373	7181.801689
470.706449	7338.732808
471.077467	7536.698920
471.448425	8199.247687
471.819324	8775.179350
472.190164	8809.005492
472.560945	8316.635996
472.931667	7854.520985
473.302330	7657.817682
473.672934	7539.020371
474.043479	7618.433668
474.413965	7514.999273
474.784393	7471.398333
475.154761	7621.213864
475.525070	7636.929661
475.895321	7590.223371
476.265513	7691.338835
476.635645	7853.802620
477.005719	7845.966147
477.375734	7930.975124
477.745691	8036.420939
478.115588	8247.236952
478.485427	8479.203125
478.855207	8957.769942
479.224928	9390.578206
479.594591	9768.208520
479.964194	9783.785685
480.333739	9861.505154
480.703226	9862.538590
481.072653	9964.306884
481.442022	10075.623122
481.811333	10233.222194
482.180584	10070.581968
482.549777	10015.242702
482.918912	9947.986148
483.287988	9937.291340
483.657005	9839.848357
484.025964	9759.331048
484.394864	9818.042846
484.763706	9779.437690
485.132489	9690.428557
485.501213	9683.925468
485.869879	9741.503007
486.238487	9687.187095
486.607036	9761.849104
486.975527	9698.602788
487.343959	9757.453218
487.712333	9802.914343
488.080648	9844.024953
488.448905	9948.800294
488.817104	9956.944278
489.185244	10118.430080
489.553326	10340.545839
489.921350	10815.616616
490.289315	11447.046341
490.657222	11736.559806
491.025070	11901.708006
491.392861	11823.605410
491.760593	11659.561222
492.128267	11402.338868
492.495883	11173.203302
492.863440	10933.811509
493.230939	10708.635770
493.598380	10523.890084
493.965763	10501.141877
494.333088	10365.121464
494.700354	10301.010590
495.067563	10270.882134
495.434713	10271.454305
495.801805	10325.039250
496.168839	10272.782649
496.535815	10252.416388
496.902733	10297.990939
497.269593	10251.100647
497.636395	10256.643395
498.003139	10375.675120
498.369825	10301.492020
498.736453	10390.914528
499.103023	10332.288429
499.469535	10342.416107
499.835989	10388.991328
500.202385	10362.870589
500.568723	10377.837775
500.935003	10443.420666
501.301226	10406.564790
501.667390	10578.652138
502.033497	10675.366675
502.399546	10609.446027
502.765537	10514.758034
503.131470	10618.620927
503.497345	10704.766684
503.863163	10479.648918
504.228923	10611.669175
504.594625	10723.721423
504.960269	10634.926539
505.325856	10787.479416
505.691385	10669.488689
506.056856	10743.006357
506.422270	10835.551859
506.787625	10773.591037
507.152924	10828.895015
507.518164	10887.122863
507.883347	10748.140772
508.248472	10820.279683
508.613540	10936.372415
508.978550	11006.441933
509.343503	10985.659776
509.708398	11042.813858
510.073236	11172.268168
510.438016	11184.490446
510.802738	11102.675039
511.167403	11230.110367
511.532010	11289.606065
511.896561	11381.229036
512.261053	11575.638614
512.625488	11497.263795
512.989866	11480.774181
513.354186	11462.646192
513.718449	11472.909981
514.082655	11608.741351
514.446803	11569.387583
514.810894	11673.721824
515.174927	11675.607215
515.538904	11656.564257
515.902822	11817.903865
516.266684	11687.889987
516.630488	11794.099536
516.994235	11775.633790
517.357925	11896.306410
517.721558	11954.796397
518.085133	12021.364834
518.448651	12047.563711
518.812112	12007.955365
519.175516	12019.875173
519.538863	12109.726179
519.902152	12120.274793
520.265385	12224.719939
520.628560	12239.974471
520.991678	12189.678879
521.354739	12240.153432
521.717743	12314.591109
522.080690	12288.364506
522.443580	12424.563880
522.806413	12444.670522
523.169189	12430.729212
523.531908	12504.249399
523.894569	12455.088067
524.257174	12472.230511
524.619722	12578.926532
524.982213	12553.501472
525.344647	12548.606512
525.707025	12554.111452
526.069345	12666.922393
526.431608	12635.417702
526.793815	12722.899365
527.155964	12613.045061
527.518057	12643.460863
527.880093	12601.591559
528.242072	12716.938201
528.603995	12643.339875
528.965860	12660.386537
529.327669	12689.554653
529.689421	12628.052576
530.051117	12650.941935
530.412755	12681.793797
530.774337	12684.155577
531.135862	12644.441367
531.497331	12708.728682
531.858743	12665.715036
532.220098	12751.712080
532.581396	12675.288188
532.942638	12608.157662
533.303824	12668.442301
533.664953	12649.553097
534.026025	12597.677103
534.387040	12704.768855
534.747999	12680.029393
535.108902	12724.167215
535.469748	12596.121908
535.830537	12623.586114
536.191270	12670.647805
536.551947	12591.058068
536.912567	12662.854182
537.273131	12692.344932
537.633638	12570.099471
537.994089	12632.030046
538.354483	12546.889999
538.714821	12672.039164
539.075103	12754.187286
539.435328	12688.680013
539.795497	12668.676714
540.155609	12658.972493
540.515665	12766.220521
540.875665	12625.955456
541.235609	12715.907285
541.595496	12677.039988
541.955328	12849.598685
542.315102	12704.751211
542.674821	12648.076039
543.034483	12653.394456
543.394090	12652.660968
543.753640	12626.908234
544.113134	12868.661808
544.472571	12634.716981
544.831953	12912.076225
545.191278	12726.770971
545.550548	12657.271104
545.909761	12774.437601
546.268918	12815.664158
546.628019	12886.502451
546.987064	12777.162345
547.346053	12619.830454
547.704986	12824.443327
548.063863	12700.352804
548.422684	12749.559507
548.781449	12704.012682
549.140158	12814.194661
549.498811	12754.419179
549.857408	12628.289510
550.215949	12828.390550
550.574434	12802.607569
550.932864	12741.135739
551.291237	12943.480093
551.649555	12832.564626
552.007817	12890.885735
552.366022	12808.107468
552.724173	12851.549611
553.082267	12935.421808
553.440305	13023.972196
553.798288	12854.670085
554.156215	12925.989809
554.514086	12970.934217
554.871902	12918.206268
555.229661	12941.377932
555.587365	12894.764902
555.945014	12908.900298
556.302606	12883.939025
556.660143	12948.216257
557.017625	12980.887975
557.375050	12942.376080
557.732421	13044.333417
558.089735	13040.048436
558.446994	13017.927853
558.804197	13131.893218
559.161345	13123.318215
559.518437	12947.434878
559.875474	13036.552396
560.232455	13060.855798
560.589381	13094.039193
560.946251	13033.855378
561.303065	13208.193602
561.659825	13159.382630
562.016528	13077.781472
562.373177	13019.001618
562.729770	13151.636897
563.086307	13041.502809
563.442789	13140.314465
563.799216	13176.830063
564.155587	13124.286117
564.511904	13138.749187
564.868164	13157.265345
565.224370	13218.112072
565.580520	13169.563240
565.936615	13232.406264
566.292654	13162.961849
566.648638	13240.630906
567.004567	13242.531421
567.360441	13243.612749
567.716260	13208.717882
568.072023	13285.847536
568.427732	13273.738684
568.783385	13167.932427
569.138982	13280.214046
569.494525	13276.836473
569.850013	13232.275194
570.205445	13217.514695
570.560823	13237.104619
570.916145	13192.984441
571.271412	13190.438658
571.626625	13154.127227
571.981782	13162.213238
572.336884	13102.047066
572.691931	13184.774922
573.046923	13080.906988
573.401860	13056.248184
573.756743	13065.866705
574.111570	13077.841966
574.466342	13055.890262
574.821059	13112.381432
575.175722	12977.449908
575.530330	12999.893125
575.884882	12924.689192
576.239380	12918.254159
576.593823	12914.521184
576.948211	12917.162749
577.302544	12786.783387
577.656823	12801.059935
578.011047	12868.384544
578.365216	12806.721151
578.719330	12736.717168
579.073389	12719.652862
579.427394	12727.527144
579.781344	12724.275600
580.135239	12647.211481
580.489080	12666.995489
580.842866	12537.473124
581.196597	12639.669915
581.550273	12636.214204
581.903895	12587.977923
582.257463	12697.123945
582.610975	12547.845298
582.964434	12615.101852
583.317837	12535.287783
583.671186	12487.689209
584.024481	12548.397304
584.377721	12437.045777
584.730906	12517.311029
585.084037	12523.746062
585.437113	12448.857201
585.790135	12461.429838
586.143103	12377.918084
586.496016	12390.064744
586.848874	12404.749625
587.201679	12399.663101
587.554428	12280.417127
587.907124	12327.042759
588.259765	12258.525917
588.612352	12324.544868
588.964884	12194.566277
589.317362	12243.304153
589.669786	12233.118501
590.022155	12191.163498
590.374470	12289.972634
590.726731	12175.135150
591.078937	12069.601115
591.431090	12083.928074
591.783188	12013.699760
592.135232	11931.483582
592.487222	12002.105106
592.839157	12008.618277
593.191038	11944.020931
593.542866	11892.187787
593.894639	11737.240362
594.246358	11805.971454
594.598022	11800.441308
594.949633	11709.307329
595.301190	11706.746422
595.652692	11656.415543
596.004141	11750.133113
596.355535	11526.681448
596.706876	11508.414827
597.058162	11478.523306
597.409395	11565.526059
597.760573	11600.557037
598.111698	11487.572177
598.462768	11495.524597
598.813785	11501.004331
599.164748	11375.582944
599.515657	11456.322064
599.866511	11330.366315
600.217312	11455.719646
600.568060	11220.842206
600.918753	11393.537013
601.269392	11387.553164
601.619978	11293.245778
601.970510	11321.990437
602.320988	11363.872344
602.671412	11445.077770
603.021783	11366.713034
603.372100	11283.932247
603.722363	11308.797738
604.072572	11308.346555
604.422728	11306.821606
604.772830	11260.069945
605.122878	11275.505958
605.472872	11239.630587
605.822813	11300.159721
606.172701	11259.573391
606.522534	11311.078860
606.872314	11359.791530
607.222041	11287.498863
607.571714	11371.492048
607.921333	11235.348126
608.270899	11291.244440
608.620411	11346.613953
608.969870	11295.985645
609.319276	11278.812955
609.668627	11289.666559
610.017926	11371.585309
610.367171	11403.959599
610.716362	11393.942826
611.065500	11373.042202
611.414585	11380.246011
611.763616	11444.528285
612.112594	11411.894375
612.461518	11434.259454
612.810389	11474.490383
613.159207	11413.820096
613.507971	11410.714745
613.856682	11518.277845
614.205340	11473.061215
614.553945	11618.322063
614.902496	11496.147179
615.250994	11557.999617
615.599439	11544.315404
615.947830	11579.011146
616.296169	11547.806403
616.644454	11563.093702
616.992686	11581.773698
617.340864	11663.337047
617.688990	11554.443083
618.037063	11691.640605
618.385082	11661.247488
618.733048	11705.372708
619.080961	11692.023733
619.428821	11659.349494
619.776628	11672.736278
620.124382	11619.544543
620.472083	11642.345682
620.819731	11669.273005
621.167326	11595.074783
621.514868	11569.579147
621.862357	11470.225566
622.209793	11461.983280
622.557176	11381.876825
622.904506	11322.653349
623.251783	11240.273334
623.599007	11179.567759
623.946179	11134.633434
624.293297	11107.723755
624.640363	10970.659823
624.987376	10955.846393
625.334336	10894.372042
625.681243	10810.593106
626.028097	10785.490681
626.374899	10754.815259
626.721647	10706.891530
627.068343	10673.521612
627.414987	10619.251071
627.761577	10553.088447
628.108115	10598.657957
628.454600	10470.511827
628.801032	10485.620165
629.147412	10465.785745
629.493739	10442.636766
629.840014	10365.237411
630.186236	10408.112424
630.532405	10307.992588
630.878521	10350.537406
631.224585	10299.619232
631.570597	10222.048477
631.916556	10225.962933
632.262462	10210.224451
632.608316	10193.286174
632.954117	10167.598974
633.299866	10152.843517
633.645562	10124.108940
633.991206	10025.234269
634.336797	9930.619373
634.682336	9918.666797
635.027823	9858.175472
635.373257	9822.912601
635.718639	9759.343651
636.063968	9725.635975
636.409245	9604.222306
636.754470	9596.700904
637.099642	9542.886587
637.444762	9438.078478
637.789829	9447.644067
638.134845	9374.484322
638.479808	9350.417853
638.824719	9323.077156
639.169577	9237.559022
639.514383	9241.758303
639.859137	9170.080657
640.203839	9205.870329
640.548489	9128.997774
640.893086	9131.805696
641.237632	9061.466477
641.582125	9071.301768
641.926566	9052.425167
642.270955	9045.821256
642.615292	9038.753558
642.959576	9019.634982
643.303809	9003.105039
643.647990	9017.920990
643.992118	8998.429368
644.336195	8975.497160
644.680219	8973.926840
645.024192	9009.643415
645.368112	9085.979087
645.711981	9063.876148
646.055797	9203.437972
646.399562	9158.904419
646.743274	9316.422833
647.086935	9382.280466
647.430544	9360.674081
647.774101	9382.489674
648.117606	9409.243078
648.461059	9472.880083
648.804460	9408.950691
649.147810	9285.230693
649.491108	9263.354606
649.834354	9189.446249
650.177548	9050.532214
650.520690	8956.181979
650.863781	8946.906256
651.206820	8927.462525
651.549807	8835.567332
651.892742	8737.511848
652.235626	8698.369809
652.578458	8662.590220
652.921238	8555.916884
653.263967	8595.207637
653.606644	8529.024849
653.949269	8504.819748
654.291843	8427.937111
654.634365	8499.841609
654.976836	8418.820184
655.319255	8418.331193
655.661622	8408.642095
656.003938	8362.649128
656.346203	8330.118562
656.688416	8363.319601
657.030577	8324.210330
657.372687	8278.832383
657.714746	8316.252868
658.056753	8327.537491
658.398708	8231.710198
658.740612	8229.058551
659.082465	8272.452803
659.424266	8227.147953
659.766016	8226.616112
660.107715	8210.698668
660.449362	8228.042758
660.790958	8219.434988
661.132503	8218.734268
661.473996	8214.479534
661.815438	8232.073161
662.156829	8265.652287
662.498168	8208.508287
662.839456	8201.238943
663.180693	8220.659988
663.521879	8244.250068
663.863013	8234.071978
664.204097	8221.756439
664.545129	8294.931308
664.886110	8286.005945
665.227040	8292.781256
665.567918	8305.875653
665.908746	8321.223446
666.249522	8339.613575
666.590248	8334.227102
666.930922	8347.702107
667.271545	8342.048453
667.612118	8360.441102
667.952639	8319.640524
668.293109	8322.287129
668.633528	8304.212072
668.973896	8287.866131
669.314213	8293.918036
669.654480	8247.746108
669.994695	8239.148420
670.334859	8224.443374
670.674973	8206.811939
671.015035	8224.264413
671.355047	8219.213177
671.695008	8200.341618
672.034918	8180.504677
672.374777	8183.788989
672.714585	8158.835278
673.054342	8188.381480
673.394049	8155.956779
673.733705	8197.334570
674.073310	8150.134246
674.412864	8156.660020
674.752368	8092.821368
675.091820	8142.133935
675.431223	8077.392917
675.770574	8032.967748
676.109875	8001.339549
676.449125	7966.449723
676.788324	7948.208308
677.127473	7859.370575
677.466571	7840.249478
677.805619	7777.993749
678.144616	7777.603059
678.483562	7751.784790
678.822458	7708.506484
679.161303	7693.993002
679.500098	7676.374169
679.838842	7655.627301
680.177535	7672.381576
680.516179	7702.482305
680.854771	7722.276396
681.193314	7839.926844
681.531805	7993.505596
681.870247	8114.319369
682.208638	8266.191690
682.546978	8344.632044
682.885268	8372.650777
683.223508	8301.762072
683.561697	8251.834484
683.899836	8225.224753
684.237925	8137.690158
684.575963	8112.996066
684.913951	8026.414248
685.251889	8047.022485
685.589776	8044.315386
685.927614	8024.828806
686.265401	8044.980818
686.603137	8046.283956
686.940824	8121.571068
687.278460	8172.272473
687.616046	8178.581477
687.953582	8291.437788
688.291068	8278.577805
688.628504	8343.177671
688.965889	8338.010488
689.303224	8302.157802
689.640510	8255.373374
689.977745	8146.328175
690.314930	8024.279320
690.652065	7953.665357
690.989150	7842.961619
691.326185	7686.960593
691.663170	7582.759943
692.000105	7462.667055
692.336990	7338.626944
692.673825	7265.701612
693.010610	7174.756677
693.347345	7077.313693
693.684030	6967.545089
694.020665	6918.522388
694.357251	6804.032743
694.693786	6793.088398
695.030272	6752.436534
695.366707	6654.302912
695.703093	6599.180416
696.039429	6603.107474
696.375716	6557.343880
696.711952	6544.226798
697.048139	6513.566500
697.384276	6480.814123
697.720363	6508.956365
698.056400	6478.089380
698.392388	6441.818278
698.728326	6440.462207
699.064214	6412.067908
699.400053	6408.995325
699.735842	6349.408887
700.071581	6309.956817
700.407270	6266.960815
700.742910	6231.350105
701.078501	6191.588004
701.414042	6142.945910
701.749533	6096.161482
702.084974	6030.810484
702.420366	6070.552420
702.755709	5999.701524
703.091002	5952.266787
703.426246	5955.125121
703.761440	5938.017965
704.096584	5891.510800
704.431679	5884.760695
704.766725	5866.829311
705.101721	5855.257343
705.436668	5864.165061
705.771565	5809.962575
706.106413	5874.315425
706.441212	5870.365681
706.775961	5885.083329
707.110661	5895.271501
707.445311	5958.288445
707.779913	5921.525830
708.114465	5961.945802
708.448967	6005.241752
708.783421	6122.746007
709.117825	6164.459034
709.452180	6198.627975
709.786485	6262.012923
710.120742	6391.429424
710.454949	6395.295989
710.789107	6472.801209
711.123216	6594.892914
711.457275	6626.390043
711.791286	6719.878242
712.125247	6751.634990
712.459159	6717.103086
712.793023	6846.776687
713.126837	6676.965419
713.460602	6731.465334
713.794318	6689.389343
714.127985	6639.958309
714.461602	6490.848540
714.795171	6495.108315
715.128691	6327.973900
715.462162	6234.752883
715.795584	6165.512635
716.128957	6125.130472
716.462281	6063.167130
716.795556	6020.259349
717.128782	5939.023675
717.461960	5836.156411
717.795088	5828.337581
718.128167	5754.923258
718.461198	5677.607081
718.794180	5647.304705
719.127113	5591.300007
719.459997	5556.720212
719.792833	5492.823587
720.125619	5489.254450
720.458357	5431.505512
720.791046	5398.576695
721.123686	5372.385380
721.456278	5326.876364
721.788821	5318.445034
722.121315	5276.706801
722.453761	5286.474036
722.786158	5270.551552
723.118506	5272.689001
723.450805	5253.459520
723.783056	5279.141678
724.115259	5257.099233
724.447412	5247.405094
724.779518	5289.039984
725.111574	5293.579543
725.443582	5332.499771
725.775542	5321.517617
726.107453	5409.032048
726.439315	5375.031986
726.771129	5446.739879
727.102895	5509.668602
727.434612	5555.590993
727.766281	5584.723821
728.097901	5641.900588
728.429473	5656.159492
728.760996	5669.422768
729.092471	5694.439494
729.423897	5673.327141
729.755276	5649.089274
730.086606	5657.266025
730.417887	5750.237505
730.749120	5840.590105
731.080305	5883.313884
731.411442	5953.146468
731.742530	5974.286547
732.073570	5999.787223
732.404562	6060.870884
732.735506	6060.213014
733.066401	6040.197113
733.397249	5969.169775
733.728048	5876.654520
734.058798	5731.776800
734.389501	5601.251244
734.720156	5520.688565
735.050762	5416.929016
735.381320	5338.937324
735.711831	5285.904386
736.042293	5202.372467
736.372707	5201.659143
736.703073	5159.048791
737.033391	5182.701884
737.363661	5170.968599
737.693883	5181.300444
738.024056	5203.259710
738.354182	5234.887909
738.684260	5287.396568
739.014290	5321.285724
739.344272	5359.943812
739.674207	5415.131844
740.004093	5445.136792
740.333931	5450.480415
740.663722	5471.902798
740.993464	5481.982585
741.323159	5461.054235
741.652806	5416.432462
741.982405	5383.518768
742.311956	5336.235266
742.641460	5324.449048
742.970915	5273.639259
743.300323	5211.146595
743.629683	5178.850443
743.958996	5126.046877
744.288260	5078.675154
744.617477	5019.592831
744.946647	5004.857538
745.275768	4952.187563
745.604842	4916.660031
745.933869	4881.077047
746.262847	4872.736458
746.591778	4854.172409
746.920662	4835.724306
747.249498	4831.703986
747.578286	4848.513714
747.907027	4871.849215
748.235720	4916.092902
748.564365	4928.037916
748.892963	4910.706429
749.221514	4930.888688
749.550017	4904.130243
749.878473	4905.856839
750.206881	4865.270509
750.535242	4851.316595
750.863555	4836.533412
751.191821	4815.655473
751.520039	4816.756965
751.848210	4800.854645
752.176334	4802.833298
752.504411	4783.641625
752.832440	4756.447121
753.160421	4764.480200
753.488356	4749.283641
753.816243	4727.899067
754.144082	4692.419426
754.471875	4684.489691
754.799620	4670.339172
755.127318	4665.189633
755.454969	4664.776259
755.782572	4653.736132
756.110129	4656.523890
756.437638	4641.148371
756.765100	4635.091424
757.092515	4634.226867
757.419882	4642.486797
757.747203	4638.317763
758.074477	4653.763858
758.401703	4643.517713
758.728882	4674.735058
759.056014	4685.502963
759.383099	4705.733113
759.710138	4734.686980
760.037129	4756.978963
760.364073	4771.941107
760.690970	4766.695787
761.017820	4766.476497
761.344623	4799.483451
761.671379	4864.995766
761.998088	4952.248057
762.324751	5180.892110
762.651366	5641.436802
762.977935	6337.741136
763.304456	6899.575212
763.630931	7209.575926
763.957359	7142.692417
764.283740	6854.779518
764.610074	6532.964860
764.936362	6127.179702
765.262602	5803.802285
765.588796	5457.414522
765.914943	5205.893713
766.241044	4979.969362
766.567097	4807.438392
766.893104	4659.954395
767.219064	4556.353643
767.544978	4458.056184
767.870845	4376.707084
768.196665	4330.230166
768.522438	4280.416004
768.848165	4240.974017
769.173846	4198.343499
769.499479	4173.223430
769.825066	4136.727996
770.150607	4098.853808
770.476101	4079.551229
770.801548	4059.285791
771.126949	4029.167417
771.452303	4012.214017
771.777611	3969.931339
772.102872	3970.410249
772.428087	3945.133903
772.753256	3918.947630
773.078378	3899.231677
773.403453	3866.007953
773.728482	3838.526102
774.053465	3825.436746
774.378401	3807.016370
774.703291	3783.769089
775.028135	3757.716406
775.352932	3754.260695
775.677683	3733.241604
776.002388	3709.709498
776.327046	3713.087071
776.651658	3693.862631
776.976224	3674.214734
777.300743	3674.227337
777.625216	3656.714368
777.949643	3647.047956
778.274024	3649.122391
778.598359	3631.458187
778.922647	3634.177890
779.246889	3622.026189
779.571086	3621.678349
779.895236	3621.481744
780.219339	3624.430819
780.543397	3620.909573
780.867409	3640.862460
781.191374	3637.401708
781.515294	3626.545583
781.839167	3647.133655
782.162995	3644.000578
782.486776	3633.330976
782.810511	3627.321921
783.134201	3618.227679
783.457844	3614.187194
783.781441	3605.677727
784.104993	3599.469546
784.428498	3592.545521
784.751958	3587.940427
785.075372	3580.187132
785.398739	3569.267993
785.722061	3579.899787
786.045337	3576.330650
786.368568	3604.112448
786.691752	3601.380143
787.014891	3644.343377
787.337983	3691.389945
787.661030	3778.972431
787.984031	3878.061351
788.306987	3954.356694
788.629897	4001.531812
788.952760	4007.344262
789.275579	3993.158455
789.598351	3942.469653
789.921078	3889.638361
790.243759	3828.476562
790.566395	3781.699696
790.888984	3732.215729
791.211529	3695.811037
791.534027	3649.568533
791.856480	3612.977318
792.178888	3595.461828
792.501249	3573.283272
792.823566	3544.717574
793.145836	3538.547202
793.468062	3530.803989
793.790241	3515.625075
794.112375	3520.492309
794.434464	3545.302348
794.756507	3539.401677
795.078505	3558.490006
795.400457	3601.233950
795.722364	3647.736073
796.044226	3695.637117
796.366042	3742.582862
796.687812	3739.175042
797.009538	3760.413423
797.331218	3751.866147
797.652852	3741.511617
797.974442	3720.742063
798.295986	3716.063873
798.617484	3684.939789
798.938938	3660.916170
799.260346	3643.377996
799.581709	3612.800877
799.903026	3595.686160
800.224299	3575.917275
800.545526	3545.516597
800.866708	3529.150491
801.187845	3515.930065
801.508936	3494.225377
801.829983	3484.997545
802.150984	3455.466466
802.471940	3446.077317
802.792851	3439.826286
803.113717	3430.810182
803.434538	3422.812392
803.755314	3412.924168
804.076045	3408.069537
804.396731	3396.177455
804.717372	3399.423958
805.037967	3395.885068
805.358518	3397.112589
805.679024	3410.446441
805.999485	3408.069537
806.319901	3414.491967
806.640272	3414.423912
806.960598	3429.257507
807.280879	3429.582661
807.601115	3437.134310
807.921306	3431.747837
808.241453	3434.812858
808.561554	3438.563477
808.881611	3435.851336
809.201623	3442.044393
809.521590	3427.440171
809.841513	3427.306580
810.161390	3437.310750
810.481223	3413.077923
810.801011	3411.310999
811.120755	3411.676483
811.440453	3394.448339
811.760107	3389.838204
812.079716	3381.827811
812.399281	3374.495453
812.718801	3374.354300
813.038276	3361.834595
813.357707	3359.099769
813.677093	3369.885317
813.996434	3350.134077
814.315731	3356.750591
814.634983	3357.872248
814.954191	3358.502392
815.273354	3372.927654
815.592473	3383.135990
815.911547	3403.827406
816.230577	3420.072524
816.549562	3442.848458
816.868502	3461.674647
817.187399	3483.507884
817.506250	3509.726925
817.825058	3519.869727
818.143821	3567.523754
818.462539	3613.995631
818.781213	3670.043179
819.099843	3753.406220
819.418429	3900.890217
819.736970	4055.792271
820.055466	4244.908637
820.373919	4485.553157
820.692327	4822.435825
821.010691	5334.458259
821.329011	6422.702222
821.647286	8164.602358
821.965517	10350.134114
822.283704	11982.802528
822.601847	13069.829052
822.919945	12659.925271
823.237999	11972.987401
823.556010	11071.487941
823.873976	10118.049473
824.191897	9143.748190
824.509775	8371.025005
824.827609	7566.161943
825.145398	7009.366501
825.463144	6631.408512
825.780845	6495.488922
826.098502	6555.950001
826.416116	6940.355626
826.733685	7443.641740
827.051210	7736.653767
827.368692	7638.754559
827.686129	7199.226437
828.003522	6646.393342
828.320872	6071.293470
828.638177	5612.692143
828.955439	5241.489300
829.272656	4905.244338
829.589830	4621.797902
829.906960	4354.654557
830.224046	4146.943895
830.541088	3975.763954
830.858086	3859.280533
831.175041	3759.342178
831.491952	3717.394737
831.808819	3695.790872
832.125642	3732.447623
832.442421	3835.168694
832.759157	4051.855130
833.075849	4432.600877
833.392497	4897.062546
833.709101	5284.896155
834.025662	5398.712806
834.342179	5271.895019
834.658653	5004.489534
834.975083	4729.101382
835.291469	4481.505111
835.607811	4257.403137
835.924110	4096.562603
836.240366	3940.755661
836.556578	3775.869601
836.872746	3640.005464
837.188871	3525.036909
837.504952	3428.604677
837.820990	3356.485930
838.136984	3297.295223
838.452935	3268.921088
838.768842	3252.920466
839.084706	3288.032102
839.400526	3421.998245
839.716303	3645.396978
840.032037	3861.526367
840.347727	3925.652364
840.663373	3834.956965
840.978977	3686.333668
841.294537	3555.170406
841.610054	3451.882205
841.925527	3368.846840
842.240957	3306.076913
842.556344	3239.962180
842.871687	3184.017975
843.186987	3123.398100
843.502244	3069.132599
843.817458	3027.958975
844.132629	2998.982423
844.447756	2974.144658
844.762840	2950.753704
845.077881	2935.158895
845.392879	2920.723551
845.707833	2908.206366
846.022745	2896.689850
846.337613	2897.229253
846.652438	2885.387583
846.967221	2883.890360
847.281960	2874.085316
847.596656	2872.462064
847.911309	2863.987885
848.225919	2859.491176
848.540485	2855.271730
848.855009	2856.166535
849.169490	2847.803260
849.483928	2847.001717
849.798323	2844.657580
850.112675	2840.707836
850.426984	2841.234637
850.741251	2838.078875
851.055474	2836.884121
851.369654	2835.954028
851.683792	2834.202227
851.997887	2834.003102
852.311938	2836.914368
852.625947	2837.327743
852.939914	2831.837926
853.253837	2835.611230
853.567718	2834.996209
853.881555	2832.210972
854.195350	2832.589058
854.509103	2835.391940
854.822812	2835.815397
855.136479	2832.931857
855.450103	2833.163750
855.763685	2828.956907
856.077224	2830.131496
856.390720	2833.221723
856.704173	2836.506035
857.017584	2837.854543
857.330953	2835.815397
857.644278	2842.207580
857.957561	2844.730677
858.270802	2844.660101
858.584000	2844.481140
858.897155	2841.635409
859.210268	2840.828824
859.523339	2838.870336
859.836367	2837.839420
860.149352	2838.701457
860.462295	2836.584172
860.775195	2833.637618
861.088054	2830.575117
861.400869	2829.461022
861.713642	2828.299036
862.026373	2829.831547
862.339062	2833.642659
862.651708	2837.446210
862.964312	2841.484174
863.276873	2845.658249
863.589392	2850.926255
863.901869	2854.558407
864.214303	2866.478215
864.526696	2869.591127
864.839045	2878.987838
865.151353	2885.473283
865.463619	2888.818088
865.775842	2886.983108
866.088023	2894.393604
866.400162	2894.716238
866.712258	2892.321690
867.024313	2895.391753
867.336325	2897.935015
867.648296	2900.011970
867.960224	2900.821075
868.272110	2901.330232
868.583954	2901.249573
868.895755	2906.797363
869.207515	2906.782240
869.519233	2912.231727
869.830909	2914.999321
870.142542	2917.373704
870.454134	2918.288673
870.765684	2923.004673
871.077191	2930.699994
871.388657	2934.609409
871.700081	2940.071499
872.011463	2947.855041
872.322803	2955.174796
872.634101	2959.696711
872.945357	2965.899851
873.256571	2978.283445
873.567744	2983.037253
873.878874	2987.377687
874.189963	2994.084942
874.501010	2998.223729
874.812015	2997.328925
875.122979	3007.615399
875.433900	3003.743793
875.744780	3009.929289
876.055618	3015.419105
876.366415	3016.976822
876.677169	3023.023686
876.987882	3029.284799
877.298554	3035.845861
877.609183	3055.866803
877.919771	3070.816345
878.230317	3093.899788
878.540822	3132.162146
878.851285	3181.764579
879.161707	3247.367635
879.472087	3356.037268
879.782425	3517.739839
880.092722	3793.851397
880.402977	4221.058938
880.713191	4771.827681
881.023363	5371.367067
881.333494	5816.707639
881.643583	6101.500064
881.953631	6183.766653
882.263637	6130.421163
882.573602	5986.629812
882.883526	5820.173432
883.193408	5615.709273
883.503248	5395.645264
883.813048	5174.968754
884.122806	4959.199808
884.432522	4712.687385
884.742197	4483.816480
885.051831	4277.217392
885.361424	4077.257504
885.670975	3904.799631
885.980485	3756.869492
886.289954	3634.487921
886.599382	3529.127806
886.908768	3443.402984
887.218113	3364.516488
887.527417	3300.695481
887.836680	3240.128538
888.145901	3197.384594
888.455082	3157.786331
888.764221	3124.817185
889.073319	3095.507916
889.382376	3074.254412
889.691392	3059.128430
890.000366	3049.041081
890.309300	3042.003630
890.618193	3041.113866
890.927044	3034.966179
891.235855	3033.995757
891.544625	3035.591282
891.853353	3041.847354
892.162041	3059.251938
892.470687	3081.047367
892.779293	3118.422481
893.087858	3164.962413
893.396381	3242.722212
893.704864	3349.773634
894.013306	3509.295906
894.321707	3695.309442
894.630068	3847.453986
894.938387	3924.258485
895.246665	3931.749640
895.554903	3877.423645
895.863100	3790.715799
896.171256	3714.483471
896.479371	3641.837923
896.787446	3564.405800
897.095480	3490.961230
897.403473	3438.523148
897.711425	3379.357645
898.019336	3327.683298
898.327207	3273.979886
898.635038	3227.553380
898.942827	3174.076820
899.250576	3132.457053
899.558284	3092.137905
899.865952	3068.169739
900.173579	3036.927188
900.481165	3015.550175
900.788711	2995.007473
901.096216	2981.860144
901.403681	2966.222485
901.711105	2961.561938
902.018489	2952.563478
902.325832	2961.365333
902.633135	2970.527630
902.940397	3009.576408
903.247619	3100.992692
903.554800	3273.995009
903.861941	3557.721230
904.169041	3821.330727
904.476101	3990.937827
904.783121	4012.148482
905.090100	3945.610292
905.397039	3838.611802
905.703938	3732.220771
906.010796	3629.139257
906.317614	3541.259342
906.624391	3454.735498
906.931129	3387.519273
907.237826	3315.544199
907.544483	3251.609766
907.851099	3179.256605
908.157675	3105.749020
908.464211	3034.847712
908.770707	2974.036273
909.077163	2928.106321
909.383578	2889.818757
909.689954	2860.287678
909.996289	2843.702282
910.302584	2828.556135
910.608839	2820.449960
910.915054	2811.524597
911.221229	2805.765078
911.527363	2807.063176
911.833458	2804.711477
912.139513	2810.622230
912.445527	2813.339412
912.751502	2826.048161
913.057436	2837.332784
913.363331	2855.637213
913.669186	2889.783469
913.975000	2925.469797
914.280775	2985.192347
914.586510	3068.668813
914.892205	3181.197449
915.197859	3328.656241
915.503475	3510.210876
915.809050	3683.765200
916.114585	3820.312413
916.420081	3894.014083
916.725536	3927.336110
917.030952	3888.506622
917.336328	3853.631920
917.641665	3809.005105
917.946961	3744.861464
918.252218	3687.011703
918.557435	3611.490177
918.862612	3544.997358
919.167750	3483.593583
919.472848	3408.089702
919.777906	3339.151923
920.082925	3270.229267
920.387904	3197.941642
920.692843	3143.439207
920.997743	3089.559355
921.302603	3037.048176
921.607423	3004.235305
921.912204	2968.906899
922.216946	2941.556119
922.521647	2916.010072
922.826310	2896.402504
923.130932	2877.535986
923.435516	2853.497244
923.740059	2843.656911
924.044564	2827.404231
924.349028	2816.714465
924.653454	2798.987247
924.957840	2789.255300
925.262186	2777.285080
925.566493	2767.727052
925.870761	2754.136101
926.174989	2749.152921
926.479178	2740.890470
926.783328	2734.520972
927.087438	2729.600806
927.391509	2721.955896
927.695541	2713.738815
927.999533	2708.022147
928.303486	2704.364789
928.607400	2701.466126
928.911275	2696.117462
929.215110	2695.081505
929.518906	2689.987419
929.822663	2688.656554
930.126381	2686.987932
930.430060	2690.519260
930.733699	2690.340299
931.037299	2689.599250
931.340861	2686.788807
931.644383	2690.249559
931.947866	2688.036492
932.251309	2687.963395
932.554714	2689.982377
932.858080	2692.220650
933.161407	2687.300484
933.464694	2688.028930
933.767943	2687.900381
934.071153	2685.387366
934.374323	2681.397292
934.677455	2683.544824
934.980548	2681.896367
935.283602	2677.414781
935.586617	2677.530727
935.889593	2680.686490
936.192530	2678.244051
936.495428	2684.217818
936.798287	2682.733198
937.101108	2689.997501
937.403890	2696.946732
937.706632	2704.442927
938.009336	2715.704865
938.312002	2730.999726
938.614628	2738.964749
938.917216	2753.261461
939.219765	2755.197264
939.522275	2763.626073
939.824747	2765.927360
940.127179	2764.818306
940.429573	2764.916609
940.731929	2765.428286
941.034246	2762.731269
941.336524	2765.844181
941.638763	2766.764192
941.940964	2767.699326
942.243126	2758.922677
942.545250	2753.387490
942.847335	2748.268198
943.149381	2744.003382
943.451389	2735.859398
943.753359	2730.467884
944.055290	2726.820609
944.357182	2722.795248
944.659036	2715.898949
944.960851	2716.516491
945.262628	2712.528938
945.564367	2710.260419
945.866067	2711.177909
946.167729	2708.737990
946.469352	2709.743701
946.770937	2707.651622
947.072484	2704.473174
947.373992	2706.666076
947.675462	2700.793132
947.976893	2700.636856
948.278286	2699.371527
948.579641	2695.416741
948.880958	2699.099304
949.182236	2698.043182
949.483476	2694.121165
949.784678	2694.821885
950.085841	2695.807431
950.386967	2695.797348
950.688054	2696.661906
950.989103	2698.945549
951.290114	2703.036445
951.591087	2705.829245
951.892021	2710.746890
952.192917	2714.931048
952.493776	2721.683673
952.794596	2721.703838
953.095378	2725.588047
953.396122	2726.797924
953.696828	2727.188613
953.997496	2724.191647
954.298126	2719.725185
954.598718	2714.656305
954.899272	2711.676983
955.199788	2707.470140
955.500266	2703.994265
955.800706	2696.162832
956.101108	2689.132943
956.401472	2685.480627
956.701798	2677.833197
957.002087	2670.669717
957.302337	2664.864828
957.602550	2660.390804
957.902724	2655.291677
958.202861	2652.153559
958.502960	2646.595687
958.803022	2643.044194
959.103045	2639.371713
959.403031	2635.815179
959.702979	2631.608337
960.002889	2631.610857
960.302762	2628.714714
960.602596	2625.195989
960.902393	2620.588374
961.202153	2623.169445
961.501875	2617.909001
961.801559	2615.940430
962.101205	2616.137035
962.400814	2615.227107
962.700385	2611.743670
962.999918	2611.889863
963.299414	2611.524380
963.598873	2611.955398
963.898293	2608.915582
964.197677	2609.860799
964.497022	2608.905500
964.796331	2608.098916
965.095601	2605.482557
965.394835	2608.048504
965.694030	2607.428442
965.993189	2604.489449
966.292309	2604.746548
966.591393	2604.963318
966.890439	2604.292844
967.189447	2604.194542
967.488419	2603.939964
967.787353	2602.651949
968.086249	2603.203955
968.385108	2605.469954
968.683930	2603.977772
968.982714	2605.792588
969.281462	2603.798811
969.580172	2607.055397
969.878844	2607.806529
970.177480	2613.082096
970.476078	2608.681169
970.774639	2614.680142
971.073162	2615.022940
971.371649	2611.216869
971.670098	2611.668052
971.968510	2614.160903
972.266885	2613.016561
972.565223	2619.121398
972.863524	2618.748353
973.161788	2617.508229
973.460014	2617.064608
973.758204	2621.684825
974.056356	2622.715741
974.354471	2622.229270
974.652550	2623.297994
974.950591	2623.045937
975.248595	2623.159363
975.546563	2623.978550
975.844493	2621.362191
976.142386	2618.307252
976.440243	2619.381018
976.738062	2620.928652
977.035845	2617.762807
977.333590	2617.309104
977.631299	2615.436315
977.928971	2612.920779
978.226606	2614.057559
978.524204	2613.621500
978.821765	2613.581170
979.119290	2613.679473
979.416777	2612.381376
979.714228	2614.302055
980.011642	2615.239710
980.309020	2616.905811
980.606360	2617.286418
980.903664	2621.962089
981.200931	2627.645990
981.498162	2630.436268
981.795356	2643.548309
982.092513	2659.208654
982.389633	2674.322033
982.686717	2692.921370
982.983764	2714.076572
983.280775	2724.829353
983.577749	2730.505693
983.874686	2732.350755
984.171587	2728.607698
984.468451	2722.442367
984.765279	2717.096223
985.062070	2710.719164
985.358824	2699.971424
985.655543	2689.611853
985.952224	2682.483661
986.248869	2672.088802
986.545478	2653.151707
986.842050	2643.644091
987.138586	2633.992802
987.435086	2620.374125
987.731549	2615.746346
988.027975	2611.738629
988.324366	2606.548761
988.620719	2605.616147
988.917037	2602.019284
989.213318	2600.247318
989.509563	2596.194231
989.805772	2596.436206
990.101944	2594.976792
990.398080	2593.587954
990.694180	2594.810434
990.990244	2592.047882
991.286271	2591.868921
991.582262	2594.633994
991.878217	2593.046030
992.174136	2593.381267
992.470019	2594.202975
992.765865	2598.351845
993.061676	2595.470825
993.357450	2596.438727
993.653188	2601.290837
993.948890	2603.665221
994.244556	2607.425922
994.540186	2611.153855
994.835780	2617.883795
995.131337	2620.812706
995.426859	2628.795373
995.722345	2635.479943
996.017795	2646.792292
996.313208	2655.526091
996.608586	2664.247287
996.903928	2665.444561
997.199234	2668.128976
997.494504	2669.830365
997.789738	2668.812052
998.084936	2667.067813
998.380099	2657.323262
998.675225	2653.295380
998.970316	2648.473517
999.265371	2641.254584
999.560390	2634.136475
999.855373	2627.794704
1000.150320	2622.322531
1000.445232	2616.099227
1000.740108	2609.086982
1001.034948	2608.315685
1001.329752	2602.714963
1001.624521	2600.017946
1001.919254	2594.896134
1002.213951	2596.191710
1002.508613	2591.881524
1002.803239	2590.384301
1003.097829	2586.437077
1003.392384	2587.150401
1003.686903	2588.602253
1003.981386	2590.172572
1004.275834	2586.464804
1004.570246	2586.689135
1004.864623	2584.508836
1005.158964	2585.869948
1005.453270	2585.731316
1005.747540	2586.104361
1006.041775	2582.898187
1006.335974	2584.665112
1006.630138	2580.634709
1006.924266	2585.164186
1007.218359	2585.184351
1007.512416	2583.765266
1007.806438	2583.067066
1008.100425	2582.169741
1008.394376	2581.337950
1008.688292	2582.205029
1008.982172	2584.322313
1009.276017	2581.605132
1009.569827	2581.554720
1009.863602	2580.473392
1010.157341	2580.730491
1010.451045	2584.125708
1010.744714	2580.158320
1011.038347	2581.491706
1011.331945	2580.170923
1011.625508	2579.538258
1011.919036	2578.640933
1012.212528	2579.122363
1012.505986	2578.824935
1012.799408	2580.458269
1013.092795	2579.452559
1013.386147	2577.942733
1013.679464	2579.795357
1013.972745	2580.415419
1014.265992	2579.049267
1014.559204	2580.435584
1014.852380	2579.495409
1015.145521	2578.872826
1015.438628	2577.622620
1015.731699	2583.737540
1016.024736	2578.731674
1016.317737	2581.264854
1016.610703	2583.125039
1016.903635	2576.422825
1017.196531	2573.864440
1017.489393	2576.886612
1017.782219	2576.904256
1018.075011	2578.761921
1018.367768	2580.140676
1018.660490	2581.680749
1018.953177	2581.680749
1019.245829	2581.680749
