Dividing Wavelength (nm)	Counts (n)	Blue Motor Position (mm): 1.700000	Red Motor Position (mm): 0.000000	
326.493990	2162.987716
326.888308	2162.987716
327.282561	2162.987716
327.676750	2122.303084
328.070874	2119.616149
328.464933	2120.117744
328.858929	2124.478342
329.252859	2129.297685
329.646726	2137.335805
330.040528	2150.929276
330.434265	2162.397901
330.827938	2181.125788
331.221547	2198.994158
331.615091	2216.509647
332.008571	2232.565722
332.401986	2255.069432
332.795338	2271.364962
333.188625	2289.755091
333.581847	2308.132618
333.975006	2325.383446
334.368100	2345.288442
334.761129	2361.094980
335.154095	2379.114584
335.546996	2397.146792
335.939833	2411.758576
336.332606	2428.573345
336.725315	2440.677155
337.117960	2453.297684
337.510540	2467.329736
337.903056	2478.334574
338.295508	2486.617190
338.687896	2494.635145
339.080220	2504.304078
339.472480	2507.452279
339.864676	2512.947137
340.256807	2520.561800
340.648875	2522.674043
341.040879	2525.933149
341.432818	2527.803417
341.824694	2532.874818
342.216506	2531.496062
342.608253	2532.451361
342.999937	2533.814993
343.391557	2535.927237
343.783113	2530.031607
344.174605	2530.558408
344.566033	2529.247708
344.957397	2530.502955
345.348697	2529.303160
345.739934	2525.744106
346.131106	2525.487007
346.522215	2524.554393
346.913260	2522.353930
347.304241	2518.386542
347.695159	2516.027282
348.086012	2514.184740
348.476802	2514.106602
348.867528	2508.316837
349.258191	2506.071003
349.648789	2506.749038
350.039324	2500.389622
350.429796	2507.603514
350.820203	2503.802484
351.210548	2503.487412
351.600828	2503.651249
351.991045	2501.123110
352.381198	2499.787205
352.771288	2498.728562
353.161314	2498.910044
353.551276	2498.806700
353.941175	2498.708398
354.331010	2498.264776
354.720782	2497.246463
355.110490	2499.383912
355.500135	2497.864004
355.889717	2499.562873
356.279235	2497.304436
356.668689	2496.850733
357.058080	2498.804180
357.447408	2498.610095
357.836672	2497.697646
358.225873	2498.297544
358.615010	2500.450116
359.004084	2500.785353
359.393095	2498.836947
359.782043	2501.392812
360.170927	2500.074550
360.559748	2500.676968
360.948505	2501.944818
361.337199	2505.733246
361.725830	2502.025477
362.114398	2503.343739
362.502903	2504.480519
362.891344	2506.552433
363.279722	2501.992709
363.668037	2506.809532
364.056289	2507.094357
364.444478	2505.385406
364.832603	2506.318019
365.220665	2507.485047
365.608665	2506.796929
365.996601	2507.268277
366.384474	2508.417660
366.772284	2510.587877
367.160031	2512.667353
367.547715	2508.203411
367.935336	2508.765500
368.322893	2507.681652
368.710388	2505.579490
369.097820	2508.210973
369.485189	2506.696106
369.872495	2511.122239
370.259738	2510.567712
370.646918	2511.278515
371.034035	2510.633247
371.421090	2511.396982
371.808081	2512.601818
372.195010	2515.732374
372.581875	2515.432426
372.968678	2511.286077
373.355418	2515.185409
373.742096	2513.355470
374.128710	2512.324554
374.515262	2514.146931
374.901751	2514.593073
375.288177	2515.303876
375.674540	2515.480317
376.060841	2515.634072
376.447079	2514.151973
376.833254	2514.235152
377.219367	2516.561644
377.605417	2517.244720
377.991404	2517.302694
378.377329	2514.706499
378.763191	2514.429236
379.148991	2518.449556
379.534727	2515.636592
379.920402	2520.241686
380.306013	2516.324710
380.691563	2517.544669
381.077049	2519.455266
381.462474	2518.479803
381.847835	2518.961233
382.233134	2518.983918
382.618371	2519.508198
383.003545	2516.841428
383.388657	2520.014834
383.773706	2521.055833
384.158693	2516.964936
384.543618	2519.908970
384.928480	2519.419978
385.313280	2519.165400
385.698017	2519.331758
386.082692	2522.036337
386.467305	2521.965761
386.851856	2521.554907
387.236344	2518.850328
387.620770	2517.388393
388.005133	2514.787158
388.389435	2519.901408
388.773674	2517.509381
389.157851	2524.703107
389.541965	2524.534229
389.926018	2523.195802
390.310008	2521.993487
390.693936	2525.015659
391.077802	2523.601615
391.461606	2525.091276
391.845348	2523.699918
392.229027	2523.848632
392.612645	2520.705473
392.996200	2524.977850
393.379694	2523.215967
393.763125	2526.507841
394.146494	2527.354754
394.529801	2521.595236
394.913047	2525.650844
395.296230	2526.540608
395.679351	2524.902233
396.062410	2527.478263
396.445408	2527.395084
396.828343	2525.731503
397.211217	2526.066740
397.594028	2526.848118
397.976778	2526.328880
398.359466	2525.623118
398.742092	2524.204033
399.124656	2527.092614
399.507158	2527.863911
399.889598	2527.692512
400.271977	2528.753675
400.654294	2525.446678
401.036549	2526.948942
401.418742	2529.159488
401.800874	2527.616894
402.182944	2527.669827
402.564952	2528.831812
402.946898	2528.156298
403.328783	2527.619415
403.710606	2527.697553
404.092367	2528.501617
404.474067	2530.152595
404.855705	2528.151257
405.237282	2530.369364
405.618797	2530.139992
406.000250	2532.567307
406.381642	2530.197965
406.762972	2528.168901
407.144240	2528.287368
407.525447	2532.965559
407.906593	2528.211751
408.287677	2533.401618
408.668700	2530.727286
409.049661	2531.281813
409.430560	2533.071423
409.811399	2530.409694
410.192176	2532.153933
410.572891	2532.610157
410.953545	2528.657893
411.334138	2534.374561
411.714669	2532.816845
412.095139	2532.534540
412.475547	2532.844571
412.855894	2531.584283
413.236180	2534.031763
413.616405	2534.049407
413.996568	2535.718029
414.376670	2534.535878
414.756711	2533.169725
415.136691	2533.396577
415.516609	2532.433717
415.896466	2534.122503
416.276262	2532.773995
416.655997	2533.600744
417.035670	2534.112421
417.415283	2535.720549
417.794834	2534.457740
418.174324	2538.659542
418.553753	2534.556043
418.933121	2536.232226
419.312428	2534.059489
419.691674	2535.097967
420.070859	2535.337422
420.449983	2537.600900
420.829045	2534.624098
421.208047	2536.428831
421.586988	2538.251208
421.965867	2537.081661
422.344686	2536.708615
422.723444	2536.617875
423.102141	2536.433873
423.480777	2538.213400
423.859352	2537.500077
424.237866	2537.535365
424.616319	2537.200128
424.994712	2535.113090
425.373044	2538.896476
425.751314	2535.203831
426.129524	2536.945550
426.507673	2536.446475
426.885762	2532.458923
427.263789	2538.291538
427.641756	2538.939326
428.019662	2540.552495
428.397508	2540.305479
428.775292	2537.386651
429.153016	2537.731970
429.530679	2537.895807
429.908282	2536.607792
430.285824	2540.023174
430.663305	2539.766075
431.040726	2540.902855
431.418086	2540.880170
431.795385	2541.565767
432.172624	2536.033101
432.549802	2538.369676
432.926920	2539.834131
433.303977	2538.188194
433.680974	2539.813966
434.057910	2543.060469
434.434786	2543.083154
434.811601	2540.731456
435.188355	2539.912269
435.565050	2543.015099
435.941683	2540.955787
436.318257	2541.797660
436.694770	2541.883360
437.071222	2542.168185
437.447614	2537.558050
437.823946	2542.702547
438.200218	2542.523586
438.576429	2543.617517
438.952580	2541.895963
439.328670	2543.488967
439.704700	2541.946374
440.080670	2542.924358
440.456580	2539.466127
440.832429	2541.452341
441.208218	2541.258257
441.583947	2542.437887
441.959616	2543.874616
442.335224	2540.983514
442.710773	2545.066848
443.086261	2542.490819
443.461689	2544.464431
443.837057	2544.282949
444.212365	2542.619368
444.587612	2541.084337
444.962800	2541.278421
445.337927	2540.829759
445.712995	2535.589479
446.088002	2542.805891
446.462949	2543.163813
446.837837	2539.430838
447.212664	2544.235058
447.587431	2543.642722
447.962139	2543.098278
448.336786	2547.163968
448.711374	2543.806560
449.085901	2543.922507
449.460369	2544.187167
449.834776	2545.392003
450.209124	2544.807229
450.583412	2543.420912
450.957640	2543.854451
451.331808	2544.817311
451.705917	2542.684903
452.079965	2544.474513
452.453954	2544.771941
452.827883	2547.882333
453.201752	2545.414688
453.575562	2545.213042
453.949311	2543.998124
454.323001	2545.243289
454.696632	2546.337219
455.070202	2543.362938
455.443713	2545.623896
455.817164	2545.031560
456.190556	2546.617003
456.563888	2545.424770
456.937160	2544.797147
457.310373	2545.205480
457.683526	2546.203629
458.056619	2543.748587
458.429653	2549.344268
458.802628	2545.444935
459.175542	2546.538865
459.548398	2546.070038
459.921194	2545.334030
460.293930	2547.723537
460.666607	2544.366128
461.039224	2548.061294
461.411782	2545.891077
461.784280	2548.174720
462.156719	2546.067517
462.529099	2545.959133
462.901419	2547.017775
463.273680	2543.584749
463.645882	2542.221117
464.018024	2544.895449
464.390106	2545.840666
464.762130	2547.196736
465.134094	2545.830583
465.505999	2545.419729
465.877845	2547.232024
466.249631	2546.125491
466.621358	2546.710265
466.993026	2547.317724
467.364634	2549.056922
467.736184	2549.571119
468.107674	2545.893598
468.479105	2549.266130
468.850477	2548.000800
469.221790	2548.756973
469.593043	2545.830583
469.964238	2545.936447
470.335373	2548.109185
470.706449	2549.561037
471.077467	2547.842004
471.448425	2547.887374
471.819324	2547.181613
472.190164	2549.306459
472.560945	2549.067004
472.931667	2548.600697
473.302330	2547.791592
473.672934	2546.284287
474.043479	2549.669422
474.413965	2550.317210
474.784393	2548.550286
475.154761	2549.114895
475.525070	2550.599515
475.895321	2548.174720
476.265513	2548.235214
476.635645	2550.690256
477.005719	2549.404761
477.375734	2553.566234
477.745691	2550.725544
478.115588	2550.019782
478.485427	2547.867209
478.855207	2549.966850
479.224928	2550.339895
479.594591	2550.097920
479.964194	2552.159752
480.333739	2547.746222
480.703226	2547.617672
481.072653	2549.450132
481.442022	2545.523073
481.811333	2547.683207
482.180584	2544.850079
482.549777	2547.773948
482.918912	2544.736653
483.287988	2547.098433
483.657005	2550.113043
484.025964	2548.497354
484.394864	2550.755791
484.763706	2550.465924
485.132489	2552.033723
485.501213	2549.394679
485.869879	2550.738147
486.238487	2549.709751
486.607036	2547.806716
486.975527	2550.327292
487.343959	2551.653116
487.712333	2552.242931
488.080648	2549.366953
488.448905	2553.266285
488.817104	2549.573640
489.185244	2551.269988
489.553326	2551.595143
489.921350	2550.158414
490.289315	2549.646737
490.657222	2552.515153
491.025070	2550.791079
491.392861	2552.759649
491.760593	2549.049360
492.128267	2552.487427
492.495883	2552.192519
492.863440	2549.992056
493.230939	2552.348795
493.598380	2554.236707
493.965763	2552.396686
494.333088	2548.439380
494.700354	2549.003990
495.067563	2552.041285
495.434713	2550.251675
495.801805	2552.810061
496.168839	2550.392828
496.535815	2550.405430
496.902733	2550.292004
497.269593	2551.648075
497.636395	2550.725544
498.003139	2549.936603
498.369825	2551.827036
498.736453	2553.977088
499.103023	2553.115051
499.469535	2551.587581
499.835989	2551.789227
500.202385	2549.757642
500.568723	2549.329144
500.935003	2550.012220
501.301226	2546.057435
501.667390	2549.525749
502.033497	2556.595967
502.399546	2553.961964
502.765537	2552.195040
503.131470	2552.696635
503.497345	2552.500030
503.863163	2553.672098
504.228923	2552.124464
504.594625	2552.797458
504.960269	2551.083466
505.325856	2551.852242
505.691385	2552.439536
506.056856	2554.829043
506.422270	2552.192519
506.787625	2551.983312
507.152924	2554.405586
507.518164	2553.467931
507.883347	2551.085986
508.248472	2552.245452
508.613540	2551.806871
508.978550	2554.234187
509.343503	2550.743188
509.708398	2554.529094
510.073236	2552.774773
510.438016	2553.828374
510.802738	2550.755791
511.167403	2555.741492
511.532010	2553.651933
511.896561	2553.414999
512.261053	2554.254351
512.625488	2555.008004
512.989866	2552.968857
513.354186	2553.793086
513.718449	2549.992056
514.082655	2554.423230
514.446803	2554.365257
514.810894	2551.401058
515.174927	2555.098745
515.538904	2554.660164
515.902822	2553.233518
516.266684	2553.573796
516.630488	2552.706717
516.994235	2551.345606
517.357925	2552.371480
517.721558	2554.251831
518.085133	2552.479865
518.448651	2551.680842
518.812112	2551.577499
519.175516	2553.185627
519.538863	2548.938455
519.902152	2555.560010
520.265385	2553.687222
520.628560	2556.999260
520.991678	2552.530277
521.354739	2551.879968
521.717743	2553.203271
522.080690	2555.590257
522.443580	2555.524722
522.806413	2552.716799
523.169189	2555.839794
523.531908	2556.043961
523.894569	2551.643034
524.257174	2553.543549
524.619722	2554.491286
524.982213	2555.560010
525.344647	2552.202602
525.707025	2552.353836
526.069345	2553.772921
526.431608	2554.675288
526.793815	2555.489434
527.155964	2554.166131
527.518057	2554.135884
527.880093	2555.653272
528.242072	2552.550441
528.603995	2556.187634
528.965860	2552.225287
529.327669	2555.786862
529.689421	2554.090514
530.051117	2552.699155
530.412755	2552.492468
530.774337	2553.735112
531.135862	2553.331820
531.497331	2554.040102
531.858743	2552.744526
532.220098	2552.580688
532.581396	2553.556152
532.942638	2555.451625
533.303824	2555.416337
533.664953	2555.633107
534.026025	2554.748384
534.387040	2554.087993
534.747999	2553.919115
535.108902	2552.295863
535.469748	2556.394321
535.830537	2555.444064
536.191270	2554.919784
536.551947	2549.820657
536.912567	2549.709751
537.273131	2552.996583
537.633638	2549.694628
537.994089	2554.690411
538.354483	2552.757129
538.714821	2555.096224
539.075103	2553.236038
539.435328	2555.335679
539.795497	2555.227294
540.155609	2553.687222
540.515665	2555.048333
540.875665	2553.793086
541.235609	2554.813919
541.595496	2551.620348
541.955328	2552.621017
542.315102	2557.455484
542.674821	2553.651933
543.034483	2554.526574
543.394090	2555.665874
543.753640	2556.764846
544.113134	2552.520194
544.472571	2555.643189
544.831953	2554.597150
545.191278	2554.894578
545.550548	2555.905329
545.909761	2556.369115
546.268918	2554.728220
546.628019	2555.842315
546.987064	2556.961451
547.346053	2556.744681
547.704986	2554.236707
548.063863	2557.047151
548.422684	2553.470452
548.781449	2556.316183
549.140158	2555.902809
549.498811	2555.955741
549.857408	2552.913404
550.215949	2554.392983
550.574434	2552.931048
550.932864	2555.617983
551.291237	2552.603373
551.649555	2553.321738
552.007817	2554.650082
552.366022	2555.307952
552.724173	2557.377346
553.082267	2553.036913
553.440305	2555.194527
553.798288	2555.353323
554.156215	2553.898950
554.514086	2551.552293
554.871902	2551.340564
555.229661	2553.989691
555.587365	2550.791079
555.945014	2555.562531
556.302606	2556.563200
556.660143	2555.232335
557.017625	2557.473128
557.375050	2555.179403
557.732421	2554.302242
558.089735	2557.173179
558.446994	2551.897612
558.804197	2556.422047
559.161345	2551.937941
559.518437	2554.087993
559.875474	2555.159238
560.232455	2554.803837
560.589381	2552.308466
560.946251	2554.236707
561.303065	2554.813919
561.659825	2556.633776
562.016528	2554.201419
562.373177	2554.829043
562.729770	2555.754095
563.086307	2556.046482
563.442789	2552.689073
563.799216	2555.721327
564.155587	2555.398693
564.511904	2556.485062
564.868164	2555.804506
565.224370	2554.839125
565.580520	2554.113199
565.936615	2556.119578
566.292654	2555.305432
566.648638	2556.220401
567.004567	2559.552604
567.360441	2557.082439
567.716260	2553.150339
568.072023	2558.907336
568.427732	2556.318704
568.783385	2560.149981
569.138982	2556.112017
569.494525	2554.014897
569.850013	2551.398538
570.205445	2555.814588
570.560823	2553.387273
570.916145	2557.210988
571.271412	2555.081101
571.626625	2557.263920
571.981782	2555.832233
572.336884	2555.249979
572.691931	2552.842828
573.046923	2551.101110
573.401860	2547.514329
573.756743	2557.248797
574.111570	2557.117727
574.466342	2556.217881
574.821059	2554.478683
575.175722	2555.786862
575.530330	2555.547407
575.884882	2555.623025
576.239380	2553.820812
576.593823	2559.870197
576.948211	2555.902809
577.302544	2558.118396
577.656823	2555.733930
578.011047	2555.209650
578.365216	2557.299208
578.719330	2556.938766
579.073389	2556.946327
579.427394	2555.693601
579.781344	2559.179559
580.135239	2554.904660
580.489080	2558.022614
580.842866	2557.394990
581.196597	2562.552091
581.550273	2555.053374
581.903895	2558.040258
582.257463	2556.331307
582.610975	2557.904147
582.964434	2559.822306
583.317837	2558.219219
583.671186	2558.067984
584.024481	2553.662016
584.377721	2556.472459
584.730906	2554.244269
585.084037	2555.877603
585.437113	2555.378529
585.790135	2555.847356
586.143103	2557.183262
586.496016	2558.365412
586.848874	2555.333158
587.201679	2557.692418
587.554428	2557.778118
587.907124	2555.260062
588.259765	2558.385577
588.612352	2555.970864
588.964884	2555.340720
589.317362	2558.970351
589.669786	2557.024465
590.022155	2555.123950
590.374470	2552.701676
590.726731	2556.013714
591.078937	2550.967519
591.431090	2556.694270
591.783188	2558.894733
592.135232	2559.855073
592.487222	2553.931718
592.839157	2556.235525
593.191038	2553.813250
593.542866	2555.214691
593.894639	2557.765515
594.246358	2555.030689
594.598022	2556.525391
594.949633	2557.140412
595.301190	2554.758467
595.652692	2556.301060
596.004141	2556.296019
596.355535	2556.507747
596.706876	2555.229815
597.058162	2555.491955
597.409395	2555.451625
597.760573	2557.977243
598.111698	2555.071018
598.462768	2556.543035
598.813785	2554.582026
599.164748	2557.210988
599.515657	2556.462377
599.866511	2554.760987
600.217312	2557.135371
600.568060	2554.728220
600.918753	2559.008159
601.269392	2554.692932
601.619978	2555.454146
601.970510	2555.025648
602.320988	2555.522202
602.671412	2554.277037
603.021783	2556.207798
603.372100	2554.839125
603.722363	2557.284085
604.072572	2557.946997
604.422728	2560.051678
604.772830	2558.630073
605.122878	2556.104455
605.472872	2557.558828
605.822813	2555.292829
606.172701	2554.849208
606.522534	2556.860628
606.872314	2558.423386
607.222041	2555.582695
607.571714	2552.338713
607.921333	2552.704197
608.270899	2555.643189
608.620411	2552.605894
608.969870	2557.455484
609.319276	2560.160063
609.668627	2566.824468
610.017926	2567.739438
610.367171	2571.757238
610.716362	2571.908472
611.065500	2567.346228
611.414585	2564.306412
611.763616	2564.893707
612.112594	2562.922615
612.461518	2563.487225
612.810389	2562.693243
613.159207	2559.093859
613.507971	2560.200392
613.856682	2560.825495
614.205340	2557.591595
614.553945	2560.598643
614.902496	2557.828529
615.250994	2558.809034
615.599439	2560.021431
615.947830	2555.376008
616.296169	2554.962633
616.644454	2555.575134
616.992686	2555.491955
617.340864	2559.729044
617.688990	2558.672923
618.037063	2557.803324
618.385082	2556.956410
618.733048	2558.047820
619.080961	2557.009342
619.428821	2555.222253
619.776628	2557.440361
620.124382	2559.255176
620.472083	2558.942624
620.819731	2557.359702
621.167326	2557.725186
621.514868	2555.796944
621.862357	2556.953889
622.209793	2554.665205
622.557176	2555.887685
622.904506	2556.321224
623.251783	2557.490772
623.599007	2556.038920
623.946179	2555.446584
624.293297	2557.669733
624.640363	2555.779300
624.987376	2556.623694
625.334336	2550.901984
625.681243	2552.747046
626.028097	2551.504402
626.374899	2555.673436
626.721647	2555.665874
627.068343	2554.453477
627.414987	2556.795093
627.761577	2556.764846
628.108115	2557.105124
628.454600	2556.636297
628.801032	2555.277706
629.147412	2557.306770
629.493739	2557.757953
629.840014	2555.305432
630.186236	2557.770556
630.532405	2556.356512
630.878521	2557.077398
631.224585	2557.548745
631.570597	2556.749723
631.916556	2555.978426
632.262462	2556.139743
632.608316	2557.243756
632.954117	2556.235525
633.299866	2556.301060
633.645562	2554.279557
633.991206	2557.268961
634.336797	2556.631255
634.682336	2553.702345
635.027823	2557.279044
635.373257	2554.519012
635.718639	2555.754095
636.063968	2554.708055
636.409245	2554.362736
636.754470	2555.360885
637.099642	2555.030689
637.444762	2556.548076
637.789829	2555.396173
638.134845	2556.192675
638.479808	2553.740154
638.824719	2556.273333
639.169577	2555.794424
639.514383	2557.710062
639.859137	2555.494475
640.203839	2556.631255
640.548489	2555.446584
640.893086	2556.550597
641.237632	2554.771070
641.582125	2556.616132
641.926566	2555.418858
642.270955	2552.126984
642.615292	2550.596994
642.959576	2551.005328
643.303809	2553.142777
643.647990	2554.251831
643.992118	2555.209650
644.336195	2556.253169
644.680219	2556.853066
645.024192	2554.965154
645.368112	2555.481872
645.711981	2558.836760
646.055797	2554.801317
646.399562	2556.353992
646.743274	2552.830225
647.086935	2558.665361
647.430544	2556.180072
647.774101	2556.631255
648.117606	2555.320555
648.461059	2553.573796
648.804460	2557.175700
649.147810	2558.456153
649.491108	2556.079249
649.834354	2555.333158
650.177548	2556.283416
650.520690	2556.139743
650.863781	2556.976574
651.206820	2555.930535
651.549807	2558.113355
651.892742	2557.125288
652.235626	2556.515309
652.578458	2554.703014
652.921238	2557.896585
653.263967	2557.460525
653.606644	2554.395504
653.949269	2555.885165
654.291843	2555.756615
654.634365	2557.233673
654.976836	2553.891388
655.319255	2554.937428
655.661622	2555.524722
656.003938	2557.740309
656.346203	2555.118909
656.688416	2555.310473
657.030577	2554.156049
657.372687	2554.138405
657.714746	2553.036913
658.056753	2556.495144
658.398708	2556.611091
658.740612	2556.011193
659.082465	2553.674619
659.424266	2551.930379
659.766016	2549.961809
660.107715	2553.024310
660.449362	2551.953065
660.790958	2557.863818
661.132503	2555.063457
661.473996	2555.496996
661.815438	2553.783003
662.156829	2554.211502
662.498168	2554.183775
662.839456	2556.164949
663.180693	2556.142263
663.521879	2556.175031
663.863013	2555.537325
664.204097	2556.895916
664.545129	2554.680329
664.886110	2555.655792
665.227040	2556.641338
665.567918	2553.662016
665.908746	2553.039433
666.249522	2555.451625
666.590248	2554.380380
666.930922	2555.005483
667.271545	2558.294836
667.612118	2554.347613
667.952639	2556.361554
668.293109	2555.368446
668.633528	2555.539846
668.973896	2554.508930
669.314213	2553.977088
669.654480	2555.199568
669.994695	2555.887685
670.334859	2554.360216
670.674973	2554.045143
671.015035	2555.164280
671.355047	2553.866182
671.695008	2554.481203
672.034918	2554.375339
672.374777	2555.484393
672.714585	2552.807540
673.054342	2557.004301
673.394049	2554.544218
673.733705	2556.747202
674.073310	2557.647048
674.412864	2552.159752
674.752368	2558.244425
675.091820	2556.185113
675.431223	2553.838456
675.770574	2556.951369
676.109875	2555.050854
676.449125	2552.797458
676.788324	2550.702858
677.127473	2552.923487
677.466571	2550.423074
677.805619	2552.991542
678.144616	2554.952551
678.483562	2553.382232
678.822458	2552.633620
679.161303	2554.602191
679.500098	2552.973898
679.838842	2555.305432
680.177535	2555.562531
680.516179	2554.249310
680.854771	2554.642520
681.193314	2556.774928
681.531805	2556.275854
681.870247	2554.387942
682.208638	2555.602860
682.546978	2554.594629
682.885268	2555.421378
683.223508	2557.319373
683.561697	2555.980947
683.899836	2555.202088
684.237925	2556.270813
684.575963	2558.073025
684.913951	2554.125802
685.251889	2555.592778
685.589776	2554.950031
685.927614	2557.175700
686.265401	2555.870041
686.603137	2553.422561
686.940824	2556.157387
687.278460	2555.149156
687.616046	2554.647561
687.953582	2556.444733
688.291068	2555.832232
688.628504	2553.624207
688.965889	2553.606563
689.303224	2556.684187
689.640510	2553.730071
689.977745	2555.756615
690.314930	2553.677139
690.652065	2554.808878
690.989150	2554.962633
691.326185	2555.050854
691.663170	2554.640000
692.000105	2555.048333
692.336990	2554.692932
692.673825	2552.661347
693.010610	2554.395504
693.347345	2552.729402
693.684030	2549.598846
694.020665	2550.370142
694.357251	2551.595143
694.693786	2553.646892
695.030272	2553.662016
695.366707	2552.759649
695.703093	2557.566389
696.039429	2553.122612
696.375716	2553.500699
696.711952	2553.359547
697.048139	2554.161090
697.384276	2552.681511
697.720363	2552.338713
698.056400	2553.636810
698.392388	2557.163097
698.728326	2552.706717
699.064214	2554.395504
699.400053	2554.982798
699.735842	2553.314176
700.071581	2551.476676
700.407270	2551.738816
700.742910	2553.266285
701.078501	2555.756615
701.414042	2553.256203
701.749533	2555.048333
702.084974	2555.013045
702.420366	2553.309135
702.755709	2553.414999
703.091002	2555.494475
703.426246	2553.651933
703.761440	2552.174875
704.096584	2554.743343
704.431679	2556.031358
704.766725	2555.171841
705.101721	2553.840977
705.436668	2553.309135
705.771565	2554.942469
706.106413	2555.910370
706.441212	2553.271326
706.775961	2555.484393
707.110661	2555.948179
707.445311	2553.858621
707.779913	2554.471121
708.114465	2554.133364
708.448967	2555.552448
708.783421	2555.930535
709.117825	2555.333158
709.452180	2554.778631
709.786485	2554.662685
710.120742	2551.877447
710.454949	2550.433157
710.789107	2551.322920
711.123216	2548.116747
711.457275	2555.749053
711.791286	2555.033210
712.125247	2552.187478
712.459159	2552.910884
712.793023	2554.110678
713.126837	2556.230484
713.460602	2552.716799
713.794318	2553.326779
714.127985	2556.089331
714.461602	2552.545400
714.795171	2552.283260
715.128691	2555.870041
715.462162	2555.900288
715.795584	2553.530946
716.128957	2553.069680
716.462281	2554.574465
716.795556	2555.706204
717.128782	2552.263096
717.461960	2554.960113
717.795088	2553.878785
718.128167	2553.795606
718.461198	2554.206460
718.794180	2556.220401
719.127113	2554.937428
719.459997	2556.754764
719.792833	2554.614794
720.125619	2555.602860
720.458357	2553.576316
720.791046	2552.207643
721.123686	2554.627397
721.456278	2551.937941
721.788821	2552.956254
722.121315	2553.762839
722.453761	2553.094886
722.786158	2555.141594
723.118506	2554.229146
723.450805	2551.960626
723.783056	2553.142777
724.115259	2553.619166
724.447412	2552.825184
724.779518	2553.709907
725.111574	2554.798796
725.443582	2554.947510
725.775542	2553.377191
726.107453	2555.000442
726.439315	2552.575647
726.771129	2554.566903
727.102895	2550.418033
727.434612	2553.087324
727.766281	2546.914431
728.097901	2555.166800
728.429473	2554.425751
728.760996	2553.898950
729.092471	2552.994063
729.423897	2554.012376
729.755276	2553.750236
730.086606	2552.404248
730.417887	2554.203940
730.749120	2556.364074
731.080305	2554.455997
731.411442	2554.513971
731.742530	2552.595812
732.073570	2553.089845
732.404562	2554.337530
732.735506	2552.799978
733.066401	2551.912735
733.397249	2554.060267
733.728048	2555.635627
734.058798	2550.274360
734.389501	2550.546583
734.720156	2552.540359
735.050762	2554.524053
735.381320	2555.481872
735.711831	2550.423074
736.042293	2555.665874
736.372707	2554.443395
736.703073	2554.836605
737.033391	2549.929041
737.363661	2553.359547
737.693883	2551.801830
738.024056	2554.839125
738.354182	2552.512633
738.684260	2553.820812
739.014290	2551.043136
739.344272	2553.258723
739.674207	2553.294012
740.004093	2553.538507
740.333931	2553.225956
740.663722	2555.134033
740.993464	2552.101779
741.323159	2551.897612
741.652806	2553.223435
741.982405	2552.341233
742.311956	2552.189999
742.641460	2553.233518
742.970915	2554.140925
743.300323	2550.977601
743.629683	2549.003990
743.958996	2550.831408
744.288260	2550.707900
744.617477	2551.413661
744.946647	2553.167983
745.275768	2553.571275
745.604842	2554.282078
745.933869	2553.901471
746.262847	2551.706048
746.591778	2553.843497
746.920662	2555.917932
747.249498	2552.910884
747.578286	2553.457849
747.907027	2553.672098
748.235720	2554.755946
748.564365	2551.995914
748.892963	2551.484237
749.221514	2553.301573
749.550017	2555.219732
749.878473	2552.779814
750.206881	2552.452139
750.535242	2551.769062
750.863555	2554.408107
751.191821	2552.842828
751.520039	2552.424412
751.848210	2553.631769
752.176334	2551.809392
752.504411	2553.359547
752.832440	2555.224773
753.160421	2554.455998
753.488356	2554.912222
753.816243	2551.857283
754.144082	2552.865513
754.471875	2552.915925
754.799620	2552.253013
755.127318	2553.200750
755.454969	2554.897098
755.782572	2555.002963
756.110129	2550.198743
756.437638	2553.346944
756.765100	2551.658157
757.092515	2554.513971
757.419882	2556.331307
757.747203	2552.111861
758.074477	2551.353167
758.401703	2553.140256
758.728882	2552.603373
759.056014	2550.995245
759.383099	2551.287632
759.710138	2551.249824
760.037129	2547.980635
760.364073	2549.971891
760.690970	2549.956768
761.017820	2554.125802
761.344623	2552.489948
761.671379	2553.092365
761.998088	2552.187478
762.324751	2553.135215
762.651366	2553.062118
762.977935	2552.621017
763.304456	2550.387786
763.630931	2552.333672
763.957359	2553.609084
764.283740	2553.157900
764.610074	2552.200081
764.936362	2551.771583
765.262602	2551.837118
765.588796	2551.206974
765.914943	2551.612787
766.241044	2552.104299
766.567097	2551.335523
766.893104	2552.636141
767.219064	2552.628579
767.544978	2552.931048
767.870845	2552.253013
768.196665	2551.398538
768.522438	2552.812581
768.848165	2549.366953
769.173846	2552.968857
769.499479	2551.554813
769.825066	2553.173024
770.150607	2550.244113
770.476101	2550.536500
770.801548	2549.001469
771.126949	2554.529094
771.452303	2551.648075
771.777611	2548.527601
772.102872	2552.338713
772.428087	2551.827036
772.753256	2552.290822
773.078378	2551.159083
773.403453	2555.149156
773.728482	2552.661347
774.053465	2552.784855
774.378401	2554.206460
774.703291	2551.824515
775.028135	2553.793086
775.352932	2553.041954
775.677683	2552.605894
776.002388	2548.300749
776.327046	2546.964843
776.651658	2551.607746
776.976224	2547.325285
777.300743	2551.864844
777.625216	2551.065822
777.949643	2551.587581
778.274024	2551.600184
778.598359	2552.772252
778.922647	2552.043805
779.246889	2553.609084
779.571086	2550.660009
779.895236	2552.580688
780.219339	2553.450287
780.543397	2551.348126
780.867409	2554.042623
781.191374	2551.804351
781.515294	2553.656975
781.839167	2550.899463
782.162995	2550.516336
782.486776	2553.510781
782.810511	2553.157900
783.134201	2552.822664
783.457844	2552.232849
783.781441	2551.585060
784.104993	2552.580688
784.428498	2550.440718
784.751958	2552.086655
785.075372	2552.585729
785.398739	2552.111861
785.722061	2551.053219
786.045337	2553.089845
786.368568	2552.474824
786.691752	2551.695966
787.014891	2552.182437
787.337983	2551.275029
787.661030	2552.711758
787.984031	2552.638662
788.306987	2552.883157
788.629897	2552.280740
788.952760	2553.518343
789.275579	2550.473486
789.598351	2551.085986
789.921078	2550.420554
790.243759	2551.169165
790.566395	2552.933569
790.888984	2553.863662
791.211529	2553.495658
791.534027	2552.812581
791.856480	2552.484906
792.178888	2550.420554
792.501249	2550.211346
792.823566	2549.563558
793.145836	2546.992569
793.468062	2551.161603
793.790241	2553.230997
794.112375	2551.801830
794.434464	2551.373332
794.756507	2552.742005
795.078505	2549.379556
795.400457	2552.527756
795.722364	2550.402910
796.044226	2555.958261
796.366042	2554.065308
796.687812	2550.904505
797.009538	2549.586243
797.331218	2551.958106
797.652852	2549.520708
797.974442	2551.287632
798.295986	2553.785524
798.617484	2551.060780
798.938938	2549.908877
799.260346	2551.050698
799.581709	2550.173537
799.903026	2553.755277
800.224299	2552.235369
800.545526	2550.468445
800.866708	2551.280071
801.187845	2551.428785
801.508936	2550.864175
801.829983	2550.465924
802.150984	2549.561037
802.471940	2554.776111
802.792851	2549.074566
803.113717	2552.820143
803.434538	2546.992569
803.755314	2549.772766
804.076045	2550.491130
804.396731	2551.171686
804.717372	2551.869886
805.037967	2550.962478
805.358518	2551.849721
805.679024	2552.358878
805.999485	2550.806202
806.319901	2551.496840
806.640272	2549.593805
806.960598	2550.985163
807.280879	2550.959957
807.601115	2551.557334
807.921306	2550.375183
808.241453	2546.906870
808.561554	2548.971222
808.881611	2551.582540
809.201623	2545.855789
809.521590	2548.938455
809.841513	2550.838970
810.161390	2553.175544
810.481223	2551.373332
810.801011	2552.994063
811.120755	2548.686397
811.440453	2550.496171
811.760107	2550.062632
812.079716	2551.945503
812.399281	2549.460214
812.718801	2550.793599
813.038276	2549.997097
813.357707	2552.976419
813.677093	2550.196222
813.996434	2551.305276
814.315731	2549.308979
814.634983	2551.269988
814.954191	2551.101110
815.273354	2552.830225
815.592473	2551.126315
815.911547	2551.643034
816.230577	2551.063301
816.549562	2551.869886
816.868502	2550.549103
817.187399	2553.294012
817.506250	2549.921480
817.825058	2550.639844
818.143821	2553.059598
818.462539	2548.762014
818.781213	2549.692107
819.099843	2552.600853
819.418429	2550.584391
819.736970	2547.466438
820.055466	2549.828218
820.373919	2553.029351
820.692327	2549.717313
821.010691	2552.086655
821.329011	2550.276881
821.647286	2552.467262
821.965517	2552.202602
822.283704	2550.539021
822.601847	2549.480379
822.919945	2550.780996
823.237999	2550.271840
823.556010	2553.261244
823.873976	2551.842159
824.191897	2549.697148
824.509775	2545.835624
824.827609	2546.196067
825.145398	2544.605583
825.463144	2549.674463
825.780845	2549.523228
826.098502	2550.430636
826.416116	2551.547252
826.733685	2549.440049
827.051210	2548.716644
827.368692	2548.424257
827.686129	2550.720502
828.003522	2551.953065
828.320872	2549.739998
828.638177	2551.340564
828.955439	2551.635472
829.272656	2549.245965
829.589830	2548.174720
829.906960	2550.057591
830.224046	2548.883002
830.541088	2549.588763
830.858086	2549.576161
831.175041	2548.630944
831.491952	2549.664381
831.808819	2549.215718
832.125642	2549.442570
832.442421	2550.901984
832.759157	2551.474155
833.075849	2550.992725
833.392497	2549.772766
833.709101	2548.804864
834.025662	2551.413661
834.342179	2553.609084
834.658653	2551.469114
834.975083	2549.966850
835.291469	2557.578992
835.607811	2549.891233
835.924110	2551.141439
836.240366	2550.672612
836.556578	2550.244113
836.872746	2550.697817
837.188871	2551.796789
837.504952	2551.103630
837.820990	2551.305276
838.136984	2549.024154
838.452935	2549.069525
838.768842	2550.584391
839.084706	2550.279402
839.400526	2552.873075
839.716303	2551.595143
840.032037	2549.182951
840.347727	2546.760676
840.663373	2547.796633
840.978977	2543.199101
841.294537	2550.228990
841.610054	2549.903836
841.925527	2546.422919
842.240957	2549.863506
842.556344	2548.676315
842.871687	2549.825698
843.186987	2549.205636
843.502244	2549.382076
843.817458	2551.635472
844.132629	2546.463248
844.447756	2551.517005
844.762840	2548.567930
845.077881	2549.432488
845.392879	2549.924000
845.707833	2550.304607
846.022745	2548.872920
846.337613	2549.803013
846.652438	2548.885522
846.967221	2548.719164
847.281960	2550.226469
847.596656	2550.171017
847.911309	2551.610266
848.225919	2547.849565
848.540485	2547.254709
848.855009	2549.555996
849.169490	2550.473486
849.483928	2547.413506
849.798323	2549.992056
850.112675	2549.495502
850.426984	2547.027857
850.741251	2549.044319
851.055474	2548.116747
851.369654	2550.478527
851.683792	2552.374001
851.997887	2548.893084
852.311938	2551.953065
852.625947	2552.041285
852.939914	2550.269319
853.253837	2551.333003
853.567718	2551.143959
853.881555	2549.218239
854.195350	2549.694628
854.509103	2550.460883
854.822812	2551.592622
855.136479	2551.229659
855.450103	2551.915256
855.763685	2548.517518
856.077224	2548.961140
856.390720	2546.833773
856.704173	2544.761859
857.017584	2551.096068
857.330953	2548.704041
857.644278	2550.818805
857.957561	2554.077911
858.270802	2547.756304
858.584000	2550.070194
858.897155	2549.724875
859.210268	2550.392827
859.523339	2550.773435
859.836367	2550.254196
860.149352	2551.338044
860.462295	2548.666232
860.775195	2549.969371
861.088054	2550.355019
861.400869	2550.044988
861.713642	2551.191850
862.026373	2553.457849
862.339062	2549.712272
862.651708	2551.811912
862.964312	2547.582384
863.276873	2553.112530
863.589392	2548.368804
863.901869	2550.881819
864.214303	2551.327962
864.526696	2553.548590
864.839045	2549.077086
865.151353	2547.516849
865.463619	2549.636654
865.775842	2550.276881
866.088023	2548.081458
866.400162	2550.639844
866.712258	2549.190512
867.024313	2547.675646
867.336325	2549.689587
867.648296	2548.799823
867.960224	2551.237221
868.272110	2547.937786
868.583954	2550.755791
868.895755	2549.041798
869.207515	2549.472817
869.519233	2549.124977
869.830909	2549.293856
870.142542	2549.067004
870.454134	2546.659853
870.765684	2553.750236
871.077191	2547.007693
871.388657	2546.264123
871.700081	2543.927548
872.011463	2546.745553
872.322803	2545.888557
872.634101	2550.657488
872.945357	2547.042981
873.256571	2549.936603
873.567744	2549.177909
873.878874	2546.455686
874.189963	2549.666901
874.501010	2549.520708
874.812015	2549.994576
875.122979	2549.591284
875.433900	2551.796789
875.744780	2551.229659
876.055618	2549.475338
876.366415	2547.786551
876.677169	2548.091541
876.987882	2550.423074
877.298554	2548.187323
877.609183	2549.624052
877.919771	2546.213711
878.230317	2548.905687
878.540822	2550.861655
878.851285	2547.753783
879.161707	2547.131201
879.472087	2549.235883
879.782425	2549.039278
880.092722	2548.000800
880.402977	2548.598177
880.713191	2548.441901
881.023363	2548.436860
881.333494	2551.459032
881.643583	2548.273022
881.953631	2549.815615
882.263637	2548.971222
882.573602	2548.091541
882.883526	2550.113043
883.193408	2547.226983
883.503248	2547.398382
883.813048	2551.484237
884.122806	2549.243444
884.432522	2548.081458
884.742197	2549.452652
885.051831	2548.129349
885.361424	2548.729247
885.670975	2547.826880
885.980485	2549.755122
886.289954	2550.191181
886.599382	2548.469627
886.908768	2545.875954
887.218113	2545.170192
887.527417	2547.847045
887.836680	2545.744884
888.145901	2547.625234
888.455082	2548.724206
888.764221	2548.578012
889.073319	2548.809905
889.382376	2548.303269
889.691392	2551.227138
890.000366	2547.920142
890.309300	2547.968032
890.618193	2549.311500
890.927044	2547.718495
891.235855	2548.668753
891.544625	2550.415513
891.853353	2548.651109
892.162041	2551.622869
892.470687	2547.700851
892.779293	2550.085317
893.087858	2548.580533
893.396381	2549.248486
893.704864	2549.056922
894.013306	2549.392158
894.321707	2548.179761
894.630068	2545.792775
894.938387	2548.676315
895.246665	2549.482899
895.554903	2551.005328
895.863100	2550.425595
896.171256	2548.784699
896.479371	2549.016592
896.787446	2550.821326
897.095480	2547.413506
897.403473	2546.564071
897.711425	2548.454504
898.019336	2549.558517
898.327207	2547.002652
898.635038	2551.196892
898.942827	2547.088351
899.250576	2550.750749
899.558284	2547.554658
899.865952	2548.940975
900.173579	2548.192364
900.481165	2549.669422
900.788711	2548.691438
901.096216	2546.191026
901.403681	2550.851572
901.711105	2548.152035
902.018489	2548.245296
902.325832	2546.533824
902.633135	2542.677342
902.940397	2545.684390
903.247619	2542.926879
903.554800	2544.398896
903.861941	2546.906870
904.169041	2547.680687
904.476101	2548.935934
904.783121	2546.576674
905.090100	2545.757487
905.397039	2549.130018
905.703938	2549.739998
906.010796	2548.467107
906.317614	2549.601366
906.624391	2548.885522
906.931129	2548.210008
907.237826	2550.261758
907.544483	2547.569781
907.851099	2546.130532
908.157675	2552.459701
908.464211	2549.014072
908.770707	2545.850748
909.077163	2547.625234
909.383578	2547.733619
909.689954	2547.501726
909.996289	2545.971736
910.302584	2547.166489
910.608839	2548.199926
910.915054	2548.605738
911.221229	2547.426108
911.527363	2548.799823
911.833458	2547.600028
912.139513	2548.038609
912.445527	2547.368135
912.751502	2548.552806
913.057436	2547.700851
913.363331	2550.453321
913.669186	2547.804195
913.975000	2548.898125
914.280775	2549.714792
914.586510	2549.097251
914.892205	2548.646068
915.197859	2549.803013
915.503475	2548.557848
915.809050	2549.371994
916.114585	2549.377035
916.420081	2549.142621
916.725536	2547.622713
917.030952	2549.949206
917.336328	2549.616490
917.641665	2545.644061
917.946961	2543.325130
918.252218	2546.674977
918.557435	2544.852599
918.862612	2546.576674
919.167750	2548.686397
919.472848	2547.985677
919.777906	2545.056766
920.082925	2546.811088
920.387904	2547.746222
920.692843	2549.142621
920.997743	2545.603731
921.302603	2547.146324
921.607423	2549.034237
921.912204	2547.993238
922.216946	2546.538865
922.521647	2547.577343
922.826310	2545.160110
923.130932	2547.461397
923.435516	2549.649257
923.740059	2545.548279
924.044564	2544.829914
924.349028	2550.594474
924.653454	2546.690100
924.957840	2549.233362
925.262186	2547.521890
925.566493	2545.863351
925.870761	2544.920655
926.174989	2546.117929
926.479178	2549.011551
926.783328	2546.322096
927.087438	2547.100954
927.391509	2547.847045
927.695541	2547.297559
927.999533	2546.533824
928.303486	2546.748073
928.607400	2549.261088
928.911275	2548.401572
929.215110	2547.184133
929.518906	2546.276725
929.822663	2544.638350
930.126381	2547.572302
930.430060	2547.562220
930.733699	2550.294525
931.037299	2547.201777
931.340861	2547.156407
931.644383	2549.722354
931.947866	2547.559699
932.251309	2548.635985
932.554714	2548.527601
932.858080	2543.708257
933.161407	2544.419060
933.464694	2546.034750
933.767943	2542.914276
934.071153	2549.059442
934.374323	2548.144473
934.677455	2548.754452
934.980548	2545.550799
935.283602	2547.307641
935.586617	2547.433670
935.889593	2547.731098
936.192530	2547.073228
936.495428	2548.250337
936.798287	2547.284956
937.101108	2547.471479
937.403890	2546.508618
937.706632	2548.557848
938.009336	2549.863506
938.312002	2546.450645
938.614628	2546.664894
938.917216	2548.638506
939.219765	2546.226314
939.522275	2548.686397
939.824747	2547.423588
940.127179	2550.060111
940.429573	2547.040460
940.731929	2546.359904
941.034246	2548.537683
941.336524	2547.655481
941.638763	2549.437529
941.940964	2546.972405
942.243126	2547.925183
942.545250	2547.645399
942.847335	2547.111036
943.149381	2548.217570
943.451389	2545.896118
943.753359	2548.691438
944.055290	2547.070707
944.357182	2546.657333
944.659036	2545.260933
944.960851	2544.308155
945.262628	2545.160110
945.564367	2548.474668
945.866067	2547.589946
946.167729	2548.888043
946.469352	2549.755122
946.770937	2546.420398
947.072484	2549.087169
947.373992	2548.020965
947.675462	2547.607590
947.976893	2543.625078
948.278286	2541.797660
948.579641	2545.855789
948.880958	2540.708771
949.182236	2550.523898
949.483476	2546.364946
949.784678	2546.589277
950.085841	2546.155738
950.386967	2548.658671
950.688054	2549.712272
950.989103	2547.950388
951.290114	2544.766900
951.591087	2547.622713
951.892021	2545.172713
952.192917	2546.869061
952.493776	2544.945861
952.794596	2547.579864
953.095378	2545.172713
953.396122	2549.094730
953.696828	2544.232537
953.997496	2548.898125
954.298126	2545.765048
954.598718	2546.561551
954.899272	2546.889226
955.199788	2548.351160
955.500266	2548.164637
955.800706	2546.851417
956.101108	2547.163968
956.401472	2547.171530
956.701798	2542.846220
957.002087	2545.858310
957.302337	2546.566592
957.602550	2546.836293
957.902724	2545.817980
958.202861	2548.724206
958.502960	2547.955430
958.803022	2547.330327
959.103045	2545.081972
959.403031	2549.006510
959.702979	2545.901159
960.002889	2547.400903
960.302762	2545.727240
960.602596	2545.762528
960.902393	2545.507949
961.202153	2547.310162
961.501875	2546.042312
961.801559	2545.797816
962.101205	2548.973743
962.400814	2546.768238
962.700385	2547.211859
962.999918	2544.456869
963.299414	2542.624409
963.598873	2543.443597
963.898293	2540.307999
964.197677	2545.392003
964.497022	2547.874771
964.796331	2545.671787
965.095601	2545.863351
965.394835	2548.741850
965.694030	2544.988711
965.993189	2546.727909
966.292309	2548.961140
966.591393	2548.867878
966.890439	2544.328319
967.189447	2548.240255
967.488419	2544.968546
967.787353	2543.796478
968.086249	2546.208670
968.385108	2545.961653
968.683930	2545.918803
968.982714	2548.827549
969.281462	2547.887374
969.580172	2543.478885
969.878844	2547.259750
970.177480	2548.497354
970.476078	2546.362425
970.774639	2549.528270
971.073162	2546.866540
971.371649	2546.916952
971.670098	2545.598690
971.968510	2546.674977
972.266885	2545.331509
972.565223	2545.215563
972.863524	2547.524411
973.161788	2544.222455
973.460014	2547.098433
973.758204	2544.950902
974.056356	2546.702703
974.354471	2548.083979
974.652550	2546.765717
974.950591	2546.952240
975.248595	2546.952240
975.546563	2547.887374
975.844493	2546.337219
976.142386	2546.947199
976.440243	2545.762528
976.738062	2547.234545
977.035845	2548.136911
977.333590	2548.530121
977.631299	2542.407640
977.928971	2543.625078
978.226606	2541.706919
978.524204	2544.744215
978.821765	2540.486960
979.119290	2546.806047
979.416777	2547.035419
979.714228	2544.945861
980.011642	2545.674307
980.309020	2543.935109
980.606360	2546.669935
980.903664	2545.976777
981.200931	2545.429812
981.498162	2544.459389
981.795356	2546.092723
982.092513	2545.891077
982.389633	2547.537014
982.686717	2544.779503
982.983764	2546.359904
983.280775	2549.296377
983.577749	2547.854607
983.874686	2545.843186
984.171587	2547.630275
984.468451	2544.643392
984.765279	2545.250851
985.062070	2545.583567
985.358824	2545.699513
985.655543	2542.200952
985.952224	2544.091385
986.248869	2545.089534
986.545478	2546.385110
986.842050	2544.885367
987.138586	2545.823022
987.435086	2547.088351
987.731549	2545.543237
988.027975	2546.516180
988.324366	2546.836293
988.620719	2542.790767
988.917037	2547.136242
989.213318	2547.887374
989.509563	2543.559543
989.805772	2548.005841
990.101944	2547.032898
990.398080	2547.630275
990.694180	2544.923176
990.990244	2545.273536
991.286271	2548.371325
991.582262	2547.804195
991.878217	2547.393341
992.174136	2548.081458
992.470019	2544.103988
992.765865	2544.366128
993.061676	2541.502753
993.357450	2543.486447
993.653188	2541.772454
993.948890	2548.295707
994.244556	2545.336550
994.540186	2547.000131
994.835780	2545.928886
995.131337	2544.068700
995.426859	2544.320758
995.722345	2545.986859
996.017795	2545.986859
996.313208	2544.595501
996.608586	2545.155069
996.903928	2548.472148
997.199234	2545.563402
997.494504	2544.371169
997.789738	2545.364277
998.084936	2544.655994
998.380099	2546.591797
998.675225	2545.271015
998.970316	2542.218597
999.265371	2544.414019
999.560390	2544.119112
999.855373	2547.877292
1000.150320	2545.825542
1000.445232	2542.609286
1000.740108	2545.374359
1001.034948	2543.196580
1001.329752	2545.064328
1001.624521	2544.766900
1001.919254	2546.430481
1002.213951	2547.363094
1002.508613	2545.790254
1002.803239	2544.545089
1003.097829	2546.291849
1003.392384	2543.967877
1003.686903	2544.265305
1003.981386	2547.232024
1004.275834	2545.573484
1004.570246	2545.157589
1004.864623	2544.222455
1005.158964	2546.662374
1005.453270	2547.312682
1005.747540	2544.068700
1006.041775	2546.561551
1006.335974	2543.622558
1006.630138	2544.194729
1006.924266	2545.195398
1007.218359	2544.862682
1007.512416	2543.189019
1007.806438	2541.785057
1008.100425	2542.568957
1008.394376	2539.408153
1008.688292	2544.043494
1008.982172	2545.419729
1009.276017	2545.439894
1009.569827	2546.420398
1009.863602	2543.652805
1010.157341	2547.272353
1010.451045	2544.933258
1010.744714	2546.027188
1011.038347	2544.839997
1011.331945	2546.140614
1011.625508	2545.419729
1011.919036	2545.326468
1012.212528	2547.453835
1012.505986	2545.006355
1012.799408	2546.150697
1013.092795	2544.184647
1013.386147	2546.821170
1013.679464	2544.149358
1013.972745	2543.859492
1014.265992	2542.629451
1014.559204	2547.481561
1014.852380	2547.390820
1015.145521	2543.201622
1015.438628	2547.015254
1015.731699	2545.901159
1016.024736	2547.161448
1016.317737	2543.436035
1016.610703	2547.156407
1016.903635	2545.167672
1017.196531	2544.638350
1017.489393	2541.475026
1017.782219	2542.604245
1018.075011	2547.378217
1018.367768	2543.849410
1018.660490	2545.250851
1018.953177	2545.250851
1019.245829	2545.250851
