Dividing Wavelength (nm)	Counts (n)	Blue Motor Position (mm): 40.000000	Red Motor Position (mm): 0.000000	
326.493990	2154.848773
326.888308	2154.848773
327.282561	2154.848773
327.676750	2128.493621
328.070874	2132.035032
328.464933	2135.568880
328.858929	2144.123718
329.252859	2156.998825
329.646726	2169.821000
330.040528	2184.500840
330.434265	2204.897349
330.827938	2223.214381
331.221547	2243.137021
331.615091	2262.885741
332.008571	2283.972888
332.401986	2302.050466
332.795338	2322.555359
333.188625	2340.806856
333.581847	2363.151771
333.975006	2382.749256
334.368100	2399.826165
334.761129	2416.633372
335.154095	2435.467123
335.546996	2458.122068
335.939833	2489.813282
336.332606	2501.854078
336.725315	2514.598115
337.117960	2524.660258
337.510540	2530.636546
337.903056	2540.645757
338.295508	2544.560212
338.687896	2555.590257
339.080220	2560.253324
339.472480	2567.270611
339.864676	2571.948801
340.256807	2574.653380
340.648875	2576.072465
341.040879	2578.532548
341.432818	2577.100861
341.824694	2582.784762
342.216506	2580.846438
342.608253	2582.096644
342.999937	2578.714030
343.391557	2578.514904
343.783113	2578.184709
344.174605	2576.417784
344.566033	2575.941395
344.957397	2573.110787
345.348697	2569.944943
345.739934	2570.683472
346.131106	2566.695919
346.522215	2566.955538
346.913260	2563.121741
347.304241	2562.957903
347.695159	2560.147460
348.086012	2561.223747
348.476802	2558.415824
348.867528	2555.413817
349.258191	2553.722510
349.648789	2554.781152
350.039324	2552.726882
350.429796	2554.289639
350.820203	2549.371994
351.210548	2549.654298
351.600828	2549.152704
351.991045	2548.678835
352.381198	2549.644216
352.771288	2549.606407
353.161314	2547.630275
353.551276	2548.078938
353.941175	2548.615821
354.331010	2547.723537
354.720782	2549.379556
355.110490	2548.973743
355.500135	2548.116747
355.889717	2549.298897
356.279235	2551.234700
356.668689	2551.799309
357.058080	2549.830739
357.447408	2548.807385
357.836672	2548.262940
358.225873	2546.332178
358.615010	2549.694628
359.004084	2554.445915
359.393095	2554.050185
359.782043	2553.029351
360.170927	2554.458518
360.559748	2555.998591
360.948505	2556.641338
361.337199	2552.971378
361.725830	2553.702345
362.114398	2557.984805
362.502903	2555.252500
362.891344	2556.840463
363.279722	2559.237532
363.668037	2558.032696
364.056289	2559.277861
364.444478	2560.371792
364.832603	2561.538819
365.220665	2560.636452
365.608665	2557.727706
365.996601	2561.715259
366.384474	2559.386246
366.772284	2561.077553
367.160031	2560.906154
367.547715	2563.731721
367.935336	2561.183417
368.322893	2562.219374
368.710388	2563.232646
369.097820	2563.701474
369.485189	2562.531926
369.872495	2564.308933
370.259738	2563.661144
370.646918	2565.087791
371.034035	2565.188614
371.421090	2565.581824
371.808081	2565.153326
372.195010	2565.828841
372.581875	2564.951680
372.968678	2566.300188
373.355418	2568.167936
373.742096	2569.337484
374.128710	2568.021742
374.515262	2567.817576
374.901751	2567.812535
375.288177	2570.880077
375.674540	2567.986454
376.060841	2568.160374
376.447079	2567.661300
376.833254	2568.576269
377.219367	2568.442679
377.605417	2568.500652
377.991404	2565.644838
378.377329	2567.673903
378.763191	2568.367062
379.148991	2570.933009
379.534727	2572.261353
379.920402	2570.630540
380.306013	2574.981055
380.691563	2571.447207
381.077049	2569.874367
381.462474	2573.970304
381.847835	2573.347722
382.233134	2573.221693
382.618371	2571.721949
383.003545	2574.489543
383.388657	2572.402505
383.773706	2575.636405
384.158693	2574.091292
384.543618	2576.427867
384.928480	2574.408884
385.313280	2578.272929
385.698017	2574.355952
386.082692	2578.512384
386.467305	2576.258988
386.851856	2577.746128
387.236344	2579.046746
387.620770	2579.084555
388.005133	2578.257805
388.389435	2576.387537
388.773674	2578.010789
389.157851	2577.302507
389.541965	2580.395255
389.926018	2582.116809
390.310008	2581.080852
390.693936	2580.627148
391.077802	2580.964905
391.461606	2581.330389
391.845348	2583.104875
392.229027	2585.948086
392.612645	2583.878692
392.996200	2586.941193
393.379694	2588.025041
393.763125	2589.955803
394.146494	2592.040320
394.529801	2593.305650
394.913047	2595.107862
395.296230	2600.275045
395.679351	2601.855447
396.062410	2602.730087
396.445408	2606.616816
396.828343	2612.983794
397.211217	2612.099071
397.594028	2613.815584
397.976778	2620.532922
398.359466	2624.805299
398.742092	2626.952831
399.124656	2637.667803
399.507158	2647.067035
399.889598	2653.454177
400.271977	2657.673622
400.654294	2669.696774
401.036549	2675.932682
401.418742	2681.646830
401.800874	2694.320290
402.182944	2704.037114
402.564952	2716.302242
402.946898	2722.739795
403.328783	2733.963924
403.710606	2747.910276
404.092367	2759.583068
404.474067	2779.793054
404.855705	2786.775052
405.237282	2795.891979
405.618797	2819.771924
406.000250	2837.141220
406.381642	2860.983357
406.762972	2871.978114
407.144240	2881.831049
407.525447	2903.926426
407.906593	2915.037129
408.287677	2935.983123
408.668700	2958.675878
409.049661	2969.400932
409.430560	2991.319869
409.811399	3006.012312
410.192176	3031.233205
410.572891	3045.466903
410.953545	3085.556679
411.334138	3080.455031
411.714669	3123.632514
412.095139	3100.823813
412.475547	3146.680669
412.855894	3156.145435
413.236180	3190.639531
413.616405	3186.808254
413.996568	3218.038202
414.376670	3233.829616
414.756711	3238.623753
415.136691	3269.173146
415.516609	3299.576345
415.896466	3315.130825
416.276262	3345.357583
416.655997	3381.358983
417.035670	3394.992784
417.415283	3465.510965
417.794834	3497.587827
418.174324	3492.581961
418.553753	3500.307529
418.933121	3551.533214
419.312428	3549.279818
419.691674	3554.436918
420.070859	3596.533074
420.449983	3589.782969
420.829045	3642.636946
421.208047	3632.708394
421.586988	3683.145138
421.965867	3717.498081
422.344686	3730.829412
422.723444	3771.713170
423.102141	3690.505223
423.480777	3794.146304
423.859352	3765.257972
424.237866	3867.545504
424.616319	3855.769369
424.994712	3918.771189
425.373044	3910.130652
425.751314	3976.399139
426.129524	3917.289090
426.507673	4016.002444
426.885762	3993.523939
427.263789	4024.529556
427.641756	4026.293960
428.019662	4060.934248
428.397508	4063.716965
428.775292	4102.987554
429.153016	4109.699850
429.530679	4125.700472
429.908282	4136.962410
430.285824	4111.600365
430.663305	4187.026109
431.040726	4146.258298
431.418086	4139.656907
431.795385	4213.250191
432.172624	4247.320829
432.549802	4212.947722
432.926920	4232.517481
433.303977	4226.851224
433.680974	4273.439048
434.057910	4290.047129
434.434786	4299.680774
434.811601	4290.190802
435.188355	4397.887492
435.565050	4367.806927
435.941683	4365.717369
436.318257	4454.948312
436.694770	4461.111123
437.071222	4517.340153
437.447614	4451.774906
437.823946	4456.306903
438.200218	4474.465139
438.576429	4449.660142
438.952580	4474.916323
439.328670	4486.833610
439.704700	4532.100651
440.080670	4493.981967
440.456580	4555.668046
440.832429	4588.521245
441.208218	4490.821163
441.583947	4544.607754
441.959616	4558.561668
442.335224	4584.027057
442.710773	4604.201754
443.086261	4658.494981
443.461689	4615.347745
443.837057	4626.317296
444.212365	4698.410837
444.587612	4702.035427
444.962800	4668.998225
445.337927	4715.127303
445.712995	4603.059933
446.088002	4789.993479
446.462949	4815.320236
446.837837	4830.375642
447.212664	4820.847861
447.587431	5049.474271
447.962139	5344.104507
448.336786	5684.672258
448.711374	5667.434032
449.085901	5305.275020
449.460369	5247.957100
449.834776	5187.740518
450.209124	5421.685344
450.583412	5427.437301
450.957640	5556.508483
451.331808	5411.111524
451.705917	5262.883957
452.079965	5254.621506
452.453954	5297.279750
452.827883	5258.709882
453.201752	5265.911170
453.575562	5297.078103
453.949311	5435.964412
454.323001	5434.441984
454.696632	5428.712713
455.070202	5587.352783
455.443713	5614.789263
455.817164	5707.753181
456.190556	5777.661382
456.563888	5752.674903
456.937160	5832.307490
457.310373	5676.906361
457.683526	5730.193877
458.056619	5726.677672
458.429653	5703.011976
458.802628	5757.269915
459.175542	5782.684892
459.548398	5927.728970
459.921194	6116.759637
460.293930	6172.098903
460.666607	6426.878818
461.039224	6637.551158
461.411782	6762.483553
461.784280	6678.868455
462.156719	6680.650503
462.529099	6640.364122
462.901419	6501.455128
463.273680	6368.930755
463.645882	6361.880701
464.018024	6362.452872
464.390106	6435.567247
464.762130	6696.038625
465.134094	7086.473470
465.505999	7724.572641
465.877845	8429.436854
466.249631	8777.473075
466.621358	8700.958442
466.993026	8495.488573
467.364634	8283.064432
467.736184	8002.309971
468.107674	7847.589398
468.479105	7760.301819
468.850477	7696.561470
469.221790	7523.493617
469.593043	7300.886346
469.964238	7206.291614
470.335373	7179.644075
470.706449	7336.912952
471.077467	7531.448558
471.448425	8190.695370
471.819324	8773.170450
472.190164	8802.527609
472.560945	8312.512332
472.931667	7846.636620
473.302330	7655.440778
473.672934	7541.039353
474.043479	7610.541741
474.413965	7518.674274
474.784393	7465.288455
475.154761	7617.730427
475.525070	7630.660986
475.895321	7588.111127
476.265513	7682.269799
476.635645	7847.433122
477.005719	7837.933068
477.375734	7923.922550
477.745691	8038.104684
478.115588	8238.372083
478.485427	8480.271850
478.855207	8956.000497
479.224928	9389.554851
479.594591	9768.024517
479.964194	9778.807546
480.333739	9860.726296
480.703226	9866.493376
481.072653	9963.346544
481.442022	10078.937681
481.811333	10224.604342
482.180584	10068.961238
482.549777	10006.145940
482.918912	9939.469119
483.287988	9931.189023
483.657005	9837.310136
484.025964	9757.692673
484.394864	9818.098299
484.763706	9780.113204
485.132489	9691.192292
485.501213	9683.073513
485.869879	9739.907482
486.238487	9678.264253
486.607036	9754.574719
486.975527	9701.950114
487.343959	9759.567982
487.712333	9804.146905
488.080648	9837.000105
488.448905	9941.740158
488.817104	9950.612589
489.185244	10114.906314
489.553326	10335.681126
489.921350	10810.081429
490.289315	11437.145515
490.657222	11727.611758
491.025070	11895.577963
491.392861	11809.132257
491.760593	11654.419246
492.128267	11399.185626
492.495883	11163.279791
492.863440	10938.870307
493.230939	10708.300533
493.598380	10520.462099
493.965763	10498.643986
494.333088	10369.439212
494.700354	10295.384662
495.067563	10270.909861
495.434713	10277.743145
495.801805	10327.113685
496.168839	10283.371593
496.535815	10243.186035
496.902733	10290.996338
497.269593	10254.142983
497.636395	10257.215566
498.003139	10371.279234
498.369825	10300.695518
498.736453	10392.033664
499.103023	10331.517133
499.469535	10340.888638
499.835989	10389.308920
500.202385	10358.789775
500.568723	10383.007478
500.935003	10445.056520
501.301226	10417.791440
501.667390	10582.037273
502.033497	10679.893631
502.399546	10602.252300
502.765537	10510.412559
503.131470	10613.070616
503.497345	10707.277179
503.863163	10482.479526
504.228923	10614.416604
504.594625	10727.378780
504.960269	10636.045675
505.325856	10783.128900
505.691385	10666.431230
506.056856	10740.936963
506.422270	10827.680097
506.787625	10770.725141
507.152924	10823.632051
507.518164	10888.504139
507.883347	10744.879145
508.248472	10823.740435
508.613540	10928.742629
508.978550	11007.825730
509.343503	10991.832669
509.708398	11046.221678
510.073236	11174.246821
510.438016	11200.128105
510.802738	11104.134453
511.167403	11232.736809
511.532010	11289.041456
511.896561	11385.990406
512.261053	11571.983777
512.625488	11490.979997
512.989866	11484.628143
513.354186	11465.812036
513.718449	11473.620783
514.082655	11613.578338
514.446803	11568.931359
514.810894	11683.662979
515.174927	11676.391115
515.538904	11667.889209
515.902822	11823.093733
516.266684	11696.139835
516.630488	11799.612038
516.994235	11787.286417
517.357925	11898.222048
517.721558	11954.052827
518.085133	12021.808456
518.448651	12054.023949
518.812112	12008.845128
519.175516	12016.747137
519.538863	12101.786361
519.902152	12115.279010
520.265385	12225.859240
520.628560	12250.639032
520.991678	12191.266842
521.354739	12248.582241
521.717743	12321.101759
522.080690	12297.660394
522.443580	12431.336671
522.806413	12446.233280
523.169189	12436.133328
523.531908	12492.710198
523.894569	12449.943569
524.257174	12464.396557
524.619722	12589.422214
524.982213	12561.370713
525.344647	12546.012838
525.707025	12555.956514
526.069345	12670.055470
526.431608	12636.836787
526.793815	12713.124568
527.155964	12614.373405
527.518057	12640.685708
527.880093	12602.314965
528.242072	12723.569838
528.603995	12636.667908
528.965860	12662.776044
529.327669	12692.523893
529.689421	12638.386941
530.051117	12650.105103
530.412755	12683.837984
530.774337	12693.796784
531.135862	12641.658650
531.497331	12704.612579
531.858743	12666.559430
532.220098	12755.896237
532.581396	12681.347654
532.942638	12604.384359
533.303824	12682.297912
533.664953	12660.522648
534.026025	12612.213271
534.387040	12710.798075
534.747999	12686.547605
535.108902	12731.688617
535.469748	12602.861930
535.830537	12631.810756
536.191270	12678.854804
536.551947	12607.240172
536.912567	12666.309893
537.273131	12702.339019
537.633638	12571.069893
537.994089	12637.378711
538.354483	12550.643138
538.714821	12682.718848
539.075103	12760.312288
539.435328	12690.983820
539.795497	12674.348012
540.155609	12662.778564
540.515665	12763.127773
540.875665	12629.307823
541.235609	12726.602093
541.595496	12687.787728
541.955328	12866.481509
542.315102	12713.288405
542.674821	12653.757419
543.034483	12660.913337
543.394090	12668.006241
543.753640	12629.068368
544.113134	12878.663457
544.472571	12635.372331
544.831953	12910.054722
545.191278	12738.090882
545.550548	12670.829287
545.909761	12779.995473
546.268918	12815.875886
546.628019	12883.190413
546.987064	12779.874486
547.346053	12624.899334
547.704986	12821.128768
548.063863	12705.429246
548.422684	12767.498453
548.781449	12712.532232
549.140158	12819.843274
549.498811	12758.928492
549.857408	12635.654636
550.215949	12838.498064
550.574434	12808.924135
550.932864	12742.393507
551.291237	12949.320269
551.649555	12832.073113
552.007817	12887.056978
552.366022	12805.128146
552.724173	12845.769928
553.082267	12939.144700
553.440305	13030.220706
553.798288	12859.023122
554.156215	12935.797374
554.514086	12988.122031
554.871902	12917.523192
555.229661	12941.198971
555.587365	12892.529151
555.945014	12908.078590
556.302606	12888.002195
556.660143	12949.196761
557.017625	12986.334942
557.375050	12948.536370
557.732421	13047.176627
558.089735	13037.364021
558.446994	13017.758974
558.804197	13127.116724
559.161345	13117.301598
559.518437	12936.120008
559.875474	13030.140048
560.232455	13063.242785
560.589381	13100.128907
560.946251	13033.522662
561.303065	13213.146535
561.659825	13167.524093
562.016528	13077.569744
562.373177	13023.977237
562.729770	13150.205209
563.086307	13030.039225
563.442789	13136.825987
563.799216	13176.469621
564.155587	13117.659520
564.511904	13145.806802
564.868164	13161.325994
565.224370	13220.415879
565.580520	13164.600224
565.936615	13235.965318
566.292654	13174.412830
566.648638	13242.624683
567.004567	13242.123088
567.360441	13247.312956
567.716260	13212.662585
568.072023	13292.572435
568.427732	13282.149849
568.783385	13178.715455
569.138982	13288.647897
569.494525	13291.924647
569.850013	13229.447106
570.205445	13223.087691
570.560823	13239.312644
570.916145	13191.164584
571.271412	13197.803784
571.626625	13152.839212
571.981782	13165.381603
572.336884	13111.277419
572.691931	13202.192108
573.046923	13090.951487
573.401860	13055.640725
573.756743	13066.015419
574.111570	13079.750043
574.466342	13055.955797
574.821059	13111.040485
575.175722	12986.702946
575.530330	12997.725429
575.884882	12932.870984
576.239380	12935.593208
576.593823	12926.163729
576.948211	12925.894028
577.302544	12795.108853
577.656823	12809.987818
578.011047	12868.603835
578.365216	12808.969505
578.719330	12748.432809
579.073389	12715.743447
579.427394	12738.574833
579.781344	12725.795508
580.135239	12648.471770
580.489080	12672.457580
580.842866	12554.824775
581.196597	12645.570586
581.550273	12635.057259
581.903895	12593.881115
582.257463	12709.996532
582.610975	12548.210781
582.964434	12623.918830
583.317837	12539.729040
583.671186	12484.498158
584.024481	12544.848332
584.377721	12433.378338
584.730906	12508.846932
585.084037	12518.735155
585.437113	12442.215481
585.790135	12463.297586
586.143103	12371.205787
586.496016	12385.920916
586.848874	12391.914847
587.201679	12396.393913
587.554428	12275.867486
587.907124	12323.420690
588.259765	12264.908018
588.612352	12334.004593
588.964884	12195.662728
589.317362	12243.047054
589.669786	12233.980539
590.022155	12193.094260
590.374470	12285.450719
590.726731	12177.706138
591.078937	12066.921741
591.431090	12088.734814
591.783188	12017.294102
592.135232	11944.935901
592.487222	12007.524346
592.839157	12017.233608
593.191038	11943.027824
593.542866	11895.668704
593.894639	11744.834860
594.246358	11809.855663
594.598022	11814.604430
594.949633	11715.452495
595.301190	11702.065711
595.652692	11659.462920
596.004141	11755.156623
596.355535	11530.038857
596.706876	11507.472132
597.058162	11479.844088
597.409395	11571.809858
597.760573	11598.165010
598.111698	11491.529482
598.462768	11491.597538
598.813785	11504.364260
599.164748	11374.420958
599.515657	11452.621857
599.866511	11326.676190
600.217312	11453.458689
600.568060	11221.991589
600.918753	11382.191897
601.269392	11381.269366
601.619978	11282.702205
601.970510	11317.864253
602.320988	11363.055677
602.671412	11440.008890
603.021783	11362.559123
603.372100	11287.697988
603.722363	11305.326903
604.072572	11309.775722
604.422728	11322.734008
604.772830	11266.938517
605.122878	11279.324632
605.472872	11243.121586
605.822813	11303.980915
606.172701	11264.601942
606.522534	11299.156531
606.872314	11350.674603
607.222041	11288.421394
607.571714	11365.097344
607.921333	11237.924156
608.270899	11283.934767
608.620411	11342.664209
608.969870	11295.158896
609.319276	11281.724221
609.668627	11288.224789
610.017926	11371.920546
610.367171	11408.405897
610.716362	11398.290822
611.065500	11368.661440
611.414585	11382.106197
611.763616	11441.390166
612.112594	11399.984649
612.461518	11431.265009
612.810389	11477.575569
613.159207	11424.603124
613.507971	11415.909654
613.856682	11515.359017
614.205340	11472.620114
614.553945	11616.943308
614.902496	11492.005872
615.250994	11561.813249
615.599439	11553.301261
615.947830	11583.618760
616.296169	11546.783049
616.644454	11563.834752
616.992686	11578.050806
617.340864	11670.835763
617.688990	11558.750748
618.037063	11688.981396
618.385082	11657.983341
618.733048	11698.791482
619.080961	11685.318998
619.428821	11674.220898
619.776628	11687.277486
620.124382	11631.552572
620.472083	11649.294913
620.819731	11670.460197
621.167326	11596.105698
621.514868	11578.960734
621.862357	11473.202368
622.209793	11466.626183
622.557176	11384.571321
622.904506	11331.631644
623.251783	11245.102759
623.599007	11181.732935
623.946179	11137.569906
624.293297	11111.648293
624.640363	10973.742489
624.987376	10956.080806
625.334336	10888.673018
625.681243	10809.942797
626.028097	10785.289034
626.374899	10748.418035
626.721647	10714.722963
627.068343	10685.743890
627.414987	10616.785947
627.761577	10548.642149
628.108115	10600.349264
628.454600	10479.540533
628.801032	10494.046453
629.147412	10474.499379
629.493739	10436.864645
629.840014	10360.193736
630.186236	10407.530171
630.532405	10304.476383
630.878521	10343.812507
631.224585	10307.291868
631.570597	10227.974353
631.916556	10229.983253
632.262462	10212.674451
632.608316	10195.847080
632.954117	10162.789713
633.299866	10147.986365
633.645562	10128.865269
633.991206	10028.110247
634.336797	9926.457901
634.682336	9919.314586
635.027823	9860.141522
635.373257	9825.032406
635.718639	9760.190564
636.063968	9718.028874
636.409245	9608.429148
636.754470	9603.582079
637.099642	9545.563439
637.444762	9441.612327
637.789829	9449.877298
638.134845	9375.621102
638.479808	9352.658646
638.824719	9329.527312
639.169577	9237.054906
639.514383	9236.865863
639.859137	9174.844547
640.203839	9199.329432
640.548489	9130.653793
640.893086	9135.563877
641.237632	9064.266838
641.582125	9072.781347
641.926566	9058.182165
642.270955	9044.485350
642.615292	9038.715749
642.959576	9014.941668
643.303809	9004.665276
643.647990	9023.113378
643.992118	9006.510338
644.336195	8979.701482
644.680219	8969.808217
645.024192	9012.715998
645.368112	9091.660468
645.711981	9055.802740
646.055797	9197.965799
646.399562	9157.964244
646.743274	9313.067945
647.086935	9383.228203
647.430544	9364.124751
647.774101	9380.037153
648.117606	9410.226103
648.461059	9476.426535
648.804460	9403.425586
649.147810	9292.933576
649.491108	9261.295295
649.834354	9193.769039
650.177548	9049.443325
650.520690	8962.170869
650.863781	8956.865055
651.206820	8928.276672
651.549807	8834.246549
651.892742	8747.223631
652.235626	8702.674955
652.578458	8660.213316
652.921238	8554.535608
653.263967	8594.413655
653.606644	8529.549129
653.949269	8509.313937
654.291843	8426.404600
654.634365	8492.231987
654.976836	8419.359588
655.319255	8415.886233
655.661622	8405.677896
656.003938	8368.249850
656.346203	8332.833223
656.688416	8355.611677
657.030577	8319.068353
657.372687	8277.322558
657.714746	8318.198754
658.056753	8331.008326
658.398708	8230.777584
658.740612	8222.487407
659.082465	8264.341587
659.424266	8226.311122
659.766016	8235.198676
660.107715	8208.296559
660.449362	8230.863284
660.790958	8217.395841
661.132503	8218.691418
661.473996	8218.308290
661.815438	8230.054179
662.156829	8262.499045
662.498168	8213.466262
662.839456	8200.603758
663.180693	8226.081749
663.521879	8246.876509
663.863013	8233.005774
664.204097	8226.162408
664.545129	8300.138820
664.886110	8294.515413
665.227040	8296.294940
665.567918	8308.040829
665.908746	8318.755801
666.249522	8341.561981
666.590248	8337.198863
666.930922	8344.082558
667.271545	8336.583842
667.612118	8360.615022
667.952639	8322.647572
668.293109	8324.031369
668.633528	8301.777195
668.973896	8289.091131
669.314213	8286.260523
669.654480	8251.612673
669.994695	8239.738235
670.334859	8218.754432
670.674973	8201.206176
671.015035	8226.535453
671.355047	8213.398206
671.695008	8199.109056
672.034918	8180.444184
672.374777	8187.617746
672.714585	8158.053899
673.054342	8187.577416
673.394049	8158.913416
673.733705	8198.511679
674.073310	8147.780027
674.412864	8162.434662
674.752368	8089.340451
675.091820	8142.406157
675.431223	8073.972494
675.770574	8028.592027
676.109875	8002.269642
676.449125	7961.043086
676.788324	7949.997918
677.127473	7862.047427
677.466571	7846.591250
677.805619	7784.544728
678.144616	7782.613966
678.483562	7761.516737
678.822458	7716.043009
679.161303	7699.676903
679.500098	7671.254878
679.838842	7655.894482
680.177535	7672.908376
680.516179	7702.368879
680.854771	7721.888227
681.193314	7838.880805
681.531805	7995.927871
681.870247	8124.134495
682.208638	8270.043132
682.546978	8346.603135
682.885268	8373.926189
683.223508	8304.189387
683.561697	8253.182992
683.899836	8227.558807
684.237925	8143.114439
684.575963	8112.348277
684.913951	8029.622943
685.251889	8043.914614
685.589776	8043.987711
685.927614	8026.454578
686.265401	8045.961322
686.603137	8047.269502
686.940824	8119.010162
687.278460	8173.084099
687.616046	8182.064915
687.953582	8295.742934
688.291068	8271.641177
688.628504	8334.330446
688.965889	8332.253491
689.303224	8294.948952
689.640510	8255.491841
689.977745	8144.500757
690.314930	8026.331069
690.652065	7946.307793
690.989150	7840.967842
691.326185	7682.625200
691.663170	7576.985301
692.000105	7451.858821
692.336990	7339.985535
692.673825	7265.391582
693.010610	7171.053949
693.347345	7077.243117
693.684030	6967.630788
694.020665	6916.226143
694.357251	6807.357384
694.693786	6797.985879
695.030272	6755.413335
695.366707	6657.423387
695.703093	6603.288956
696.039429	6602.482371
696.375716	6552.156532
696.711952	6543.218567
697.048139	6511.229925
697.384276	6482.157591
697.720363	6499.937740
698.056400	6475.155428
698.392388	6441.687208
698.728326	6440.542866
699.064214	6412.788793
699.400053	6403.477782
699.735842	6351.538774
700.071581	6311.322969
700.407270	6268.752946
700.742910	6230.742646
701.078501	6185.712539
701.414042	6150.694164
701.749533	6090.921202
702.084974	6030.071955
702.420366	6070.900260
702.755709	6001.670094
703.091002	5947.167659
703.426246	5955.299041
703.761440	5937.735661
704.096584	5896.738477
704.431679	5881.108379
704.766725	5862.803950
705.101721	5847.746023
705.436668	5865.664805
705.771565	5812.727648
706.106413	5873.876844
706.441212	5868.833170
706.775961	5886.693978
707.110661	5892.612293
707.445311	5956.508917
707.779913	5916.822434
708.114465	5960.226768
708.448967	6005.501371
708.783421	6120.469926
709.117825	6160.738663
709.452180	6197.024888
709.786485	6258.393374
710.120742	6388.868518
710.454949	6395.921092
710.789107	6472.264326
711.123216	6593.166319
711.457275	6626.125383
711.791286	6724.390074
712.125247	6751.768581
712.459159	6719.759774
712.793023	6848.460432
713.126837	6675.367374
713.460602	6738.028916
713.794318	6694.362441
714.127985	6640.533001
714.461602	6492.998592
714.795171	6494.836093
715.128691	6328.399878
715.462162	6237.991825
715.795584	6167.844169
716.128957	6124.548219
716.462281	6060.071862
716.795556	6023.715060
717.128782	5934.963026
717.461960	5837.366288
717.795088	5826.205173
718.128167	5759.644298
718.461198	5674.438716
718.794180	5652.993647
719.127113	5592.250264
719.459997	5561.418567
719.792833	5493.103371
720.125619	5490.343339
720.458357	5431.094658
720.791046	5397.603752
721.123686	5376.793869
721.456278	5326.100026
721.788821	5320.247247
722.121315	5281.871463
722.453761	5288.498060
722.786158	5269.986943
723.118506	5275.817037
723.450805	5247.727728
723.783056	5275.479280
724.115259	5259.287094
724.447412	5247.309312
724.779518	5294.645747
725.111574	5292.110046
725.443582	5332.756870
725.775542	5324.161702
726.107453	5405.803189
726.439315	5381.484663
726.771129	5446.979334
727.102895	5513.469632
727.434612	5551.137134
727.766281	5584.433955
728.097901	5642.286237
728.429473	5656.918186
728.760996	5665.699876
729.092471	5689.920099
729.423897	5677.607081
729.755276	5648.421321
730.086606	5660.636037
730.417887	5750.933184
730.749120	5841.328634
731.080305	5882.903030
731.411442	5951.676972
731.742530	5977.447350
732.073570	5997.112891
732.404562	6061.211162
732.735506	6055.413835
733.066401	6032.985742
733.397249	5971.372760
733.728048	5875.626125
734.058798	5730.224124
734.389501	5604.006235
734.720156	5522.021950
735.050762	5414.897431
735.381320	5341.828426
735.711831	5279.844919
736.042293	5200.476993
736.372707	5201.588567
736.703073	5153.511083
737.033391	5186.512997
737.363661	5167.681767
737.693883	5180.614847
738.024056	5207.005287
738.354182	5232.841201
738.684260	5283.824910
739.014290	5317.608203
739.344272	5351.787226
739.674207	5409.773098
740.004093	5441.542449
740.333931	5449.063851
740.663722	5470.967664
740.993464	5479.678778
741.323159	5462.942147
741.652806	5417.322226
741.982405	5385.764602
742.311956	5336.446994
742.641460	5317.235157
742.970915	5269.926449
743.300323	5209.286409
743.629683	5174.941028
743.958996	5125.782216
744.288260	5075.862190
744.617477	5011.128734
744.946647	5003.367878
745.275768	4948.724290
745.604842	4916.775978
745.933869	4878.841295
746.262847	4871.987847
746.591778	4857.292883
746.920662	4835.126930
747.249498	4829.170806
747.578286	4846.431717
747.907027	4872.184452
748.235720	4918.280762
748.564365	4921.265125
748.892963	4909.854474
749.221514	4927.075055
749.550017	4904.510851
749.878473	4900.278802
750.206881	4857.199622
750.535242	4850.837686
750.863555	4832.306404
751.191821	4807.861849
751.520039	4820.169826
751.848210	4798.755005
752.176334	4806.457888
752.504411	4785.128766
752.832440	4753.518211
753.160421	4770.106127
753.488356	4748.151902
753.816243	4728.992997
754.144082	4695.282801
754.471875	4681.076830
754.799620	4672.385881
755.127318	4661.817102
755.454969	4662.031351
755.782572	4655.165299
756.110129	4657.942975
756.437638	4636.840705
756.765100	4636.644100
757.092515	4637.657372
757.419882	4644.994771
757.747203	4644.067199
758.074477	4649.035256
758.401703	4640.861025
758.728882	4672.264893
759.056014	4685.876008
759.383099	4706.116241
759.710138	4735.105396
760.037129	4751.562243
760.364073	4768.457670
760.690970	4769.874234
761.017820	4763.088841
761.344623	4798.399603
761.671379	4859.200960
761.998088	4950.050114
762.324751	5180.856822
762.651366	5643.843953
762.977935	6339.729871
763.304456	6898.519090
763.630931	7203.607200
763.957359	7142.306769
764.283740	6843.688980
764.610074	6525.524117
764.936362	6122.751048
765.262602	5805.569210
765.588796	5458.364780
765.914943	5206.460843
766.241044	4974.408969
766.567097	4809.711952
766.893104	4658.013551
767.219064	4556.280546
767.544978	4460.657419
767.870845	4381.942322
768.196665	4331.205629
768.522438	4279.911889
768.848165	4238.317329
769.173846	4199.674364
769.499479	4172.144623
769.825066	4137.232112
770.150607	4092.116305
770.476101	4081.418977
770.801548	4060.800658
771.126949	4027.105585
771.452303	4006.136906
771.777611	3968.711380
772.102872	3967.350268
772.428087	3940.528809
772.753256	3916.101898
773.078378	3895.531470
773.403453	3863.192468
773.728482	3840.726566
774.053465	3828.292560
774.378401	3805.012512
774.703291	3786.027526
775.028135	3758.026437
775.352932	3749.537134
775.677683	3734.043148
776.002388	3710.730332
776.327046	3714.082699
776.651658	3690.918597
776.976224	3671.769774
777.300743	3671.779857
777.625216	3656.358967
777.949643	3646.863954
778.274024	3652.028616
778.598359	3629.507261
778.922647	3632.461377
779.246889	3622.132053
779.571086	3619.651805
779.895236	3619.089717
780.219339	3621.058287
780.543397	3622.961323
780.867409	3633.598157
781.191374	3635.629742
781.515294	3630.759988
781.839167	3642.659631
782.162995	3641.253149
782.486776	3633.908188
782.810511	3630.568424
783.134201	3617.209366
783.457844	3615.147534
783.781441	3606.267542
784.104993	3599.189762
784.428498	3590.418154
784.751958	3589.621652
785.075372	3584.172164
785.398739	3573.850402
785.722061	3577.210331
786.045337	3576.048345
786.368568	3601.856532
786.691752	3597.271603
787.014891	3646.359838
787.337983	3690.124615
787.661030	3781.966877
787.984031	3876.233933
788.306987	3952.292342
788.629897	4002.862677
788.952760	4011.455323
789.275579	3994.320441
789.598351	3944.327319
789.921078	3893.613311
790.243759	3827.720389
790.566395	3778.901855
790.888984	3731.404104
791.211529	3693.020758
791.534027	3646.087616
791.856480	3609.294755
792.178888	3598.143722
792.501249	3573.308478
792.823566	3543.996689
793.145836	3536.261038
793.468062	3529.364740
793.790241	3511.398068
794.112375	3520.704037
794.434464	3542.426369
794.756507	3541.599620
795.078505	3556.586971
795.400457	3596.326386
795.722364	3647.423522
796.044226	3694.255841
796.366042	3738.948190
796.687812	3737.700505
797.009538	3762.671860
797.331218	3749.690889
797.652852	3745.234509
797.974442	3719.832135
798.295986	3708.544992
798.617484	3682.129345
798.938938	3659.245027
799.260346	3642.205927
799.581709	3607.414404
799.903026	3592.628700
800.224299	3573.273190
800.545526	3545.398130
800.866708	3526.743340
801.187845	3513.946371
801.508936	3492.481138
801.829983	3485.594922
802.150984	3457.717341
802.471940	3441.489867
802.792851	3440.274948
803.113717	3434.447375
803.434538	3419.749891
803.755314	3411.847882
804.076045	3406.184146
804.396731	3399.759195
804.717372	3396.762229
805.037967	3395.317938
805.358518	3394.980181
805.679024	3412.911565
805.999485	3409.743200
806.319901	3413.841658
806.640272	3418.310641
806.960598	3427.518309
807.280879	3429.023093
807.601115	3439.538940
807.921306	3427.977054
808.241453	3432.670368
808.561554	3438.092129
808.881611	3433.885286
809.201623	3436.786470
809.521590	3427.102413
809.841513	3427.132660
810.161390	3433.635749
810.481223	3415.842996
810.801011	3412.725043
811.120755	3411.200094
811.440453	3399.000501
811.760107	3389.029099
812.079716	3380.761607
812.399281	3371.896738
812.718801	3370.966645
813.038276	3366.500183
813.357707	3356.962319
813.677093	3365.907847
813.996434	3346.292717
814.315731	3356.075076
814.634983	3356.375025
814.954191	3355.114737
815.273354	3373.245246
815.592473	3383.350239
815.911547	3402.577200
816.230577	3417.345260
816.549562	3441.389043
816.868502	3460.396714
817.187399	3481.224241
817.506250	3512.088706
817.825058	3518.498533
818.143821	3564.723393
818.462539	3608.982203
818.781213	3662.925070
819.099843	3749.453955
819.418429	3901.467429
819.736970	4049.750448
820.055466	4241.546188
820.373919	4477.993947
820.692327	4815.746214
821.010691	5324.257484
821.329011	6406.590695
821.647286	8144.145355
821.965517	10312.980810
822.283704	11946.415479
822.601847	13030.707178
822.919945	12623.639046
823.237999	11942.049840
823.556010	11036.794720
823.873976	10084.145193
824.191897	9118.829766
824.509775	8344.377466
824.827609	7546.393059
825.145398	7000.647826
825.463144	6622.531040
825.780845	6483.717828
826.098502	6547.155708
826.416116	6924.481032
826.733685	7432.538599
827.051210	7720.290181
827.368692	7626.005481
827.686129	7179.316400
828.003522	6628.197297
828.320872	6062.443724
828.638177	5608.412203
828.955439	5236.748095
829.272656	4894.274788
829.589830	4613.285913
829.906960	4348.862271
830.224046	4140.531547
830.541088	3969.056699
830.858086	3852.225438
831.175041	3758.147425
831.491952	3714.511197
831.808819	3695.110317
832.125642	3730.322776
832.442421	3834.830937
832.759157	4049.372362
833.075849	4424.605607
833.392497	4891.134149
833.709101	5277.614208
834.025662	5388.668307
834.342179	5267.161376
834.658653	4994.639120
834.975083	4723.185588
835.291469	4478.175429
835.607811	4252.031788
835.924110	4095.665278
836.240366	3933.947583
836.556578	3771.763581
836.872746	3634.245946
837.188871	3522.687732
837.504952	3423.835746
837.820990	3351.911083
838.136984	3296.528967
838.452935	3266.750871
838.768842	3250.604056
839.084706	3284.157976
839.400526	3424.690221
839.716303	3645.076865
840.032037	3859.048640
840.347727	3923.852672
840.663373	3834.659537
840.978977	3683.981969
841.294537	3553.043039
841.610054	3446.692337
841.925527	3369.754247
842.240957	3306.205462
842.556344	3243.145668
842.871687	3185.079138
843.186987	3121.547997
843.502244	3066.117989
843.817458	3030.582896
844.132629	2996.862618
844.447756	2973.174236
844.762840	2950.758745
845.077881	2938.793567
845.392879	2920.428643
845.707833	2910.333733
846.022745	2898.154305
846.337613	2898.245046
846.652438	2885.674929
846.967221	2881.954557
847.281960	2874.312168
847.596656	2871.441231
847.911309	2863.791280
848.225919	2862.389839
848.540485	2855.707790
848.855009	2853.754342
849.169490	2848.481296
849.483928	2848.544310
849.798323	2845.133969
850.112675	2837.937722
850.426984	2842.315964
850.741251	2839.858402
851.055474	2834.436641
851.369654	2835.538133
851.683792	2836.221209
851.997887	2836.218689
852.311938	2837.529389
852.625947	2835.477639
852.939914	2831.356496
853.253837	2836.367403
853.567718	2831.810200
853.881555	2833.725838
854.195350	2836.947136
854.509103	2833.448575
854.822812	2833.824141
855.136479	2832.508400
855.450103	2832.639470
855.763685	2828.697287
856.077224	2833.062927
856.390720	2833.980417
856.704173	2837.277331
857.017584	2838.222547
857.330953	2837.279852
857.644278	2839.971828
857.957561	2845.093640
858.270802	2843.293948
858.584000	2842.573063
858.897155	2847.311748
859.210268	2841.295131
859.523339	2836.523679
859.836367	2838.847651
860.149352	2838.141889
860.462295	2833.962772
860.775195	2829.720642
861.088054	2831.414469
861.400869	2831.031342
861.713642	2825.347441
862.026373	2830.978409
862.339062	2834.965962
862.651708	2839.636591
862.964312	2840.634740
863.276873	2841.446365
863.589392	2849.260154
863.901869	2856.995804
864.214303	2863.105683
864.526696	2869.875952
864.839045	2878.675287
865.151353	2884.941441
865.463619	2887.104096
865.775842	2891.832698
866.088023	2892.510733
866.400162	2895.215312
866.712258	2894.292781
867.024313	2895.716907
867.336325	2897.267062
867.648296	2898.534912
867.960224	2899.185221
868.272110	2901.655386
868.583954	2901.126065
868.895755	2903.409708
869.207515	2904.433062
869.519233	2908.692837
869.830909	2911.747776
870.142542	2918.790268
870.454134	2920.269847
870.765684	2922.056936
871.077191	2928.368461
871.388657	2933.092022
871.700081	2939.358176
872.011463	2947.429063
872.322803	2952.500464
872.634101	2957.231587
872.945357	2964.805921
873.256571	2976.287148
873.567744	2983.571616
873.878874	2985.411637
874.189963	2994.521002
874.501010	2994.468070
874.812015	2997.202896
875.122979	3004.867970
875.433900	3003.912672
875.744780	3007.325533
876.055618	3015.330885
876.366415	3017.301976
876.677169	3022.776669
876.987882	3029.310005
877.298554	3038.169833
877.609183	3048.935217
877.919771	3069.432548
878.230317	3090.360898
878.540822	3127.345323
878.851285	3178.618899
879.161707	3243.765730
879.472087	3355.434850
879.782425	3514.904190
880.092722	3794.111016
880.402977	4213.542578
880.713191	4760.636320
881.023363	5356.316702
881.333494	5800.833046
881.643583	6090.006233
881.953631	6162.626575
882.263637	6118.118228
882.573602	5972.174303
882.883526	5811.505168
883.193408	5603.297953
883.503248	5385.131938
883.813048	5167.369215
884.122806	4947.330411
884.432522	4705.483576
884.742197	4482.004185
885.051831	4272.433337
885.361424	4071.195517
885.670975	3901.575813
885.980485	3755.168103
886.289954	3629.648413
886.599382	3525.188144
886.908768	3439.773354
887.218113	3359.044316
887.527417	3298.898309
887.836680	3240.148702
888.145901	3188.411341
888.455082	3155.845487
888.764221	3123.819036
889.073319	3093.201588
889.382376	3071.837178
889.691392	3057.868141
890.000366	3045.837428
890.309300	3037.234698
890.618193	3038.159750
890.927044	3032.312012
891.235855	3033.166487
891.544625	3034.729245
891.853353	3041.824669
892.162041	3055.624828
892.470687	3084.984508
892.779293	3114.346708
893.087858	3163.034172
893.396381	3242.349166
893.704864	3346.786750
894.013306	3505.855319
894.321707	3693.610573
894.630068	3846.914582
894.938387	3927.280657
895.246665	3931.147222
895.554903	3872.700084
895.863100	3785.682207
896.171256	3709.374261
896.479371	3633.464567
896.787446	3558.623597
897.095480	3489.022906
897.403473	3434.434772
897.711425	3378.263715
898.019336	3325.422340
898.327207	3269.952004
898.635038	3226.867783
898.942827	3175.755524
899.250576	3131.237094
899.558284	3091.054057
899.865952	3063.985581
900.173579	3034.305788
900.481165	3015.272912
900.788711	2994.800786
901.096216	2979.047180
901.403681	2965.836837
901.711105	2957.317287
902.018489	2951.840073
902.325832	2958.330558
902.633135	2967.044193
902.940397	3008.462313
903.247619	3097.841971
903.554800	3275.081378
903.861941	3550.174623
904.169041	3809.383192
904.476101	3986.168896
904.783121	4002.484590
905.090100	3937.725928
905.397039	3831.413034
905.703938	3728.024010
906.010796	3623.891416
906.317614	3539.615926
906.624391	3451.141156
906.931129	3381.036350
907.237826	3313.386586
907.544483	3249.709251
907.851099	3176.993127
908.157675	3104.133331
908.464211	3031.349151
908.770707	2975.062148
909.077163	2926.445260
909.383578	2888.714744
909.689954	2857.517564
909.996289	2838.393947
910.302584	2829.163594
910.608839	2819.547593
910.915054	2808.595686
911.221229	2805.202990
911.527363	2805.938998
911.833458	2808.053762
912.139513	2810.279432
912.445527	2811.491829
912.751502	2823.648572
913.057436	2837.166426
913.363331	2860.348172
913.669186	2886.330279
913.975000	2924.885023
914.280775	2983.301914
914.586510	3064.716549
914.892205	3175.337108
915.197859	3320.660971
915.503475	3501.940863
915.809050	3679.858306
916.114585	3811.283707
916.420081	3889.315727
916.725536	3918.955191
917.030952	3878.880539
917.336328	3842.871577
917.641665	3797.218888
917.946961	3734.305288
918.252218	3679.586083
918.557435	3604.659414
918.862612	3536.162736
919.167750	3477.783654
919.472848	3401.495873
919.777906	3333.435254
920.082925	3266.846653
920.387904	3192.955941
920.692843	3137.783032
920.997743	3086.940475
921.302603	3036.060110
921.607423	3001.656755
921.912204	2965.751137
922.216946	2942.692899
922.521647	2916.642737
922.826310	2895.348903
923.130932	2875.582539
923.435516	2856.458922
923.740059	2842.444514
924.044564	2824.422389
924.349028	2816.389310
924.653454	2798.314253
924.957840	2785.723971
925.262186	2778.590739
925.566493	2766.534819
925.870761	2752.495206
926.174989	2749.052098
926.479178	2739.693196
926.783328	2732.375961
927.087438	2727.125599
927.391509	2719.304249
927.695541	2711.901314
927.999533	2708.198587
928.303486	2704.533668
928.607400	2700.168029
928.911275	2698.317925
929.215110	2693.261648
929.518906	2689.261492
929.822663	2690.884744
930.126381	2688.722089
930.430060	2686.871986
930.733699	2689.931966
931.037299	2690.375587
931.340861	2690.357943
931.644383	2691.358612
931.947866	2688.618745
932.251309	2690.000022
932.554714	2690.274764
932.858080	2688.878365
933.161407	2690.521781
933.464694	2688.074301
933.767943	2686.660257
934.071153	2683.963240
934.374323	2680.333609
934.677455	2684.588343
934.980548	2677.886129
935.283602	2681.614062
935.586617	2677.397137
935.889593	2678.223886
936.192530	2679.542148
936.495428	2681.331757
936.798287	2685.218487
937.101108	2689.455577
937.403890	2694.027903
937.706632	2703.873277
938.009336	2717.607901
938.312002	2729.527709
938.614628	2739.410891
938.917216	2749.636872
939.219765	2754.904877
939.522275	2765.040117
939.824747	2768.997423
940.127179	2763.820158
940.429573	2762.834612
940.731929	2764.674633
941.034246	2764.278903
941.336524	2764.024325
941.638763	2764.979623
941.940964	2763.298398
942.243126	2755.890423
942.545250	2754.884713
942.847335	2744.857858
943.149381	2740.782085
943.451389	2736.083729
943.753359	2732.237329
944.055290	2724.720969
944.357182	2722.810371
944.659036	2717.698641
944.960851	2714.943651
945.262628	2712.773434
945.564367	2712.571788
945.866067	2711.419884
946.167729	2709.529452
946.469352	2711.785368
946.770937	2706.537527
947.072484	2703.356559
947.373992	2702.696167
947.675462	2702.411342
947.976893	2700.324305
948.278286	2699.182483
948.579641	2698.713656
948.880958	2699.333718
949.182236	2696.908923
949.483476	2694.345496
949.784678	2694.244673
950.085841	2696.152750
950.386967	2693.667461
950.688054	2697.183666
950.989103	2700.420087
951.290114	2703.701878
951.591087	2707.565922
951.892021	2711.056921
952.192917	2718.548076
952.493776	2720.962788
952.794596	2723.097717
953.095378	2725.036041
953.396122	2725.305742
953.696828	2726.480331
953.997496	2726.452605
954.298126	2719.856255
954.598718	2720.965309
954.899272	2714.439535
955.199788	2710.716643
955.500266	2702.852443
955.800706	2695.459591
956.101108	2691.015814
956.401472	2685.556244
956.701798	2676.429235
957.002087	2669.182577
957.302337	2666.921619
957.602550	2663.284427
957.902724	2658.036586
958.202861	2650.026192
958.502960	2648.808753
958.803022	2644.675007
959.103045	2636.631846
959.403031	2636.531023
959.702979	2632.490538
960.002889	2628.409724
960.302762	2625.054837
960.602596	2624.555762
960.902393	2625.926956
961.202153	2620.225411
961.501875	2619.983436
961.801559	2619.338168
962.101205	2615.481685
962.400814	2614.332302
962.700385	2613.712240
962.999918	2612.794750
963.299414	2611.186622
963.598873	2612.250306
963.898293	2613.135028
964.197677	2608.320726
964.497022	2607.138576
964.796331	2607.559512
965.095601	2607.327619
965.394835	2607.529265
965.694030	2605.706888
965.993189	2605.986672
966.292309	2605.994234
966.591393	2604.391147
966.890439	2605.744697
967.189447	2604.255036
967.488419	2604.449120
967.787353	2606.589090
968.086249	2604.164295
968.385108	2604.648246
968.683930	2604.970880
968.982714	2604.255036
969.281462	2607.390633
969.580172	2610.012033
969.878844	2608.439193
970.177480	2609.371807
970.476078	2612.424226
970.774639	2612.903135
971.073162	2615.189298
971.371649	2611.988166
971.670098	2611.141252
971.968510	2610.851386
972.266885	2615.388424
972.565223	2618.597118
972.863524	2617.198198
973.161788	2618.329937
973.460014	2623.910495
973.758204	2622.710700
974.056356	2622.647686
974.354471	2621.251286
974.652550	2622.418313
974.950591	2624.427213
975.248595	2623.476955
975.546563	2624.626338
975.844493	2623.875207
976.142386	2621.833539
976.440243	2618.556789
976.738062	2621.808333
977.035845	2616.779783
977.333590	2616.719289
977.631299	2617.145266
977.928971	2615.055708
978.226606	2614.375152
978.524204	2613.135028
978.821765	2614.612086
979.119290	2611.242075
979.416777	2613.550923
979.714228	2614.481016
980.011642	2612.714092
980.309020	2615.711058
980.606360	2616.184926
980.903664	2620.137191
981.200931	2624.606174
981.498162	2633.357617
981.795356	2643.447486
982.092513	2661.784683
982.389633	2676.759431
982.686717	2696.301464
982.983764	2711.692107
983.280775	2725.550238
983.577749	2730.785477
983.874686	2731.823954
984.171587	2728.343038
984.468451	2719.828529
984.765279	2718.795092
985.062070	2709.179091
985.358824	2701.211548
985.655543	2691.449353
985.952224	2681.876202
986.248869	2670.616785
986.545478	2654.197747
986.842050	2644.102836
987.138586	2632.132617
987.435086	2622.007459
987.731549	2615.670729
988.027975	2613.835749
988.324366	2606.831065
988.620719	2604.915427
988.917037	2604.428956
989.213318	2599.755806
989.509563	2596.824375
989.805772	2596.413521
990.101944	2595.914447
990.398080	2596.529467
990.694180	2595.054930
990.990244	2594.139961
991.286271	2597.104159
991.582262	2592.400762
991.878217	2596.269848
992.174136	2594.008891
992.470019	2598.175404
992.765865	2596.763881
993.061676	2598.167843
993.357450	2598.518203
993.653188	2599.334870
993.948890	2602.780498
994.244556	2607.748555
994.540186	2609.964142
994.835780	2614.864144
995.131337	2624.931328
995.426859	2629.445682
995.722345	2637.750982
996.017795	2647.835811
996.313208	2656.052892
996.608586	2664.940446
996.903928	2670.155519
997.199234	2668.557474
997.494504	2669.709377
997.789738	2666.946825
998.084936	2661.131854
998.380099	2660.053047
998.675225	2654.202788
998.970316	2647.545944
999.265371	2642.678710
999.560390	2634.028090
999.855373	2630.055661
1000.150320	2620.643827
1000.445232	2613.182919
1000.740108	2609.644029
1001.034948	2607.166302
1001.329752	2602.878801
1001.624521	2604.408791
1001.919254	2594.326483
1002.213951	2592.806575
1002.508613	2591.054774
1002.803239	2591.067377
1003.097829	2585.751481
1003.392384	2593.681216
1003.686903	2591.942017
1003.981386	2586.439598
1004.275834	2586.850452
1004.570246	2586.142170
1004.864623	2587.152921
1005.158964	2588.698035
1005.453270	2585.280133
1005.747540	2583.987077
1006.041775	2584.544124
1006.335974	2588.075452
1006.630138	2583.087231
1006.924266	2585.718713
1007.218359	2582.260482
1007.512416	2583.472879
1007.806438	2582.739391
1008.100425	2583.735019
1008.394376	2583.485482
1008.688292	2584.322313
1008.982172	2583.540935
1009.276017	2583.246027
1009.569827	2583.432550
1009.863602	2581.292580
1010.157341	2582.217632
1010.451045	2581.627817
1010.744714	2582.210070
1011.038347	2581.637899
1011.331945	2581.017837
1011.625508	2581.809298
1011.919036	2579.412230
1012.212528	2583.687128
1012.505986	2578.671180
1012.799408	2579.450038
1013.092795	2579.903742
1013.386147	2584.181161
1013.679464	2582.353743
1013.972745	2578.890470
1014.265992	2580.778382
1014.559204	2582.484813
1014.852380	2579.908783
1015.145521	2579.785275
1015.438628	2580.231417
1015.731699	2577.932651
1016.024736	2577.836869
1016.317737	2580.778382
1016.610703	2584.362643
1016.903635	2578.545151
1017.196531	2579.639082
1017.489393	2578.600604
1017.782219	2579.059349
1018.075011	2581.703434
1018.367768	2581.955492
1018.660490	2582.565471
1018.953177	2582.565471
1019.245829	2582.565471
