Dividing Wavelength (nm)	Counts (n)	Blue Motor Position (mm): 12.000000	Red Motor Position (mm): 0.000000	
326.493990	2101.886411
326.888308	2101.886411
327.282561	2101.886411
327.676750	2079.778431
328.070874	2081.457135
328.464933	2087.955182
328.858929	2098.130751
329.252859	2111.373863
329.646726	2125.799124
330.040528	2139.793367
330.434265	2161.432520
330.827938	2181.345078
331.221547	2199.306709
331.615091	2220.308156
332.008571	2242.010323
332.401986	2261.111255
332.795338	2281.071704
333.188625	2300.916206
333.581847	2319.717189
333.975006	2338.175374
334.368100	2354.922087
334.761129	2373.037473
335.154095	2391.689743
335.546996	2425.732655
335.939833	2473.384161
336.332606	2485.266161
336.725315	2498.375682
337.117960	2504.384737
337.510540	2510.824811
337.903056	2524.133457
338.295508	2529.908099
338.687896	2534.649304
339.080220	2542.929399
339.472480	2549.742519
339.864676	2551.390976
340.256807	2553.989691
340.648875	2557.367264
341.040879	2555.360885
341.432818	2558.625032
341.824694	2560.795248
342.216506	2559.471946
342.608253	2557.374826
342.999937	2557.609239
343.391557	2557.014383
343.783113	2552.792417
344.174605	2552.777293
344.566033	2549.213197
344.957397	2550.881819
345.348697	2549.245965
345.739934	2542.347146
346.131106	2546.276725
346.522215	2543.723381
346.913260	2541.855633
347.304241	2540.307999
347.695159	2538.747762
348.086012	2536.504449
348.476802	2535.649973
348.867528	2531.566638
349.258191	2533.716691
349.648789	2533.096629
350.039324	2530.490352
350.429796	2530.623943
350.820203	2530.192924
351.210548	2530.235774
351.600828	2527.488345
351.991045	2528.075639
352.381198	2528.269724
352.771288	2527.511030
353.161314	2525.242511
353.551276	2527.639580
353.941175	2523.367202
354.331010	2525.698735
354.720782	2526.447347
355.110490	2532.118645
355.500135	2527.082532
355.889717	2526.464991
356.279235	2530.124868
356.668689	2528.816689
357.058080	2528.980527
357.447408	2528.156298
357.836672	2527.881555
358.225873	2530.016484
358.615010	2522.651358
359.004084	2534.195600
359.393095	2531.990095
359.782043	2529.502286
360.170927	2534.843388
360.559748	2532.983203
360.948505	2533.744417
361.337199	2534.175436
361.725830	2532.695857
362.114398	2535.176105
362.502903	2535.599562
362.891344	2533.716691
363.279722	2534.971938
363.668037	2535.700385
364.056289	2536.907741
364.444478	2538.374717
364.832603	2536.706095
365.220665	2539.128369
365.608665	2536.098636
365.996601	2539.519059
366.384474	2539.327495
366.772284	2538.828421
367.160031	2540.277752
367.547715	2541.717002
367.935336	2539.156096
368.322893	2539.314892
368.710388	2539.488812
369.097820	2543.272198
369.485189	2538.687268
369.872495	2543.662887
370.259738	2540.630633
370.646918	2541.759852
371.034035	2540.728936
371.421090	2544.232537
371.808081	2541.202804
372.195010	2542.818494
372.581875	2545.258412
372.968678	2545.651622
373.355418	2542.982331
373.742096	2545.442414
374.128710	2543.879657
374.515262	2544.285470
374.901751	2545.558361
375.288177	2543.904863
375.674540	2543.773793
376.060841	2543.443597
376.447079	2543.549461
376.833254	2546.241437
377.219367	2541.280942
377.605417	2544.076262
377.991404	2541.454862
378.377329	2543.594832
378.763191	2541.835469
379.148991	2546.128011
379.534727	2547.506767
379.920402	2546.848896
380.306013	2549.596325
380.691563	2548.567930
381.077049	2547.216901
381.462474	2548.401572
381.847835	2548.099103
382.233134	2551.280071
382.618371	2548.940975
383.003545	2551.632951
383.388657	2550.415513
383.773706	2551.121274
384.158693	2550.972560
384.543618	2555.686039
384.928480	2550.080276
385.313280	2550.468445
385.698017	2553.041954
386.082692	2553.407437
386.467305	2550.816284
386.851856	2552.699155
387.236344	2553.901471
387.620770	2552.033723
388.005133	2554.040102
388.389435	2552.862993
388.773674	2552.890719
389.157851	2553.341902
389.541965	2550.259237
389.926018	2553.243600
390.310008	2549.336706
390.693936	2555.844835
391.077802	2553.737633
391.461606	2552.250493
391.845348	2554.037582
392.229027	2556.124619
392.612645	2556.837943
392.996200	2554.607232
393.379694	2554.808878
393.763125	2555.754095
394.146494	2556.865669
394.529801	2555.028168
394.913047	2557.609239
395.296230	2558.239383
395.679351	2557.135371
396.062410	2559.517316
396.445408	2556.510268
396.828343	2559.277861
397.211217	2554.584547
397.594028	2555.363405
397.976778	2554.597150
398.359466	2559.292985
398.742092	2555.746533
399.124656	2558.511606
399.507158	2560.386915
399.889598	2562.005125
400.271977	2557.919270
400.654294	2558.025134
401.036549	2558.592264
401.418742	2560.976730
401.800874	2558.194013
402.182944	2559.242573
402.564952	2562.574776
402.946898	2561.765671
403.328783	2561.430434
403.710606	2560.283571
404.092367	2562.589899
404.474067	2563.051165
404.855705	2561.778273
405.237282	2561.969837
405.618797	2562.330280
406.000250	2561.649724
406.381642	2561.448078
406.762972	2561.501010
407.144240	2563.835064
407.525447	2565.924623
407.906593	2562.418500
408.287677	2561.730382
408.668700	2563.772050
409.049661	2565.465877
409.430560	2563.552760
409.811399	2564.533264
410.192176	2564.452606
410.572891	2565.871690
410.953545	2563.799776
411.334138	2565.319684
411.714669	2565.791032
412.095139	2564.941597
412.475547	2567.371434
412.855894	2564.760116
413.236180	2566.484191
413.616405	2566.113666
413.996568	2565.286917
414.376670	2567.699109
414.756711	2565.415466
415.136691	2566.816907
415.516609	2567.310940
415.896466	2569.909655
416.276262	2569.032494
416.655997	2565.032338
417.035670	2560.245763
417.415283	2568.152812
417.794834	2564.568552
418.174324	2566.784139
418.553753	2568.170457
418.933121	2567.873028
419.312428	2567.931002
419.691674	2568.649366
420.070859	2569.581980
420.449983	2566.922771
420.829045	2571.568194
421.208047	2568.883780
421.586988	2569.390416
421.965867	2570.557443
422.344686	2569.463512
422.723444	2567.873028
423.102141	2568.576269
423.480777	2569.458471
423.859352	2567.515107
424.237866	2572.004254
424.616319	2571.918554
424.994712	2571.885787
425.373044	2571.583318
425.751314	2570.396126
426.129524	2569.834037
426.507673	2573.645150
426.885762	2571.752196
427.263789	2571.560632
427.641756	2570.769171
428.019662	2570.156671
428.397508	2573.549368
428.775292	2572.344532
429.153016	2573.902248
429.530679	2573.980386
429.908282	2569.745817
430.285824	2573.062896
430.663305	2572.173133
431.040726	2572.173133
431.418086	2574.028277
431.795385	2571.427042
432.172624	2572.052145
432.549802	2573.564491
432.926920	2573.055335
433.303977	2576.533731
433.680974	2573.743452
434.057910	2572.843606
434.434786	2576.483319
434.811601	2574.330747
435.188355	2578.126735
435.565050	2572.049624
435.941683	2574.756724
436.318257	2569.488718
436.694770	2570.764130
437.071222	2571.585838
437.447614	2570.438976
437.823946	2572.266394
438.200218	2573.279666
438.576429	2574.292938
438.952580	2574.560119
439.328670	2574.918041
439.704700	2573.758576
440.080670	2574.965932
440.456580	2575.485171
440.832429	2574.870150
441.208218	2574.804615
441.583947	2572.047104
441.959616	2574.383679
442.335224	2574.759245
442.710773	2574.991138
443.086261	2574.474419
443.461689	2575.631364
443.837057	2574.277814
444.212365	2575.729667
444.587612	2574.197156
444.962800	2576.493402
445.337927	2575.192784
445.712995	2578.235120
446.088002	2576.301838
446.462949	2576.649677
446.837837	2576.243864
447.212664	2576.221179
447.587431	2578.288052
447.962139	2578.378793
448.336786	2580.977508
448.711374	2578.920717
449.085901	2582.172261
449.460369	2577.768813
449.834776	2577.904925
450.209124	2578.572877
450.583412	2580.541448
450.957640	2576.911817
451.331808	2578.141859
451.705917	2580.813670
452.079965	2582.570513
452.453954	2579.901222
452.827883	2579.994483
453.201752	2581.758887
453.575562	2577.393248
453.949311	2579.654205
454.323001	2580.904411
454.696632	2582.562951
455.070202	2578.978690
455.443713	2581.519432
455.817164	2578.852662
456.190556	2576.652198
456.563888	2582.620924
456.937160	2578.663618
457.310373	2582.615883
457.683526	2584.531521
458.056619	2581.279977
458.429653	2581.408527
458.802628	2582.522622
459.175542	2586.953796
459.548398	2587.203333
459.921194	2585.859865
460.293930	2588.982860
460.666607	2588.415730
461.039224	2587.450349
461.411782	2588.294743
461.784280	2590.011256
462.156719	2589.335741
462.529099	2589.865062
462.901419	2586.800041
463.273680	2586.636203
463.645882	2589.368508
464.018024	2588.445977
464.390106	2590.832964
464.762130	2593.000660
465.134094	2594.114755
465.505999	2598.850919
465.877845	2599.299582
466.249631	2600.559870
466.621358	2599.039962
466.993026	2600.083481
467.364634	2601.605909
467.736184	2595.637183
468.107674	2595.700198
468.479105	2596.080805
468.850477	2595.848912
469.221790	2597.013418
469.593043	2594.155084
469.964238	2592.874631
470.335373	2594.747420
470.706449	2597.431834
471.077467	2599.859150
471.448425	2601.580704
471.819324	2603.324943
472.190164	2603.304778
472.560945	2597.971237
472.931667	2596.232039
473.302330	2597.033583
473.672934	2599.090374
474.043479	2597.598192
474.413965	2595.657348
474.784393	2593.414034
475.154761	2595.309508
475.525070	2592.299939
475.895321	2594.959148
476.265513	2593.509816
476.635645	2600.161619
477.005719	2598.074581
477.375734	2598.082143
477.745691	2599.178594
478.115588	2604.638163
478.485427	2602.901486
478.855207	2607.037753
479.224928	2610.574122
479.594591	2610.690069
479.964194	2608.973556
480.333739	2607.257043
480.703226	2606.957094
481.072653	2610.203597
481.442022	2612.870368
481.811333	2611.766355
482.180584	2607.667897
482.549777	2611.710902
482.918912	2610.561519
483.287988	2611.978083
483.657005	2610.455655
484.025964	2607.539347
484.394864	2610.556478
484.763706	2607.947681
485.132489	2608.857609
485.501213	2610.848865
485.869879	2610.495984
486.238487	2607.103288
486.607036	2610.072527
486.975527	2609.714605
487.343959	2610.685027
487.712333	2611.594956
488.080648	2612.441870
488.448905	2612.426746
488.817104	2614.319699
489.185244	2614.876747
489.553326	2617.198198
489.921350	2621.631893
490.289315	2627.893006
490.657222	2630.675723
491.025070	2630.670682
491.392861	2631.144550
491.760593	2628.508027
492.128267	2629.917029
492.495883	2629.435599
492.863440	2628.823099
493.230939	2629.191103
493.598380	2630.322842
493.965763	2625.400156
494.333088	2627.716566
494.700354	2627.555249
495.067563	2628.502986
495.434713	2629.664972
495.801805	2633.599592
496.168839	2636.851137
496.535815	2639.273411
496.902733	2638.103863
497.269593	2643.656694
497.636395	2643.129894
498.003139	2646.699031
498.369825	2646.973773
498.736453	2647.581232
499.103023	2649.035605
499.469535	2651.309166
499.835989	2653.340751
500.202385	2657.305618
500.568723	2658.215547
500.935003	2659.165804
501.301226	2659.869045
501.667390	2665.570590
502.033497	2671.166271
502.399546	2671.320026
502.765537	2668.746517
503.131470	2673.724656
503.497345	2677.974349
503.863163	2678.486026
504.228923	2679.600121
504.594625	2683.658250
504.960269	2683.181861
505.325856	2690.302491
505.691385	2690.342820
506.056856	2691.235104
506.422270	2697.103007
506.787625	2698.726259
507.152924	2701.158616
507.518164	2701.347659
507.883347	2700.830941
508.248472	2709.531972
508.613540	2712.070193
508.978550	2718.883312
509.343503	2717.749053
509.708398	2724.955382
510.073236	2726.419837
510.438016	2729.308419
510.802738	2729.436968
511.167403	2732.917885
511.532010	2737.089440
511.896561	2742.705285
512.261053	2748.016141
512.625488	2745.853486
512.989866	2746.276942
513.354186	2749.682242
513.718449	2750.614855
514.082655	2759.187337
514.446803	2762.138933
514.810894	2770.114038
515.174927	2771.563370
515.538904	2772.543875
515.902822	2777.995882
516.266684	2779.732560
516.630488	2783.578960
516.994235	2786.916204
517.357925	2789.613222
517.721558	2794.276289
518.085133	2798.495735
518.448651	2801.868267
518.812112	2802.478246
519.175516	2806.002013
519.538863	2811.746407
519.902152	2812.696665
520.265385	2817.021975
520.628560	2818.602377
520.991678	2823.956082
521.354739	2825.796103
521.717743	2830.529747
522.080690	2833.723318
522.443580	2838.799760
522.806413	2841.330419
523.169189	2845.771675
523.531908	2849.270236
523.894569	2849.650843
524.257174	2853.325844
524.619722	2855.667460
524.982213	2859.481093
525.344647	2862.024355
525.707025	2867.383102
526.069345	2869.611292
526.431608	2870.185983
526.793815	2875.569936
527.155964	2874.808722
527.518057	2878.103116
527.880093	2881.130328
528.242072	2883.842469
528.603995	2890.189282
528.965860	2888.790362
529.327669	2893.644993
529.689421	2894.242370
530.051117	2893.493758
530.412755	2899.896024
530.774337	2900.143040
531.135862	2902.797208
531.497331	2904.097825
531.858743	2905.103536
532.220098	2912.781213
532.581396	2908.750810
532.942638	2908.418094
533.303824	2917.277922
533.664953	2919.911925
534.026025	2917.645926
534.387040	2927.322421
534.747999	2926.783018
535.108902	2933.422217
535.469748	2931.322577
535.830537	2933.472629
536.191270	2939.280038
536.551947	2938.632250
536.912567	2945.790688
537.273131	2949.500978
537.633638	2946.841769
537.994089	2954.463993
538.354483	2951.353602
538.714821	2959.346351
539.075103	2964.952114
539.435328	2969.161478
539.795497	2967.747434
540.155609	2974.232878
540.515665	2979.533652
540.875665	2981.557675
541.235609	2985.825012
541.595496	2989.212667
541.955328	2998.319511
542.315102	2999.282372
542.674821	3001.568535
543.034483	3005.987106
543.394090	3010.766120
543.753640	3014.489012
544.113134	3025.589633
544.472571	3024.213398
544.831953	3040.332488
545.191278	3037.413659
545.550548	3038.704195
545.909761	3049.421688
546.268918	3058.460477
546.628019	3067.136302
546.987064	3071.617888
547.346053	3069.248546
547.704986	3086.756473
548.063863	3084.561051
548.422684	3094.232504
548.781449	3101.995881
549.140158	3112.506687
549.498811	3121.154787
549.857408	3120.796865
550.215949	3134.828916
550.574434	3143.144300
550.932864	3151.255516
551.291237	3166.772188
551.649555	3174.918692
552.007817	3186.909077
552.366022	3192.519881
552.724173	3205.052189
553.082267	3218.920404
553.440305	3235.611664
553.798288	3237.555029
554.156215	3251.266967
554.514086	3269.626850
554.871902	3274.829320
555.229661	3289.252062
555.587365	3295.493010
555.945014	3312.635454
556.302606	3322.926969
556.660143	3341.075123
557.017625	3358.111703
557.375050	3369.182076
557.732421	3385.979201
558.089735	3401.579052
558.446994	3414.665887
558.804197	3441.696554
559.161345	3453.641568
559.518437	3458.135757
559.875474	3475.797439
560.232455	3498.633866
560.589381	3518.632123
560.946251	3529.014380
561.303065	3562.038978
561.659825	3576.081113
562.016528	3589.162907
562.373177	3599.048609
562.729770	3635.029845
563.086307	3641.759785
563.442789	3672.510824
563.799216	3699.775904
564.155587	3714.307030
564.511904	3740.793253
564.868164	3770.107562
565.224370	3800.412459
565.580520	3814.351249
565.936615	3847.511959
566.292654	3867.842932
566.648638	3899.697984
567.004567	3931.321142
567.360441	3963.642500
567.716260	3993.055112
568.072023	4030.422665
568.427732	4062.013055
568.783385	4082.086930
569.138982	4130.300525
569.494525	4165.772604
569.850013	4194.635731
570.205445	4235.388418
570.560823	4272.597175
570.916145	4306.327535
571.271412	4349.626006
571.626625	4379.716653
571.981782	4425.336575
572.336884	4456.178354
572.691931	4517.204042
573.046923	4543.468453
573.401860	4578.443979
573.756743	4624.343684
574.111570	4677.797559
574.466342	4720.571750
574.821059	4771.905819
575.175722	4804.201971
575.530330	4853.975804
575.884882	4889.694899
576.239380	4937.137198
576.593823	4988.584694
576.948211	5039.719638
577.302544	5068.741561
577.656823	5122.795333
578.011047	5196.915418
578.365216	5239.404783
578.719330	5285.775837
579.073389	5344.797666
579.427394	5409.203447
579.781344	5469.654444
580.135239	5513.386453
580.489080	5583.627370
580.842866	5616.861177
581.196597	5718.077464
581.550273	5786.261590
581.903895	5843.491289
582.257463	5956.392971
582.610975	5989.674669
582.964434	6077.214305
583.317837	6126.363035
583.671186	6187.116500
584.024481	6279.024297
584.377721	6317.115255
584.730906	6416.602426
585.084037	6488.832078
585.437113	6540.488782
585.790135	6616.849660
586.143103	6660.871536
586.496016	6750.770432
586.848874	6834.403175
587.201679	6920.100269
587.554428	6954.425486
587.907124	7061.630664
588.259765	7124.985365
588.612352	7244.022130
588.964884	7258.560818
589.317362	7385.592854
589.669786	7459.859132
590.022155	7519.127978
590.374470	7664.572828
590.726731	7692.659617
591.078937	7712.403296
591.431090	7810.264695
591.783188	7856.287909
592.135232	7903.515959
592.487222	8026.774691
592.839157	8127.998540
593.191038	8172.516969
593.542866	8228.607367
593.894639	8236.947957
594.246358	8360.940177
594.598022	8448.497457
594.949633	8486.941296
595.301190	8567.050272
595.652692	8631.687947
596.004141	8770.249101
596.355535	8710.526552
596.706876	8789.652503
597.058162	8849.675001
597.409395	9017.797482
597.760573	9130.275706
598.111698	9154.929469
598.462768	9256.052495
598.813785	9358.108134
599.164748	9360.371612
599.515657	9524.783803
599.866511	9533.560452
600.217312	9739.118541
600.568060	9654.013782
600.918753	9896.586543
601.269392	9993.815278
601.619978	10027.258292
601.970510	10166.777266
602.320988	10316.096243
602.671412	10473.574328
603.021783	10533.634634
603.372100	10563.359798
603.722363	10691.788233
604.072572	10818.043932
604.422728	10924.129973
604.772830	10984.419652
605.122878	11118.090888
605.472872	11223.803884
605.822813	11386.683565
606.172701	11461.849689
606.522534	11640.384673
606.872314	11821.747745
607.222041	11869.762214
607.571714	12076.749471
607.921333	12065.023747
608.270899	12245.446643
608.620411	12468.999131
608.969870	12536.359029
609.319276	12662.161023
609.668627	12804.646716
610.017926	13069.841655
610.367171	13238.959764
610.716362	13388.823185
611.065500	13502.564219
611.414585	13688.252600
611.763616	13904.381989
612.112594	14019.227035
612.461518	14215.088465
612.810389	14440.846458
613.159207	14535.105953
613.507971	14695.341548
613.856682	14970.858250
614.205340	15073.917078
614.553945	15446.838955
614.902496	15400.147788
615.250994	15688.668146
615.599439	15865.731113
615.947830	16074.634008
616.296169	16249.995586
616.644454	16436.140191
616.992686	16651.377296
617.340864	16991.584604
617.688990	17040.695525
618.037063	17426.200122
618.385082	17565.751863
618.733048	17842.327207
619.080961	17998.955857
619.428821	18157.167429
619.776628	18337.444132
620.124382	18416.570083
620.472083	18611.294732
620.819731	18789.446589
621.167326	18799.710378
621.514868	18908.989990
621.862357	18863.843937
622.209793	19003.766203
622.557176	18991.669955
622.904506	19003.831738
623.251783	18988.466301
623.599007	19023.983751
623.946179	19064.146623
624.293297	19183.115334
624.640363	19043.251041
624.987376	19180.748512
625.334336	19205.525783
625.681243	19178.890847
626.028097	19296.362334
626.374899	19367.954281
626.721647	19488.667230
627.068343	19572.877184
627.414987	19602.743500
627.761577	19625.595051
628.108115	19902.455220
628.454600	19779.685480
628.801032	19997.236474
629.147412	20109.359297
629.493739	20229.469829
629.840014	20195.406752
630.186236	20485.187399
630.532405	20411.768034
630.878521	20660.695170
631.224585	20725.373174
631.570597	20702.962724
631.916556	20910.035680
632.262462	21008.615444
632.608316	21131.493569
632.954117	21198.064526
633.299866	21311.465282
633.645562	21386.379348
633.991206	21238.045917
634.336797	21130.644134
634.682336	21237.163715
635.027823	21225.750543
635.373257	21229.438147
635.718639	21208.419056
636.063968	21242.330898
636.409245	21055.062115
636.754470	21184.849141
637.099642	21166.426244
637.444762	21014.944613
637.789829	21199.821368
638.134845	21116.299531
638.479808	21186.013648
638.824719	21236.566338
639.169577	21123.031992
639.514383	21263.259248
639.859137	21199.876821
640.203839	21431.999270
640.548489	21321.613124
640.893086	21481.377372
641.237632	21416.127197
641.582125	21574.822720
641.926566	21649.416674
642.270955	21728.328376
642.615292	21837.451712
642.959576	21921.233169
643.303809	22005.090242
643.647990	22193.977236
643.992118	22285.133900
644.336195	22364.148946
644.680219	22507.027848
645.024192	22792.815901
645.368112	23213.429613
645.711981	23307.298419
646.055797	23953.050062
646.399562	24001.593853
646.743274	24677.801627
647.086935	25041.351998
647.430544	25059.898403
647.774101	25229.568518
648.117606	25481.815254
648.461059	25755.403714
648.804460	25596.990496
649.147810	25286.924246
649.491108	25230.720422
649.834354	25079.228707
650.177548	24633.522652
650.520690	24446.125319
650.863781	24543.293560
651.206820	24530.909965
651.549807	24325.729963
651.892742	24106.674184
652.235626	24064.724222
652.578458	24064.706578
652.921238	23737.298759
653.263967	24041.315624
653.606644	23905.295211
653.949269	23955.336225
654.291843	23751.764350
654.634365	24099.016671
654.976836	23912.279730
655.319255	23989.542974
655.661622	24060.920672
656.003938	23993.671679
656.346203	23992.976000
656.688416	24202.322517
657.030577	24133.677125
657.372687	24087.076698
657.714746	24352.380022
658.056753	24516.895558
658.398708	24215.837850
658.740612	24319.277286
659.082465	24579.448715
659.424266	24542.262644
659.766016	24693.774523
660.107715	24662.103474
660.449362	24822.616333
660.790958	24876.730599
661.132503	24950.530570
661.473996	25049.737958
661.815438	25195.230699
662.156829	25409.552834
662.498168	25317.944986
662.839456	25392.178497
663.180693	25567.199797
663.521879	25750.579330
663.863013	25793.890403
664.204097	25846.431829
664.545129	26253.318479
664.886110	26283.888036
665.227040	26414.141369
665.567918	26559.540849
665.908746	26665.213516
666.249522	26846.737904
666.590248	26909.797698
666.930922	27059.522488
667.271545	27084.834121
667.612118	27199.893417
667.952639	27096.121265
668.293109	27216.294811
668.633528	27175.879880
668.973896	27182.524121
669.314213	27286.853320
669.654480	27153.565213
669.994695	27234.679899
670.334859	27197.256893
670.674973	27191.268002
671.015035	27373.079736
671.355047	27384.145069
671.695008	27383.560295
672.034918	27371.640487
672.374777	27491.491399
672.714585	27421.810050
673.054342	27662.144539
673.394049	27506.186362
673.733705	27787.691955
674.073310	27571.630622
674.412864	27683.461058
674.752368	27424.701152
675.091820	27732.312359
675.431223	27428.096369
675.770574	27263.061595
676.109875	27200.677316
676.449125	27027.140636
676.788324	27034.268827
677.127473	26644.481771
677.466571	26635.818548
677.805619	26410.710864
678.144616	26444.804188
678.483562	26435.135255
678.822458	26228.798307
679.161303	26211.572684
679.500098	26185.963623
679.838842	26138.876725
680.177535	26319.181154
680.516179	26607.827541
680.854771	26854.281991
681.193314	27615.738197
681.531805	28595.703217
681.870247	29257.720143
682.208638	29901.041950
682.546978	30093.147720
682.885268	30200.317610
683.223508	29813.242694
683.561697	29576.696632
683.899836	29435.496433
684.237925	29054.715398
684.575963	28956.705285
684.913951	28608.061606
685.251889	28765.098589
685.589776	28801.157963
685.927614	28833.272633
686.265401	28970.031575
686.603137	29077.534181
686.940824	29535.502843
687.278460	29878.961696
687.616046	29982.600257
687.953582	30521.696208
688.291068	30412.489693
688.628504	30668.345894
688.965889	30640.180968
689.303224	30341.134681
689.640510	30082.145402
689.977745	29503.756177
690.314930	28852.834831
690.652065	28476.593354
690.989150	27872.398463
691.326185	27119.676056
691.663170	26567.939412
692.000105	25964.765354
692.336990	25415.647589
692.673825	25068.606996
693.010610	24646.496061
693.347345	24179.286964
693.684030	23640.138081
694.020665	23414.722887
694.357251	22862.819884
694.693786	22843.237522
695.030272	22661.778669
695.366707	22208.543650
695.703093	21972.355510
696.039429	21994.012307
696.375716	21781.194956
696.711952	21768.279520
697.048139	21642.565746
697.384276	21512.990448
697.720363	21639.556177
698.056400	21459.501285
698.392388	21291.071294
698.728326	21281.498143
699.064214	21116.695262
699.400053	21083.138821
699.735842	20778.242275
700.071581	20557.248172
700.407270	20328.031948
700.742910	20168.166878
701.078501	19948.982549
701.414042	19716.025789
701.749533	19467.096133
702.084974	19179.362195
702.420366	19387.861797
702.755709	18999.957612
703.091002	18747.458818
703.426246	18779.941493
703.761440	18700.427373
704.096584	18482.402511
704.431679	18451.694322
704.766725	18381.675216
705.101721	18344.504268
705.436668	18444.079659
705.771565	18153.545360
706.106413	18494.153440
706.441212	18498.037649
706.775961	18633.082599
707.110661	18710.431543
707.445311	19052.199089
707.779913	18900.109998
708.114465	19141.619076
708.448967	19406.879550
708.783421	20051.668333
709.117825	20302.942126
709.452180	20505.510811
709.786485	20889.487937
710.120742	21600.961103
710.454949	21614.020212
710.789107	22036.030324
711.123216	22666.575327
711.457275	22768.646089
711.791286	23256.967539
712.125247	23328.761131
712.459159	23039.230022
712.793023	23649.597806
713.126837	22635.781438
713.460602	22900.799937
713.794318	22555.193553
714.127985	22226.626269
714.461602	21434.222419
714.795171	21409.833317
715.128691	20486.369549
715.462162	20022.003663
715.795584	19659.169135
716.128957	19433.267470
716.462281	19092.062013
716.795556	18876.300628
717.128782	18421.470084
717.461960	17907.148884
717.795088	17859.386472
718.128167	17495.447931
718.461198	17061.830563
718.794180	16961.446066
719.127113	16642.799773
719.459997	16462.477700
719.792833	16149.522869
720.125619	16132.524098
720.458357	15836.626011
720.791046	15679.904100
721.123686	15536.170722
721.456278	15321.931765
721.788821	15297.068795
722.121315	15057.417382
722.453761	15140.682120
722.786158	15069.788373
723.118506	15077.261884
723.450805	14960.314677
723.783056	15110.228510
724.115259	15025.398493
724.447412	14962.888186
724.779518	15199.814855
725.111574	15219.200612
725.443582	15416.990283
725.775542	15414.822587
726.107453	15847.714029
726.439315	15735.031638
726.771129	16118.872653
727.102895	16462.512988
727.434612	16640.677447
727.766281	16758.461486
728.097901	16993.346488
728.429473	17030.398968
728.760996	17015.509921
729.092471	17109.005680
729.423897	17007.623035
729.755276	16898.895429
730.086606	17014.378182
730.417887	17523.290224
730.749120	18020.053086
731.080305	18196.927010
731.411442	18509.377725
731.742530	18579.865659
732.073570	18669.338578
732.404562	18940.638354
732.735506	18756.323687
733.066401	18485.500300
733.397249	17986.511769
733.728048	17381.898462
734.058798	16613.684589
734.389501	15978.995758
734.720156	15565.996708
735.050762	15074.811883
735.381320	14746.741153
735.711831	14539.922775
736.042293	14215.378332
736.372707	14226.272265
736.703073	14031.845043
737.033391	14214.453280
737.363661	14187.208364
737.693883	14289.692501
738.024056	14451.057315
738.354182	14611.839876
738.684260	14891.263472
739.014290	15102.427324
739.344272	15263.686274
739.674207	15528.639238
740.004093	15631.350227
740.333931	15619.271622
740.663722	15658.935421
740.993464	15648.417053
741.323159	15484.609800
741.652806	15234.853394
741.982405	15030.424524
742.311956	14711.755545
742.641460	14605.790491
742.970915	14322.601153
743.300323	14008.774203
743.629683	13814.132732
743.958996	13560.855081
744.288260	13309.435094
744.617477	13013.506761
744.946647	12956.735807
745.275768	12692.473481
745.604842	12517.381605
745.933869	12357.007378
746.262847	12321.308447
746.591778	12255.740679
746.920662	12163.540496
747.249498	12155.774598
747.578286	12274.168617
747.907027	12410.768763
748.235720	12619.699384
748.564365	12646.477993
748.892963	12550.038200
749.221514	12603.602980
749.550017	12468.351343
749.878473	12436.377824
750.206881	12229.214128
750.535242	12143.890078
750.863555	12066.919221
751.191821	11971.124695
751.520039	11989.255205
751.848210	11913.400963
752.176334	11943.413472
752.504411	11843.212978
752.832440	11697.392562
753.160421	11747.912485
753.488356	11639.671350
753.816243	11555.781509
754.144082	11414.808162
754.471875	11358.478309
754.799620	11308.651544
755.127318	11272.609815
755.454969	11240.913560
755.782572	11199.508043
756.110129	11209.597912
756.437638	11129.541869
756.765100	11133.042950
757.092515	11131.086982
757.419882	11144.561987
757.747203	11153.636064
758.074477	11223.869419
758.401703	11183.651094
758.728882	11338.308652
759.056014	11373.684950
759.383099	11488.618216
759.710138	11590.696540
760.037129	11669.414158
760.364073	11683.357989
760.690970	11676.844818
761.017820	11680.620643
761.344623	11867.314734
761.671379	12192.683406
761.998088	12854.344931
762.324751	14442.026088
762.651366	17287.603679
762.977935	20778.186822
763.304456	22789.355149
763.630931	23118.713894
763.957359	21928.860434
764.283740	20074.706406
764.610074	18253.758458
764.936362	16210.097373
765.262602	14763.124903
765.588796	13372.552861
765.914943	12387.788663
766.241044	11588.319636
766.567097	10978.642490
766.893104	10455.340474
767.219064	10119.496284
767.544978	9754.058001
767.870845	9455.591446
768.196665	9280.219786
768.522438	9082.944313
768.848165	8931.339173
769.173846	8768.550232
769.499479	8660.452771
769.825066	8505.230603
770.150607	8322.541708
770.476101	8269.589428
770.801548	8161.665886
771.126949	8019.759925
771.452303	7937.173222
771.777611	7784.262423
772.102872	7761.771316
772.428087	7644.093141
772.753256	7526.767847
773.078378	7442.205012
773.403453	7300.092364
773.728482	7200.222065
774.053465	7139.718137
774.378401	7055.127575
774.703291	6968.031560
775.028135	6868.887188
775.352932	6834.206570
775.677683	6754.450475
776.002388	6671.379821
776.327046	6668.617269
776.651658	6591.250681
776.976224	6516.704618
777.300743	6500.101578
777.625216	6434.566578
777.949643	6394.234827
778.274024	6398.655918
778.598359	6330.799467
778.922647	6336.924469
779.246889	6295.178674
779.571086	6306.627134
779.895236	6312.762219
780.219339	6310.765922
780.543397	6312.479914
780.867409	6357.383992
781.191374	6355.158322
781.515294	6324.712274
781.839167	6372.225149
782.162995	6342.810016
782.486776	6296.333098
782.810511	6253.327015
783.134201	6182.466036
783.457844	6170.505898
783.781441	6122.161233
784.104993	6079.019038
784.428498	6053.034411
784.751958	6039.352719
785.075372	6017.106107
785.398739	5972.176824
785.722061	5997.264126
786.045337	6004.697307
786.368568	6113.122444
786.691752	6139.606146
787.014891	6392.969497
787.337983	6668.307238
787.661030	7092.490087
787.984031	7502.040987
788.306987	7739.486895
788.629897	7811.472051
788.952760	7720.073412
789.275579	7542.486164
789.598351	7252.599654
789.921078	6997.688668
790.243759	6727.979376
790.566395	6531.056783
790.888984	6343.964440
791.211529	6207.139963
791.534027	6050.188679
791.856480	5923.575059
792.178888	5865.863930
792.501249	5797.284073
792.823566	5701.252613
793.145836	5697.650709
793.468062	5681.652607
793.790241	5644.070805
794.112375	5681.715621
794.434464	5776.902688
794.756507	5813.922402
795.078505	5936.722389
795.400457	6151.336911
795.722364	6378.579523
796.044226	6561.432256
796.366042	6710.761315
796.687812	6653.879455
797.009538	6677.847621
797.331218	6587.121976
797.652852	6522.237284
797.974442	6399.475106
798.295986	6330.365928
798.617484	6204.206012
798.938938	6096.819353
799.260346	6035.304673
799.581709	5900.317696
799.903026	5852.509914
800.224299	5778.790600
800.545526	5668.659033
800.866708	5606.020176
801.187845	5560.559050
801.508936	5480.523171
801.829983	5455.304799
802.150984	5354.945508
802.471940	5329.001210
802.792851	5309.199558
803.113717	5284.389519
803.434538	5264.635758
803.755314	5231.817846
804.076045	5227.500098
804.396731	5190.578687
804.717372	5202.564031
805.037967	5206.952355
805.358518	5236.624587
805.679024	5293.725736
805.999485	5301.731088
806.319901	5314.941432
806.640272	5334.460780
806.960598	5378.654055
807.280879	5373.527202
807.601115	5405.646913
807.921306	5365.993197
808.241453	5364.458166
808.561554	5371.616604
808.881611	5335.925235
809.201623	5336.802396
809.521590	5287.086537
809.841513	5272.585657
810.161390	5285.916989
810.481223	5201.931366
810.801011	5185.875291
811.120755	5166.129091
811.440453	5113.416266
811.760107	5085.773099
812.079716	5064.111261
812.399281	5014.072768
812.718801	5002.440305
813.038276	4965.581909
813.357707	4935.186272
813.677093	4958.516732
813.996434	4898.650509
814.315731	4916.982665
814.634983	4920.211524
814.954191	4927.170837
815.273354	4982.646215
815.592473	5020.800188
815.911547	5091.094037
816.230577	5146.014887
816.549562	5231.361622
816.868502	5278.962717
817.187399	5333.676880
817.506250	5411.169497
817.825058	5444.408345
818.143821	5593.553402
818.462539	5764.758549
818.781213	5991.265153
819.099843	6352.105904
819.418429	6974.695966
819.736970	7579.543686
820.055466	8265.798480
820.373919	9169.992437
820.692327	10643.776284
821.010691	13414.928800
821.329011	19678.496919
821.647286	28923.642878
821.965517	38592.903629
822.283704	43323.895444
822.601847	44339.279611
822.919945	39829.249131
823.237999	34927.473106
823.556010	30011.170997
823.873976	25595.425217
824.191897	21638.053913
824.509775	18757.422659
824.827609	16178.443968
825.145398	14744.820473
825.463144	14100.114869
825.780845	14475.751407
826.098502	15778.342711
826.416116	18156.733890
826.733685	20250.584702
827.051210	20582.360680
827.368692	19089.120500
827.686129	16619.048376
828.003522	14275.983083
828.320872	12180.292250
828.638177	10632.093410
828.955439	9456.496333
829.272656	8448.663815
829.589830	7639.873695
829.906960	6957.188038
830.224046	6454.106090
830.541088	6066.907666
830.858086	5821.600079
831.175041	5637.285412
831.491952	5596.908290
831.808819	5632.420698
832.125642	5892.377879
832.442421	6456.339321
832.759157	7584.993174
833.075849	9318.376280
833.392497	11056.876157
833.709101	12038.245138
834.025662	11701.123015
834.342179	10646.654783
834.658653	9399.206140
834.975083	8351.109927
835.291469	7503.507963
835.607811	6810.785369
835.924110	6313.155429
836.240366	5846.488255
836.556578	5416.324077
836.872746	5078.614660
837.188871	4822.574457
837.504952	4613.033856
837.820990	4453.307417
838.136984	4347.352445
838.452935	4305.324346
838.768842	4348.433773
839.084706	4648.493332
839.400526	5395.189040
839.716303	6251.890286
840.032037	6751.289671
840.347727	6555.466050
840.663373	5959.437828
840.978977	5418.786681
841.294537	5003.453577
841.610054	4695.527297
841.925527	4467.697390
842.240957	4272.692957
842.556344	4097.086883
842.871687	3945.668266
843.186987	3802.156698
843.502244	3689.975901
843.817458	3605.339969
844.132629	3541.627347
844.447756	3493.612877
844.762840	3452.038481
845.077881	3411.694127
845.392879	3382.359653
845.707833	3357.264789
846.022745	3331.857373
846.337613	3320.328254
846.652438	3293.589974
846.967221	3286.953295
847.281960	3267.549894
847.596656	3261.334152
847.911309	3249.578181
848.225919	3238.520410
848.540485	3226.497258
848.855009	3220.919221
849.169490	3210.282387
849.483928	3204.217878
849.798323	3194.269161
850.112675	3185.888243
850.426984	3187.997966
850.741251	3180.448838
851.055474	3176.292407
851.369654	3178.064372
851.683792	3175.836182
851.997887	3178.056811
852.311938	3179.385155
852.625947	3180.136287
852.939914	3174.187725
853.253837	3179.415402
853.567718	3175.992458
853.881555	3171.518434
854.195350	3174.714526
854.509103	3172.738393
854.822812	3170.921057
855.136479	3167.389729
855.450103	3169.895182
855.763685	3164.488545
856.077224	3168.161026
856.390720	3174.316274
856.704173	3183.682738
857.017584	3188.338244
857.330953	3190.654654
857.644278	3199.431303
857.957561	3202.592106
858.270802	3203.459185
858.584000	3195.647917
858.897155	3196.187320
859.210268	3182.611493
859.523339	3174.959022
859.836367	3170.605985
860.149352	3167.447702
860.462295	3160.924449
860.775195	3154.499499
861.088054	3149.211328
861.400869	3149.705361
861.713642	3144.906183
862.026373	3152.183088
862.339062	3159.719613
862.651708	3169.227230
862.964312	3184.864889
863.276873	3191.952751
863.589392	3220.710013
863.901869	3244.968046
864.214303	3267.559977
864.526696	3285.768624
864.839045	3302.084319
865.151353	3314.770382
865.463619	3313.416832
865.775842	3312.030515
866.088023	3313.648726
866.400162	3312.214517
866.712258	3312.766524
867.024313	3309.300730
867.336325	3309.567912
867.648296	3311.327274
867.960224	3306.883497
868.272110	3310.528251
868.583954	3311.811225
868.895755	3318.689879
869.207515	3316.829694
869.519233	3332.371571
869.830909	3341.760720
870.142542	3356.007021
870.454134	3356.100282
870.765684	3367.861294
871.077191	3385.573388
871.388657	3397.699884
871.700081	3414.297883
872.011463	3435.390070
872.322803	3454.962350
872.634101	3470.219402
872.945357	3490.840242
873.256571	3518.022144
873.567744	3527.401210
873.878874	3534.990668
874.189963	3552.869120
874.501010	3553.279974
874.812015	3548.621947
875.122979	3560.917322
875.433900	3564.786407
875.744780	3561.131571
876.055618	3571.360072
876.366415	3567.354875
876.677169	3573.827717
876.987882	3590.831529
877.298554	3614.381279
877.609183	3648.819921
877.919771	3695.740461
878.230317	3759.747991
878.540822	3863.633569
878.851285	4010.384078
879.161707	4233.122420
879.472087	4604.473977
879.782425	5230.713834
880.092722	6406.918370
880.402977	8279.843135
880.713191	10522.405464
881.023363	12685.728417
881.333494	13848.062218
881.643583	14200.411146
881.953631	13762.675154
882.263637	12963.808546
882.573602	12008.913184
882.883526	11119.830086
883.193408	10231.719931
883.503248	9375.051452
883.813048	8611.180533
884.122806	7883.787403
884.432522	7165.410377
884.742197	6551.879269
885.051831	6029.391399
885.361424	5566.845369
885.670975	5204.285585
885.980485	4904.190737
886.289954	4653.345442
886.599382	4450.620482
886.908768	4285.620996
887.218113	4125.624855
887.527417	4005.209334
887.836680	3891.178434
888.145901	3795.860297
888.455082	3720.981518
888.764221	3656.550531
889.073319	3602.438785
889.382376	3572.915268
889.691392	3547.177657
890.000366	3546.255126
890.309300	3537.957387
890.618193	3541.637429
890.927044	3537.503683
891.235855	3540.651883
891.544625	3561.519740
891.853353	3587.211980
892.162041	3647.809170
892.470687	3738.723859
892.779293	3858.630224
893.087858	4026.220863
893.396381	4300.867966
893.704864	4706.411148
894.013306	5252.068161
894.321707	5786.407784
894.630068	6091.954639
894.938387	6101.285815
895.246665	5921.583804
895.554903	5615.651300
895.863100	5299.888547
896.171256	5044.458323
896.479371	4821.475485
896.787446	4613.875728
897.095480	4430.450825
897.403473	4293.434784
897.711425	4153.280625
898.019336	4035.945249
898.327207	3924.936520
898.635038	3828.103517
898.942827	3724.583422
899.250576	3649.041732
899.558284	3566.628949
899.865952	3515.259591
900.173579	3456.749439
900.481165	3412.840989
900.788711	3370.943960
901.096216	3343.194928
901.403681	3317.071669
901.711105	3309.572953
902.018489	3307.135555
902.325832	3341.009588
902.633135	3398.448495
902.940397	3575.090526
903.247619	3992.389679
903.554800	4722.807501
903.861941	5624.778309
904.169041	6245.697228
904.476101	6387.212499
904.783121	6109.369305
905.090100	5732.996759
905.397039	5347.446792
905.703938	5015.897665
906.010796	4717.317685
906.317614	4482.926716
906.624391	4260.082510
906.931129	4079.737752
907.237826	3906.221237
907.544483	3749.325406
907.851099	3588.638627
908.157675	3434.933846
908.464211	3307.062458
908.770707	3213.609548
909.077163	3137.843526
909.383578	3082.927717
909.689954	3043.599155
909.996289	3014.199146
910.302584	2994.614263
910.608839	2985.401555
910.915054	2973.396047
911.221229	2970.714153
911.527363	2975.616675
911.833458	2982.528097
912.139513	2993.117041
912.445527	3007.451562
912.751502	3039.868701
913.057436	3082.955443
913.363331	3139.323105
913.669186	3225.476424
913.975000	3336.787622
914.280775	3523.310314
914.586510	3784.409316
914.892205	4145.945746
915.197859	4618.430411
915.503475	5163.147249
915.809050	5609.296926
916.114585	5863.184557
916.420081	5908.093676
916.725536	5838.916442
917.030952	5606.738540
917.336328	5416.359365
917.641665	5226.557402
917.946961	5010.004557
918.252218	4818.158406
918.557435	4612.365903
918.862612	4428.850259
919.167750	4265.103500
919.472848	4085.136828
919.777906	3929.120678
920.082925	3779.544602
920.387904	3637.895741
920.692843	3537.770864
920.997743	3443.529013
921.302603	3354.540045
921.607423	3297.325469
921.912204	3235.256263
922.216946	3188.532328
922.521647	3143.068682
922.826310	3105.146603
923.130932	3072.159812
923.435516	3033.383257
923.740059	3008.275790
924.044564	2978.444762
924.349028	2956.374591
924.653454	2927.360230
924.957840	2903.450037
925.262186	2885.110319
925.566493	2864.181969
925.870761	2840.801098
926.174989	2832.785663
926.479178	2817.863848
926.783328	2803.546971
927.087438	2791.140691
927.391509	2780.574433
927.695541	2767.338883
927.999533	2759.676329
928.303486	2750.849269
928.607400	2745.621592
928.911275	2741.976838
929.215110	2735.877042
929.518906	2731.309757
929.822663	2731.783625
930.126381	2732.028121
930.430060	2737.301168
930.733699	2733.853019
931.037299	2740.824935
931.340861	2738.753020
931.644383	2741.911303
931.947866	2742.213772
932.251309	2739.431056
932.554714	2738.589183
932.858080	2738.619430
933.161407	2730.132647
933.464694	2728.443861
933.767943	2729.779767
934.071153	2723.876575
934.374323	2718.868189
934.677455	2715.505739
934.980548	2716.035061
935.283602	2710.910728
935.586617	2709.388299
935.889593	2715.230997
936.192530	2713.834597
936.495428	2719.596636
936.798287	2728.123747
937.101108	2741.588669
937.403890	2763.250507
937.706632	2786.850669
938.009336	2817.763025
938.312002	2843.475430
938.614628	2868.605582
938.917216	2884.535628
939.219765	2898.108935
939.522275	2903.260994
939.824747	2902.260325
940.127179	2897.360323
940.429573	2888.709703
940.731929	2888.802965
941.034246	2881.127808
941.336524	2876.389123
941.638763	2871.100953
941.940964	2867.748586
942.243126	2850.235617
942.545250	2840.102898
942.847335	2824.659323
943.149381	2814.627427
943.451389	2801.800211
943.753359	2793.063891
944.055290	2782.260699
944.357182	2771.563370
944.659036	2770.872732
944.960851	2765.773605
945.262628	2764.173039
945.564367	2761.481062
945.866067	2761.506268
946.167729	2761.652462
946.469352	2761.105497
946.770937	2761.193717
947.072484	2752.986718
947.373992	2754.312542
947.675462	2748.159813
947.976893	2743.854668
948.278286	2741.250912
948.579641	2738.299317
948.880958	2734.710015
949.182236	2734.286558
949.483476	2730.911506
949.784678	2729.565517
950.085841	2732.285220
950.386967	2735.166239
950.688054	2737.964080
950.989103	2751.623086
951.290114	2758.715990
951.591087	2766.905344
951.892021	2779.586367
952.192917	2790.475259
952.493776	2797.016156
952.794596	2800.955818
953.095378	2802.657207
953.396122	2801.686785
953.696828	2798.838533
953.997496	2794.102369
954.298126	2785.718930
954.598718	2778.469751
954.899272	2767.114552
955.199788	2757.642224
955.500266	2747.408682
955.800706	2731.309757
956.101108	2716.902139
956.401472	2707.535675
956.701798	2691.053623
957.002087	2681.041891
957.302337	2674.180881
957.602550	2668.469253
957.902724	2654.583395
958.202861	2648.118115
958.502960	2641.327681
958.803022	2632.137658
959.103045	2624.807820
959.403031	2619.973353
959.702979	2614.430605
960.002889	2613.674432
960.302762	2608.172012
960.602596	2601.517689
960.902393	2600.542226
961.202153	2599.760847
961.501875	2596.151381
961.801559	2594.351689
962.101205	2590.399424
962.400814	2591.246338
962.700385	2583.644278
962.999918	2588.156111
963.299414	2585.706110
963.598873	2583.493044
963.898293	2583.856007
964.197677	2582.018506
964.497022	2582.212591
964.796331	2581.630337
965.095601	2579.966757
965.394835	2578.154462
965.694030	2575.928792
965.993189	2575.701940
966.292309	2576.233782
966.591393	2575.296127
966.890439	2575.641447
967.189447	2576.511046
967.488419	2573.524162
967.787353	2575.875860
968.086249	2577.151272
968.385108	2574.769327
968.683930	2577.804102
968.982714	2577.360480
969.281462	2579.331571
969.580172	2583.137642
969.878844	2583.782910
970.177480	2585.270050
970.476078	2590.679208
970.774639	2592.753643
971.073162	2595.564087
971.371649	2591.730289
971.670098	2594.243304
971.968510	2593.794642
972.266885	2595.775815
972.565223	2602.435179
972.863524	2601.517689
973.161788	2607.398195
973.460014	2604.265118
973.758204	2605.984152
974.056356	2605.280911
974.354471	2606.208483
974.652550	2605.974069
974.950591	2603.806373
975.248595	2606.621857
975.546563	2603.864346
975.844493	2602.974583
976.142386	2602.546085
976.440243	2598.477873
976.738062	2594.429827
977.035845	2591.863880
977.333590	2593.857656
977.631299	2593.275403
977.928971	2587.873806
978.226606	2587.702407
978.524204	2589.973447
978.821765	2585.539752
979.119290	2586.182499
979.416777	2585.794330
979.714228	2585.564958
980.011642	2584.730647
980.309020	2590.543097
980.606360	2594.137440
980.903664	2601.046341
981.200931	2614.201232
981.498162	2629.231432
981.795356	2660.337872
982.092513	2692.810465
982.389633	2733.621126
982.686717	2770.424069
982.983764	2796.083542
983.280775	2814.541727
983.577749	2811.759010
983.874686	2804.991261
984.171587	2790.424847
984.468451	2776.922117
984.765279	2757.995105
985.062070	2742.614544
985.358824	2725.908160
985.655543	2706.910572
985.952224	2687.544980
986.248869	2659.405259
986.545478	2635.550519
986.842050	2621.394959
987.138586	2606.964656
987.435086	2592.279775
987.731549	2579.150090
988.027975	2578.184709
988.324366	2574.676066
988.620719	2570.260015
988.917037	2566.343038
989.213318	2565.138202
989.509563	2561.077553
989.805772	2561.990002
990.101944	2557.778118
990.398080	2558.168807
990.694180	2556.953889
990.990244	2557.586554
991.286271	2560.707028
991.582262	2558.541853
991.878217	2559.950855
992.174136	2558.761143
992.470019	2561.601833
992.765865	2558.985474
993.061676	2566.882442
993.357450	2566.506876
993.653188	2568.873698
993.948890	2575.896025
994.244556	2579.074472
994.540186	2588.662747
994.835780	2602.904007
995.131337	2612.933382
995.426859	2628.170270
995.722345	2645.360604
996.017795	2661.313336
996.313208	2674.127949
996.608586	2681.167920
996.903928	2686.017510
997.199234	2684.036337
997.494504	2679.474092
997.789738	2675.277332
998.084936	2663.488593
998.380099	2652.831594
998.675225	2643.576036
998.970316	2631.895682
999.265371	2620.742129
999.560390	2607.698144
999.855373	2600.509458
1000.150320	2591.029569
1000.445232	2583.908939
1000.740108	2576.090109
1001.034948	2569.241702
1001.329752	2567.996537
1001.624521	2561.448078
1001.919254	2556.227963
1002.213951	2555.088662
1002.508613	2551.509443
1002.803239	2552.293342
1003.097829	2548.988866
1003.392384	2549.253527
1003.686903	2550.861655
1003.981386	2548.036088
1004.275834	2548.809905
1004.570246	2547.854607
1004.864623	2545.147507
1005.158964	2544.136756
1005.453270	2545.142466
1005.747540	2544.056097
1006.041775	2543.045346
1006.335974	2540.302958
1006.630138	2540.131559
1006.924266	2540.393699
1007.218359	2544.749256
1007.512416	2542.521066
1007.806438	2543.249512
1008.100425	2541.454862
1008.394376	2542.266488
1008.688292	2540.986034
1008.982172	2540.250026
1009.276017	2541.308668
1009.569827	2539.566950
1009.863602	2544.519883
1010.157341	2541.941333
1010.451045	2540.333205
1010.744714	2538.130221
1011.038347	2538.682227
1011.331945	2537.605941
1011.625508	2540.459234
1011.919036	2539.113246
1012.212528	2539.418236
1012.505986	2538.808256
1012.799408	2538.311702
1013.092795	2539.261960
1013.386147	2542.137938
1013.679464	2540.055942
1013.972745	2539.244316
1014.265992	2537.346321
1014.559204	2540.497043
1014.852380	2536.509490
1015.145521	2539.193904
1015.438628	2536.799356
1015.731699	2538.362114
1016.024736	2540.033256
1016.317737	2537.303472
1016.610703	2542.795809
1016.903635	2540.247505
1017.196531	2536.847247
1017.489393	2538.818338
1017.782219	2536.043183
1018.075011	2538.846065
1018.367768	2538.223482
1018.660490	2539.972763
1018.953177	2539.972763
1019.245829	2539.972763
