Dividing Wavelength (nm)	Counts (n)	Blue Motor Position (mm): 8.400000	Red Motor Position (mm): 0.000000	
326.493990	2140.776392
326.888308	2140.776392
327.282561	2140.776392
327.676750	2109.294387
328.070874	2108.560899
328.464933	2111.010899
328.858929	2118.963320
329.252859	2125.698301
329.646726	2137.187091
330.040528	2152.219812
330.434265	2166.778664
330.827938	2182.348268
331.221547	2203.127904
331.615091	2224.625904
332.008571	2241.150807
332.401986	2261.184352
332.795338	2279.864348
333.188625	2296.086781
333.581847	2317.229380
333.975006	2336.625219
334.368100	2356.618435
334.761129	2373.034953
335.154095	2388.927190
335.546996	2406.936712
335.939833	2422.589495
336.332606	2436.732452
336.725315	2450.835080
337.117960	2462.817903
337.510540	2466.601289
337.903056	2478.873978
338.295508	2487.519557
338.687896	2493.455515
339.080220	2503.668893
339.472480	2509.609893
339.864676	2514.464524
340.256807	2517.133815
340.648875	2518.441994
341.040879	2525.161853
341.432818	2523.553724
341.824694	2528.065557
342.216506	2526.477594
342.608253	2528.615043
342.999937	2528.065557
343.391557	2527.750485
343.783113	2525.078673
344.174605	2524.148581
344.566033	2520.360153
344.957397	2523.611698
345.348697	2521.262520
345.739934	2518.741943
346.131106	2516.407889
346.522215	2515.873527
346.913260	2512.289266
347.304241	2510.040912
347.695159	2509.070489
348.086012	2507.177536
348.476802	2504.659480
348.867528	2505.876918
349.258191	2500.971876
349.648789	2502.907679
350.039324	2497.727893
350.429796	2500.518172
350.820203	2499.439365
351.210548	2499.474653
351.600828	2496.833088
351.991045	2497.238901
352.381198	2494.849394
352.771288	2495.114055
353.161314	2494.584734
353.551276	2496.535660
353.941175	2493.387460
354.331010	2495.900475
354.720782	2492.739672
355.110490	2494.065495
355.500135	2494.373005
355.889717	2494.206647
356.279235	2492.147336
356.668689	2496.792759
357.058080	2495.635814
357.447408	2491.194558
357.836672	2491.781852
358.225873	2491.865031
358.615010	2489.979640
359.004084	2498.496669
359.393095	2495.819817
359.782043	2497.475836
360.170927	2499.343583
360.559748	2499.023470
360.948505	2500.883656
361.337199	2497.861484
361.725830	2500.334170
362.114398	2498.262256
362.502903	2503.641167
362.891344	2503.457165
363.279722	2501.959942
363.668037	2503.973883
364.056289	2502.428769
364.444478	2503.699140
364.832603	2503.384068
365.220665	2502.726197
365.608665	2502.965652
365.996601	2506.149141
366.384474	2503.618482
366.772284	2505.629902
367.160031	2503.300889
367.547715	2506.033194
367.935336	2506.741476
368.322893	2505.443379
368.710388	2505.287103
369.097820	2509.009996
369.485189	2509.183915
369.872495	2507.495129
370.259738	2508.009327
370.646918	2505.740807
371.034035	2506.534789
371.421090	2512.926972
371.808081	2507.054028
372.195010	2510.222393
372.581875	2507.797598
372.968678	2507.999244
373.355418	2509.980418
373.742096	2512.460665
374.128710	2509.277177
374.515262	2509.171313
374.901751	2509.143586
375.288177	2508.127794
375.674540	2510.504698
376.060841	2510.257681
376.447079	2510.981087
376.833254	2510.040912
377.219367	2507.671569
377.605417	2509.062928
377.991404	2508.921775
378.377329	2509.617455
378.763191	2506.731394
379.148991	2510.837414
379.534727	2513.773886
379.920402	2513.400841
380.306013	2513.849503
380.691563	2512.972343
381.077049	2511.712054
381.462474	2515.014010
381.847835	2514.668691
382.233134	2514.199863
382.618371	2513.738598
383.003545	2515.155162
383.388657	2515.525687
383.773706	2517.214473
384.158693	2514.066273
384.543618	2516.715399
384.928480	2514.179699
385.313280	2516.060049
385.698017	2514.088958
386.082692	2519.238497
386.467305	2515.177847
386.851856	2517.859741
387.236344	2516.964936
387.620770	2520.844104
388.005133	2519.077180
388.389435	2516.443177
388.773674	2519.430061
389.157851	2518.026099
389.541965	2518.036182
389.926018	2520.319824
390.310008	2521.350740
390.693936	2517.670698
391.077802	2518.041223
391.461606	2521.043230
391.845348	2520.491223
392.229027	2519.515760
392.612645	2517.527025
392.996200	2519.790503
393.379694	2521.953158
393.763125	2520.801254
394.146494	2520.949968
394.529801	2520.241686
394.913047	2522.643796
395.296230	2522.255627
395.679351	2521.827129
396.062410	2521.368384
396.445408	2521.653209
396.828343	2518.275636
397.211217	2519.828312
397.594028	2520.413086
397.976778	2520.612211
398.359466	2522.162366
398.742092	2519.561131
399.124656	2522.968951
399.507158	2522.875689
399.889598	2524.776204
400.271977	2521.562469
400.654294	2524.874507
401.036549	2523.810823
401.418742	2524.655217
401.800874	2523.644465
402.182944	2523.962058
402.564952	2522.875689
402.946898	2525.771832
403.328783	2522.096831
403.710606	2525.250073
404.092367	2524.924918
404.474067	2525.265196
404.855705	2524.572038
405.237282	2526.165042
405.618797	2526.185207
406.000250	2525.860052
406.381642	2525.494569
406.762972	2526.449867
407.144240	2526.248221
407.525447	2528.418438
407.906593	2525.434075
408.287677	2525.156811
408.668700	2527.569003
409.049661	2527.541277
409.430560	2526.170083
409.811399	2528.786442
410.192176	2528.783922
410.572891	2527.916843
410.953545	2530.366844
411.334138	2530.704601
411.714669	2526.827954
412.095139	2529.288037
412.475547	2528.022707
412.855894	2529.104035
413.236180	2530.203006
413.616405	2528.567152
413.996568	2531.009591
414.376670	2528.690660
414.756711	2530.679395
415.136691	2531.513706
415.516609	2533.497400
415.896466	2531.647297
416.276262	2532.239633
416.655997	2527.349713
417.035670	2527.032121
417.415283	2528.128572
417.794834	2525.814682
418.174324	2528.902389
418.553753	2532.526978
418.933121	2534.568646
419.312428	2531.004550
419.691674	2530.019004
420.070859	2533.068902
420.449983	2529.474560
420.829045	2535.811290
421.208047	2531.155784
421.586988	2531.498583
421.965867	2531.803573
422.344686	2532.710980
422.723444	2533.326001
423.102141	2533.073943
423.480777	2531.768285
423.859352	2530.540764
424.237866	2533.598223
424.616319	2532.342976
424.994712	2532.612678
425.373044	2530.959179
425.751314	2534.311547
426.129524	2533.741896
426.507673	2535.090405
426.885762	2534.482946
427.263789	2533.439427
427.641756	2533.295754
428.019662	2536.343132
428.397508	2530.762574
428.775292	2535.269366
429.153016	2534.324150
429.530679	2536.751465
429.908282	2533.187369
430.285824	2535.458409
430.663305	2535.702905
431.040726	2537.215251
431.418086	2536.154088
431.795385	2536.895138
432.172624	2535.662576
432.549802	2536.612833
432.926920	2536.496887
433.303977	2536.522093
433.680974	2536.433873
434.057910	2538.520910
434.434786	2537.137113
434.811601	2536.983358
435.188355	2536.401105
435.565050	2536.789274
435.941683	2537.550488
436.318257	2534.102339
436.694770	2532.196783
437.071222	2535.415559
437.447614	2535.329860
437.823946	2535.024870
438.200218	2539.052752
438.576429	2538.402443
438.952580	2537.469830
439.328670	2535.876825
439.704700	2536.406146
440.080670	2539.584594
440.456580	2537.011085
440.832429	2541.527958
441.208218	2537.747093
441.583947	2537.074099
441.959616	2535.733152
442.335224	2540.371014
442.710773	2539.108205
443.086261	2537.001002
443.461689	2538.707433
443.837057	2537.469830
444.212365	2540.154244
444.587612	2537.439583
444.962800	2539.088040
445.337927	2540.325643
445.712995	2538.067206
446.088002	2541.280942
446.462949	2539.171219
446.837837	2538.999820
447.212664	2538.508307
447.587431	2539.456044
447.962139	2536.335570
448.336786	2542.468134
448.711374	2542.379913
449.085901	2540.423946
449.460369	2538.268853
449.834776	2538.520910
450.209124	2537.840354
450.583412	2539.272042
450.957640	2541.197763
451.331808	2536.716177
451.705917	2540.267670
452.079965	2542.581560
452.453954	2540.930582
452.827883	2540.965870
453.201752	2541.895963
453.575562	2541.185160
453.949311	2539.549306
454.323001	2540.756662
454.696632	2538.750283
455.070202	2542.173226
455.443713	2540.786909
455.817164	2536.892618
456.190556	2538.762886
456.563888	2540.935623
456.937160	2536.098636
457.310373	2545.208001
457.683526	2539.183822
458.056619	2540.466796
458.429653	2542.231199
458.802628	2544.340922
459.175542	2542.379913
459.548398	2542.823535
459.921194	2539.755993
460.293930	2541.817825
460.666607	2541.386806
461.039224	2543.330171
461.411782	2542.037115
461.784280	2541.212886
462.156719	2542.894111
462.529099	2545.465100
462.901419	2541.785057
463.273680	2541.021322
463.645882	2546.412837
464.018024	2545.059287
464.390106	2542.422763
464.762130	2543.662887
465.134094	2543.178936
465.505999	2543.874616
465.877845	2544.005686
466.249631	2541.429656
466.621358	2542.518545
466.993026	2544.109029
467.364634	2548.648588
467.736184	2544.091385
468.107674	2543.415871
468.479105	2544.353525
468.850477	2542.480737
469.221790	2543.967877
469.593043	2542.175747
469.964238	2544.837476
470.335373	2542.881508
470.706449	2543.816642
471.077467	2542.861344
471.448425	2543.904862
471.819324	2546.473330
472.190164	2546.294369
472.560945	2545.560882
472.931667	2546.581715
473.302330	2541.714481
473.672934	2544.920655
474.043479	2543.448638
474.413965	2543.196580
474.784393	2538.926723
475.154761	2542.785726
475.525070	2542.198432
475.895321	2544.663556
476.265513	2540.517207
476.635645	2545.681869
477.005719	2546.087682
477.375734	2546.465769
477.745691	2546.135573
478.115588	2546.712785
478.485427	2547.655481
478.855207	2547.473999
479.224928	2546.851417
479.594591	2543.191539
479.964194	2545.520552
480.333739	2545.081972
480.703226	2544.489636
481.072653	2545.230686
481.442022	2544.414019
481.811333	2546.740512
482.180584	2543.849410
482.549777	2543.322609
482.918912	2543.831766
483.287988	2547.267312
483.657005	2543.373021
484.025964	2546.342260
484.394864	2549.639175
484.763706	2547.531973
485.132489	2545.996941
485.501213	2546.312013
485.869879	2546.785882
486.238487	2545.399565
486.607036	2547.148845
486.975527	2544.051056
487.343959	2547.095913
487.712333	2548.078938
488.080648	2544.348484
488.448905	2545.071890
488.817104	2545.215562
489.185244	2546.420398
489.553326	2547.448794
489.921350	2544.257743
490.289315	2548.913249
490.657222	2545.422250
491.025070	2545.379400
491.392861	2547.048022
491.760593	2546.523742
492.128267	2548.262940
492.495883	2546.672456
492.863440	2545.974256
493.230939	2546.667415
493.598380	2549.024154
493.965763	2541.427135
494.333088	2544.338402
494.700354	2543.458720
495.067563	2546.904349
495.434713	2543.698175
495.801805	2549.314021
496.168839	2548.046170
496.535815	2549.359391
496.902733	2548.499874
497.269593	2548.570450
497.636395	2548.714123
498.003139	2548.252858
498.369825	2547.610111
498.736453	2547.844524
499.103023	2548.774617
499.469535	2547.743701
499.835989	2546.904349
500.202385	2550.324772
500.568723	2547.842004
500.935003	2549.578681
501.301226	2546.959802
501.667390	2550.004659
502.033497	2548.852755
502.399546	2550.138249
502.765537	2547.562220
503.131470	2548.265461
503.497345	2547.279915
503.863163	2550.317210
504.228923	2547.473999
504.594625	2550.813764
504.960269	2549.203115
505.325856	2549.003990
505.691385	2549.866027
506.056856	2547.849565
506.422270	2548.149514
506.787625	2549.858465
507.152924	2547.927703
507.518164	2549.520708
507.883347	2547.771427
508.248472	2549.021634
508.613540	2548.426777
508.978550	2549.687066
509.343503	2546.979966
509.708398	2550.208825
510.073236	2548.610780
510.438016	2550.473486
510.802738	2550.044988
511.167403	2548.578012
511.532010	2548.923331
511.896561	2548.956099
512.261053	2547.189174
512.625488	2544.734132
512.989866	2545.903680
513.354186	2547.176571
513.718449	2543.670449
514.082655	2550.488609
514.446803	2550.660009
514.810894	2548.038609
515.174927	2551.280071
515.538904	2550.380225
515.902822	2549.235883
516.266684	2548.857796
516.630488	2547.400903
516.994235	2549.785368
517.357925	2550.365101
517.721558	2550.458363
518.085133	2549.550955
518.448651	2548.409133
518.812112	2550.912066
519.175516	2549.389638
519.538863	2548.386448
519.902152	2552.522715
520.265385	2547.257230
520.628560	2549.664381
520.991678	2548.819987
521.354739	2551.713610
521.717743	2550.596994
522.080690	2551.340564
522.443580	2549.392158
522.806413	2549.379556
523.169189	2549.966850
523.531908	2548.038609
523.894569	2550.165976
524.257174	2553.225956
524.619722	2552.981460
524.982213	2548.998948
525.344647	2548.111705
525.707025	2549.177909
526.069345	2552.580688
526.431608	2549.709751
526.793815	2551.025492
527.155964	2553.656975
527.518057	2548.930893
527.880093	2551.189330
528.242072	2548.837632
528.603995	2550.523897
528.965860	2551.895091
529.327669	2550.798640
529.689421	2549.427447
530.051117	2552.774773
530.412755	2549.354350
530.774337	2551.229659
531.135862	2551.209494
531.497331	2549.298897
531.858743	2546.811088
532.220098	2550.675132
532.581396	2546.248999
532.942638	2549.147662
533.303824	2551.325441
533.664953	2551.476676
534.026025	2548.411654
534.387040	2553.803168
534.747999	2550.775955
535.108902	2553.972047
535.469748	2551.607746
535.830537	2553.135215
536.191270	2549.845862
536.551947	2550.707900
536.912567	2552.310987
537.273131	2550.531459
537.633638	2553.795606
537.994089	2552.989022
538.354483	2552.177396
538.714821	2551.758980
539.075103	2551.854762
539.435328	2551.257385
539.795497	2550.700338
540.155609	2556.747202
540.515665	2553.631769
540.875665	2554.975236
541.235609	2553.727551
541.595496	2553.198230
541.955328	2555.466749
542.315102	2553.780483
542.674821	2553.596481
543.034483	2554.493806
543.394090	2552.283260
543.753640	2556.656461
544.113134	2554.995401
544.472571	2555.484393
544.831953	2557.339537
545.191278	2555.224773
545.550548	2557.455484
545.909761	2556.578323
546.268918	2557.021945
546.628019	2558.007490
546.987064	2559.590413
547.346053	2556.512788
547.704986	2554.458518
548.063863	2556.069167
548.422684	2557.286605
548.781449	2558.002449
549.140158	2557.977243
549.498811	2556.928683
549.857408	2559.063612
550.215949	2556.079249
550.574434	2552.144628
550.932864	2554.317366
551.291237	2555.416337
551.649555	2556.913560
552.007817	2556.089331
552.366022	2559.368602
552.724173	2557.284085
553.082267	2558.141081
553.440305	2557.553787
553.798288	2559.877758
554.156215	2556.638817
554.514086	2556.351471
554.871902	2556.512788
555.229661	2556.404403
555.587365	2557.770556
555.945014	2555.680998
556.302606	2556.527912
556.660143	2558.718293
557.017625	2557.072356
557.375050	2555.870041
557.732421	2559.280382
558.089735	2559.154353
558.446994	2557.866338
558.804197	2559.567727
559.161345	2557.213509
559.518437	2557.896585
559.875474	2557.848694
560.232455	2560.064281
560.589381	2556.810216
560.946251	2557.967161
561.303065	2558.214178
561.659825	2558.776266
562.016528	2557.054712
562.373177	2557.450443
562.729770	2558.670402
563.086307	2558.665361
563.442789	2555.459187
563.799216	2556.469938
564.155587	2559.542522
564.511904	2557.236194
564.868164	2555.703683
565.224370	2558.443550
565.580520	2557.450443
565.936615	2552.744526
566.292654	2558.809034
566.648638	2558.199054
567.004567	2560.119734
567.360441	2555.184444
567.716260	2559.096380
568.072023	2555.091183
568.427732	2554.556821
568.783385	2555.166800
569.138982	2554.745864
569.494525	2554.866852
569.850013	2552.356357
570.205445	2556.885834
570.560823	2555.643189
570.916145	2556.432130
571.271412	2557.034548
571.626625	2558.161246
571.981782	2559.257697
572.336884	2558.957748
572.691931	2557.437840
573.046923	2556.147305
573.401860	2558.206616
573.756743	2558.410783
574.111570	2558.030176
574.466342	2555.655792
574.821059	2554.322407
575.175722	2561.193500
575.530330	2559.182079
575.884882	2556.966492
576.239380	2554.546738
576.593823	2557.253838
576.948211	2553.659495
577.302544	2558.872048
577.656823	2558.982954
578.011047	2555.766697
578.365216	2559.035886
578.719330	2559.416493
579.073389	2556.427089
579.427394	2552.928528
579.781344	2555.958261
580.135239	2555.312994
580.489080	2554.703014
580.842866	2556.928683
581.196597	2560.593602
581.550273	2557.100083
581.903895	2558.872048
582.257463	2555.255020
582.610975	2558.244425
582.964434	2556.442212
583.317837	2555.570093
583.671186	2554.692932
584.024481	2556.623694
584.377721	2552.540359
584.730906	2552.996583
585.084037	2557.674774
585.437113	2555.270144
585.790135	2557.281564
586.143103	2553.377191
586.496016	2556.359033
586.848874	2550.244113
587.201679	2553.467931
587.554428	2550.970040
587.907124	2553.046995
588.259765	2551.519525
588.612352	2555.212171
588.964884	2554.032541
589.317362	2552.263096
589.669786	2555.756615
590.022155	2556.797613
590.374470	2556.117058
590.726731	2553.656975
591.078937	2554.778631
591.431090	2554.415668
591.783188	2552.981460
592.135232	2554.090514
592.487222	2556.094372
592.839157	2554.017417
593.191038	2556.134702
593.542866	2555.285267
593.894639	2552.298384
594.246358	2552.895760
594.598022	2556.595967
594.949633	2554.423230
595.301190	2553.263765
595.652692	2552.966337
596.004141	2551.829556
596.355535	2555.171841
596.706876	2552.827705
597.058162	2553.110009
597.409395	2553.102448
597.760573	2553.457849
598.111698	2554.148487
598.462768	2552.958775
598.813785	2555.670916
599.164748	2554.400545
599.515657	2555.769218
599.866511	2555.549928
600.217312	2554.947510
600.568060	2553.830894
600.918753	2555.176882
601.269392	2553.921635
601.619978	2553.072201
601.970510	2556.638817
602.320988	2553.893909
602.671412	2556.517829
603.021783	2553.500699
603.372100	2554.357695
603.722363	2552.963816
604.072572	2553.553631
604.422728	2556.664023
604.772830	2553.208312
605.122878	2551.678322
605.472872	2551.862324
605.822813	2550.375183
606.172701	2551.955585
606.522534	2551.711089
606.872314	2555.628066
607.222041	2555.307952
607.571714	2554.574465
607.921333	2555.983467
608.270899	2552.600853
608.620411	2553.777962
608.969870	2556.023796
609.319276	2558.125958
609.668627	2560.089487
610.017926	2557.984805
610.367171	2561.135526
610.716362	2563.479663
611.065500	2559.711400
611.414585	2557.901626
611.763616	2558.468756
612.112594	2556.588406
612.461518	2556.018755
612.810389	2556.248128
613.159207	2558.055381
613.507971	2555.381049
613.856682	2555.048333
614.205340	2556.273333
614.553945	2555.572613
614.902496	2555.244938
615.250994	2556.384239
615.599439	2556.795093
615.947830	2557.427758
616.296169	2554.019938
616.644454	2557.347099
616.992686	2557.342058
617.340864	2555.224773
617.688990	2555.945658
618.037063	2555.496996
618.385082	2557.127809
618.733048	2557.778118
619.080961	2558.161246
619.428821	2556.963972
619.776628	2558.010011
620.124382	2557.722665
620.472083	2559.038406
620.819731	2557.634445
621.167326	2556.164949
621.514868	2559.761812
621.862357	2555.862479
622.209793	2557.881462
622.557176	2555.446584
622.904506	2556.626214
623.251783	2551.597663
623.599007	2554.211502
623.946179	2554.221584
624.293297	2555.318035
624.640363	2558.380536
624.987376	2556.182593
625.334336	2559.202244
625.681243	2557.790721
626.028097	2558.080587
626.374899	2557.929353
626.721647	2557.047151
627.068343	2556.527912
627.414987	2557.049671
627.761577	2559.005639
628.108115	2556.588406
628.454600	2557.389949
628.801032	2558.254507
629.147412	2557.364743
629.493739	2559.018242
629.840014	2557.153015
630.186236	2554.781152
630.532405	2560.046637
630.878521	2557.400031
631.224585	2556.434650
631.570597	2557.160577
631.916556	2556.500185
632.262462	2556.071687
632.608316	2558.284754
632.954117	2558.312480
633.299866	2557.649568
633.645562	2556.986657
633.991206	2559.240052
634.336797	2559.214847
634.682336	2557.614280
635.027823	2556.003632
635.373257	2559.093859
635.718639	2560.487738
636.063968	2557.274002
636.409245	2558.446071
636.754470	2559.963458
637.099642	2557.896585
637.444762	2560.152501
637.789829	2558.186451
638.134845	2558.849363
638.479808	2557.619322
638.824719	2554.529094
639.169577	2558.045299
639.514383	2555.766698
639.859137	2558.219219
640.203839	2557.730227
640.548489	2557.485731
640.893086	2552.623538
641.237632	2552.666388
641.582125	2557.195865
641.926566	2554.955072
642.270955	2558.337686
642.615292	2558.526729
642.959576	2558.592264
643.303809	2559.459343
643.647990	2559.615618
643.992118	2560.041596
644.336195	2558.642676
644.680219	2561.185938
645.024192	2559.577810
645.368112	2562.108469
645.711981	2562.231977
646.055797	2559.663509
646.399562	2562.536967
646.743274	2562.284909
647.086935	2563.908161
647.430544	2563.991340
647.774101	2565.501166
648.117606	2564.208110
648.461059	2565.286917
648.804460	2566.156516
649.147810	2564.124931
649.491108	2563.913202
649.834354	2565.231464
650.177548	2565.871690
650.520690	2565.702812
650.863781	2566.852195
651.206820	2566.360682
651.549807	2565.980075
651.892742	2565.029818
652.235626	2564.160219
652.578458	2562.998233
652.921238	2566.726166
653.263967	2567.784808
653.606644	2566.683316
653.949269	2566.063254
654.291843	2568.107442
654.634365	2570.171795
654.976836	2567.396639
655.319255	2569.249263
655.661622	2569.781105
656.003938	2571.532906
656.346203	2569.723132
656.688416	2571.197669
657.030577	2570.542319
657.372687	2570.496949
657.714746	2570.900241
658.056753	2571.734552
658.398708	2567.421845
658.740612	2569.269428
659.082465	2572.702454
659.424266	2571.853019
659.766016	2570.915365
660.107715	2576.662280
660.449362	2576.238823
660.790958	2575.495253
661.132503	2577.315110
661.473996	2581.471541
661.815438	2579.054308
662.156829	2576.891653
662.498168	2580.428022
662.839456	2581.375759
663.180693	2582.096644
663.521879	2584.536562
663.863013	2584.443301
664.204097	2583.485482
664.545129	2584.980184
664.886110	2584.985225
665.227040	2590.326328
665.567918	2587.243662
665.908746	2590.709455
666.249522	2590.923704
666.590248	2592.841863
666.930922	2592.877152
667.271545	2594.013932
667.612118	2597.588110
667.952639	2594.712132
668.293109	2599.418049
668.633528	2598.137596
668.973896	2599.687750
669.314213	2600.655652
669.654480	2604.123966
669.994695	2601.361413
670.334859	2601.938626
670.674973	2607.735952
671.015035	2606.624378
671.355047	2606.707557
671.695008	2609.263422
672.034918	2606.508432
672.374777	2609.167640
672.714585	2613.490430
673.054342	2610.440532
673.394049	2612.681324
673.733705	2617.576285
674.073310	2621.185751
674.412864	2616.600822
674.752368	2618.380349
675.091820	2621.659619
675.431223	2620.351440
675.770574	2621.021913
676.109875	2616.484875
676.449125	2619.247427
676.788324	2620.490072
677.127473	2621.558796
677.466571	2619.197016
677.805619	2625.430402
678.144616	2625.919394
678.483562	2627.086422
678.822458	2627.409055
679.161303	2628.376957
679.500098	2628.447533
679.838842	2630.141361
680.177535	2632.845940
680.516179	2632.924078
680.854771	2637.980355
681.193314	2640.286683
681.531805	2645.766417
681.870247	2657.381236
682.208638	2659.861483
682.546978	2661.169663
682.885268	2662.213182
683.223508	2666.674603
683.561697	2666.782987
683.899836	2664.995898
684.237925	2664.489262
684.575963	2669.253153
684.913951	2665.575631
685.251889	2675.894873
685.589776	2672.290448
685.927614	2672.965963
686.265401	2681.417457
686.603137	2685.727644
686.940824	2691.577903
687.278460	2692.203006
687.616046	2701.153574
687.953582	2705.622557
688.291068	2703.414532
688.628504	2715.175544
688.965889	2713.640512
689.303224	2711.850903
689.640510	2714.762169
689.977745	2713.242261
690.314930	2707.903679
690.652065	2705.569625
690.989150	2699.353882
691.326185	2698.408666
691.663170	2694.670651
692.000105	2693.488500
692.336990	2690.045392
692.673825	2692.089580
693.010610	2687.108920
693.347345	2676.046108
693.684030	2687.194619
694.020665	2684.215297
694.357251	2677.775223
694.693786	2684.603466
695.030272	2682.221521
695.366707	2685.427695
695.703093	2678.652384
696.039429	2686.085566
696.375716	2692.780218
696.711952	2687.250072
697.048139	2686.108251
697.384276	2689.616894
697.720363	2692.424817
698.056400	2698.456557
698.392388	2695.570497
698.728326	2692.477749
699.064214	2690.181503
699.400053	2694.554704
699.735842	2697.022349
700.071581	2693.266689
700.407270	2691.666123
700.742910	2693.458253
701.078501	2688.170083
701.414042	2694.758871
701.749533	2692.954138
702.084974	2686.768642
702.420366	2694.963037
702.755709	2693.317101
703.091002	2686.614887
703.426246	2697.589479
703.761440	2689.372398
704.096584	2683.922911
704.431679	2693.002029
704.766725	2695.129396
705.101721	2696.480425
705.436668	2701.652649
705.771565	2690.468849
706.106413	2696.540919
706.441212	2706.532486
706.775961	2713.091027
707.110661	2704.001826
707.445311	2704.931919
707.779913	2720.327603
708.114465	2720.735937
708.448967	2720.574620
708.783421	2731.234139
709.117825	2737.149933
709.452180	2739.892321
709.786485	2743.106057
710.120742	2758.645413
710.454949	2752.669126
710.789107	2764.871238
711.123216	2776.125614
711.457275	2774.439348
711.791286	2788.680608
712.125247	2795.990281
712.459159	2776.465892
712.793023	2784.647685
713.126837	2799.294757
713.460602	2799.554377
713.794318	2778.694082
714.127985	2786.122222
714.461602	2785.222377
714.795171	2772.959770
715.128691	2767.626229
715.462162	2770.323246
715.795584	2768.667227
716.128957	2769.128493
716.462281	2753.432860
716.795556	2755.988725
717.128782	2759.860332
717.461960	2750.856831
717.795088	2753.047212
718.128167	2749.457911
718.461198	2737.086919
718.794180	2738.962228
719.127113	2746.667632
719.459997	2746.337436
719.792833	2737.825448
720.125619	2736.328225
720.458357	2734.117679
720.791046	2739.912486
721.123686	2735.889645
721.456278	2732.254973
721.788821	2737.749831
722.121315	2734.697412
722.453761	2729.200034
722.786158	2741.089595
723.118506	2745.606469
723.450805	2730.198182
723.783056	2734.122721
724.115259	2746.647467
724.447412	2748.883219
724.779518	2743.562281
725.111574	2748.868096
725.443582	2753.994949
725.775542	2754.307501
726.107453	2766.993564
726.439315	2768.886517
726.771129	2769.725870
727.102895	2774.492281
727.434612	2790.959210
727.766281	2789.562810
728.097901	2784.577109
728.429473	2787.400155
728.760996	2791.390228
729.092471	2788.010135
729.423897	2794.278809
729.755276	2801.293575
730.086606	2797.167391
730.417887	2796.983388
730.749120	2815.247489
731.080305	2837.030315
731.411442	2836.332115
731.742530	2826.658141
732.073570	2830.933039
732.404562	2844.987776
732.735506	2849.250072
733.066401	2841.307734
733.397249	2828.115034
733.728048	2813.720019
734.058798	2811.353197
734.389501	2802.758030
734.720156	2782.966460
735.050762	2778.870523
735.381320	2789.908129
735.711831	2772.296858
736.042293	2772.339708
736.372707	2782.540483
736.703073	2776.498660
737.033391	2767.772422
737.363661	2774.966149
737.693883	2782.618621
738.024056	2786.911163
738.354182	2781.650719
738.684260	2796.088584
739.014290	2802.667289
739.344272	2796.224695
739.674207	2809.127528
740.004093	2811.816984
740.333931	2809.132569
740.663722	2818.085658
740.993464	2819.199753
741.323159	2812.726912
741.652806	2807.625264
741.982405	2805.510500
742.311956	2802.203503
742.641460	2801.575880
742.970915	2799.002371
743.300323	2794.263686
743.629683	2781.680966
743.958996	2784.151131
744.288260	2784.264557
744.617477	2780.244237
744.946647	2770.255191
745.275768	2772.309461
745.604842	2776.319699
745.933869	2759.023500
746.262847	2757.216246
746.591778	2778.275667
746.920662	2769.733431
747.249498	2759.946031
747.578286	2777.385903
747.907027	2781.209618
748.235720	2769.773761
748.564365	2785.449228
748.892963	2793.651186
749.221514	2786.863272
749.550017	2777.557302
749.878473	2780.216511
750.206881	2774.772065
750.535242	2779.389762
750.863555	2781.060904
751.191821	2779.581325
751.520039	2769.899789
751.848210	2764.805703
752.176334	2780.551747
752.504411	2788.032820
752.832440	2773.544544
753.160421	2762.506937
753.488356	2770.628236
753.816243	2784.158693
754.144082	2768.745365
754.471875	2761.758326
754.799620	2771.749893
755.127318	2765.231681
755.454969	2767.807711
755.782572	2776.962446
756.110129	2763.555497
756.437638	2760.349323
756.765100	2771.074378
757.092515	2778.280708
757.419882	2782.926131
757.747203	2768.019439
758.074477	2769.859460
758.401703	2775.049328
758.728882	2787.261523
759.056014	2787.080042
759.383099	2786.414609
759.710138	2781.456635
760.037129	2781.383538
760.364073	2803.327681
760.690970	2796.834674
761.017820	2785.567696
761.344623	2790.376956
761.671379	2807.627785
761.998088	2821.813592
762.324751	2856.957996
762.651366	2909.123856
762.977935	3017.982532
763.304456	3134.460912
763.630931	3186.601566
763.957359	3092.425251
764.283740	3007.002899
764.610074	2974.066520
764.936362	2926.732606
765.262602	2876.111860
765.588796	2852.730988
765.914943	2826.403562
766.241044	2798.919192
766.567097	2797.560601
766.893104	2783.344547
767.219064	2775.281221
767.544978	2769.100767
767.870845	2747.970770
768.196665	2741.308885
768.522438	2752.918663
768.848165	2757.062491
769.173846	2744.515059
769.499479	2737.681775
769.825066	2732.484346
770.150607	2728.033007
770.476101	2738.074985
770.801548	2741.639081
771.126949	2720.887171
771.452303	2714.089175
771.777611	2722.616287
772.102872	2726.855897
772.428087	2718.691749
772.753256	2717.232335
773.078378	2715.997252
773.403453	2702.524768
773.728482	2700.480580
774.053465	2711.704709
774.378401	2709.111036
774.703291	2691.923222
775.028135	2696.004036
775.352932	2695.807431
775.677683	2690.362985
776.002388	2692.805424
776.327046	2693.785928
776.651658	2689.866431
776.976224	2684.810154
777.300743	2688.147397
777.625216	2685.372242
777.949643	2683.340657
778.274024	2685.031964
778.598359	2674.075017
778.922647	2683.504495
779.246889	2682.176151
779.571086	2675.824297
779.895236	2674.624502
780.219339	2680.769669
780.543397	2687.756708
780.867409	2687.968437
781.191374	2687.663447
781.515294	2684.875689
781.839167	2683.388548
782.162995	2679.083403
782.486776	2685.846111
782.810511	2685.011800
783.134201	2683.000379
783.457844	2688.502799
783.781441	2682.743281
784.104993	2672.950839
784.428498	2674.642146
784.751958	2682.788651
785.075372	2680.288239
785.398739	2673.646518
785.722061	2683.869978
786.045337	2688.782583
786.368568	2679.753876
786.691752	2674.090140
787.014891	2696.813141
787.337983	2706.363607
787.661030	2706.847558
787.984031	2730.314129
788.306987	2745.908938
788.629897	2744.668814
788.952760	2744.719226
789.275579	2743.698392
789.598351	2721.373642
789.921078	2704.085005
790.243759	2709.327805
790.566395	2701.715663
790.888984	2695.121834
791.211529	2690.083201
791.534027	2688.671677
791.856480	2686.435926
792.178888	2676.603155
792.501249	2672.207269
792.823566	2673.885973
793.145836	2671.619975
793.468062	2672.358504
793.790241	2672.013185
794.112375	2675.693227
794.434464	2679.748835
794.756507	2678.027281
795.078505	2679.895029
795.400457	2682.748322
795.722364	2698.421269
796.044226	2704.546271
796.366042	2704.596682
796.687812	2700.359593
797.009538	2714.815101
797.331218	2711.203115
797.652852	2704.546271
797.974442	2696.160312
798.295986	2699.948739
798.617484	2697.554191
798.938938	2690.584795
799.260346	2686.279650
799.581709	2684.515246
799.903026	2683.575071
800.224299	2682.960050
800.545526	2677.911335
800.866708	2670.906651
801.187845	2663.574293
801.508936	2668.015550
801.829983	2676.020902
802.150984	2669.439676
802.471940	2660.514313
802.792851	2658.767553
803.113717	2664.038079
803.434538	2667.022442
803.755314	2661.071360
804.076045	2659.213695
804.396731	2658.349137
804.717372	2659.090187
805.037967	2657.008190
805.358518	2661.152019
805.679024	2666.160405
805.999485	2665.454643
806.319901	2662.200579
806.640272	2659.135557
806.960598	2660.123623
807.280879	2668.305416
807.601115	2671.095695
807.921306	2664.587565
808.241453	2663.269303
808.561554	2668.383554
808.881611	2670.710046
809.201623	2667.398008
809.521590	2667.340035
809.841513	2667.836589
810.161390	2667.297185
810.481223	2665.968841
810.801011	2662.530774
811.120755	2661.124292
811.440453	2663.602019
811.760107	2666.961948
812.079716	2666.576300
812.399281	2658.633962
812.718801	2653.912922
813.038276	2653.096255
813.357707	2661.946000
813.677093	2665.114366
813.996434	2661.393994
814.315731	2659.208654
814.634983	2656.907367
814.954191	2659.311997
815.273354	2667.274500
815.592473	2672.255160
815.911547	2674.586694
816.230577	2676.852692
816.549562	2677.689524
816.868502	2678.954853
817.187399	2684.812674
817.506250	2695.212575
817.825058	2690.557069
818.143821	2698.083512
818.462539	2705.877136
818.781213	2718.996738
819.099843	2731.909654
819.418429	2755.960999
819.736970	2782.084258
820.055466	2813.155410
820.373919	2867.846888
820.692327	2939.688372
821.010691	3004.981396
821.329011	3161.221877
821.647286	3435.243877
821.965517	3874.056155
822.283704	4122.665698
822.601847	4144.168739
822.919945	3987.431705
823.237999	3903.672933
823.556010	3724.560737
823.873976	3517.013913
824.191897	3353.889736
824.509775	3234.984040
824.827609	3111.856378
825.145398	3052.567368
825.463144	3051.342368
825.780845	3092.916763
826.098502	3130.793473
826.416116	3237.333218
826.733685	3348.452852
827.051210	3375.095350
827.368692	3354.103985
827.686129	3268.006119
828.003522	3127.592340
828.320872	3009.377282
828.638177	2918.747418
828.955439	2853.091431
829.272656	2814.945020
829.589830	2781.373456
829.906960	2761.912081
830.224046	2739.292424
830.541088	2721.045967
830.858086	2716.634958
831.175041	2706.782023
831.491952	2709.126159
831.808819	2720.055381
832.125642	2732.706156
832.442421	2753.258941
832.759157	2786.553241
833.075849	2864.960828
833.392497	2989.840291
833.709101	3090.958275
834.025662	3070.312229
834.342179	3003.395953
834.658653	2925.275713
834.975083	2854.525639
835.291469	2816.157417
835.607811	2772.561519
835.924110	2739.242012
836.240366	2716.622355
836.556578	2692.613860
836.872746	2683.078517
837.188871	2668.968328
837.504952	2661.638490
837.820990	2656.302429
838.136984	2648.561737
838.452935	2645.620224
838.768842	2643.296252
839.084706	2652.854279
839.400526	2691.832481
839.716303	2750.347674
840.032037	2787.400155
840.347727	2785.166924
840.663373	2764.084818
840.978977	2731.171125
841.294537	2690.196627
841.610054	2667.561846
841.925527	2654.716986
842.240957	2643.026550
842.556344	2631.973820
842.871687	2622.854373
843.186987	2618.115688
843.502244	2617.724999
843.817458	2614.251644
844.132629	2606.382403
844.447756	2599.297061
844.762840	2595.304467
845.077881	2600.191866
845.392879	2597.557863
845.707833	2596.829416
846.022745	2587.757860
846.337613	2592.700711
846.652438	2591.326997
846.967221	2594.200454
847.281960	2591.503437
847.596656	2591.450505
847.911309	2592.065526
848.225919	2591.369847
848.540485	2585.083528
848.855009	2591.939497
849.169490	2587.709969
849.483928	2587.495720
849.798323	2587.591502
850.112675	2584.763414
850.426984	2587.899012
850.741251	2584.400451
851.055474	2582.570513
851.369654	2590.399424
851.683792	2587.505802
851.997887	2587.518405
852.311938	2586.888261
852.625947	2589.103848
852.939914	2589.280288
853.253837	2591.553849
853.567718	2584.239134
853.881555	2585.678384
854.195350	2590.470001
854.509103	2589.991091
854.822812	2584.627303
855.136479	2585.086048
855.450103	2588.435895
855.763685	2589.998653
856.077224	2586.953796
856.390720	2583.896336
856.704173	2586.648806
857.017584	2589.381111
857.330953	2593.421596
857.644278	2591.863880
857.957561	2588.561924
858.270802	2589.222315
858.584000	2587.639393
858.897155	2590.424630
859.210268	2591.679878
859.523339	2589.040833
859.836367	2585.847262
860.149352	2586.805082
860.462295	2589.192068
860.775195	2586.482448
861.088054	2583.989597
861.400869	2583.132601
861.713642	2582.308372
862.026373	2582.704103
862.339062	2583.351891
862.651708	2587.732654
862.964312	2588.791296
863.276873	2588.282140
863.589392	2590.747264
863.901869	2593.151894
864.214303	2599.397884
864.526696	2598.142637
864.839045	2599.443254
865.151353	2598.261104
865.463619	2598.966865
865.775842	2599.458378
866.088023	2604.197062
866.400162	2604.149172
866.712258	2600.171701
867.024313	2604.134048
867.336325	2596.879828
867.648296	2600.927874
867.960224	2601.948708
868.272110	2602.888883
868.583954	2597.958635
868.895755	2597.706577
869.207515	2605.865684
869.519233	2607.738473
869.830909	2606.873915
870.142542	2599.108018
870.454134	2601.164808
870.765684	2606.987341
871.077191	2606.251333
871.388657	2611.156375
871.700081	2606.130345
872.011463	2606.924327
872.322803	2608.219903
872.634101	2608.045983
872.945357	2615.564864
873.256571	2618.713065
873.567744	2618.201388
873.878874	2614.360029
874.189963	2613.591253
874.501010	2617.538476
874.812015	2623.746657
875.122979	2622.655247
875.433900	2617.084772
875.744780	2616.633589
876.055618	2620.626183
876.366415	2624.268417
876.677169	2623.928139
876.987882	2619.819598
877.298554	2619.232304
877.609183	2629.513737
877.919771	2632.606485
878.230317	2638.222330
878.540822	2647.740029
878.851285	2654.159938
879.161707	2671.113339
879.472087	2695.555373
879.782425	2724.461349
880.092722	2792.711011
880.402977	2900.193452
880.713191	3014.761235
881.023363	3119.713017
881.333494	3186.994776
881.643583	3292.947227
881.953631	3324.928307
882.263637	3250.752770
882.573602	3148.624034
882.883526	3093.496496
883.193408	3043.243754
883.503248	2993.301043
883.813048	2934.279213
884.122806	2863.425796
884.432522	2814.788744
884.742197	2777.340532
885.051831	2756.225660
885.361424	2738.921899
885.670975	2716.665205
885.980485	2695.467153
886.289954	2680.925945
886.599382	2673.991837
886.908768	2666.533450
887.218113	2654.326296
887.527417	2643.702065
887.836680	2644.400264
888.145901	2640.223668
888.455082	2633.347535
888.764221	2625.049795
889.073319	2619.875051
889.382376	2623.028293
889.691392	2622.819085
890.000366	2623.315638
890.309300	2622.594753
890.618193	2621.261368
890.927044	2625.226236
891.235855	2623.038375
891.544625	2623.323200
891.853353	2624.071812
892.162041	2629.654889
892.470687	2643.863382
892.779293	2648.791109
893.087858	2650.777324
893.396381	2664.592606
893.704864	2691.227542
894.013306	2735.599779
894.321707	2789.409055
894.630068	2816.893426
894.938387	2833.761126
895.246665	2832.029490
895.554903	2810.002168
895.863100	2788.113478
896.171256	2748.885740
896.479371	2708.266642
896.787446	2681.387210
897.095480	2675.370593
897.403473	2671.181394
897.711425	2661.693943
898.019336	2647.805564
898.327207	2637.723256
898.635038	2640.052269
898.942827	2638.441621
899.250576	2629.302009
899.558284	2624.366719
899.865952	2618.259361
900.173579	2619.413785
900.481165	2618.899588
900.788711	2609.598659
901.096216	2604.287803
901.403681	2602.359562
901.711105	2604.491970
902.018489	2601.716815
902.325832	2607.088164
902.633135	2606.594131
902.940397	2617.427571
903.247619	2642.935809
903.554800	2684.605987
903.861941	2758.479055
904.169041	2830.953204
904.476101	2865.459902
904.783121	2863.556866
905.090100	2837.393278
905.397039	2795.758388
905.703938	2752.159969
906.010796	2714.149669
906.317614	2679.693382
906.624391	2657.739157
906.931129	2638.305509
907.237826	2621.059722
907.544483	2611.383227
907.851099	2600.663214
908.157675	2597.530137
908.464211	2588.496389
908.770707	2582.467169
909.077163	2578.388875
909.383578	2577.582291
909.689954	2577.161354
909.996289	2577.521797
910.302584	2574.809656
910.608839	2572.561302
910.915054	2576.793350
911.221229	2575.820407
911.527363	2578.167065
911.833458	2575.008782
912.139513	2577.342836
912.445527	2580.664956
912.751502	2582.348702
913.057436	2583.356932
913.363331	2587.830957
913.669186	2596.864704
913.975000	2604.890221
914.280775	2618.927314
914.586510	2628.447533
914.892205	2650.116933
915.197859	2693.428006
915.503475	2745.929103
915.809050	2786.104578
916.114585	2790.540794
916.420081	2797.298461
916.725536	2808.099133
917.030952	2796.585137
917.336328	2769.834254
917.641665	2741.094636
917.946961	2706.839996
918.252218	2685.009279
918.557435	2667.904644
918.862612	2652.503919
919.167750	2642.988741
919.472848	2631.129427
919.777906	2618.854217
920.082925	2612.162086
920.387904	2604.418873
920.692843	2604.565067
920.997743	2600.839654
921.302603	2596.143819
921.607423	2591.125351
921.912204	2586.321131
922.216946	2585.035637
922.521647	2583.291397
922.826310	2579.971798
923.130932	2576.684965
923.435516	2571.835375
923.740059	2572.631878
924.044564	2573.277145
924.349028	2571.348904
924.653454	2564.553429
924.957840	2562.325239
925.262186	2561.891699
925.566493	2563.943449
925.870761	2561.332131
926.174989	2560.170145
926.479178	2561.506051
926.783328	2562.085784
927.087438	2555.948179
927.391509	2557.349620
927.695541	2554.695452
927.999533	2555.796944
928.303486	2553.495658
928.607400	2554.811399
928.911275	2552.742005
929.215110	2553.611604
929.518906	2554.536656
929.822663	2553.987170
930.126381	2553.704866
930.430060	2554.035061
930.733699	2552.784855
931.037299	2554.077911
931.340861	2554.193858
931.644383	2555.378529
931.947866	2555.557490
932.251309	2552.467262
932.554714	2550.541542
932.858080	2556.250648
933.161407	2554.087993
933.464694	2553.810730
933.767943	2551.910215
934.071153	2555.509599
934.374323	2550.914587
934.677455	2551.690925
934.980548	2552.873075
935.283602	2550.118085
935.586617	2554.801317
935.889593	2549.533311
936.192530	2551.345606
936.495428	2549.064483
936.798287	2553.856100
937.101108	2553.357026
937.403890	2556.467418
937.706632	2561.954714
938.009336	2561.175856
938.312002	2564.719787
938.614628	2564.306412
938.917216	2567.774726
939.219765	2568.142730
939.522275	2568.062072
939.824747	2570.688513
940.127179	2559.754250
940.429573	2561.006977
940.731929	2562.126113
941.034246	2561.095197
941.336524	2561.145609
941.638763	2561.818603
941.940964	2560.447409
942.243126	2562.060578
942.545250	2558.055381
942.847335	2561.024621
943.149381	2557.820968
943.451389	2556.956410
943.753359	2558.138560
944.055290	2556.169990
944.357182	2554.304763
944.659036	2553.314176
944.960851	2555.486913
945.262628	2556.074208
945.564367	2557.382387
945.866067	2551.897612
946.167729	2556.611091
946.469352	2553.783003
946.770937	2555.426420
947.072484	2553.795606
947.373992	2555.262582
947.675462	2553.903991
947.976893	2554.874413
948.278286	2553.450287
948.579641	2551.945503
948.880958	2551.078424
949.182236	2553.548590
949.483476	2552.071532
949.784678	2550.975081
950.085841	2551.605225
950.386967	2552.500030
950.688054	2552.348795
950.989103	2554.710576
951.290114	2553.344423
951.591087	2554.269475
951.892021	2554.997922
952.192917	2556.449774
952.493776	2558.249466
952.794596	2560.636452
953.095378	2559.610577
953.396122	2559.595454
953.696828	2557.153015
953.997496	2555.837274
954.298126	2553.929197
954.598718	2552.648744
954.899272	2553.452808
955.199788	2552.792417
955.500266	2550.097920
955.800706	2548.905687
956.101108	2546.674977
956.401472	2546.344781
956.701798	2543.451159
957.002087	2542.213555
957.302337	2546.899308
957.602550	2545.157589
957.902724	2546.364946
958.202861	2547.063145
958.502960	2546.639688
958.803022	2546.251520
959.103045	2544.459389
959.403031	2544.030891
959.702979	2544.088865
960.002889	2544.865202
960.302762	2544.164482
960.602596	2543.713299
960.902393	2544.542568
961.202153	2544.096426
961.501875	2542.027033
961.801559	2544.353525
962.101205	2542.102650
962.400814	2541.109543
962.700385	2544.560212
962.999918	2542.760521
963.299414	2541.159954
963.598873	2540.660880
963.898293	2542.576518
964.197677	2544.333361
964.497022	2544.086344
964.796331	2544.671118
965.095601	2542.334543
965.394835	2542.412681
965.694030	2541.752290
965.993189	2543.299924
966.292309	2540.645757
966.591393	2543.985521
966.890439	2540.885211
967.189447	2540.557536
967.488419	2543.947712
967.787353	2543.788916
968.086249	2541.802701
968.385108	2541.298586
968.683930	2540.013092
968.982714	2543.100798
969.281462	2541.427135
969.580172	2540.980993
969.878844	2543.337733
970.177480	2542.876467
970.476078	2542.800850
970.774639	2547.847045
971.073162	2542.795809
971.371649	2540.980993
971.670098	2539.705581
971.968510	2541.376724
972.266885	2540.902855
972.565223	2542.876467
972.863524	2541.832948
973.161788	2543.655325
973.460014	2542.808412
973.758204	2545.079451
974.056356	2543.017619
974.354471	2545.197918
974.652550	2541.538041
974.950591	2544.464431
975.248595	2544.219935
975.546563	2540.270191
975.844493	2543.758669
976.142386	2543.282280
976.440243	2543.499050
976.738062	2544.096426
977.035845	2541.200283
977.333590	2543.194060
977.631299	2541.558205
977.928971	2542.899152
978.226606	2542.445448
978.524204	2542.004348
978.821765	2542.543751
979.119290	2542.359749
979.416777	2542.533669
979.714228	2541.628782
980.011642	2544.887888
980.309020	2544.184647
980.606360	2543.783875
980.903664	2544.603062
981.200931	2542.332022
981.498162	2543.942671
981.795356	2545.959133
982.092513	2545.069369
982.389633	2547.163968
982.686717	2553.011707
982.983764	2554.118240
983.280775	2554.660164
983.577749	2554.650082
983.874686	2552.777293
984.171587	2548.542724
984.468451	2551.151521
984.765279	2547.957950
985.062070	2544.222455
985.358824	2544.177085
985.655543	2545.344112
985.952224	2542.198432
986.248869	2543.163813
986.545478	2538.445293
986.842050	2538.006712
987.138586	2536.690971
987.435086	2542.211035
987.731549	2536.872453
988.027975	2542.221117
988.324366	2543.362938
988.620719	2541.638864
988.917037	2542.344625
989.213318	2542.233720
989.509563	2539.193904
989.805772	2541.608617
990.101944	2540.726415
990.398080	2539.571991
990.694180	2539.705581
990.990244	2540.897814
991.286271	2540.570139
991.582262	2540.116435
991.878217	2542.185829
992.174136	2540.844882
992.470019	2540.764224
992.765865	2542.566436
993.061676	2540.340767
993.357450	2541.323792
993.653188	2541.911086
993.948890	2542.712630
994.244556	2540.625592
994.540186	2542.778165
994.835780	2542.342105
995.131337	2541.530479
995.426859	2542.599204
995.722345	2542.495860
996.017795	2544.940820
996.313208	2543.655325
996.608586	2541.497712
996.903928	2545.807898
997.199234	2542.705068
997.494504	2542.999975
997.789738	2543.257074
998.084936	2541.913607
998.380099	2542.382434
998.675225	2543.012578
998.970316	2538.334387
999.265371	2541.459903
999.560390	2539.224151
999.855373	2543.746066
1000.150320	2540.247505
1000.445232	2542.493339
1000.740108	2540.401261
1001.034948	2542.485778
1001.329752	2540.360931
1001.624521	2537.921013
1001.919254	2536.282638
1002.213951	2542.458051
1002.508613	2533.389016
1002.803239	2538.193235
1003.097829	2534.324150
1003.392384	2538.619213
1003.686903	2540.446631
1003.981386	2541.633823
1004.275834	2538.841023
1004.570246	2542.253885
1004.864623	2539.650129
1005.158964	2540.239944
1005.453270	2535.271887
1005.747540	2538.936805
1006.041775	2537.971424
1006.335974	2537.719367
1006.630138	2538.278935
1006.924266	2538.626774
1007.218359	2537.512679
1007.512416	2537.177443
1007.806438	2536.219623
1008.100425	2540.585263
1008.394376	2540.028215
1008.688292	2540.565098
1008.982172	2540.262629
1009.276017	2542.001827
1009.569827	2539.574511
1009.863602	2539.670293
1010.157341	2538.281455
1010.451045	2540.418905
1010.744714	2538.841023
1011.038347	2541.994265
1011.331945	2542.321940
1011.625508	2541.596014
1011.919036	2540.665921
1012.212528	2539.327495
1012.505986	2538.946888
1012.799408	2539.231713
1013.092795	2539.221631
1013.386147	2538.709953
1013.679464	2538.185673
1013.972745	2540.728936
1014.265992	2540.431507
1014.559204	2536.968235
1014.852380	2538.208359
1015.145521	2540.912938
1015.438628	2538.891435
1015.731699	2539.171219
1016.024736	2539.937474
1016.317737	2540.108874
1016.610703	2539.128369
1016.903635	2535.980169
1017.196531	2532.703419
1017.489393	2537.648791
1017.782219	2534.689633
1018.075011	2537.174922
1018.367768	2538.646939
1018.660490	2541.195242
1018.953177	2541.195242
1019.245829	2541.195242
