Dividing Wavelength (nm)	Counts (n)	Blue Motor Position (mm): 26.200000	Red Motor Position (mm): 0.000000	
326.493990	2056.044678
326.888308	2056.044678
327.282561	2056.044678
327.676750	2030.634742
328.070874	2031.370751
328.464933	2038.448531
328.858929	2045.836342
329.252859	2058.517364
329.646726	2069.766699
330.040528	2086.755388
330.434265	2103.650815
330.827938	2126.857767
331.221547	2145.310910
331.615091	2167.953253
332.008571	2188.528722
332.401986	2205.416588
332.795338	2227.375854
333.188625	2248.999883
333.581847	2266.376740
333.975006	2283.801489
334.368100	2301.022070
334.761129	2318.774493
335.154095	2334.336535
335.546996	2383.613814
335.939833	2485.165338
336.332606	2495.020794
336.725315	2508.425222
337.117960	2521.171779
337.510540	2528.257121
337.903056	2537.147196
338.295508	2546.012065
338.687896	2555.496996
339.080220	2556.948848
339.472480	2560.366750
339.864676	2565.773388
340.256807	2567.341187
340.648875	2569.261866
341.040879	2571.578277
341.432818	2572.160530
341.824694	2572.730180
342.216506	2573.269584
342.608253	2571.154820
342.999937	2572.397464
343.391557	2568.624160
343.783113	2570.567525
344.174605	2568.485529
344.566033	2566.499314
344.957397	2564.019066
345.348697	2564.014025
345.739934	2561.211144
346.131106	2558.330124
346.522215	2558.004970
346.913260	2558.987995
347.304241	2554.753426
347.695159	2554.065308
348.086012	2550.765873
348.476802	2550.917107
348.867528	2547.408464
349.258191	2542.548792
349.648789	2543.274718
350.039324	2539.340098
350.429796	2542.389996
350.820203	2542.856302
351.210548	2543.814122
351.600828	2541.084337
351.991045	2539.655170
352.381198	2539.398071
352.771288	2539.239275
353.161314	2538.031918
353.551276	2538.044521
353.941175	2538.871270
354.331010	2538.392361
354.720782	2542.584080
355.110490	2544.058618
355.500135	2539.723225
355.889717	2539.589635
356.279235	2540.804553
356.668689	2542.228679
357.058080	2540.600386
357.447408	2542.614327
357.836672	2543.005017
358.225873	2542.949564
358.615010	2542.725233
359.004084	2544.010727
359.393095	2546.034750
359.782043	2543.093237
360.170927	2545.011396
360.559748	2545.742363
360.948505	2547.315203
361.337199	2545.253371
361.725830	2549.371994
362.114398	2547.917621
362.502903	2549.644216
362.891344	2551.370811
363.279722	2549.465255
363.668037	2550.370142
364.056289	2548.207487
364.444478	2553.435164
364.832603	2551.471634
365.220665	2551.887530
365.608665	2552.469783
365.996601	2551.892571
366.384474	2551.393497
366.772284	2552.371480
367.160031	2551.393497
367.547715	2555.166800
367.935336	2551.469114
368.322893	2550.430636
368.710388	2549.954247
369.097820	2550.702858
369.485189	2552.106820
369.872495	2556.353992
370.259738	2557.639486
370.646918	2554.612273
371.034035	2557.841132
371.421090	2557.137891
371.808081	2556.948848
372.195010	2554.498847
372.581875	2556.532953
372.968678	2555.423899
373.355418	2560.772563
373.742096	2559.237532
374.128710	2558.317521
374.515262	2557.929353
374.901751	2560.734755
375.288177	2560.394477
375.674540	2559.585372
376.060841	2560.419682
376.447079	2558.773746
376.833254	2560.891030
377.219367	2563.230126
377.605417	2560.785166
377.991404	2562.990671
378.377329	2560.853222
378.763191	2559.978582
379.148991	2564.787842
379.534727	2560.810372
379.920402	2563.388922
380.306013	2562.199210
380.691563	2566.461505
381.077049	2561.561504
381.462474	2560.177707
381.847835	2564.477811
382.233134	2561.105279
382.618371	2562.690722
383.003545	2565.780950
383.388657	2563.159550
383.773706	2563.628377
384.158693	2566.857236
384.543618	2565.077709
384.928480	2567.169787
385.313280	2564.828172
385.698017	2565.027297
386.082692	2565.579303
386.467305	2568.329253
386.851856	2567.941084
387.236344	2566.385888
387.620770	2566.907648
388.005133	2563.812379
388.389435	2566.832030
388.773674	2562.128634
389.157851	2568.281362
389.541965	2570.693554
389.926018	2570.827145
390.310008	2571.742114
390.693936	2571.752196
391.077802	2573.113308
391.461606	2572.125242
391.845348	2570.123904
392.229027	2573.262022
392.612645	2572.336970
392.996200	2573.451065
393.379694	2571.459809
393.763125	2573.793864
394.146494	2573.690520
394.529801	2574.766806
394.913047	2576.006930
395.296230	2575.636405
395.679351	2574.970973
396.062410	2573.025088
396.445408	2574.023236
396.828343	2574.166909
397.211217	2575.459965
397.594028	2576.763103
397.976778	2575.439800
398.359466	2576.006930
398.742092	2574.625654
399.124656	2576.115315
399.507158	2577.317630
399.889598	2577.662949
400.271977	2578.898032
400.654294	2578.300655
401.036549	2579.644123
401.418742	2580.173444
401.800874	2578.517425
402.182944	2577.854513
402.564952	2576.833679
402.946898	2579.674370
403.328783	2581.252251
403.710606	2578.156982
404.092367	2580.483475
404.474067	2579.858372
404.855705	2579.714699
405.237282	2579.349215
405.618797	2582.159658
406.000250	2583.568661
406.381642	2583.145204
406.762972	2580.130594
407.144240	2581.196798
407.525447	2580.717888
407.906593	2579.316448
408.287677	2585.257447
408.668700	2585.350709
409.049661	2586.646285
409.430560	2582.754515
409.811399	2587.800710
410.192176	2586.706779
410.572891	2587.256265
410.953545	2588.372881
411.334138	2583.493044
411.714669	2587.236100
412.095139	2588.927407
412.475547	2586.840370
412.855894	2589.804568
413.236180	2586.333734
413.616405	2586.389187
413.996568	2587.687284
414.376670	2585.544793
414.756711	2589.086204
415.136691	2591.387491
415.516609	2591.412696
415.896466	2589.910432
416.276262	2589.829774
416.655997	2587.737695
417.035670	2588.521595
417.415283	2589.786924
417.794834	2591.982347
418.174324	2588.607294
418.553753	2592.922522
418.933121	2589.272727
419.312428	2591.412696
419.691674	2588.009917
420.070859	2591.470670
420.449983	2591.485793
420.829045	2593.245156
421.208047	2592.143664
421.586988	2594.623911
421.965867	2594.765064
422.344686	2594.782708
422.723444	2597.431834
423.102141	2595.236412
423.480777	2595.937132
423.859352	2596.093408
424.237866	2595.864035
424.616319	2594.994436
424.994712	2596.632811
425.373044	2597.613316
425.751314	2596.867225
426.129524	2592.499065
426.507673	2593.870259
426.885762	2593.456884
427.263789	2598.661876
427.641756	2598.011567
428.019662	2600.648090
428.397508	2599.828903
428.775292	2600.733790
429.153016	2601.827720
429.530679	2598.878645
429.908282	2601.036259
430.285824	2604.469285
430.663305	2600.290168
431.040726	2603.791250
431.418086	2604.217227
431.795385	2604.542382
432.172624	2603.319902
432.549802	2603.042638
432.926920	2608.514811
433.303977	2606.982300
433.680974	2608.787033
434.057910	2608.608072
434.434786	2610.092692
434.811601	2610.306941
435.188355	2611.370624
435.565050	2610.755604
435.941683	2610.271653
436.318257	2615.388424
436.694770	2611.456324
437.071222	2613.379524
437.447614	2614.765842
437.823946	2616.981429
438.200218	2613.082096
438.576429	2616.263064
438.952580	2618.461007
439.328670	2619.708693
439.704700	2619.025617
440.080670	2621.886471
440.456580	2619.950668
440.832429	2627.182203
441.208218	2623.199692
441.583947	2626.352934
441.959616	2627.986267
442.335224	2629.090280
442.710773	2630.892493
443.086261	2633.864253
443.461689	2633.100518
443.837057	2640.871457
444.212365	2640.929430
444.587612	2643.167702
444.962800	2645.133752
445.337927	2645.499236
445.712995	2645.090902
446.088002	2658.069353
446.462949	2664.577483
446.837837	2670.087464
447.212664	2673.034018
447.587431	2688.046574
447.962139	2708.390151
448.336786	2721.550083
448.711374	2723.881617
449.085901	2720.378015
449.460369	2728.758933
449.834776	2739.685634
450.209124	2768.972217
450.583412	2776.755759
450.957640	2792.615229
451.331808	2799.408183
451.705917	2804.582928
452.079965	2818.325113
452.453954	2841.111129
452.827883	2856.504292
453.201752	2874.554143
453.575562	2894.592730
453.949311	2929.865683
454.323001	2956.223356
454.696632	2980.851913
455.070202	3034.610778
455.443713	3062.377453
455.817164	3104.708022
456.190556	3158.066115
456.563888	3184.184333
456.937160	3229.738720
457.310373	3233.501941
457.683526	3271.955863
458.056619	3314.190650
458.429653	3362.784852
458.802628	3419.621341
459.175542	3471.139413
459.548398	3570.742531
459.921194	3681.468954
460.293930	3774.367337
460.666607	3925.160852
461.039224	4070.104107
461.411782	4162.460566
461.784280	4176.711908
462.156719	4231.189137
462.529099	4283.370121
462.901419	4276.037762
463.273680	4292.668529
463.645882	4391.386924
464.018024	4468.292247
464.390106	4603.337196
464.762130	4890.990476
465.134094	5285.982524
465.505999	5791.857271
465.877845	6267.802688
466.249631	6542.411982
466.621358	6529.723398
466.993026	6479.969730
467.364634	6460.382327
467.736184	6423.685247
468.107674	6424.960659
468.479105	6500.676269
468.850477	6554.639301
469.221790	6562.500980
469.593043	6521.584455
469.964238	6543.193361
470.335373	6678.550862
470.706449	7031.232506
471.077467	7483.981053
471.448425	8292.075494
471.819324	8854.086010
472.190164	8837.238474
472.560945	8462.910116
472.931667	8155.563569
473.302330	8204.432514
473.672934	8184.986263
474.043479	8460.712173
474.413965	8528.490486
474.784393	8593.349972
475.154761	8949.051267
475.525070	9130.658834
475.895321	9198.162404
476.265513	9528.128609
476.635645	9895.976564
477.005719	10061.533097
477.375734	10356.191060
477.745691	10752.259394
478.115588	11178.277224
478.485427	11877.747402
478.855207	12897.840006
479.224928	13859.051934
479.594591	14569.950408
479.964194	14513.963353
480.333739	14872.492735
480.703226	15208.924220
481.072653	15661.161090
481.442022	16114.648167
481.811333	16462.422247
482.180584	16396.163841
482.549777	16491.028274
482.918912	16593.209942
483.287988	16760.785458
483.657005	16860.519646
484.025964	16863.471241
484.394864	17152.828431
484.763706	17322.226323
485.132489	17225.065645
485.501213	17458.864278
485.869879	17765.033716
486.238487	17930.812060
486.607036	18300.764697
486.975527	18313.297005
487.343959	18699.096509
487.712333	19089.397763
488.080648	19262.137941
488.448905	19713.011179
488.817104	19864.694457
489.185244	20635.643156
489.553326	21615.635902
489.921350	23133.824753
490.289315	24972.078982
490.657222	25646.519832
491.025070	26145.102550
491.392861	26074.667549
491.760593	25712.995007
492.128267	25202.926020
492.495883	24730.214503
492.863440	24335.552651
493.230939	23881.470718
493.598380	23675.030427
493.965763	23777.033134
494.333088	23616.752168
494.700354	23647.435151
495.067563	23808.898267
495.434713	23908.909719
495.801805	24312.849815
496.168839	24352.014539
496.535815	24413.796400
496.902733	24691.690006
497.269593	24715.832091
497.636395	24983.708924
498.003139	25382.101231
498.369825	25341.033471
498.736453	25813.079555
499.103023	25853.471800
499.469535	26076.268115
499.835989	26332.126837
500.202385	26357.299839
500.568723	26558.767032
500.935003	26984.139594
501.301226	27020.451025
501.667390	27751.597293
502.033497	28059.359736
502.399546	28014.833744
502.765537	27788.559033
503.131470	28329.938627
503.497345	28840.776391
503.863163	28044.818528
504.228923	28853.419604
504.594625	29333.597070
504.960269	28992.752056
505.325856	29701.785303
505.691385	29534.280363
506.056856	29919.883262
506.422270	30467.627313
506.787625	30135.533742
507.152924	30665.361531
507.518164	30934.231472
507.883347	30626.698402
508.248472	30870.629754
508.613540	31583.166603
508.978550	31897.704357
509.343503	31834.465602
509.708398	32258.114089
510.073236	32899.041348
510.438016	33079.517176
510.802738	32859.249000
511.167403	33464.500013
511.532010	33771.566776
511.896561	34302.221315
512.261053	35076.532464
512.625488	34943.405673
512.989866	34949.462619
513.354186	35048.617074
513.718449	35083.733752
514.082655	35981.691801
514.446803	35756.521103
514.810894	36402.474392
515.174927	36461.029915
515.538904	36507.249734
515.902822	37174.864861
516.266684	36935.982224
516.630488	37317.683270
516.994235	37360.364199
517.357925	37995.693257
517.721558	38281.279663
518.085133	38674.575363
518.448651	38898.982326
518.812112	38817.456786
519.175516	38997.572172
519.538863	39470.434923
519.902152	39558.143439
520.265385	40133.938990
520.628560	40178.724601
520.991678	40156.145272
521.354739	40422.212331
521.717743	40786.294544
522.080690	40737.123130
522.443580	41419.012284
522.806413	41465.839562
523.169189	41609.547735
523.531908	41865.376210
523.894569	41747.367840
524.257174	41966.723567
524.619722	42301.967860
524.982213	42461.941315
525.344647	42514.344110
525.707025	42656.897858
526.069345	43104.993421
526.431608	43030.855692
526.793815	43424.771453
527.155964	42981.704442
527.518057	43263.900672
527.880093	43134.083399
528.242072	43769.157878
528.603995	43520.273592
528.965860	43455.013335
529.327669	43682.092110
529.689421	43739.152930
530.051117	43696.872773
530.412755	43984.140404
530.774337	44068.559567
531.135862	44009.260474
531.497331	44171.320967
531.858743	44165.881562
532.220098	44599.304847
532.581396	44332.826934
532.942638	44088.509933
533.303824	44348.537690
533.664953	44403.932409
534.026025	44114.681083
534.387040	44669.321432
534.747999	44737.094705
535.108902	45061.283747
535.469748	44386.691663
535.830537	44668.605588
536.191270	44921.837870
536.551947	44660.075956
536.912567	44935.096104
537.273131	45098.520230
537.633638	44721.167179
537.994089	44942.375530
538.354483	44689.992684
538.714821	45325.258727
539.075103	45616.980217
539.435328	45488.788716
539.795497	45224.375156
540.155609	45352.506163
540.515665	45957.051415
540.875665	45266.350323
541.235609	45550.111832
541.595496	45664.369584
541.955328	46250.461692
542.315102	45693.900663
542.674821	45567.990284
543.034483	45466.816847
543.394090	45475.263301
543.753640	45465.223843
544.113134	46522.179884
544.472571	45634.745244
544.831953	46763.830115
545.191278	46030.619493
545.550548	45723.283029
545.909761	46369.319497
546.268918	46503.976278
546.628019	46912.624812
546.987064	46368.732203
547.346053	45658.446228
547.704986	46558.145997
548.063863	46217.479943
548.422684	46424.021057
548.781449	46014.092071
549.140158	46548.469502
549.498811	46322.661098
549.857408	45712.626029
550.215949	46543.955148
550.574434	46392.022333
550.932864	46319.480129
551.291237	47027.611010
551.649555	46795.244065
552.007817	46961.213973
552.366022	46642.071126
552.724173	46704.631845
553.082267	47131.433574
553.440305	47463.940520
553.798288	46724.761172
554.156215	47100.158255
554.514086	47305.600398
554.871902	46944.179914
555.229661	47113.950852
555.587365	46791.813560
555.945014	46923.798529
556.302606	46936.671115
556.660143	47043.339410
557.017625	47261.061804
557.375050	46963.588356
557.732421	47371.369812
558.089735	47430.011034
558.446994	47294.446845
558.804197	47766.107281
559.161345	47628.466137
559.518437	46976.808782
559.875474	47239.997342
560.232455	47476.918970
560.589381	47526.468471
560.946251	47328.615786
561.303065	47994.653032
561.659825	47687.621557
562.016528	47477.632293
562.373177	47059.365238
562.729770	47682.149384
563.086307	47217.438179
563.442789	47757.625540
563.799216	47600.575953
564.155587	47484.526071
564.511904	47463.837176
564.868164	47508.907612
565.224370	47819.258687
565.580520	47562.195129
565.936615	47753.590096
566.292654	47407.477076
566.648638	47772.383518
567.004567	47715.484014
567.360441	47813.358016
567.716260	47533.609266
568.072023	47886.404335
568.427732	47818.966300
568.783385	47365.093575
569.138982	47760.554450
569.494525	47900.028054
569.850013	47490.391454
570.205445	47620.652349
570.560823	47405.732837
570.916145	47279.887993
571.271412	47519.867080
571.626625	47166.751897
571.981782	47238.371570
572.336884	46841.121085
572.691931	47162.973553
573.046923	46824.878488
573.401860	46668.053233
573.756743	46682.526385
574.111570	46828.896287
574.466342	46727.944661
574.821059	46878.899492
575.175722	46374.075826
575.530330	46491.829618
575.884882	46117.261805
576.239380	46017.404109
576.593823	46135.656975
576.948211	46045.896710
577.302544	45600.447753
577.656823	45587.527276
578.011047	45846.929930
578.365216	45666.617939
578.719330	45402.960552
579.073389	45371.959976
579.427394	45428.529284
579.781344	45360.229211
580.135239	45113.280728
580.489080	45178.944277
580.842866	44680.374162
581.196597	45162.053892
581.550273	45155.681873
581.903895	45093.564775
582.257463	45522.070414
582.610975	44954.277695
582.964434	45294.759746
583.317837	44801.190455
583.671186	44759.316111
584.024481	45030.338624
584.377721	44576.473461
584.730906	44787.569257
585.084037	44918.901397
585.437113	44608.555364
585.790135	44747.386220
586.143103	44287.509481
586.496016	44472.338346
586.848874	44567.779991
587.201679	44585.713896
587.554428	44102.088281
587.907124	44379.684459
588.259765	44118.033451
588.612352	44291.910408
588.964884	43756.933080
589.317362	44059.188062
589.669786	44062.152260
590.022155	43909.697686
590.374470	44365.097880
590.726731	43935.851192
591.078937	43282.747026
591.431090	43615.211122
591.783188	43141.279646
592.135232	42936.830611
592.487222	43204.420098
592.839157	43350.749671
593.191038	43002.277390
593.542866	42807.068790
593.894639	42214.120713
594.246358	42519.808720
594.598022	42510.790096
594.949633	42080.583068
595.301190	42065.759555
595.652692	42000.978208
596.004141	42464.933240
596.355535	41379.693805
596.706876	41409.255131
597.058162	41137.720941
597.409395	41627.658080
597.760573	41845.894671
598.111698	41432.600714
598.462768	41359.647657
598.813785	41387.316029
599.164748	40978.702784
599.515657	41260.573860
599.866511	40769.658737
600.217312	41445.939607
600.568060	40402.025031
600.918753	41229.916083
601.269392	41138.177165
601.619978	40859.056038
601.970510	41069.927504
602.320988	41193.642460
602.671412	41461.662966
603.021783	41333.310148
603.372100	40901.295867
603.722363	41011.951714
604.072572	41048.154760
604.422728	41036.955837
604.772830	40822.222848
605.122878	40973.117185
605.472872	40841.109531
605.822813	41083.616757
606.172701	40838.334376
606.522534	41179.587723
606.872314	41370.967568
607.222041	41214.250697
607.571714	41539.616849
607.921333	41029.610876
608.270899	41258.940526
608.620411	41641.740543
608.969870	41373.062167
609.319276	41388.488098
609.668627	41435.413678
610.017926	41827.554954
610.367171	41946.949641
610.716362	41990.837927
611.065500	41887.779098
611.414585	42108.551390
611.763616	42296.246150
612.112594	42183.964531
612.461518	42313.418841
612.810389	42692.901779
613.159207	42492.634381
613.507971	42481.460663
613.856682	42957.852222
614.205340	42788.860142
614.553945	43476.770955
614.902496	42799.907831
615.250994	43230.964293
615.599439	43292.597440
615.947830	43398.678441
616.296169	43410.257971
616.644454	43447.479331
616.992686	43609.812046
617.340864	44064.128393
617.688990	43593.919809
618.037063	44257.839770
618.385082	44085.424747
618.733048	44425.886634
619.080961	44289.261282
619.428821	44310.124097
619.776628	44339.617368
620.124382	44129.247497
620.472083	44255.974543
620.819731	44350.912073
621.167326	43900.903393
621.514868	43894.312084
621.862357	43362.732493
622.209793	43432.484418
622.557176	43017.622663
622.904506	42774.054273
623.251783	42396.698702
623.599007	42072.267685
623.946179	42007.602284
624.293297	41753.898655
624.640363	41205.837012
624.987376	41052.124669
625.334336	40847.844512
625.681243	40437.426534
626.028097	40353.834121
626.374899	40178.560763
626.721647	40140.711780
627.068343	39933.369122
627.414987	39638.194441
627.761577	39395.949355
628.108115	39712.755627
628.454600	38961.028848
628.801032	39189.919918
629.147412	39101.906413
629.493739	39007.488122
629.840014	38574.611803
630.186236	38993.574537
630.532405	38444.240003
630.878521	38669.980351
631.224585	38454.130746
631.570597	38116.562482
631.916556	38289.244686
632.262462	38166.396808
632.608316	38106.296172
632.954117	37947.459497
633.299866	37913.961029
633.645562	37837.514452
633.991206	37287.322921
634.336797	36908.008862
634.682336	36801.398540
635.027823	36551.450571
635.373257	36420.196569
635.718639	36092.103153
636.063968	35993.881311
636.409245	35343.915264
636.754470	35296.588911
637.099642	35083.844657
637.444762	34512.283675
637.789829	34650.928009
638.134845	34288.900066
638.479808	34193.234090
638.824719	34149.229858
639.169577	33626.258037
639.514383	33724.394179
639.859137	33342.680530
640.203839	33516.809546
640.548489	33227.459918
640.893086	33223.820205
641.237632	32950.274594
641.582125	33043.525858
641.926566	32853.134080
642.270955	32878.675086
642.615292	32801.487459
642.959576	32695.497200
643.303809	32716.513770
643.647990	32784.798719
643.992118	32747.148862
644.336195	32602.830710
644.680219	32675.940043
645.024192	32878.196177
645.368112	33420.329423
645.711981	33438.805252
646.055797	34160.078421
646.399562	33969.086746
646.743274	34850.577866
647.086935	35235.520374
647.430544	35196.343047
647.774101	35240.054892
648.117606	35508.287126
648.461059	35646.583620
648.804460	35239.954068
649.147810	34739.475876
649.491108	34376.822830
649.834354	34226.672063
650.177548	33395.963006
650.520690	32913.083482
650.863781	32899.555546
651.206820	32728.620101
651.549807	32320.868893
651.892742	31739.422208
652.235626	31652.825267
652.578458	31508.252537
652.921238	30835.714723
653.263967	31135.459210
653.606644	30848.592350
653.949269	30758.118762
654.291843	30371.850431
654.634365	30737.334085
654.976836	30264.287331
655.319255	30346.130464
655.661622	30220.053727
656.003938	30087.002553
656.346203	29908.197868
656.688416	30148.318108
657.030577	29913.168445
657.372687	29738.699152
657.714746	29910.431099
658.056753	30096.873133
658.398708	29482.908485
658.740612	29552.287365
659.082465	29751.120555
659.424266	29651.111624
659.766016	29653.349897
660.107715	29513.306643
660.449362	29628.408788
660.790958	29600.947102
661.132503	29524.838282
661.473996	29603.986918
661.815438	29679.062302
662.156829	29811.090121
662.498168	29611.122672
662.839456	29581.339535
663.180693	29726.098788
663.521879	29802.426898
663.863013	29753.068961
664.204097	29732.049870
664.545129	30144.345678
664.886110	30076.053167
665.227040	30193.219665
665.567918	30183.142398
665.908746	30254.578069
666.249522	30349.631545
666.590248	30375.507788
666.930922	30465.084051
667.271545	30460.247064
667.612118	30518.507679
667.952639	30318.958645
668.293109	30378.502233
668.633528	30230.683000
668.973896	30184.006956
669.314213	30177.181234
669.654480	29983.416924
669.994695	29953.031369
670.334859	29882.598888
670.674973	29723.598376
671.015035	29901.732588
671.355047	29839.827219
671.695008	29780.265986
672.034918	29690.165443
672.374777	29780.180286
672.714585	29659.880712
673.054342	29782.375709
673.394049	29645.410079
673.733705	29862.464520
674.073310	29585.085112
674.412864	29642.234153
674.752368	29334.461628
675.091820	29564.958305
675.431223	29161.792026
675.770574	28965.388673
676.109875	28791.481468
676.449125	28573.184383
676.788324	28475.196955
677.127473	28011.748558
677.466571	27899.540035
677.805619	27628.313356
678.144616	27569.145333
678.483562	27512.999482
678.822458	27201.660341
679.161303	27153.005645
679.500098	27071.354076
679.838842	26999.946132
680.177535	27075.525631
680.516179	27329.917377
680.854771	27453.327344
681.193314	28240.896727
681.531805	29257.546223
681.870247	30010.291315
682.208638	30717.940766
682.546978	30992.537457
682.885268	31122.546294
683.223508	30669.170123
683.561697	30407.995504
683.899836	30249.985578
684.237925	29837.228504
684.575963	29691.158551
684.913951	29316.593258
685.251889	29489.444341
685.589776	29527.973880
685.927614	29533.282215
686.265401	29718.559742
686.603137	29833.309007
686.940824	30337.371459
687.278460	30683.902895
687.616046	30848.425992
687.953582	31518.637314
688.291068	31432.602462
688.628504	31751.871337
688.965889	31736.435324
689.303224	31476.460500
689.640510	31168.599755
689.977745	30543.229497
690.314930	29805.091148
690.652065	29364.340547
690.989150	28687.643781
691.326185	27841.236571
691.663170	27218.843114
692.000105	26490.048543
692.336990	25877.046756
692.673825	25445.395438
693.010610	24963.503980
693.347345	24476.228570
693.684030	23857.426935
694.020665	23654.916223
694.357251	22977.906906
694.693786	22987.487619
695.030272	22760.154265
695.366707	22264.021548
695.703093	21988.714054
696.039429	22053.974311
696.375716	21826.361174
696.711952	21833.857370
697.048139	21702.752082
697.384276	21527.672808
697.720363	21652.179226
698.056400	21539.181763
698.392388	21390.651726
698.728326	21379.621682
699.064214	21214.680169
699.400053	21220.137218
699.735842	20839.923313
700.071581	20631.995881
700.407270	20388.067049
700.742910	20211.561130
701.078501	19967.102977
701.414042	19764.826679
701.749533	19465.467840
702.084974	19148.195261
702.420366	19387.377846
702.755709	18971.124732
703.091002	18675.161110
703.426246	18742.899095
703.761440	18667.117949
704.096584	18430.143389
704.431679	18365.311630
704.766725	18317.798755
705.101721	18248.180421
705.436668	18381.624804
705.771565	18092.895238
706.106413	18414.243590
706.441212	18476.017889
706.775961	18594.384182
707.110661	18675.188837
707.445311	19033.584628
707.779913	18917.834695
708.114465	19215.645899
708.448967	19534.269508
708.783421	20165.298461
709.117825	20527.318842
709.452180	20754.715210
709.786485	21209.432328
710.120742	21976.494297
710.454949	22072.155232
710.789107	22591.888112
711.123216	23292.001037
711.457275	23511.011446
711.791286	24067.582557
712.125247	24216.747778
712.459159	23950.342962
712.793023	24697.036149
713.126837	23660.466534
713.460602	23905.058277
713.794318	23558.191604
714.127985	23296.386841
714.461602	22394.806723
714.795171	22370.745295
715.128691	21398.155484
715.462162	20878.528469
715.795584	20452.094744
716.128957	20189.352327
716.462281	19809.728236
716.795556	19533.455361
717.128782	19053.998781
717.461960	18458.517524
717.795088	18419.831709
718.128167	18076.342610
718.461198	17621.023074
718.794180	17499.846338
719.127113	17165.277560
719.459997	16973.693549
719.792833	16608.106552
720.125619	16644.675082
720.458357	16329.960888
720.791046	16183.006213
721.123686	16040.238215
721.456278	15820.393496
721.788821	15799.850794
722.121315	15544.662545
722.453761	15654.037940
722.786158	15544.710436
723.118506	15615.788185
723.450805	15510.082750
723.783056	15689.467169
724.115259	15581.168061
724.447412	15571.796556
724.779518	15793.113292
725.111574	15844.414594
725.443582	16102.680467
725.775542	16056.919393
726.107453	16578.015905
726.439315	16503.127044
726.771129	16924.363338
727.102895	17342.022935
727.434612	17611.112165
727.766281	17775.746168
728.097901	18091.047655
728.429473	18176.502775
728.760996	18196.889201
729.092471	18303.025654
729.423897	18197.526907
729.755276	18072.034944
730.086606	18189.776133
730.417887	18767.636037
730.749120	19331.897428
731.080305	19536.497698
731.411442	19928.621329
731.742530	20053.175638
732.073570	20207.777744
732.404562	20526.224912
732.735506	20364.391270
733.066401	20152.473766
733.397249	19663.310443
733.728048	19030.872487
734.058798	18162.397626
734.389501	17417.746107
734.720156	16907.551090
735.050762	16326.122050
735.381320	15945.860253
735.711831	15685.847620
736.042293	15314.909438
736.372707	15353.239851
736.703073	15146.139169
737.033391	15347.591238
737.363661	15351.180540
737.693883	15471.114631
738.024056	15673.862277
738.354182	15897.104734
738.684260	16256.226452
739.014290	16532.937907
739.344272	16762.784275
739.674207	17113.053727
740.004093	17280.107483
740.333931	17336.243252
740.663722	17410.572545
740.993464	17449.230633
741.323159	17288.632074
741.652806	16986.432545
741.982405	16818.683110
742.311956	16464.358050
742.641460	16354.849065
742.970915	16020.923034
743.300323	15675.873697
743.629683	15455.358505
743.958996	15138.839578
744.288260	14831.361961
744.617477	14532.716446
744.946647	14493.919726
745.275768	14186.399259
745.604842	13982.091376
745.933869	13807.541424
746.262847	13776.361887
746.591778	13699.433879
746.920662	13583.124378
747.249498	13590.653341
747.578286	13746.614038
747.907027	13931.490794
748.235720	14190.023848
748.564365	14260.927677
748.892963	14186.641234
749.221514	14292.568479
749.550017	14157.510927
749.878473	14122.870638
750.206881	13903.671186
750.535242	13820.915605
750.863555	13745.852824
751.191821	13644.379438
751.520039	13668.728211
751.848210	13593.148712
752.176334	13649.130726
752.504411	13558.599164
752.832440	13385.347310
753.160421	13506.687883
753.488356	13395.943815
753.816243	13308.273108
754.144082	13151.205878
754.471875	13092.494080
754.799620	13058.887228
755.127318	13038.004248
755.454969	13024.746013
755.782572	12990.937515
756.110129	13000.321623
756.437638	12912.212336
756.765100	12917.944128
757.092515	12944.044702
757.419882	12977.863282
757.747203	12999.303310
758.074477	13082.822626
758.401703	13064.921489
758.728882	13266.310544
759.056014	13305.442501
759.383099	13481.993791
759.710138	13604.324950
760.037129	13721.743506
760.364073	13788.463177
760.690970	13807.581753
761.017820	13825.031707
761.344623	14056.955031
761.671379	14435.003761
761.998088	15127.938083
762.324751	16908.042603
762.651366	20333.120993
762.977935	24796.503156
763.304456	27739.317043
763.630931	28753.985365
763.957359	27547.725470
764.283740	25275.571568
764.610074	23014.243543
764.936362	20393.604757
765.262602	18517.635135
765.588796	16606.571521
765.914943	15336.160422
766.241044	14233.735693
766.567097	13452.840798
766.893104	12740.316552
767.219064	12268.209973
767.544978	11800.562296
767.870845	11417.122052
768.196665	11199.850842
768.522438	10960.108688
768.848165	10763.821281
769.173846	10557.658253
769.499479	10424.171020
769.825066	10260.625907
770.150607	10034.663747
770.476101	9948.472619
770.801548	9828.939300
771.126949	9671.093211
771.452303	9560.434843
771.777611	9358.629893
772.102872	9356.489923
772.428087	9213.719405
772.753256	9055.855672
773.078378	8961.424779
773.403453	8784.213097
773.728482	8671.248402
774.053465	8600.775591
774.378401	8499.234150
774.703291	8370.286476
775.028135	8251.957992
775.352932	8218.701500
775.677683	8108.653112
776.002388	8003.499684
776.327046	8017.567023
776.651658	7918.057167
776.976224	7816.961868
777.300743	7817.982702
777.625216	7730.150678
777.949643	7681.339706
778.274024	7697.531892
778.598359	7620.540870
778.922647	7637.645505
779.246889	7582.838080
779.571086	7590.480470
779.895236	7601.820545
780.219339	7616.417206
780.543397	7620.984492
780.867409	7693.519134
781.191374	7703.235958
781.515294	7668.484764
781.839167	7771.185670
782.162995	7741.074858
782.486776	7682.741147
782.810511	7632.808518
783.134201	7551.285498
783.457844	7540.268057
783.781441	7487.167063
784.104993	7421.460663
784.428498	7398.972076
784.751958	7382.308542
785.075372	7357.372475
785.398739	7300.490615
785.722061	7346.715475
786.045337	7352.636311
786.368568	7498.255081
786.691752	7536.620782
787.014891	7876.266002
787.337983	8238.903924
787.661030	8830.463163
787.984031	9455.984656
788.306987	9852.365542
788.629897	10058.571419
788.952760	9999.166463
789.275579	9775.745045
789.598351	9381.209221
789.921078	9027.438688
790.243759	8613.839742
790.566395	8327.693767
790.888984	8077.029954
791.211529	7864.956173
791.534027	7647.261506
791.856480	7445.796834
792.178888	7373.075669
792.501249	7274.584126
792.823566	7118.590661
793.145836	7126.288503
793.468062	7096.865808
793.790241	7050.280506
794.112375	7118.416741
794.434464	7266.669514
794.756507	7311.356822
795.078505	7478.120712
795.400457	7789.303577
795.722364	8136.278635
796.044226	8421.870083
796.366042	8702.927012
796.687812	8644.270667
797.009538	8722.295125
797.331218	8615.578940
797.652852	8530.106176
797.974442	8381.548413
798.295986	8286.149618
798.617484	8092.949917
798.938938	7954.759288
799.260346	7855.801438
799.581709	7654.079667
799.903026	7572.584373
800.224299	7469.323899
800.545526	7294.229502
800.866708	7199.465892
801.187845	7132.554657
801.508936	7032.523041
801.829983	6988.934705
802.150984	6838.201684
802.471940	6797.877494
802.792851	6785.083046
803.113717	6754.904178
803.434538	6719.379167
803.755314	6663.997051
804.076045	6662.502349
804.396731	6611.649710
804.717372	6642.604915
805.037967	6644.896119
805.358518	6686.011770
805.679024	6771.930676
805.999485	6782.393590
806.319901	6824.714077
806.640272	6849.629980
806.960598	6927.044459
807.280879	6926.805004
807.601115	7005.310893
807.921306	6950.488345
808.241453	6964.217927
808.561554	6991.646845
808.881611	6948.093797
809.201623	6958.682740
809.521590	6899.237454
809.841513	6877.991511
810.161390	6922.353665
810.481223	6790.376258
810.801011	6769.924296
811.120755	6750.914105
811.440453	6676.998187
811.760107	6638.819008
812.079716	6612.857066
812.399281	6542.626231
812.718801	6533.325302
813.038276	6487.909547
813.357707	6422.843375
813.677093	6465.839376
813.996434	6371.574840
814.315731	6414.895996
814.634983	6410.452218
814.954191	6416.897334
815.273354	6526.360948
815.592473	6588.825886
815.911547	6713.017231
816.230577	6796.080323
816.549562	6937.444359
816.868502	7044.881430
817.187399	7142.536142
817.506250	7289.924357
817.825058	7323.874007
818.143821	7592.507013
818.462539	7866.919702
818.781213	8232.647852
819.099843	8781.407695
819.418429	9785.545048
819.736970	10757.093861
820.055466	11931.581884
820.373919	13462.562663
820.692327	15797.998170
821.010691	19948.485996
821.329011	28937.269116
821.647286	41955.007926
821.965517	55391.061681
822.283704	60779.397272
822.601847	62745.711933
822.919945	60007.800785
823.237999	55765.160667
823.556010	49547.149456
823.873976	42829.325484
824.191897	36321.697464
824.509775	31488.667654
824.827609	26989.531108
825.145398	24414.532408
825.463144	23057.607548
825.780845	23365.279250
826.098502	25163.267263
826.416116	28941.120558
826.733685	32597.177056
827.051210	33750.905607
827.368692	31956.464046
827.686129	27998.001332
828.003522	23872.956209
828.320872	20178.420584
828.638177	17336.659147
828.955439	15198.552046
829.272656	13383.605591
829.589830	11912.203689
829.906960	10642.984823
830.224046	9713.010406
830.541088	8967.022980
830.858086	8510.246551
831.175041	8136.210579
831.491952	8017.567023
831.808819	8067.807163
832.125642	8469.420766
832.442421	9358.294656
832.759157	11150.588686
833.075849	14083.232045
833.392497	17297.219680
833.709101	19469.205856
834.025662	19304.657553
834.342179	17604.200743
834.658653	15406.481998
834.975083	13474.157317
835.291469	11864.489167
835.607811	10554.530217
835.924110	9647.639243
836.240366	8780.263353
836.556578	7980.345664
836.872746	7337.699372
837.188871	6837.574060
837.504952	6424.902686
837.820990	6112.678822
838.136984	5898.419702
838.452935	5801.995032
838.768842	5835.117933
839.084706	6259.857830
839.400526	7471.284908
839.716303	9044.455103
840.032037	10140.318770
840.347727	10058.795751
840.663373	9082.447759
840.978977	8045.404275
841.294537	7235.265646
841.610054	6644.621376
841.925527	6210.547783
842.240957	5851.529409
842.556344	5519.793760
842.871687	5235.147528
843.186987	4956.893480
843.502244	4730.412082
843.817458	4569.546342
844.132629	4432.192544
844.447756	4343.180890
844.762840	4264.675002
845.077881	4188.334288
845.392879	4128.299187
845.707833	4078.273297
846.022745	4034.100186
846.337613	4010.028677
846.652438	3962.782983
846.967221	3946.641208
847.281960	3914.050149
847.596656	3896.804361
847.911309	3877.990775
848.225919	3855.066128
848.540485	3837.240608
848.855009	3824.826767
849.169490	3804.120227
849.483928	3792.288639
849.798323	3782.355046
850.112675	3763.551542
850.426984	3768.174280
850.741251	3757.290429
851.055474	3751.392279
851.369654	3755.941920
851.683792	3752.259357
851.997887	3759.478289
852.311938	3758.822939
852.625947	3762.923918
852.939914	3751.556116
853.253837	3763.508692
853.567718	3762.291253
853.881555	3751.369593
854.195350	3764.874845
854.509103	3758.492744
854.822812	3760.705810
855.136479	3755.218514
855.450103	3759.473248
855.763685	3749.660642
856.077224	3753.209615
856.390720	3767.047582
856.704173	3788.825367
857.017584	3803.346410
857.330953	3813.373265
857.644278	3836.277748
857.957561	3844.746886
858.270802	3838.609281
858.584000	3840.335877
858.897155	3833.726924
859.210268	3819.704954
859.523339	3797.418013
859.836367	3793.884164
860.149352	3792.311324
860.462295	3783.670787
860.775195	3768.887603
861.088054	3765.247890
861.400869	3766.863580
861.713642	3762.303856
862.026373	3777.576032
862.339062	3779.617699
862.651708	3798.912715
862.964312	3828.980677
863.276873	3847.335519
863.589392	3901.177562
863.901869	3947.084830
864.214303	3995.898322
864.526696	4026.561141
864.839045	4072.458326
865.151353	4102.238942
865.463619	4111.645735
865.775842	4117.362404
866.088023	4135.208088
866.400162	4121.498671
866.712258	4131.157521
867.024313	4135.283706
867.336325	4133.121051
867.648296	4136.304539
867.960224	4140.161022
868.272110	4144.549347
868.583954	4152.902538
868.895755	4163.335206
869.207515	4158.553672
869.519233	4201.695867
869.830909	4218.997107
870.142542	4241.158019
870.454134	4251.759565
870.765684	4281.819966
871.077191	4321.821522
871.388657	4344.945294
871.700081	4382.154051
872.011463	4424.053601
872.322803	4458.557778
872.634101	4491.045494
872.945357	4530.066546
873.256571	4584.009413
873.567744	4609.936067
873.878874	4631.575220
874.189963	4670.687012
874.501010	4677.676572
874.812015	4678.394936
875.122979	4721.766503
875.433900	4718.194846
875.744780	4729.282863
876.055618	4760.860651
876.366415	4755.718674
876.677169	4777.161222
876.987882	4824.727029
877.298554	4874.231160
877.609183	4952.404333
877.919771	5062.946754
878.230317	5207.471594
878.540822	5424.256333
878.851285	5746.393625
879.161707	6202.897832
879.472087	6958.226516
879.782425	8190.581944
880.092722	10365.365960
880.402977	13672.380527
880.713191	17430.873271
881.023363	21161.049854
881.333494	23376.266444
881.643583	24589.767957
881.953631	24560.544388
882.263637	23714.815213
882.573602	22237.116910
882.883526	20665.055768
883.193408	18990.588627
883.503248	17287.505376
883.813048	15754.019144
884.122806	14332.832175
884.432522	12853.356865
884.742197	11594.689134
885.051831	10508.754020
885.361424	9513.065641
885.670975	8695.634983
885.980485	8012.757763
886.289954	7440.881709
886.599382	6974.779145
886.908768	6594.749241
887.218113	6235.466207
887.527417	5952.899451
887.836680	5686.096384
888.145901	5462.017096
888.455082	5304.097910
888.764221	5148.043952
889.073319	5020.429663
889.382376	4948.497438
889.691392	4891.096340
890.000366	4865.202453
890.309300	4845.138661
890.618193	4847.034135
890.927044	4833.904450
891.235855	4858.588460
891.544625	4890.831680
891.853353	4948.094146
892.162041	5068.156787
892.470687	5254.351804
892.779293	5500.569320
893.087858	5872.009097
893.396381	6451.071316
893.704864	7251.006649
894.013306	8401.899552
894.321707	9576.395136
894.630068	10396.306042
894.938387	10601.541497
895.246665	10359.208191
895.554903	9753.064893
895.863100	9061.340448
896.171256	8500.955704
896.479371	7993.530802
896.787446	7500.223651
897.095480	7072.219607
897.403473	6754.921823
897.711425	6431.965342
898.019336	6171.698131
898.327207	5896.199073
898.635038	5667.852448
898.942827	5420.543523
899.250576	5230.129060
899.558284	5035.346437
899.865952	4916.586935
900.173579	4771.225263
900.481165	4662.313655
900.788711	4570.292433
901.096216	4493.780320
901.403681	4435.305456
901.711105	4407.712701
902.018489	4393.186616
902.325832	4463.911484
902.633135	4588.647274
902.940397	4932.489254
903.247619	5724.391509
903.554800	7163.552712
903.861941	9077.729239
904.169041	10593.936917
904.476101	11213.474560
904.783121	10848.764723
905.090100	10110.570921
905.397039	9275.561760
905.703938	8523.363633
906.010796	7831.803025
906.317614	7282.997811
906.624391	6751.922336
906.931129	6323.585576
907.237826	5923.731335
907.544483	5555.802722
907.851099	5183.112738
908.157675	4829.682483
908.464211	4510.106097
908.770707	4275.470633
909.077163	4076.324891
909.383578	3935.187707
909.689954	3815.523317
909.996289	3750.396651
910.302584	3684.826363
910.608839	3654.891991
910.915054	3622.883185
911.221229	3610.081175
911.527363	3619.591311
911.833458	3630.850728
912.139513	3663.146881
912.445527	3690.681663
912.751502	3771.231740
913.057436	3875.308881
913.363331	4008.438193
913.669186	4212.640212
913.975000	4469.441630
914.280775	4887.373448
914.586510	5469.387263
914.892205	6262.154075
915.197859	7298.401057
915.503475	8522.597378
915.809050	9571.953880
916.114585	10218.766686
916.420081	10478.065996
916.725536	10437.958576
917.030952	9996.610598
917.336328	9589.650850
917.641665	9171.398919
917.946961	8695.163635
918.252218	8280.934544
918.557435	7766.449506
918.862612	7339.554516
919.167750	6965.997455
919.472848	6541.078597
919.777906	6170.936917
920.082925	5814.308050
920.387904	5448.030414
920.692843	5182.495197
920.997743	4937.543011
921.302603	4703.827557
921.607423	4543.513824
921.912204	4378.862177
922.216946	4263.848252
922.521647	4146.182680
922.826310	4039.627812
923.130932	3944.763378
923.435516	3847.595138
923.740059	3779.330353
924.044564	3700.416131
924.349028	3641.759785
924.653454	3579.816608
924.957840	3510.359590
925.262186	3468.157570
925.566493	3404.021491
925.870761	3345.065196
926.174989	3310.876091
926.479178	3275.154475
926.783328	3233.302816
927.087438	3204.616130
927.391509	3170.530368
927.695541	3143.061121
927.999533	3114.311420
928.303486	3096.483380
928.607400	3079.313210
928.911275	3064.419121
929.215110	3052.416133
929.518906	3041.817107
929.822663	3036.957435
930.126381	3039.261242
930.430060	3046.255843
930.733699	3044.803991
931.037299	3060.025755
931.340861	3059.108265
931.644383	3061.986764
931.947866	3062.874007
932.251309	3056.209602
932.554714	3057.374108
932.858080	3049.648540
933.161407	3040.576983
933.464694	3034.819986
933.767943	3029.947711
934.071153	3024.596526
934.374323	3011.595390
934.677455	3006.889473
934.980548	2998.415293
935.283602	2996.534943
935.586617	2989.726865
935.889593	3001.520644
936.192530	3002.607013
936.495428	3020.026720
936.798287	3040.372817
937.101108	3073.382292
937.403890	3125.623769
937.706632	3187.708100
938.009336	3267.305398
938.312002	3337.891634
938.614628	3403.146850
938.917216	3452.353553
939.219765	3483.321361
939.522275	3517.205477
939.824747	3523.701003
940.127179	3521.301414
940.429573	3515.972915
940.731929	3511.340094
941.034246	3496.937518
941.336524	3484.551403
941.638763	3465.573979
941.940964	3454.281794
942.243126	3410.065834
942.545250	3388.507340
942.847335	3350.066021
943.149381	3318.664674
943.451389	3283.273253
943.753359	3248.758993
944.055290	3225.733523
944.357182	3198.811241
944.659036	3185.550486
944.960851	3174.908610
945.262628	3165.642969
945.564367	3161.264727
945.866067	3158.663492
946.167729	3156.934376
946.469352	3156.367246
946.770937	3151.003458
947.072484	3133.825727
947.373992	3138.521562
947.675462	3130.112917
947.976893	3110.659104
948.278286	3102.873042
948.579641	3097.342896
948.880958	3090.335692
949.182236	3092.180755
949.483476	3085.886874
949.784678	3087.162286
950.085841	3090.000456
950.386967	3100.138216
950.688054	3115.672532
950.989103	3135.005357
951.290114	3155.069149
951.591087	3186.427647
951.892021	3213.531410
952.192917	3241.782036
952.493776	3266.786159
952.794596	3272.885956
953.095378	3280.356946
953.396122	3274.610030
953.696828	3267.257507
953.997496	3255.194026
954.298126	3234.283320
954.598718	3215.835217
954.899272	3186.934282
955.199788	3159.228101
955.500266	3124.736526
955.800706	3090.292843
956.101108	3053.686504
956.401472	3022.632996
956.701798	2988.902636
957.002087	2947.844958
957.302337	2923.216401
957.602550	2892.505692
957.902724	2866.543750
958.202861	2840.349914
958.502960	2820.187820
958.803022	2799.317443
959.103045	2774.094029
959.403031	2763.610950
959.702979	2748.679052
960.002889	2735.894686
960.302762	2721.776935
960.602596	2710.323433
960.902393	2699.731969
961.202153	2696.515713
961.501875	2687.557582
961.801559	2680.071469
962.101205	2675.294976
962.400814	2671.370437
962.700385	2664.829540
962.999918	2654.646410
963.299414	2650.873106
963.598873	2648.347488
963.898293	2640.505973
964.197677	2641.040335
964.497022	2641.567136
964.796331	2637.007412
965.095601	2633.677730
965.394835	2633.229067
965.694030	2632.843419
965.993189	2630.499283
966.292309	2626.269755
966.591393	2629.407873
966.890439	2628.293778
967.189447	2628.197996
967.488419	2627.527523
967.787353	2629.269241
968.086249	2631.356279
968.385108	2634.007926
968.683930	2635.321146
968.982714	2636.977165
969.281462	2642.570326
969.580172	2647.341778
969.878844	2652.755977
970.177480	2661.651093
970.476078	2669.432114
970.774639	2677.545851
971.073162	2685.957016
971.371649	2690.630166
971.670098	2697.634849
971.968510	2701.050231
972.266885	2703.212886
972.565223	2707.197918
972.863524	2713.025492
973.161788	2715.379711
973.460014	2715.878785
973.758204	2721.066132
974.056356	2722.782645
974.354471	2724.393294
974.652550	2722.931359
974.950591	2723.652244
975.248595	2722.361709
975.546563	2720.856924
975.844493	2715.727550
976.142386	2709.577342
976.440243	2703.832948
976.738062	2701.196424
977.035845	2694.355578
977.333590	2688.142356
977.631299	2683.030626
977.928971	2674.957218
978.226606	2669.835406
978.524204	2667.047648
978.821765	2662.450116
979.119290	2666.115035
979.416777	2663.894406
979.714228	2666.183090
980.011642	2672.431600
980.309020	2679.272446
980.606360	2692.220650
980.903664	2715.503219
981.200931	2751.915473
981.498162	2800.983544
981.795356	2875.242261
982.092513	2964.296764
982.389633	3066.675037
982.686717	3164.564162
982.983764	3235.498238
983.280775	3283.003551
983.577749	3292.959830
983.874686	3279.893159
984.171587	3247.145824
984.468451	3209.954712
984.765279	3162.691374
985.062070	3118.767800
985.358824	3073.319278
985.655543	3016.127387
985.952224	2964.160653
986.248869	2903.455078
986.545478	2842.358814
986.842050	2788.683129
987.138586	2741.651684
987.435086	2702.320602
987.731549	2671.292300
988.027975	2648.561737
988.324366	2634.128913
988.620719	2616.684001
988.917037	2607.030191
989.213318	2598.034252
989.509563	2591.377408
989.805772	2587.329362
990.101944	2580.927096
990.398080	2581.340471
990.694180	2580.854000
990.990244	2580.402816
991.286271	2582.557910
991.582262	2579.694534
991.878217	2583.258630
992.174136	2586.905905
992.470019	2589.323138
992.765865	2589.960844
993.061676	2595.695157
993.357450	2603.861826
993.653188	2614.632251
993.948890	2628.775208
994.244556	2647.545944
994.540186	2673.621313
994.835780	2700.964531
995.131337	2740.555233
995.426859	2780.476130
995.722345	2826.378357
996.017795	2876.174874
996.313208	2915.616862
996.608586	2941.949329
996.903928	2957.337451
997.199234	2957.239149
997.494504	2953.733026
997.789738	2937.291303
998.084936	2912.456058
998.380099	2881.344578
998.675225	2854.303828
998.970316	2823.651092
999.265371	2785.628189
999.560390	2750.274577
999.855373	2723.558983
1000.150320	2691.955989
1000.445232	2666.931702
1000.740108	2648.166006
1001.034948	2626.393263
1001.329752	2614.846500
1001.624521	2601.593307
1001.919254	2587.596543
1002.213951	2582.008424
1002.508613	2571.837896
1002.803239	2570.058369
1003.097829	2560.646534
1003.392384	2557.483210
1003.686903	2553.256203
1003.981386	2552.736964
1004.275834	2548.603218
1004.570246	2543.829245
1004.864623	2540.360931
1005.158964	2537.464788
1005.453270	2536.270035
1005.747540	2533.421783
1006.041775	2532.781557
1006.335974	2532.111083
1006.630138	2527.258973
1006.924266	2530.989426
1007.218359	2528.473891
1007.512416	2525.822244
1007.806438	2520.970133
1008.100425	2526.835516
1008.394376	2524.846780
1008.688292	2528.173942
1008.982172	2525.822244
1009.276017	2525.643283
1009.569827	2523.246214
1009.863602	2523.634383
1010.157341	2522.527850
1010.451045	2520.339989
1010.744714	2520.927283
1011.038347	2522.094310
1011.331945	2520.082890
1011.625508	2518.149607
1011.919036	2516.591891
1012.212528	2517.186747
1012.505986	2515.303876
1012.799408	2517.027951
1013.092795	2516.123064
1013.386147	2514.701458
1013.679464	2516.102899
1013.972745	2514.426715
1014.265992	2512.372445
1014.559204	2516.856552
1014.852380	2515.971829
1015.145521	2513.010151
1015.438628	2515.147600
1015.731699	2517.300173
1016.024736	2515.936541
1016.317737	2515.298835
1016.610703	2517.184227
1016.903635	2519.803106
1017.196531	2522.079187
1017.489393	2520.314783
1017.782219	2520.430730
1018.075011	2522.855525
1018.367768	2525.227387
1018.660490	2524.995494
1018.953177	2524.995494
1019.245829	2524.995494
