Dividing Wavelength (nm)	Counts (n)	Blue Motor Position (mm): 14.300000	Red Motor Position (mm): 0.000000	
326.493990	2135.987296
326.888308	2135.987296
327.282561	2135.987296
327.676750	2103.728953
328.070874	2102.488829
328.464933	2102.652666
328.858929	2109.438059
329.252859	2119.628752
329.646726	2133.512090
330.040528	2145.958698
330.434265	2161.908909
330.827938	2178.428770
331.221547	2198.676565
331.615091	2217.979143
332.008571	2235.421535
332.401986	2256.475914
332.795338	2273.855292
333.188625	2296.903448
333.581847	2313.861889
333.975006	2331.707574
334.368100	2347.567044
334.761129	2367.620754
335.154095	2383.150028
335.546996	2405.023595
335.939833	2424.767274
336.332606	2436.954263
336.725315	2449.882302
337.117960	2456.266923
337.510540	2465.903089
337.903056	2478.599235
338.295508	2485.503095
338.687896	2490.564414
339.080220	2505.080416
339.472480	2508.452948
339.864676	2513.536952
340.256807	2519.122550
340.648875	2521.295288
341.040879	2523.367202
341.432818	2522.341327
341.824694	2524.372912
342.216506	2527.374919
342.608253	2525.945752
342.999937	2525.234949
343.391557	2526.031452
343.783113	2524.451050
344.174605	2525.857532
344.566033	2522.048940
344.957397	2521.776718
345.348697	2521.890144
345.739934	2518.865451
346.131106	2516.138187
346.522215	2514.177178
346.913260	2511.041581
347.304241	2510.640809
347.695159	2511.578463
348.086012	2506.610406
348.476802	2507.172495
348.867528	2506.544871
349.258191	2501.604541
349.648789	2499.152019
350.039324	2499.341063
350.429796	2500.858450
350.820203	2498.410970
351.210548	2495.411483
351.600828	2495.734117
351.991045	2495.267810
352.381198	2495.741679
352.771288	2494.899806
353.161314	2494.544405
353.551276	2492.046513
353.941175	2493.546256
354.331010	2494.587254
354.720782	2494.340238
355.110490	2495.083808
355.500135	2491.948210
355.889717	2493.296719
356.279235	2492.681698
356.668689	2493.868890
357.058080	2494.554487
357.447408	2493.120279
357.836672	2489.951913
358.225873	2492.769918
358.615010	2490.783704
359.004084	2496.288644
359.393095	2495.860146
359.782043	2496.144971
360.170927	2497.707729
360.559748	2497.803511
360.948505	2501.775940
361.337199	2494.350320
361.725830	2500.747544
362.114398	2501.561691
362.502903	2498.836947
362.891344	2504.125118
363.279722	2502.524551
363.668037	2503.134531
364.056289	2503.580673
364.444478	2505.655108
364.832603	2501.801146
365.220665	2502.932885
365.608665	2503.197545
365.996601	2502.474140
366.384474	2503.573111
366.772284	2505.645025
367.160031	2503.404233
367.547715	2504.309120
367.935336	2505.730725
368.322893	2504.911538
368.710388	2507.149810
369.097820	2508.838596
369.485189	2505.745848
369.872495	2509.103257
370.259738	2505.312309
370.646918	2508.117711
371.034035	2506.517145
371.421090	2507.772392
371.808081	2506.774244
372.195010	2505.803822
372.581875	2507.888339
372.968678	2507.938750
373.355418	2509.685510
373.742096	2509.398164
374.128710	2510.124091
374.515262	2510.683659
374.901751	2510.756755
375.288177	2510.708864
375.674540	2512.226252
376.060841	2510.560150
376.447079	2510.338340
376.833254	2511.971673
377.219367	2507.225427
377.605417	2509.352794
377.991404	2507.386744
378.377329	2508.183246
378.763191	2506.696106
379.148991	2512.604338
379.534727	2512.858917
379.920402	2513.882271
380.306013	2514.474606
380.691563	2513.854544
381.077049	2513.846983
381.462474	2515.883609
381.847835	2516.448218
382.233134	2516.365039
382.618371	2515.059380
383.003545	2515.525687
383.388657	2515.492919
383.773706	2516.972498
384.158693	2516.181037
384.543618	2517.204391
384.928480	2514.948475
385.313280	2515.629031
385.698017	2519.908970
386.082692	2517.282529
386.467305	2516.284381
386.851856	2516.034843
387.236344	2517.315297
387.620770	2519.014165
388.005133	2514.862775
388.389435	2517.438805
388.773674	2518.101717
389.157851	2515.437467
389.541965	2518.459638
389.926018	2519.828312
390.310008	2518.240348
390.693936	2518.326048
391.077802	2519.556089
391.461606	2521.368384
391.845348	2521.025586
392.229027	2520.060205
392.612645	2521.045750
392.996200	2517.832015
393.379694	2524.541791
393.763125	2519.228414
394.146494	2520.342509
394.529801	2521.796882
394.913047	2521.842253
395.296230	2520.529032
395.679351	2522.535411
396.062410	2521.512057
396.445408	2520.997859
396.828343	2522.404341
397.211217	2518.716737
397.594028	2522.840401
397.976778	2521.567510
398.359466	2521.945596
398.742092	2517.642972
399.124656	2523.372243
399.507158	2522.255627
399.889598	2524.738396
400.271977	2524.632531
400.654294	2525.945752
401.036549	2524.498941
401.418742	2523.997346
401.800874	2525.129085
402.182944	2522.863086
402.564952	2523.168076
402.946898	2524.415762
403.328783	2524.904754
403.710606	2524.201513
404.092367	2525.484486
404.474067	2526.124713
404.855705	2523.636903
405.237282	2525.234949
405.618797	2526.885927
406.000250	2528.287368
406.381642	2525.239990
406.762972	2528.186545
407.144240	2524.922398
407.525447	2525.547501
407.906593	2527.284178
408.287677	2524.123375
408.668700	2528.945238
409.049661	2526.187727
409.430560	2524.531708
409.811399	2527.221164
410.192176	2529.167049
410.572891	2531.957328
410.953545	2524.864424
411.334138	2530.102183
411.714669	2529.141843
412.095139	2528.184024
412.475547	2528.274765
412.855894	2528.713345
413.236180	2528.642769
413.616405	2531.589324
413.996568	2529.822399
414.376670	2529.618233
414.756711	2531.450692
415.136691	2530.089580
415.516609	2532.113604
415.896466	2530.628984
416.276262	2531.390198
416.655997	2526.916174
417.035670	2524.282171
417.415283	2531.362472
417.794834	2526.515402
418.174324	2529.978675
418.553753	2531.415404
418.933121	2531.022194
419.312428	2530.349200
419.691674	2532.466484
420.070859	2531.024714
420.449983	2527.425331
420.829045	2531.241484
421.208047	2532.045548
421.586988	2531.460774
421.965867	2531.942204
422.344686	2529.913140
422.723444	2533.479756
423.102141	2532.249715
423.480777	2534.460261
423.859352	2529.131761
424.237866	2536.023018
424.616319	2532.035466
424.994712	2534.591331
425.373044	2534.243491
425.751314	2534.356917
426.129524	2533.651156
426.507673	2534.137627
426.885762	2535.229037
427.263789	2535.534027
427.641756	2532.093439
428.019662	2534.125024
428.397508	2534.372041
428.775292	2535.438245
429.153016	2531.375075
429.530679	2535.128214
429.908282	2534.674510
430.285824	2536.653163
430.663305	2534.868594
431.040726	2535.057637
431.418086	2535.024870
431.795385	2533.749458
432.172624	2534.997144
432.549802	2538.621733
432.926920	2535.176105
433.303977	2536.713657
433.680974	2535.781043
434.057910	2536.726259
434.434786	2535.445806
434.811601	2535.589479
435.188355	2536.738862
435.565050	2537.658873
435.941683	2536.993441
436.318257	2536.421270
436.694770	2532.537061
437.071222	2535.677699
437.447614	2532.078316
437.823946	2535.725590
438.200218	2535.954963
438.576429	2537.323636
438.952580	2538.107536
439.328670	2538.558719
439.704700	2537.762217
440.080670	2538.488143
440.456580	2537.298430
440.832429	2537.986548
441.208218	2538.397402
441.583947	2538.228523
441.959616	2537.502597
442.335224	2536.302802
442.710773	2538.440252
443.086261	2537.358924
443.461689	2536.605272
443.837057	2537.661393
444.212365	2539.297248
444.587612	2538.694830
444.962800	2540.751621
445.337927	2539.098122
445.712995	2538.712474
446.088002	2537.820190
446.462949	2538.049562
446.837837	2538.974614
447.212664	2538.157947
447.587431	2539.171219
447.962139	2538.901517
448.336786	2541.933771
448.711374	2542.642053
449.085901	2543.486447
449.460369	2541.573329
449.834776	2540.285314
450.209124	2539.945036
450.583412	2540.144162
450.957640	2541.099460
451.331808	2540.335726
451.705917	2541.558205
452.079965	2542.140459
452.453954	2538.384799
452.827883	2540.880170
453.201752	2538.780530
453.575562	2543.158772
453.949311	2542.029553
454.323001	2541.429656
454.696632	2539.960160
455.070202	2540.434028
455.443713	2541.114584
455.817164	2540.330684
456.190556	2539.377906
456.563888	2538.846065
456.937160	2533.026052
457.310373	2539.549306
457.683526	2540.794471
458.056619	2543.602393
458.429653	2541.948895
458.802628	2543.420912
459.175542	2542.362269
459.548398	2540.915458
459.921194	2539.589635
460.293930	2543.909904
460.666607	2541.719522
461.039224	2541.671631
461.411782	2545.291180
461.784280	2544.986190
462.156719	2541.613658
462.529099	2543.461241
462.901419	2544.131714
463.273680	2545.417209
463.645882	2545.512991
464.018024	2544.711447
464.390106	2541.722043
464.762130	2543.282280
465.134094	2543.685572
465.505999	2547.113557
465.877845	2544.358566
466.249631	2546.024668
466.621358	2544.839997
466.993026	2547.854607
467.364634	2546.957281
467.736184	2545.369318
468.107674	2545.167672
468.479105	2546.690100
468.850477	2545.512991
469.221790	2545.182795
469.593043	2542.732794
469.964238	2544.411498
470.335373	2544.207332
470.706449	2544.628268
471.077467	2542.004348
471.448425	2545.618855
471.819324	2545.349153
472.190164	2546.594318
472.560945	2543.967877
472.931667	2548.542724
473.302330	2544.565254
473.672934	2545.412168
474.043479	2545.507949
474.413965	2545.671787
474.784393	2543.307486
475.154761	2545.462579
475.525070	2542.294214
475.895321	2546.821170
476.265513	2543.151210
476.635645	2547.310162
477.005719	2546.294369
477.375734	2544.598021
477.745691	2548.509957
478.115588	2546.299411
478.485427	2548.225131
478.855207	2547.617672
479.224928	2548.366284
479.594591	2546.206149
479.964194	2547.889895
480.333739	2548.351160
480.703226	2546.894267
481.072653	2549.394679
481.442022	2547.826880
481.811333	2547.942827
482.180584	2548.479710
482.549777	2546.894267
482.918912	2548.537683
483.287988	2551.232180
483.657005	2548.938455
484.025964	2549.911397
484.394864	2546.017106
484.763706	2552.094217
485.132489	2550.044988
485.501213	2548.121788
485.869879	2549.745039
486.238487	2548.847714
486.607036	2549.243444
486.975527	2549.003990
487.343959	2548.746891
487.712333	2548.330996
488.080648	2548.893084
488.448905	2547.899977
488.817104	2545.805378
489.185244	2548.638506
489.553326	2549.039278
489.921350	2549.024154
490.289315	2549.641696
490.657222	2552.174875
491.025070	2550.153373
491.392861	2554.151008
491.760593	2549.676984
492.128267	2552.096737
492.495883	2549.515667
492.863440	2549.573640
493.230939	2550.125646
493.598380	2550.705379
493.965763	2545.036602
494.333088	2547.277394
494.700354	2546.339740
495.067563	2548.792261
495.434713	2546.367466
495.801805	2550.097920
496.168839	2548.756973
496.535815	2551.827036
496.902733	2551.292673
497.269593	2551.784186
497.636395	2551.786707
498.003139	2551.602704
498.369825	2550.728064
498.736453	2552.321069
499.103023	2550.385266
499.469535	2552.217725
499.835989	2549.646737
500.202385	2549.041798
500.568723	2550.392828
500.935003	2552.646223
501.301226	2550.082797
501.667390	2552.371480
502.033497	2550.133208
502.399546	2549.407282
502.765537	2552.941131
503.131470	2553.677139
503.497345	2550.241593
503.863163	2551.204453
504.228923	2551.464073
504.594625	2552.341233
504.960269	2551.660678
505.325856	2553.846018
505.691385	2551.922818
506.056856	2552.938610
506.422270	2554.657644
506.787625	2551.534649
507.152924	2553.503219
507.518164	2554.319886
507.883347	2555.020607
508.248472	2554.692932
508.613540	2554.982798
508.978550	2553.107489
509.343503	2551.325441
509.708398	2555.827191
510.073236	2556.855587
510.438016	2554.781152
510.802738	2553.541028
511.167403	2556.787531
511.532010	2556.578323
511.896561	2557.389949
512.261053	2557.402552
512.625488	2553.130174
512.989866	2551.723692
513.354186	2555.741492
513.718449	2550.894422
514.082655	2559.280382
514.446803	2558.153684
514.810894	2559.131668
515.174927	2559.923129
515.538904	2559.308108
515.902822	2559.023283
516.266684	2557.518498
516.630488	2563.807338
516.994235	2561.417831
517.357925	2561.717780
517.721558	2560.349106
518.085133	2561.271637
518.448651	2560.601164
518.812112	2559.461863
519.175516	2560.550753
519.538863	2561.836247
519.902152	2565.158367
520.265385	2563.824982
520.628560	2560.790207
520.991678	2561.425393
521.354739	2564.084601
521.717743	2564.049313
522.080690	2564.979406
522.443580	2560.959086
522.806413	2564.404715
523.169189	2563.222564
523.531908	2564.767678
523.894569	2563.182235
524.257174	2565.246587
524.619722	2566.322874
524.982213	2568.573749
525.344647	2567.797411
525.707025	2563.724159
526.069345	2569.158523
526.431608	2567.411763
526.793815	2568.845971
527.155964	2567.328584
527.518057	2569.647515
527.880093	2571.825293
528.242072	2567.865467
528.603995	2570.164233
528.965860	2567.442010
529.327669	2569.589541
529.689421	2567.638615
530.051117	2572.309244
530.412755	2568.654407
530.774337	2571.162381
531.135862	2572.790674
531.497331	2570.864953
531.858743	2568.551064
532.220098	2570.915365
532.581396	2568.782957
532.942638	2571.187587
533.303824	2574.849985
533.664953	2575.966601
534.026025	2576.185891
534.387040	2576.561457
534.747999	2572.218503
535.108902	2573.740932
535.469748	2573.214131
535.830537	2573.912331
536.191270	2577.075655
536.551947	2574.045921
536.912567	2575.422156
537.273131	2579.795357
537.633638	2576.528690
537.994089	2578.925758
538.354483	2580.327199
538.714821	2582.467169
539.075103	2582.711665
539.435328	2581.164031
539.795497	2583.616552
540.155609	2584.004721
540.515665	2585.985894
540.875665	2583.001531
541.235609	2581.713516
541.595496	2584.090420
541.955328	2583.810636
542.315102	2585.287694
542.674821	2588.176276
543.034483	2589.161821
543.394090	2585.471697
543.753640	2585.506985
544.113134	2590.258272
544.472571	2590.835484
544.831953	2587.631831
545.191278	2590.706935
545.550548	2591.488314
545.909761	2592.398242
546.268918	2592.920001
546.628019	2598.054417
546.987064	2594.817996
547.346053	2598.180445
547.704986	2599.334870
548.063863	2598.732452
548.422684	2603.486260
548.781449	2602.425097
549.140158	2601.903337
549.498811	2605.031373
549.857408	2605.306116
550.215949	2604.658328
550.574434	2605.240581
550.932864	2612.656119
551.291237	2605.235540
551.649555	2616.638630
552.007817	2615.756428
552.366022	2618.939917
552.724173	2617.556120
553.082267	2620.028806
553.440305	2625.400156
553.798288	2623.187089
554.156215	2629.813686
554.514086	2632.422483
554.871902	2633.115642
555.229661	2634.811990
555.587365	2638.353400
555.945014	2640.352218
556.302606	2646.855306
556.660143	2645.990748
557.017625	2650.487458
557.375050	2652.667757
557.732421	2658.102121
558.089735	2662.160249
558.446994	2663.692760
558.804197	2667.980262
559.161345	2673.447393
559.518437	2672.018226
559.875474	2677.301355
560.232455	2682.405523
560.589381	2683.325534
560.946251	2694.206864
561.303065	2691.958510
561.659825	2698.927905
562.016528	2701.645087
562.373177	2701.917309
562.729770	2712.465924
563.086307	2714.457179
563.442789	2721.822305
563.799216	2726.475290
564.155587	2732.073492
564.511904	2735.375447
564.868164	2742.521283
565.224370	2746.929772
565.580520	2755.804723
565.936615	2756.984353
566.292654	2762.501896
566.648638	2769.098246
567.004567	2777.766510
567.360441	2783.490740
567.716260	2791.675053
568.072023	2798.218471
568.427732	2802.639563
568.783385	2805.540747
569.138982	2818.917449
569.494525	2826.776608
569.850013	2827.323573
570.205445	2847.392406
570.560823	2850.870802
570.916145	2857.066381
571.271412	2870.823689
571.626625	2876.774772
571.981782	2882.221738
572.336884	2895.656413
572.691931	2902.545150
573.046923	2913.025709
573.401860	2923.176072
573.756743	2931.723348
574.111570	2943.524690
574.466342	2952.568520
574.821059	2961.992957
575.175722	2972.171046
575.530330	2987.097903
575.884882	2993.386742
576.239380	3006.037518
576.593823	3011.784433
576.948211	3027.500230
577.302544	3026.275230
577.656823	3045.229968
578.011047	3056.912843
578.365216	3073.321798
578.719330	3075.492015
579.073389	3098.404059
579.427394	3101.728700
579.781344	3113.008282
580.135239	3124.915487
580.489080	3136.772281
580.842866	3150.416164
581.196597	3165.839574
581.550273	3187.098120
581.903895	3203.335677
582.257463	3218.179354
582.610975	3231.583782
582.964434	3246.782861
583.317837	3263.579986
583.671186	3271.570214
584.024481	3290.436733
584.377721	3296.632311
584.730906	3309.764517
585.084037	3332.260666
585.437113	3337.624453
585.790135	3362.316025
586.143103	3368.582179
586.496016	3381.479971
586.848874	3408.664393
587.201679	3425.847166
587.554428	3430.560645
587.907124	3457.036785
588.259765	3469.067499
588.612352	3499.183352
588.964884	3496.509020
589.317362	3519.668080
589.669786	3538.963097
590.022155	3563.044689
590.374470	3587.474120
590.726731	3589.591405
591.078937	3587.915221
591.431090	3633.351141
591.783188	3624.677836
592.135232	3649.283707
592.487222	3657.132784
592.839157	3694.276006
593.191038	3699.080225
593.542866	3707.957697
593.894639	3711.252091
594.246358	3739.233016
594.598022	3767.813837
594.949633	3765.547839
595.301190	3779.741207
595.652692	3810.030980
596.004141	3857.115357
596.355535	3819.508349
596.706876	3839.529292
597.058162	3851.938092
597.409395	3886.633833
597.760573	3925.675049
598.111698	3921.581632
598.462768	3941.037966
598.813785	3951.198411
599.164748	3972.305722
599.515657	3982.456086
599.866511	3996.447808
600.217312	4034.674878
600.568060	4026.480482
600.918753	4071.770208
601.269392	4084.549533
601.619978	4084.209256
601.970510	4125.347592
602.320988	4144.909789
602.671412	4186.519473
603.021783	4184.255995
603.372100	4198.925753
603.722363	4227.617480
604.072572	4237.687184
604.422728	4259.510339
604.772830	4260.838683
605.122878	4288.023106
605.472872	4301.049447
605.822813	4337.882638
606.172701	4340.393132
606.522534	4388.092530
606.872314	4412.098505
607.222041	4430.907050
607.571714	4470.611177
607.921333	4477.557887
608.270899	4507.547712
608.620411	4555.204259
608.969870	4552.955905
609.319276	4569.778235
609.668627	4604.342907
610.017926	4632.505312
610.367171	4684.517417
610.716362	4690.816339
611.065500	4714.345925
611.414585	4751.431173
611.763616	4762.735960
612.112594	4782.063744
612.461518	4816.348632
612.810389	4859.707596
613.159207	4862.586095
613.507971	4867.541549
613.856682	4937.928659
614.205340	4938.584009
614.553945	4999.503833
614.902496	4984.299713
615.250994	5021.301782
615.599439	5037.937590
615.947830	5070.644596
616.296169	5081.142799
616.644454	5115.110094
616.992686	5132.285305
617.340864	5185.913099
617.688990	5163.699255
618.037063	5226.131425
618.385082	5227.230396
618.733048	5294.318072
619.080961	5281.160660
619.428821	5316.226926
619.776628	5345.155588
620.124382	5345.521071
620.472083	5359.371642
620.819731	5393.066714
621.167326	5366.242734
621.514868	5389.298451
621.862357	5352.084654
622.209793	5381.199838
622.557176	5373.025607
622.904506	5380.925095
623.251783	5362.083782
623.599007	5364.049832
623.946179	5385.552874
624.293297	5388.582607
624.640363	5362.136714
624.987376	5380.176483
625.334336	5362.978587
625.681243	5362.310634
626.028097	5373.481831
626.374899	5380.562132
626.721647	5402.372684
627.068343	5379.037183
627.414987	5378.954004
627.761577	5379.894179
628.108115	5409.488273
628.454600	5369.106110
628.801032	5420.503194
629.147412	5407.587758
629.493739	5425.272125
629.840014	5405.533487
630.186236	5456.731446
630.532405	5398.692642
630.878521	5448.448830
631.224585	5443.329538
631.570597	5407.786883
631.916556	5448.229540
632.262462	5457.515345
632.608316	5457.212876
632.954117	5454.185663
633.299866	5458.468123
633.645562	5476.381863
633.991206	5440.539260
634.336797	5417.849026
634.682336	5406.284619
635.027823	5406.264455
635.373257	5407.247480
635.718639	5381.595568
636.063968	5405.697325
636.409245	5346.806566
636.754470	5359.684193
637.099642	5345.642059
637.444762	5328.587836
637.789829	5348.581052
638.134845	5317.935877
638.479808	5324.955684
638.824719	5337.878682
639.169577	5298.101458
639.514383	5331.032795
639.859137	5290.746414
640.203839	5303.906346
640.548489	5313.227440
640.893086	5303.626562
641.237632	5296.626920
641.582125	5329.366694
641.926566	5316.151309
642.270955	5335.244679
642.615292	5349.959807
642.959576	5368.934710
643.303809	5372.128281
643.647990	5385.895672
643.992118	5389.333739
644.336195	5363.336509
644.680219	5399.907560
645.024192	5394.009410
645.368112	5473.909177
645.711981	5499.354402
646.055797	5570.583385
646.399562	5543.156987
646.743274	5656.832486
647.086935	5704.320155
647.430544	5703.180854
647.774101	5734.289815
648.117606	5749.672896
648.461059	5752.808493
648.804460	5736.707048
649.147810	5673.155742
649.491108	5666.456049
649.834354	5659.388351
650.177548	5597.440132
650.520690	5538.657757
650.863781	5533.520822
651.206820	5559.830604
651.549807	5509.650958
651.892742	5469.893898
652.235626	5489.244367
652.578458	5481.657431
652.921238	5417.854067
653.263967	5457.159944
653.606644	5412.896092
653.949269	5424.152989
654.291843	5382.644128
654.634365	5429.872178
654.976836	5402.355040
655.319255	5402.665071
655.661622	5394.687445
656.003938	5398.503598
656.346203	5368.599474
656.688416	5410.173869
657.030577	5374.568200
657.372687	5352.084654
657.714746	5347.698850
658.056753	5392.900356
658.398708	5348.467626
658.740612	5346.186504
659.082465	5395.269698
659.424266	5389.681579
659.766016	5402.352519
660.107715	5383.357452
660.449362	5400.270523
660.790958	5404.492489
661.132503	5399.610132
661.473996	5440.269558
661.815438	5432.148259
662.156829	5435.616573
662.498168	5435.417447
662.839456	5416.394653
663.180693	5460.217404
663.521879	5463.390810
663.863013	5458.241271
664.204097	5481.599458
664.545129	5521.056569
664.886110	5527.302558
665.227040	5558.633330
665.567918	5526.836252
665.908746	5560.969904
666.249522	5566.991563
666.590248	5556.117794
666.930922	5587.511579
667.271545	5604.217963
667.612118	5615.104335
667.952639	5589.643987
668.293109	5617.945025
668.633528	5580.360703
668.973896	5594.201191
669.314213	5587.015026
669.654480	5580.448923
669.994695	5573.098921
670.334859	5568.982818
670.674973	5570.429630
671.015035	5576.554632
671.355047	5579.549077
671.695008	5575.090176
672.034918	5550.733842
672.374777	5559.507970
672.714585	5550.335590
673.054342	5561.151386
673.394049	5554.194594
673.733705	5589.878401
674.073310	5582.490590
674.412864	5540.918715
674.752368	5539.141708
675.091820	5547.366351
675.431223	5493.380634
675.770574	5499.505636
676.109875	5460.522393
676.449125	5465.936593
676.788324	5435.031799
677.127473	5387.730652
677.466571	5383.165888
677.805619	5378.044075
678.144616	5369.269947
678.483562	5349.488459
678.822458	5325.248071
679.161303	5315.687523
679.500098	5316.375640
679.838842	5300.861489
680.177535	5310.671575
680.516179	5325.759748
680.854771	5337.049412
681.193314	5414.436165
681.531805	5518.409963
681.870247	5660.179812
682.208638	5756.178505
682.546978	5772.305156
682.885268	5759.059524
683.223508	5678.030538
683.561697	5628.619668
683.899836	5603.786945
684.237925	5564.135749
684.575963	5529.613927
684.913951	5493.148741
685.251889	5553.080499
685.589776	5524.146796
685.927614	5499.614021
686.265401	5567.011727
686.603137	5554.403802
686.940824	5625.582373
687.278460	5645.429396
687.616046	5661.109905
687.953582	5723.022836
688.291068	5704.037851
688.628504	5769.557727
688.965889	5731.406275
689.303224	5678.716135
689.640510	5638.316328
689.977745	5567.977108
690.314930	5475.421524
690.652065	5427.654070
690.989150	5340.167366
691.326185	5273.253610
691.663170	5222.181681
692.000105	5151.643336
692.336990	5075.322787
692.673825	5054.865785
693.010610	4988.420856
693.347345	4924.700672
693.684030	4912.843878
694.020665	4871.816447
694.357251	4789.857368
694.693786	4801.207526
695.030272	4772.117548
695.366707	4736.158997
695.703093	4703.013411
696.039429	4727.142894
696.375716	4711.558167
696.711952	4685.041697
697.048139	4671.647352
697.384276	4658.232841
697.720363	4668.955375
698.056400	4678.011808
698.392388	4631.766783
698.728326	4608.544708
699.064214	4591.256071
699.400053	4585.867078
699.735842	4553.719640
700.071581	4533.807082
700.407270	4507.018390
700.742910	4495.189323
701.078501	4435.532308
701.414042	4440.896096
701.749533	4413.245367
702.084974	4346.775233
702.420366	4403.432761
702.755709	4346.281200
703.091002	4292.877737
703.426246	4341.771888
703.761440	4298.077687
704.096584	4264.997635
704.431679	4284.010347
704.766725	4270.709263
705.101721	4258.928086
705.436668	4287.322385
705.771565	4236.379005
706.106413	4264.884209
706.441212	4296.915701
706.775961	4304.364006
707.110661	4286.117549
707.445311	4314.733659
707.779913	4337.524716
708.114465	4347.831355
708.448967	4374.730952
708.783421	4431.605249
709.117825	4473.106548
709.452180	4476.612671
709.786485	4524.669991
710.120742	4604.506744
710.454949	4588.687603
710.789107	4655.467768
711.123216	4730.079366
711.457275	4715.981779
711.791286	4789.212100
712.125247	4806.357065
712.459159	4710.887693
712.793023	4786.399137
713.126837	4747.642746
713.460602	4733.766970
713.794318	4662.477493
714.127985	4667.871527
714.461602	4586.658539
714.795171	4558.062594
715.128691	4493.377028
715.462162	4439.159418
715.795584	4391.205442
716.128957	4375.840006
716.462281	4323.044001
716.795556	4296.232625
717.128782	4260.526132
717.461960	4195.911143
717.795088	4206.500086
718.128167	4164.199764
718.461198	4106.314715
718.794180	4100.847584
719.127113	4082.364193
719.459997	4059.827715
719.792833	4021.824977
720.125619	4010.293337
720.458357	3976.134479
720.791046	3983.749142
721.123686	3954.870892
721.456278	3914.879418
721.788821	3935.409517
722.121315	3906.145619
722.453761	3878.971280
722.786158	3895.768404
723.118506	3920.439811
723.450805	3867.812686
723.783056	3888.662898
724.115259	3906.432965
724.447412	3914.897062
724.779518	3904.161925
725.111574	3904.686205
725.443582	3937.463788
725.775542	3923.313269
726.107453	3975.131289
726.439315	3974.256649
726.771129	3987.746777
727.102895	4022.419833
727.434612	4070.895568
727.766281	4081.887804
728.097901	4083.611879
728.429473	4089.489864
728.760996	4094.626800
729.092471	4091.445832
729.423897	4073.935384
729.755276	4081.202207
730.086606	4080.534254
730.417887	4115.630767
730.749120	4182.920089
731.080305	4243.822269
731.411442	4271.709932
731.742530	4235.315322
732.073570	4244.709512
732.404562	4299.370743
732.735506	4292.928148
733.066401	4249.541458
733.397249	4188.246068
733.728048	4113.079944
734.058798	4031.836708
734.389501	3963.186275
734.720156	3900.507089
735.050762	3855.381200
735.381320	3854.095706
735.711831	3801.934887
736.042293	3771.327522
736.372707	3794.904998
736.703073	3765.890637
737.033391	3757.857558
737.363661	3778.150723
737.693883	3801.801297
738.024056	3809.582318
738.354182	3802.723828
738.684260	3869.917367
739.014290	3887.180799
739.344272	3882.510170
739.674207	3926.564813
740.004093	3931.754681
740.333931	3925.559103
740.663722	3927.162190
740.993464	3923.091458
741.323159	3900.313004
741.652806	3871.780074
741.982405	3843.902493
742.311956	3812.170950
742.641460	3804.634425
742.970915	3777.601238
743.300323	3741.042790
743.629683	3706.031976
743.958996	3695.317004
744.288260	3671.225330
744.617477	3638.818272
744.946647	3624.355202
745.275768	3597.914350
745.604842	3598.262189
745.933869	3548.669838
746.262847	3543.225392
746.591778	3582.828697
746.920662	3553.095972
747.249498	3521.694624
747.578286	3566.901171
747.907027	3586.173502
748.235720	3583.804160
748.564365	3604.727469
748.892963	3606.875001
749.221514	3590.655088
749.550017	3565.887899
749.878473	3564.315059
750.206881	3533.788352
750.535242	3534.864639
750.863555	3533.291799
751.191821	3527.277702
751.520039	3511.261956
751.848210	3487.439984
752.176334	3523.143956
752.504411	3528.875748
752.832440	3485.489057
753.160421	3470.867191
753.488356	3479.608551
753.816243	3494.066581
754.144082	3449.273408
754.471875	3437.285544
754.799620	3456.998976
755.127318	3445.656380
755.454969	3448.035805
755.782572	3453.707103
756.110129	3428.284564
756.437638	3419.621341
756.765100	3433.794545
757.092515	3442.460289
757.419882	3449.331381
757.747203	3422.031013
758.074477	3424.460849
758.401703	3442.268725
758.728882	3461.165490
759.056014	3466.027683
759.383099	3469.659834
759.710138	3467.189669
760.037129	3484.430415
760.364073	3512.484436
760.690970	3499.831140
761.017820	3474.879949
761.344623	3497.030779
761.671379	3540.636760
761.998088	3591.781786
762.324751	3716.825087
762.651366	3961.815081
762.977935	4430.317235
763.304456	4860.115929
763.630931	4944.693888
763.957359	4587.661728
764.283740	4254.527159
764.610074	4065.052871
764.936362	3874.870301
765.262602	3719.194429
765.588796	3610.091257
765.914943	3526.166128
766.241044	3439.193621
766.567097	3408.518200
766.893104	3364.254348
767.219064	3337.725276
767.544978	3306.815442
767.870845	3251.791247
768.196665	3233.196951
768.522438	3245.749424
768.848165	3237.799525
769.173846	3202.768547
769.499479	3186.180630
769.825066	3169.035666
770.150607	3152.571257
770.476101	3167.178001
770.801548	3165.809327
771.126949	3120.499437
771.452303	3100.082763
771.777611	3109.166923
772.102872	3115.198663
772.428087	3089.771083
772.753256	3078.599886
773.078378	3073.614185
773.403453	3039.417518
773.728482	3025.934952
774.053465	3050.548386
774.378401	3035.293854
774.703291	3003.280007
775.028135	3005.999709
775.352932	3001.543329
775.677683	2989.431957
776.002388	2983.185968
776.327046	2988.592605
776.651658	2977.625575
776.976224	2966.414049
777.300743	2967.099646
777.625216	2955.651185
777.949643	2949.190947
778.274024	2955.134467
778.598359	2943.940585
778.922647	2950.012655
779.246889	2947.328240
779.571086	2930.102618
779.895236	2928.650765
780.219339	2939.436314
780.543397	2951.381328
780.867409	2953.904425
781.191374	2946.617438
781.515294	2944.416974
781.839167	2944.356480
782.162995	2937.379523
782.486776	2943.378496
782.810511	2943.323043
783.134201	2926.614139
783.457844	2936.789708
783.781441	2923.662543
784.104993	2904.470871
784.428498	2906.686458
784.751958	2919.145670
785.075372	2912.226686
785.398739	2901.090777
785.722061	2916.408323
786.045337	2925.452153
786.368568	2910.447159
786.691752	2904.238978
787.014891	2950.393262
787.337983	2980.342757
787.661030	3008.666480
787.984031	3073.467992
788.306987	3117.643623
788.629897	3109.537448
788.952760	3096.579162
789.275579	3079.703899
789.598351	3019.262985
789.921078	2976.226655
790.243759	2974.041314
790.566395	2953.143211
790.888984	2927.140940
791.211529	2913.910431
791.534027	2902.285531
791.856480	2895.079201
792.178888	2879.267622
792.501249	2869.328987
792.823566	2867.201620
793.145836	2867.844367
793.468062	2861.409335
793.790241	2858.344313
794.112375	2866.090046
794.434464	2876.028681
794.756507	2878.796274
795.078505	2888.046792
795.400457	2902.182187
795.722364	2938.632250
796.044226	2962.325673
796.366042	2963.694346
796.687812	2950.413426
797.009538	2969.940336
797.331218	2960.548666
797.652852	2943.131480
797.974442	2928.189500
798.295986	2925.179931
798.617484	2918.563416
798.938938	2905.000192
799.260346	2888.969323
799.581709	2883.996224
799.903026	2874.738145
800.224299	2873.351828
800.545526	2862.291537
800.866708	2846.820235
801.187845	2836.677434
801.508936	2837.670541
801.829983	2846.326202
802.150984	2828.321721
802.471940	2819.598005
802.792851	2824.056905
803.113717	2820.770073
803.434538	2825.687718
803.755314	2814.456028
804.076045	2814.050215
804.396731	2810.992755
804.717372	2813.470482
805.037967	2808.204997
805.358518	2810.902014
805.679024	2824.500527
805.999485	2819.935762
806.319901	2823.217553
806.640272	2817.455514
806.960598	2821.463232
807.280879	2831.303564
807.601115	2839.215655
807.921306	2825.213850
808.241453	2822.158911
808.561554	2828.929180
808.881611	2830.184428
809.201623	2824.566062
809.521590	2824.296360
809.841513	2820.074394
810.161390	2823.096565
810.481223	2817.566420
810.801011	2811.227169
811.120755	2804.832465
811.440453	2807.161478
811.760107	2806.569142
812.079716	2805.228196
812.399281	2795.042544
812.718801	2789.078859
813.038276	2784.143570
813.357707	2789.184723
813.677093	2799.738379
813.996434	2791.100362
814.315731	2789.109106
814.634983	2782.502674
814.954191	2780.463527
815.273354	2795.798717
815.592473	2804.219965
815.911547	2806.102836
816.230577	2816.233034
816.549562	2826.892554
816.868502	2823.109168
817.187399	2834.144254
817.506250	2850.076821
817.825058	2843.397292
818.143821	2857.441947
818.462539	2869.949049
818.781213	2896.460477
819.099843	2934.478339
819.418429	2986.752584
819.736970	3047.314486
820.055466	3120.098665
820.373919	3220.536093
820.692327	3356.211188
821.010691	3520.262937
821.329011	3958.167807
821.647286	4840.243701
821.965517	6185.989802
822.283704	6894.332412
822.601847	6865.098760
822.919945	6247.033134
823.237999	5757.771509
823.556010	5189.482236
823.873976	4648.228671
824.191897	4255.641254
824.509775	3962.195688
824.827609	3701.857901
825.145398	3588.568051
825.463144	3580.827359
825.780845	3671.326153
826.098502	3772.076133
826.416116	4051.192218
826.733685	4355.025081
827.051210	4410.540788
827.368692	4300.028613
827.686129	4038.276782
828.003522	3719.834656
828.320872	3472.558498
828.638177	3282.696041
828.955439	3148.593787
829.272656	3069.256108
829.589830	3004.512569
829.906960	2955.552883
830.224046	2912.347674
830.541088	2881.934393
830.858086	2865.485108
831.175041	2848.249402
831.491952	2851.440453
831.808819	2861.227853
832.125642	2883.724002
832.442421	2927.539191
832.759157	3009.520955
833.075849	3183.816329
833.392497	3460.938638
833.709101	3659.618073
834.025662	3600.278651
834.342179	3447.156123
834.658653	3277.034825
834.975083	3129.182824
835.291469	3032.138092
835.607811	2955.878037
835.924110	2894.643141
836.240366	2846.104392
836.556578	2804.925726
836.872746	2783.609207
837.188871	2763.794952
837.504952	2747.416243
837.820990	2741.245871
838.136984	2727.758264
838.452935	2719.470607
838.768842	2719.195864
839.084706	2735.793863
839.400526	2813.934268
839.716303	2940.099226
840.032037	3017.470855
840.347727	3001.563494
840.663373	2942.738270
840.978977	2871.383258
841.294537	2799.272072
841.610054	2754.617532
841.925527	2733.424521
842.240957	2711.001468
842.556344	2689.576565
842.871687	2675.421005
843.186987	2668.514624
843.502244	2665.182421
843.817458	2656.095741
844.132629	2647.036788
844.447756	2639.028915
844.762840	2631.449540
845.077881	2637.141003
845.392879	2634.060858
845.707833	2629.450723
846.022745	2619.897736
846.337613	2625.702625
846.652438	2621.964609
846.967221	2624.679271
847.281960	2620.711882
847.596656	2621.488220
847.911309	2619.580143
848.225919	2617.392283
848.540485	2612.320882
848.855009	2616.452107
849.169490	2615.300204
849.483928	2616.222735
849.798323	2613.339195
850.112675	2611.221910
850.426984	2615.174175
850.741251	2609.333998
851.055474	2611.168978
851.369654	2616.832715
851.683792	2615.411109
851.997887	2609.079420
852.311938	2608.784512
852.625947	2612.388937
852.939914	2615.257354
853.253837	2617.714917
853.567718	2612.855244
853.881555	2610.932044
854.195350	2612.215018
854.509103	2612.162086
854.822812	2612.046139
855.136479	2608.718977
855.450103	2608.577825
855.763685	2615.781634
856.077224	2613.193002
856.390720	2609.694441
856.704173	2612.540172
857.017584	2614.191150
857.330953	2616.883126
857.644278	2622.688015
857.957561	2618.811367
858.270802	2616.328599
858.584000	2614.833897
858.897155	2617.475462
859.210268	2617.979577
859.523339	2613.931531
859.836367	2609.545727
860.149352	2609.974225
860.462295	2610.468258
860.775195	2607.844337
861.088054	2609.276025
861.400869	2607.226796
861.713642	2603.861826
862.026373	2605.386775
862.339062	2612.875409
862.651708	2613.813063
862.964312	2613.629061
863.276873	2612.535131
863.589392	2617.220883
863.901869	2618.062756
864.214303	2622.957717
864.526696	2628.281175
864.839045	2628.873511
865.151353	2631.704118
865.463619	2634.995992
865.775842	2630.610188
866.088023	2628.969292
866.400162	2631.381485
866.712258	2630.131278
867.024313	2631.512555
867.336325	2627.177162
867.648296	2627.255300
867.960224	2634.887607
868.272110	2631.744448
868.583954	2622.609877
868.895755	2626.302522
869.207515	2629.508696
869.519233	2636.442803
869.830909	2634.617905
870.142542	2629.362502
870.454134	2631.129427
870.765684	2633.869294
871.077191	2636.294089
871.388657	2642.910603
871.700081	2638.789460
872.011463	2638.111425
872.322803	2641.453710
872.634101	2643.533186
872.945357	2649.345636
873.256571	2656.814106
873.567744	2649.151552
873.878874	2650.318579
874.189963	2652.927376
874.501010	2660.068171
874.812015	2663.521361
875.122979	2660.670588
875.433900	2653.565082
875.744780	2654.288488
876.055618	2662.397184
876.366415	2664.607730
876.677169	2663.304591
876.987882	2656.486431
877.298554	2657.963489
877.609183	2663.692760
877.919771	2672.668535
878.230317	2678.536438
878.540822	2689.611853
878.851285	2701.793801
879.161707	2724.728530
879.472087	2762.638007
879.782425	2807.521921
880.092722	2916.448652
880.402977	3099.193000
880.713191	3352.473172
881.023363	3628.183958
881.333494	3810.640960
881.643583	3978.362669
881.953631	3973.180363
882.263637	3798.912715
882.573602	3589.172989
882.883526	3462.846715
883.193408	3351.941330
883.503248	3255.529263
883.813048	3144.427273
884.122806	3037.017929
884.432522	2954.463993
884.742197	2893.410579
885.051831	2861.661392
885.361424	2824.278716
885.670975	2793.315949
885.980485	2760.848398
886.289954	2747.857344
886.599382	2731.569376
886.908768	2723.785835
887.218113	2703.210365
887.527417	2691.121678
887.836680	2681.389731
888.145901	2679.121212
888.455082	2670.087464
888.764221	2659.324600
889.073319	2653.630617
889.382376	2650.343785
889.691392	2652.723209
890.000366	2654.830412
890.309300	2651.052067
890.618193	2652.352685
890.927044	2657.925680
891.235855	2656.060453
891.544625	2652.924856
891.853353	2655.195895
892.162041	2661.827533
892.470687	2682.334947
892.779293	2691.698890
893.087858	2700.533512
893.396381	2722.739795
893.704864	2761.181114
894.013306	2827.399190
894.321707	2920.196750
894.630068	2966.023359
894.938387	2983.256544
895.246665	2977.368476
895.554903	2935.776436
895.863100	2893.856721
896.171256	2838.136848
896.479371	2780.884464
896.787446	2742.780902
897.095480	2724.978067
897.403473	2719.437839
897.711425	2706.348483
898.019336	2687.975998
898.327207	2670.982269
898.635038	2676.008299
898.942827	2671.887156
899.250576	2661.678819
899.558284	2653.491985
899.865952	2647.901346
900.173579	2645.824390
900.481165	2644.861530
900.788711	2636.089922
901.096216	2630.055661
901.403681	2628.482821
901.711105	2626.763788
902.018489	2626.562142
902.325832	2630.206896
902.633135	2631.855353
902.940397	2643.505460
903.247619	2678.785975
903.554800	2747.501943
903.861941	2867.423431
904.169041	2985.920793
904.476101	3043.208466
904.783121	3036.523896
905.090100	2980.970380
905.397039	2910.341294
905.703938	2843.183043
906.010796	2782.331275
906.317614	2732.580127
906.624391	2698.620395
906.931129	2675.975532
907.237826	2648.254227
907.544483	2635.847947
907.851099	2622.584671
908.157675	2613.929010
908.464211	2605.595983
908.770707	2595.967379
909.077163	2590.916143
909.383578	2592.700711
909.689954	2587.488158
909.996289	2585.887592
910.302584	2583.467838
910.608839	2582.623445
910.915054	2581.577405
911.221229	2589.204671
911.527363	2590.285998
911.833458	2588.017479
912.139513	2589.507140
912.445527	2591.568972
912.751502	2592.778849
913.057436	2601.124479
913.363331	2608.265274
913.669186	2616.472272
913.975000	2630.572379
914.280775	2644.669966
914.586510	2659.364930
914.892205	2694.532019
915.197859	2762.663213
915.503475	2839.818073
915.809050	2900.432907
916.114585	2911.367169
916.420081	2923.097934
916.725536	2931.186466
917.030952	2911.218455
917.336328	2866.889069
917.641665	2820.298725
917.946961	2772.639657
918.252218	2741.944071
918.557435	2716.529094
918.862612	2695.358768
919.167750	2680.958712
919.472848	2665.472287
919.777906	2650.384114
920.082925	2638.126548
920.387904	2629.017183
920.692843	2622.642644
920.997743	2621.357150
921.302603	2612.222579
921.607423	2606.475664
921.912204	2600.716146
922.216946	2597.998964
922.521647	2595.120465
922.826310	2591.732810
923.130932	2589.610484
923.435516	2582.328537
923.740059	2580.211252
924.044564	2583.319124
924.349028	2577.620099
924.653454	2574.590366
924.957840	2570.993503
925.262186	2568.722463
925.566493	2570.438976
925.870761	2563.877914
926.174989	2565.710373
926.479178	2566.191804
926.783328	2562.002605
927.087438	2562.330280
927.391509	2560.432285
927.695541	2559.144271
927.999533	2560.817934
928.303486	2555.915412
928.607400	2557.102603
928.911275	2556.215360
929.215110	2556.502706
929.518906	2554.392983
929.822663	2556.807696
930.126381	2556.951369
930.430060	2556.548076
930.733699	2557.805844
931.037299	2557.861297
931.340861	2556.359033
931.644383	2557.997408
931.947866	2555.769218
932.251309	2554.899619
932.554714	2556.487582
932.858080	2557.571431
933.161407	2557.460525
933.464694	2555.885165
933.767943	2553.034392
934.071153	2554.440874
934.374323	2555.103786
934.677455	2551.832077
934.980548	2552.215205
935.283602	2554.584547
935.586617	2552.734443
935.889593	2552.595812
936.192530	2553.891388
936.495428	2553.881306
936.798287	2550.753270
937.101108	2553.629248
937.403890	2558.415824
937.706632	2564.019066
938.009336	2561.553942
938.312002	2571.739593
938.614628	2571.114490
938.917216	2575.013823
939.219765	2572.619275
939.522275	2575.588514
939.824747	2576.523648
940.127179	2568.092319
940.429573	2565.932184
940.731929	2568.442679
941.034246	2562.998233
941.336524	2566.907648
941.638763	2567.578121
941.940964	2568.029304
942.243126	2564.117369
942.545250	2563.182235
942.847335	2562.310115
943.149381	2559.240053
943.451389	2557.747871
943.753359	2558.430947
944.055290	2558.655279
944.357182	2554.939948
944.659036	2556.570762
944.960851	2558.662840
945.262628	2555.272664
945.564367	2556.142263
945.866067	2558.458674
946.167729	2558.257028
946.469352	2555.146636
946.770937	2556.258210
947.072484	2557.263920
947.373992	2555.885165
947.675462	2558.105793
947.976893	2554.587068
948.278286	2554.466080
948.579641	2554.156049
948.880958	2554.163611
949.182236	2555.078580
949.483476	2553.039433
949.784678	2553.961964
950.085841	2553.687222
950.386967	2555.171841
950.688054	2555.340720
950.989103	2554.740823
951.290114	2557.820968
951.591087	2559.154353
951.892021	2557.498334
952.192917	2558.027655
952.493776	2557.894064
952.794596	2560.810372
953.095378	2562.683161
953.396122	2563.288099
953.696828	2558.884651
953.997496	2556.991698
954.298126	2554.602191
954.598718	2556.112017
954.899272	2555.605381
955.199788	2553.810730
955.500266	2552.880637
955.800706	2551.970709
956.101108	2544.842517
956.401472	2545.752445
956.701798	2546.090203
957.002087	2542.909235
957.302337	2546.707744
957.602550	2546.644730
957.902724	2542.896632
958.202861	2544.287990
958.502960	2542.853782
958.803022	2544.280428
959.103045	2543.398227
959.403031	2544.381252
959.702979	2545.366797
960.002889	2542.601724
960.302762	2544.361087
960.602596	2542.032074
960.902393	2541.200283
961.202153	2542.621889
961.501875	2543.448638
961.801559	2541.094419
962.101205	2538.462937
962.400814	2541.543082
962.700385	2538.906558
962.999918	2543.075593
963.299414	2541.298586
963.598873	2540.592824
963.898293	2539.665252
964.197677	2542.279090
964.497022	2541.656508
964.796331	2541.895963
965.095601	2539.708102
965.394835	2542.750438
965.694030	2539.040149
965.993189	2541.180119
966.292309	2539.700540
966.591393	2539.259439
966.890439	2537.187525
967.189447	2540.834800
967.488419	2539.592155
967.787353	2540.983514
968.086249	2540.106353
968.385108	2541.109543
968.683930	2541.064172
968.982714	2540.484440
969.281462	2541.301107
969.580172	2541.049049
969.878844	2541.086857
970.177480	2543.158772
970.476078	2539.614841
970.774639	2542.321940
971.073162	2541.306148
971.371649	2535.748276
971.670098	2539.042670
971.968510	2540.570139
972.266885	2534.422452
972.565223	2540.096271
972.863524	2540.665921
973.161788	2541.792619
973.460014	2541.734646
973.758204	2542.011909
974.056356	2542.621889
974.354471	2542.606765
974.652550	2540.527289
974.950591	2540.660880
975.248595	2541.366642
975.546563	2541.074255
975.844493	2541.749769
976.142386	2540.716333
976.440243	2539.599717
976.738062	2540.618030
977.035845	2538.631816
977.333590	2542.455531
977.631299	2536.554860
977.928971	2540.600386
978.226606	2540.577701
978.524204	2542.631971
978.821765	2536.804397
979.119290	2540.156765
979.416777	2540.701209
979.714228	2541.280942
980.011642	2543.791437
980.309020	2541.180119
980.606360	2538.601569
980.903664	2538.835982
981.200931	2540.970911
981.498162	2544.441745
981.795356	2544.678680
982.092513	2547.831921
982.389633	2549.528270
982.686717	2551.751418
982.983764	2553.644372
983.280775	2553.997253
983.577749	2553.714948
983.874686	2552.832746
984.171587	2548.026006
984.468451	2549.702189
984.765279	2547.025337
985.062070	2544.323278
985.358824	2543.862013
985.655543	2542.528627
985.952224	2541.215407
986.248869	2539.304810
986.545478	2536.960673
986.842050	2538.079809
987.138586	2538.072247
987.435086	2537.520241
987.731549	2533.525127
988.027975	2539.715664
988.324366	2539.894625
988.620719	2539.854295
988.917037	2539.335057
989.213318	2537.142155
989.509563	2537.646270
989.805772	2537.769778
990.101944	2539.065355
990.398080	2539.244316
990.694180	2535.430683
990.990244	2537.958822
991.286271	2536.028060
991.582262	2540.330684
991.878217	2537.169881
992.174136	2538.175591
992.470019	2535.803728
992.765865	2534.465302
993.061676	2539.569470
993.357450	2535.992772
993.653188	2536.575025
993.948890	2540.842362
994.244556	2537.169881
994.540186	2539.536703
994.835780	2541.306148
995.131337	2539.740869
995.426859	2541.117104
995.722345	2539.012423
996.017795	2540.781868
996.313208	2542.649615
996.608586	2542.458051
996.903928	2543.443597
997.199234	2541.467465
997.494504	2541.475026
997.789738	2539.652649
998.084936	2539.869419
998.380099	2539.745911
998.675225	2540.595345
998.970316	2537.994110
999.265371	2537.094264
999.560390	2538.173071
999.855373	2538.299099
1000.150320	2537.522762
1000.445232	2539.347659
1000.740108	2536.378420
1001.034948	2539.403112
1001.329752	2535.649973
1001.624521	2536.572504
1001.919254	2532.405991
1002.213951	2534.873635
1002.508613	2533.620909
1002.803239	2538.987217
1003.097829	2529.714014
1003.392384	2535.871784
1003.686903	2537.023687
1003.981386	2537.258101
1004.275834	2534.092257
1004.570246	2537.363965
1004.864623	2537.202648
1005.158964	2535.776002
1005.453270	2535.297092
1005.747540	2534.591331
1006.041775	2534.674510
1006.335974	2537.709284
1006.630138	2536.330529
1006.924266	2538.972093
1007.218359	2537.394212
1007.512416	2536.890097
1007.806438	2536.958153
1008.100425	2536.721218
1008.394376	2535.599562
1008.688292	2538.140303
1008.982172	2534.820703
1009.276017	2538.203317
1009.569827	2536.262473
1009.863602	2533.938501
1010.157341	2536.837165
1010.451045	2536.378420
1010.744714	2533.653676
1011.038347	2536.010416
1011.331945	2538.543595
1011.625508	2535.912113
1011.919036	2535.544109
1012.212528	2535.806249
1012.505986	2535.365148
1012.799408	2536.499408
1013.092795	2534.722401
1013.386147	2533.847761
1013.679464	2533.636032
1013.972745	2539.607279
1014.265992	2537.628626
1014.559204	2535.445806
1014.852380	2535.690302
1015.145521	2538.168029
1015.438628	2535.090405
1015.731699	2534.089736
1016.024736	2533.414221
1016.317737	2538.115097
1016.610703	2535.907072
1016.903635	2534.500590
1017.196531	2530.964221
1017.489393	2532.509334
1017.782219	2533.162164
1018.075011	2533.956145
1018.367768	2536.201979
1018.660490	2533.109232
1018.953177	2533.109232
1019.245829	2533.109232
