Dividing Wavelength (nm)	Counts (n)	Blue Motor Position (mm): 23.700000	Red Motor Position (mm): 0.000000	
326.493990	2133.406225
326.888308	2133.406225
327.282561	2133.406225
327.676750	2100.956318
328.070874	2099.635536
328.464933	2102.350197
328.858929	2111.885540
329.252859	2120.823505
329.646726	2130.825155
330.040528	2141.464510
330.434265	2160.265493
330.827938	2177.254182
331.221547	2195.571214
331.615091	2214.909080
332.008571	2233.828531
332.401986	2254.784607
332.795338	2273.676331
333.188625	2292.988992
333.581847	2310.232258
333.975006	2330.333859
334.368100	2348.232476
334.761129	2366.302492
335.154095	2379.318751
335.546996	2401.179715
335.939833	2421.629155
336.332606	2440.538523
336.725315	2452.445729
337.117960	2461.098869
337.510540	2470.896352
337.903056	2481.306335
338.295508	2488.573158
338.687896	2496.023983
339.080220	2503.865498
339.472480	2511.608710
339.864676	2515.863444
340.256807	2519.898888
340.648875	2524.098169
341.040879	2525.179497
341.432818	2525.303005
341.824694	2526.275947
342.216506	2528.088242
342.608253	2531.213758
342.999937	2530.641587
343.391557	2529.346010
343.783113	2529.156967
344.174605	2527.347193
344.566033	2527.468180
344.957397	2524.675381
345.348697	2521.149094
345.739934	2520.150946
346.131106	2519.694721
346.522215	2517.068280
346.913260	2513.947806
347.304241	2514.283042
347.695159	2511.034019
348.086012	2510.255161
348.476802	2507.734584
348.867528	2506.474295
349.258191	2506.580159
349.648789	2504.848523
350.039324	2504.853564
350.429796	2500.210662
350.820203	2499.308295
351.210548	2497.405259
351.600828	2498.703357
351.991045	2499.482215
352.381198	2496.238232
352.771288	2497.364930
353.161314	2498.882318
353.551276	2496.812924
353.941175	2497.586741
354.331010	2498.978099
354.720782	2496.465084
355.110490	2495.393839
355.500135	2496.472646
355.889717	2496.417193
356.279235	2494.796462
356.668689	2499.028511
357.058080	2499.424242
357.447408	2493.382419
357.836672	2494.599857
358.225873	2495.615650
358.615010	2495.333345
359.004084	2499.739314
359.393095	2496.586072
359.782043	2497.909375
360.170927	2502.091012
360.559748	2502.456496
360.948505	2501.271824
361.337199	2503.762154
361.725830	2503.240395
362.114398	2503.704181
362.502903	2502.146465
362.891344	2504.409943
363.279722	2504.979593
363.668037	2503.754593
364.056289	2506.895232
364.444478	2506.459172
364.832603	2505.637464
365.220665	2506.199552
365.608665	2507.149810
365.996601	2508.510921
366.384474	2505.753410
366.772284	2507.225427
367.160031	2509.057887
367.547715	2507.472444
367.935336	2506.776764
368.322893	2510.005623
368.710388	2510.537465
369.097820	2512.468227
369.485189	2507.994203
369.872495	2509.746004
370.259738	2510.043432
370.646918	2510.396313
371.034035	2510.078720
371.421090	2511.492764
371.808081	2511.623834
372.195010	2510.116529
372.581875	2512.037208
372.968678	2509.625016
373.355418	2510.723988
373.742096	2514.134328
374.128710	2512.344719
374.515262	2512.737929
374.901751	2517.973167
375.288177	2513.393279
375.674540	2511.707013
376.060841	2515.011489
376.447079	2514.149452
376.833254	2515.898732
377.219367	2508.210973
377.605417	2513.786489
377.991404	2508.342043
378.377329	2512.969822
378.763191	2509.718278
379.148991	2517.726151
379.534727	2516.085255
379.920402	2516.773372
380.306013	2519.152797
380.691563	2514.908146
381.077049	2517.506860
381.462474	2516.359998
381.847835	2518.673888
382.233134	2517.148938
382.618371	2519.243538
383.003545	2520.266892
383.388657	2519.167921
383.773706	2517.819412
384.158693	2518.976357
384.543618	2518.724299
384.928480	2518.741943
385.313280	2518.668846
385.698017	2519.815709
386.082692	2518.237828
386.467305	2518.736902
386.851856	2516.972498
387.236344	2521.398631
387.620770	2523.599095
388.005133	2521.680936
388.389435	2521.335617
388.773674	2522.432068
389.157851	2518.915863
389.541965	2522.278313
389.926018	2521.287726
390.310008	2522.986595
390.693936	2522.931142
391.077802	2522.749660
391.461606	2524.443488
391.845348	2522.565658
392.229027	2524.193951
392.612645	2523.858714
392.996200	2523.813344
393.379694	2527.004394
393.763125	2524.408200
394.146494	2526.991791
394.529801	2525.698735
394.913047	2524.748478
395.296230	2524.241842
395.679351	2526.031452
396.062410	2526.477594
396.445408	2527.009435
396.828343	2526.099507
397.211217	2520.856707
397.594028	2525.176976
397.976778	2524.624970
398.359466	2522.890813
398.742092	2524.032634
399.124656	2526.225536
399.507158	2527.105217
399.889598	2529.509848
400.271977	2526.442306
400.654294	2529.522451
401.036549	2524.967768
401.418742	2527.127902
401.800874	2525.479445
402.182944	2527.049765
402.564952	2527.899199
402.946898	2529.887934
403.328783	2529.451874
403.710606	2530.989426
404.092367	2528.415917
404.474067	2528.002543
404.855705	2531.198634
405.237282	2529.653521
405.618797	2528.325177
406.000250	2530.722245
406.381642	2527.057326
406.762972	2530.384488
407.144240	2530.402132
407.525447	2534.140147
407.906593	2530.472708
408.287677	2531.488501
408.668700	2531.314581
409.049661	2531.483459
409.430560	2532.796680
409.811399	2533.845240
410.192176	2531.319622
410.572891	2531.425486
410.953545	2534.228368
411.334138	2533.923378
411.714669	2530.762574
412.095139	2529.696370
412.475547	2533.472195
412.855894	2535.324819
413.236180	2533.126876
413.616405	2534.825744
413.996568	2531.647297
414.376670	2533.010929
414.756711	2532.847092
415.136691	2533.293234
415.516609	2536.393543
415.896466	2535.922195
416.276262	2536.408667
416.655997	2533.383974
417.035670	2530.515558
417.415283	2530.858356
417.794834	2530.450023
418.174324	2533.729293
418.553753	2533.787267
418.933121	2536.340611
419.312428	2537.051414
419.691674	2534.835827
420.070859	2536.060827
420.449983	2532.761392
420.829045	2536.983358
421.208047	2536.441434
421.586988	2538.455375
421.965867	2537.754655
422.344686	2535.924716
422.723444	2537.605941
423.102141	2537.910931
423.480777	2537.946219
423.859352	2535.680220
424.237866	2539.098122
424.616319	2538.533513
424.994712	2539.824048
425.373044	2539.231713
425.751314	2536.506969
426.129524	2535.549150
426.507673	2540.350849
426.885762	2539.884542
427.263789	2540.103832
427.641756	2540.181970
428.019662	2542.546272
428.397508	2540.134079
428.775292	2541.306148
429.153016	2539.824048
429.530679	2539.836651
429.908282	2538.904038
430.285824	2541.976621
430.663305	2541.691796
431.040726	2540.194573
431.418086	2542.001827
431.795385	2542.662218
432.172624	2539.803884
432.549802	2543.113401
432.926920	2540.360931
433.303977	2541.255736
433.680974	2542.261446
434.057910	2542.440407
434.434786	2541.079296
434.811601	2543.922507
435.188355	2542.405119
435.565050	2540.300437
435.941683	2542.947043
436.318257	2539.360262
436.694770	2540.504604
437.071222	2541.835469
437.447614	2540.106353
437.823946	2538.276414
438.200218	2542.725232
438.576429	2543.962836
438.952580	2543.070552
439.328670	2544.048535
439.704700	2540.398740
440.080670	2541.051569
440.456580	2546.763197
440.832429	2545.049204
441.208218	2545.785213
441.583947	2545.429812
441.959616	2544.623227
442.335224	2544.293031
442.710773	2545.999462
443.086261	2546.042312
443.461689	2548.212528
443.837057	2546.007024
444.212365	2545.891077
444.587612	2549.412323
444.962800	2546.163299
445.337927	2548.638506
445.712995	2546.725388
446.088002	2549.946685
446.462949	2546.748073
446.837837	2547.405944
447.212664	2550.818805
447.587431	2547.660522
447.962139	2550.057591
448.336786	2549.147663
448.711374	2550.095399
449.085901	2551.602704
449.460369	2550.758311
449.834776	2550.377704
450.209124	2550.130688
450.583412	2552.739485
450.957640	2552.805020
451.331808	2551.915256
451.705917	2551.108671
452.079965	2553.220915
452.453954	2552.351316
452.827883	2553.777962
453.201752	2552.184958
453.575562	2553.142777
453.949311	2554.604712
454.323001	2555.197047
454.696632	2554.786193
455.070202	2557.609239
455.443713	2556.590926
455.817164	2556.243087
456.190556	2556.490103
456.563888	2558.277192
456.937160	2558.173848
457.310373	2559.890361
457.683526	2561.054868
458.056619	2563.739282
458.429653	2565.231464
458.802628	2564.480332
459.175542	2570.955694
459.548398	2574.058524
459.921194	2577.771334
460.293930	2582.716706
460.666607	2589.673498
461.039224	2596.020311
461.411782	2600.648090
461.784280	2603.856785
462.156719	2606.528596
462.529099	2609.122270
462.901419	2611.201746
463.273680	2614.901953
463.645882	2620.469907
464.018024	2627.686319
464.390106	2631.835188
464.762130	2647.520739
465.134094	2668.413801
465.505999	2706.048535
465.877845	2745.845924
466.249631	2768.974738
466.621358	2764.883841
466.993026	2762.902668
467.364634	2765.700508
467.736184	2765.335025
468.107674	2770.731580
468.479105	2791.765794
468.850477	2794.142698
469.221790	2800.991106
469.593043	2803.829275
469.964238	2815.436532
470.335373	2826.905157
470.706449	2847.410050
471.077467	2868.497197
471.448425	2964.188379
471.819324	3049.681307
472.190164	3068.283165
472.560945	3020.674508
472.931667	2997.596106
473.302330	3005.374606
473.672934	3005.714884
474.043479	3056.887637
474.413965	3077.458065
474.784393	3098.716611
475.154761	3138.216572
475.525070	3175.616892
475.895321	3186.904036
476.265513	3234.011098
476.635645	3283.477420
477.005719	3326.806137
477.375734	3376.068293
477.745691	3440.436265
478.115588	3497.678567
478.485427	3576.998602
478.855207	3700.101059
479.224928	3893.068866
479.594591	4041.777864
479.964194	4063.094383
480.333739	4087.775872
480.703226	4147.896673
481.072653	4220.302765
481.442022	4353.772355
481.811333	4447.278197
482.180584	4473.245180
482.549777	4487.110874
482.918912	4513.962580
483.287988	4591.553499
483.657005	4657.937934
484.025964	4657.645547
484.394864	4757.646916
484.763706	4822.151000
485.132489	4827.096372
485.501213	4884.910844
485.869879	4969.103155
486.238487	5016.626112
486.607036	5103.916212
486.975527	5126.243482
487.343959	5251.886680
487.712333	5352.112380
488.080648	5391.685438
488.448905	5498.817519
488.817104	5548.367020
489.185244	5723.408484
489.553326	5869.566658
489.921350	6158.770092
490.289315	6658.540002
490.657222	6867.755448
491.025070	6942.450225
491.392861	6979.434650
491.760593	6929.446569
492.128267	6885.712038
492.495883	6829.520817
492.863440	6769.601663
493.230939	6711.431788
493.598380	6759.042966
493.965763	6791.323994
494.333088	6810.782848
494.700354	6861.345621
495.067563	6955.852133
495.434713	6963.209697
495.801805	7102.103567
496.168839	7148.184755
496.535815	7199.145779
496.902733	7265.867971
497.269593	7323.077505
497.636395	7441.612676
498.003139	7531.574587
498.369825	7520.632763
498.736453	7697.509207
499.103023	7714.253399
499.469535	7817.216446
499.835989	7879.204994
500.202385	7936.575846
500.568723	7902.411946
500.935003	8112.945654
501.301226	8075.351249
501.667390	8302.132596
502.033497	8443.070655
502.399546	8416.599556
502.765537	8420.710617
503.131470	8543.303917
503.497345	8733.962876
503.863163	8507.846961
504.228923	8809.565060
504.594625	8920.402389
504.960269	8794.945714
505.325856	9017.958798
505.691385	8931.928987
506.056856	9106.862067
506.422270	9183.190178
506.787625	9144.690886
507.152924	9305.917068
507.518164	9337.726749
507.883347	9334.016459
508.248472	9311.658942
508.613540	9559.625738
508.978550	9516.748204
509.343503	9548.346156
509.708398	9690.052991
510.073236	9831.928704
510.438016	9890.020441
510.802738	9885.188495
511.167403	9968.705290
511.532010	9932.814796
511.896561	10166.389097
512.261053	10268.555642
512.625488	10204.210354
512.989866	10222.905473
513.354186	10248.275080
513.718449	10202.990395
514.082655	10400.918698
514.446803	10344.566159
514.810894	10487.732408
515.174927	10405.415407
515.538904	10452.459455
515.902822	10624.009920
516.266684	10546.723990
516.630488	10519.433704
516.994235	10601.244069
517.357925	10692.791423
517.721558	10799.379059
518.085133	10843.993271
518.448651	10873.698270
518.812112	10783.388519
519.175516	10820.060393
519.538863	10951.321957
519.902152	10891.291897
520.265385	11073.194372
520.628560	10996.984728
520.991678	10992.936682
521.354739	11068.180944
521.717743	11026.581343
522.080690	11023.223934
522.443580	11167.698362
522.806413	11145.182049
523.169189	11182.468943
523.531908	11249.952349
523.894569	11089.832700
524.257174	11099.673032
524.619722	11226.808412
524.982213	11188.911538
525.344647	11246.567214
525.707025	11207.226050
526.069345	11306.015021
526.431608	11239.111348
526.793815	11350.077226
527.155964	11154.220837
527.518057	11206.777387
527.880093	11161.898515
528.242072	11239.708724
528.603995	11154.908955
528.965860	11079.936915
529.327669	11133.668053
529.689421	11089.414284
530.051117	11061.148535
530.412755	11171.514516
530.774337	11066.368649
531.135862	11054.317771
531.497331	11074.923487
531.858743	10935.480131
532.220098	11102.995153
532.581396	10976.547891
532.942638	10969.429782
533.303824	10924.790364
533.664953	10950.255753
534.026025	10861.153359
534.387040	10969.802827
534.747999	10966.395007
535.108902	11027.347598
535.469748	10783.133941
535.830537	10895.423123
536.191270	10875.321522
536.551947	10897.452187
536.912567	10898.331868
537.273131	10824.143728
537.633638	10802.865017
537.994089	10793.377566
538.354483	10745.353014
538.714821	10887.987421
539.075103	10899.398072
539.435328	10864.077228
539.795497	10697.978770
540.155609	10857.173368
540.515665	10939.986922
540.875665	10679.046717
541.235609	10755.090002
541.595496	10744.899310
541.955328	10896.441436
542.315102	10785.629312
542.674821	10732.760211
543.034483	10737.645089
543.394090	10742.527447
543.753640	10674.655872
544.113134	10892.905066
544.472571	10748.274362
544.831953	10886.008768
545.191278	10691.989880
545.550548	10724.636392
545.909761	10861.002124
546.268918	10837.530512
546.628019	10924.172823
546.987064	10793.962340
547.346053	10706.770543
547.704986	10812.758282
548.063863	10797.884357
548.422684	10790.045363
548.781449	10703.093021
549.140158	10804.916767
549.498811	10688.582060
549.857408	10544.838599
550.215949	10769.996694
550.574434	10623.193253
550.932864	10724.515404
551.291237	10781.223344
551.649555	10729.465817
552.007817	10742.580379
552.366022	10703.705521
552.724173	10704.237363
553.082267	10680.803559
553.440305	10821.431587
553.798288	10615.306368
554.156215	10771.688001
554.514086	10751.185629
554.871902	10606.055851
555.229661	10631.221291
555.587365	10613.352921
555.945014	10507.065233
556.302606	10633.184820
556.660143	10530.572133
557.017625	10681.267345
557.375050	10579.133568
557.732421	10715.837058
558.089735	10627.942020
558.446994	10633.114244
558.804197	10670.736375
559.161345	10672.909112
559.518437	10521.704744
559.875474	10601.700294
560.232455	10637.338731
560.589381	10580.759341
560.946251	10581.061810
561.303065	10690.487616
561.659825	10623.823397
562.016528	10559.163037
562.373177	10432.604870
562.729770	10547.727180
563.086307	10465.203492
563.442789	10558.527852
563.799216	10432.231825
564.155587	10484.972376
564.511904	10441.061406
564.868164	10431.447925
565.224370	10445.084247
565.580520	10376.028001
565.936615	10376.519513
566.292654	10244.239636
566.648638	10378.906499
567.004567	10331.335651
567.360441	10315.859309
567.716260	10225.736081
568.072023	10322.861472
568.427732	10267.648234
568.783385	10184.002889
569.138982	10250.410008
569.494525	10269.155539
569.850013	10146.032918
570.205445	10226.189785
570.560823	10119.415626
570.916145	10046.381909
571.271412	10106.096897
571.626625	10052.879957
571.981782	10030.522439
572.336884	10005.341876
572.691931	10016.981900
573.046923	9957.990318
573.401860	9909.010467
573.756743	9851.231282
574.111570	9894.277695
574.466342	9879.784378
574.821059	9910.227906
575.175722	9796.983426
575.530330	9804.353593
575.884882	9799.841760
576.239380	9727.065142
576.593823	9705.650321
576.948211	9719.415192
577.302544	9603.670299
577.656823	9617.291497
578.011047	9620.056570
578.365216	9590.838042
578.719330	9515.235858
579.073389	9532.466522
579.427394	9473.933684
579.781344	9452.415519
580.135239	9405.505062
580.489080	9408.476822
580.842866	9309.856730
581.196597	9313.657760
581.550273	9355.148976
581.903895	9326.006066
582.257463	9391.722548
582.610975	9267.329556
582.964434	9299.471953
583.317837	9219.110919
583.671186	9197.565028
584.024481	9194.280716
584.377721	9119.500240
584.730906	9089.543183
585.084037	9126.416703
585.437113	9062.353720
585.790135	9080.920289
586.143103	8982.864806
586.496016	8952.809447
586.848874	9013.149538
587.201679	9003.112600
587.554428	8882.878561
587.907124	8931.992002
588.259765	8902.745748
588.612352	8908.439731
588.964884	8784.818036
589.317362	8795.182648
589.669786	8802.336046
590.022155	8849.107871
590.374470	8862.159418
590.726731	8790.670816
591.078937	8652.059249
591.431090	8763.904809
591.783188	8636.351014
592.135232	8627.196279
592.487222	8626.367009
592.839157	8677.625461
593.191038	8618.880895
593.542866	8555.647182
593.894639	8460.034138
594.246358	8511.630347
594.598022	8524.896144
594.949633	8426.507944
595.301190	8400.301506
595.652692	8429.509951
596.004141	8532.906537
596.355535	8318.370153
596.706876	8301.119324
597.058162	8238.087257
597.409395	8310.974780
597.760573	8366.550981
598.111698	8282.222559
598.462768	8272.175540
598.813785	8229.991164
599.164748	8199.232564
599.515657	8189.414917
599.866511	8103.246474
600.217312	8224.919763
600.568060	8088.841377
600.918753	8185.192951
601.269392	8156.997777
601.619978	8072.807987
601.970510	8131.103890
602.320988	8133.639591
602.671412	8190.007253
603.021783	8121.616439
603.372100	8096.761030
603.722363	8100.040300
604.072572	8073.914521
604.422728	8087.384484
604.772830	8016.818412
605.122878	8026.202520
605.472872	8020.659771
605.822813	8039.853965
606.172701	7996.205134
606.522534	8065.785660
606.872314	8068.122235
607.222041	8034.681741
607.571714	8094.424455
607.921333	8044.917804
608.270899	8059.133857
608.620411	8148.498392
608.969870	8047.871920
609.319276	8045.472331
609.668627	8057.354330
610.017926	8095.127696
610.367171	8143.018657
610.716362	8117.149977
611.065500	8111.859286
611.414585	8140.982031
611.763616	8122.738096
612.112594	8103.256557
612.461518	8117.374308
612.810389	8178.483175
613.159207	8122.791028
613.507971	8071.373779
613.856682	8189.175462
614.205340	8146.335737
614.553945	8220.344916
614.902496	8118.397662
615.250994	8167.667379
615.599439	8156.496182
615.947830	8162.240577
616.296169	8143.008575
616.644454	8155.644227
616.992686	8152.770770
617.340864	8206.408647
617.688990	8114.856252
618.037063	8205.455868
618.385082	8154.850246
618.733048	8238.304027
619.080961	8180.900408
619.428821	8194.367851
619.776628	8198.506638
620.124382	8147.099472
620.472083	8131.517265
620.819731	8162.106987
621.167326	8052.335862
621.514868	8060.028662
621.862357	7947.845345
622.209793	7968.556926
622.557176	7905.774396
622.904506	7871.492029
623.251783	7808.593552
623.599007	7763.019001
623.946179	7765.905062
624.293297	7718.041827
624.640363	7640.163561
624.987376	7625.639997
625.334336	7575.341885
625.681243	7523.569235
626.028097	7506.522573
626.374899	7488.502968
626.721647	7479.590208
627.068343	7414.277019
627.414987	7383.906588
627.761577	7341.891091
628.108115	7375.724795
628.454600	7272.386182
628.801032	7323.682443
629.147412	7281.603932
629.493739	7267.329905
629.840014	7206.636933
630.186236	7263.102898
630.532405	7146.193499
630.878521	7199.445727
631.224585	7155.565004
631.570597	7082.095228
631.916556	7112.385001
632.262462	7107.409382
632.608316	7070.782878
632.954117	7042.567540
633.299866	7027.592793
633.645562	7026.914758
633.991206	6948.907943
634.336797	6887.804117
634.682336	6846.393559
635.027823	6817.724517
635.373257	6803.889070
635.718639	6737.857517
636.063968	6747.075267
636.409245	6644.684391
636.754470	6644.782693
637.099642	6602.777279
637.444762	6545.202261
637.789829	6555.718108
638.134845	6501.387072
638.479808	6483.092725
638.824719	6489.865515
639.169577	6417.595533
639.514383	6440.290808
639.859137	6372.454521
640.203839	6375.123812
640.548489	6363.148551
640.893086	6333.196536
641.237632	6309.639224
641.582125	6329.647563
641.926566	6299.262009
642.270955	6311.864893
642.615292	6301.354087
642.959576	6326.653118
643.303809	6309.765253
643.647990	6318.302447
643.992118	6308.706610
644.336195	6255.693837
644.680219	6278.071518
645.024192	6273.221928
645.368112	6365.966556
645.711981	6392.296503
646.055797	6466.119160
646.399562	6428.817142
646.743274	6552.665689
647.086935	6601.605211
647.430544	6597.768892
647.774101	6616.529547
648.117606	6622.778057
648.461059	6618.301512
648.804460	6572.827784
649.147810	6483.662375
649.491108	6453.758251
649.834354	6432.287976
650.177548	6349.572724
650.520690	6262.567450
650.863781	6241.540797
651.206820	6264.793119
651.549807	6177.072001
651.892742	6126.579804
652.235626	6134.990969
652.578458	6112.731755
652.921238	6023.727663
653.263967	6063.215021
653.606644	6005.176217
653.949269	6004.208315
654.291843	5950.068843
654.634365	5995.071224
654.976836	5952.208813
655.319255	5946.371157
655.661622	5927.055976
656.003938	5921.505666
656.346203	5886.928392
656.688416	5916.671199
657.030577	5868.150093
657.372687	5834.482748
657.714746	5825.940512
658.056753	5871.104210
658.398708	5811.139685
658.740612	5803.157018
659.082465	5844.953224
659.424266	5844.912895
659.766016	5841.308470
660.107715	5818.696374
660.449362	5830.893446
660.790958	5824.609648
661.132503	5809.413089
661.473996	5847.491445
661.815438	5832.158776
662.156829	5831.175751
662.498168	5826.096788
662.839456	5795.449093
663.180693	5834.772614
663.521879	5834.724723
663.863013	5825.690975
664.204097	5843.231670
664.545129	5888.213886
664.886110	5881.758688
665.227040	5911.826650
665.567918	5881.710797
665.908746	5905.855404
666.249522	5911.793883
666.590248	5898.833076
666.930922	5928.485143
667.271545	5938.892605
667.612118	5940.034427
667.952639	5914.937042
668.293109	5938.592657
668.633528	5892.506428
668.973896	5899.256533
669.314213	5886.255398
669.654480	5872.031782
669.994695	5866.254620
670.334859	5852.109142
670.674973	5846.677299
671.015035	5851.244584
671.355047	5851.504203
671.695008	5833.658519
672.034918	5806.216998
672.374777	5821.196787
672.714585	5806.975692
673.054342	5807.373943
673.394049	5801.808509
673.733705	5833.474517
674.073310	5817.625129
674.412864	5780.923008
674.752368	5774.266165
675.091820	5775.095435
675.431223	5710.435075
675.770574	5715.451023
676.109875	5666.599722
676.449125	5668.255741
676.788324	5636.257017
677.127473	5583.125776
677.466571	5570.754784
677.805619	5565.254885
678.144616	5543.658582
678.483562	5525.707033
678.822458	5497.534545
679.161303	5489.400643
679.500098	5479.305733
679.838842	5465.321572
680.177535	5466.400379
680.516179	5481.969982
680.854771	5493.743597
681.193314	5574.192851
681.531805	5684.765519
681.870247	5834.162634
682.208638	5930.756183
682.546978	5949.562208
682.885268	5921.553557
683.223508	5839.813768
683.561697	5785.807887
683.899836	5752.490901
684.237925	5711.604622
684.575963	5678.625394
684.913951	5638.545700
685.251889	5696.839083
685.589776	5666.483775
685.927614	5635.581502
686.265401	5709.169745
686.603137	5689.879770
686.940824	5766.134784
687.278460	5791.201921
687.616046	5795.751563
687.953582	5865.727819
688.291068	5846.019428
688.628504	5912.353451
688.965889	5871.149580
689.303224	5817.743596
689.640510	5775.188696
689.977745	5697.703641
690.314930	5594.725471
690.652065	5544.659251
690.989150	5451.244150
691.326185	5376.504003
691.663170	5321.681455
692.000105	5247.208489
692.336990	5169.909957
692.673825	5143.832068
693.010610	5074.669958
693.347345	5006.899206
693.684030	4989.935723
694.020665	4951.154127
694.357251	4864.554665
694.693786	4872.408783
695.030272	4835.225232
695.366707	4801.018483
695.703093	4772.243577
696.039429	4796.899860
696.375716	4773.708032
696.711952	4750.052417
697.048139	4739.929780
697.384276	4721.479157
697.720363	4729.139191
698.056400	4741.152260
698.392388	4689.394734
698.728326	4668.032844
699.064214	4643.827744
699.400053	4644.727590
699.735842	4608.625367
700.071581	4581.327519
700.407270	4556.114188
700.742910	4541.121796
701.078501	4487.856965
701.414042	4485.066686
701.749533	4456.700113
702.084974	4388.422726
702.420366	4444.384574
702.755709	4387.575812
703.091002	4334.018593
703.426246	4379.812435
703.761440	4336.604705
704.096584	4300.114313
704.431679	4320.188188
704.766725	4306.932474
705.101721	4296.698931
705.436668	4324.183302
705.771565	4271.649438
706.106413	4297.374446
706.441212	4330.376360
706.775961	4343.087629
707.110661	4320.533507
707.445311	4346.992003
707.779913	4372.732134
708.114465	4379.666241
708.448967	4403.500817
708.783421	4468.652689
709.117825	4508.770191
709.452180	4513.171119
709.786485	4556.401533
710.120742	4642.937980
710.454949	4628.893326
710.789107	4693.168037
711.123216	4765.276702
711.457275	4760.076752
711.791286	4829.750539
712.125247	4848.405329
712.459159	4752.474692
712.793023	4826.640147
713.126837	4787.084733
713.460602	4779.235657
713.794318	4698.448646
714.127985	4703.623390
714.461602	4623.605155
714.795171	4587.893622
715.128691	4526.172254
715.462162	4470.757371
715.795584	4421.916152
716.128957	4407.332094
716.462281	4355.274618
716.795556	4326.625741
717.128782	4287.614772
717.461960	4215.601889
717.795088	4232.484714
718.128167	4190.761604
718.461198	4130.045947
718.794180	4127.991677
719.127113	4106.486114
719.459997	4085.582970
719.792833	4040.015980
720.125619	4035.373078
720.458357	3997.559383
720.791046	4001.630114
721.123686	3978.594562
721.456278	3936.773150
721.788821	3951.725212
722.121315	3927.988939
722.453761	3903.272162
722.786158	3917.586518
723.118506	3940.556536
723.450805	3888.438567
723.783056	3911.748862
724.115259	3927.928445
724.447412	3935.008746
724.779518	3924.182868
725.111574	3928.961882
725.443582	3956.899956
725.775542	3943.046866
726.107453	3991.131912
726.439315	3992.707272
726.771129	4009.118748
727.102895	4043.864901
727.434612	4093.510184
727.766281	4099.753653
728.097901	4103.224488
728.429473	4110.077937
728.760996	4113.994913
729.092471	4109.369654
729.423897	4094.402469
729.755276	4102.039817
730.086606	4101.593675
730.417887	4137.456443
730.749120	4205.852298
731.080305	4268.042492
731.411442	4287.894556
731.742530	4266.767080
732.073570	4267.011576
732.404562	4321.272036
732.735506	4315.134431
733.066401	4273.088687
733.397249	4207.036969
733.728048	4133.620125
734.058798	4050.131056
734.389501	3982.630006
734.720156	3917.944440
735.050762	3875.190414
735.381320	3872.175804
735.711831	3816.891991
736.042293	3792.318886
736.372707	3810.406546
736.703073	3780.681383
737.033391	3774.667286
737.363661	3790.078093
737.693883	3815.238492
738.024056	3826.387004
738.354182	3821.597908
738.684260	3887.304307
739.014290	3905.021442
739.344272	3902.329466
739.674207	3942.409160
740.004093	3948.098102
740.333931	3939.276082
740.663722	3940.243984
740.993464	3938.892955
741.323159	3910.435641
741.652806	3887.087537
741.982405	3861.271788
742.311956	3827.372549
742.641460	3819.357115
742.970915	3792.623876
743.300323	3753.829677
743.629683	3724.056622
743.958996	3711.660425
744.288260	3686.931044
744.617477	3654.077845
744.946647	3638.538488
745.275768	3612.110239
745.604842	3609.151082
745.933869	3566.865883
746.262847	3554.953637
746.591778	3592.762291
746.920662	3563.415213
747.249498	3534.791542
747.578286	3577.636308
747.907027	3596.744802
748.235720	3593.833536
748.564365	3619.130046
748.892963	3619.500571
749.221514	3602.486676
749.550017	3578.694951
749.878473	3577.497677
750.206881	3550.411557
750.535242	3544.281514
750.863555	3550.446845
751.191821	3539.820093
751.520039	3519.388296
751.848210	3498.628825
752.176334	3532.538146
752.504411	3539.837737
752.832440	3499.064885
753.160421	3480.475630
753.488356	3491.049450
753.816243	3506.228364
754.144082	3462.937456
754.471875	3447.587142
754.799620	3468.996922
755.127318	3456.222639
755.454969	3456.436888
755.782572	3463.802013
756.110129	3437.250256
756.437638	3430.860594
756.765100	3444.857357
757.092515	3457.838328
757.419882	3459.960654
757.747203	3431.314298
758.074477	3434.749844
758.401703	3452.777010
758.728882	3473.329794
759.056014	3477.755927
759.383099	3480.818428
759.710138	3480.117708
760.037129	3496.158659
760.364073	3525.775438
760.690970	3510.805732
761.017820	3490.908298
761.344623	3508.632995
761.671379	3554.136970
761.998088	3606.479270
762.324751	3733.357551
762.651366	3977.185559
762.977935	4444.213175
763.304456	4886.483684
763.630931	4972.188341
763.957359	4611.702991
764.283740	4277.035911
764.610074	4089.462138
764.936362	3889.010737
765.262602	3733.654979
765.588796	3625.920480
765.914943	3536.351779
766.241044	3452.212401
766.567097	3419.689397
766.893104	3374.409753
767.219064	3345.428159
767.544978	3315.692913
767.870845	3258.231321
768.196665	3239.281624
768.522438	3251.471134
768.848165	3242.240781
769.173846	3208.933878
769.499479	3196.071374
769.825066	3177.706450
770.150607	3159.860766
770.476101	3175.964732
770.801548	3172.393074
771.126949	3127.337762
771.452303	3110.253291
771.777611	3115.428036
772.102872	3124.333234
772.428087	3097.627722
772.753256	3087.442070
773.078378	3080.155082
773.403453	3044.514125
773.728482	3034.469626
774.053465	3055.453428
774.378401	3042.994217
774.703291	3011.663446
775.028135	3014.494053
775.352932	3008.560615
775.677683	2994.614263
776.002388	2995.443533
776.327046	2994.521002
776.651658	2984.975577
776.976224	2972.160964
777.300743	2971.329174
777.625216	2961.569500
777.949643	2957.891978
778.274024	2961.519088
778.598359	2948.570885
778.922647	2955.290743
779.246889	2953.395269
779.571086	2936.903134
779.895236	2931.529264
780.219339	2941.838424
780.543397	2957.045064
780.867409	2958.481793
781.191374	2950.940227
781.515294	2950.761266
781.839167	2951.076338
782.162995	2941.619133
782.486776	2951.320834
782.810511	2947.769341
783.134201	2934.339707
783.457844	2944.185081
783.781441	2933.245777
784.104993	2911.420101
784.428498	2913.164341
784.751958	2926.334355
785.075372	2922.142636
785.398739	2907.117477
785.722061	2921.588109
786.045337	2933.891045
786.368568	2916.355391
786.691752	2907.261149
787.014891	2958.685960
787.337983	2985.646051
787.661030	3012.964063
787.984031	3079.613158
788.306987	3122.634365
788.629897	3119.095475
788.952760	3102.179883
789.275579	3089.980291
789.598351	3029.531815
789.921078	2981.524907
790.243759	2977.068527
790.566395	2959.013635
790.888984	2935.423555
791.211529	2918.795309
791.534027	2906.933474
791.856480	2898.512227
792.178888	2886.388252
792.501249	2876.580687
792.823566	2874.372662
793.145836	2868.545088
793.468062	2866.871425
793.790241	2863.067874
794.112375	2872.401571
794.434464	2882.420864
794.756507	2886.978067
795.078505	2891.994015
795.400457	2905.101015
795.722364	2940.817590
796.044226	2966.111579
796.366042	2970.164667
796.687812	2954.839559
797.009538	2977.703713
797.331218	2964.445478
797.652852	2953.412913
797.974442	2931.960283
798.295986	2929.719490
798.617484	2925.079108
798.938938	2908.327353
799.260346	2892.223388
799.581709	2889.614590
799.903026	2883.260216
800.224299	2876.772251
800.545526	2865.502752
800.866708	2852.312572
801.187845	2839.389575
801.508936	2842.205059
801.829983	2851.115298
802.150984	2836.327074
802.471940	2824.568582
802.792851	2824.825681
803.113717	2826.411124
803.434538	2829.566886
803.755314	2822.761329
804.076045	2818.007521
804.396731	2817.644557
804.717372	2816.376707
805.037967	2811.365800
805.358518	2818.819146
805.679024	2828.281392
805.999485	2826.595126
806.319901	2831.132165
806.640272	2821.306956
806.960598	2825.927173
807.280879	2837.978052
807.601115	2843.654391
807.921306	2831.207782
808.241453	2826.522029
808.561554	2831.220385
808.881611	2833.488904
809.201623	2827.182421
809.521590	2829.082936
809.841513	2822.234528
810.161390	2827.996567
810.481223	2821.667398
810.801011	2811.983342
811.120755	2808.900676
811.440453	2813.341933
811.760107	2810.949905
812.079716	2810.249185
812.399281	2800.643266
812.718801	2793.320990
813.038276	2788.554579
813.357707	2794.596402
813.677093	2803.060499
813.996434	2799.178811
814.315731	2791.564148
814.634983	2786.104578
814.954191	2785.693724
815.273354	2803.287351
815.592473	2811.706078
815.911547	2812.527786
816.230577	2820.636482
816.549562	2830.502020
816.868502	2828.931701
817.187399	2837.365551
817.506250	2856.670650
817.825058	2847.412571
818.143821	2859.967565
818.462539	2876.132024
818.781213	2902.101528
819.099843	2936.535130
819.418429	2996.330776
819.736970	3057.253120
820.055466	3125.230559
820.373919	3232.435737
820.692327	3368.463712
821.010691	3536.734907
821.329011	3973.626505
821.647286	4865.623390
821.965517	6225.668724
822.283704	6952.787111
822.601847	6922.343583
822.919945	6304.063708
823.237999	5802.466379
823.556010	5230.673504
823.873976	4682.606820
824.191897	4284.101088
824.509775	3996.349506
824.827609	3725.216087
825.145398	3606.060854
825.463144	3596.447374
825.780845	3687.208308
826.098502	3789.241262
826.416116	4069.398346
826.733685	4380.929050
827.051210	4441.710242
827.368692	4328.327131
827.686129	4066.794590
828.003522	3744.599324
828.320872	3488.896877
828.638177	3297.023000
828.955439	3162.005777
829.272656	3082.388313
829.589830	3012.815349
829.906960	2964.863894
830.224046	2916.977973
830.541088	2888.203067
830.858086	2872.998947
831.175041	2850.928776
831.491952	2855.811133
831.808819	2869.933926
832.125642	2892.518295
832.442421	2935.642846
832.759157	3017.617048
833.075849	3193.712114
833.392497	3470.436172
833.709101	3669.287006
834.025662	3619.273719
834.342179	3462.082980
834.658653	3287.795168
834.975083	3141.334525
835.291469	3046.523024
835.607811	2961.559418
835.924110	2905.622774
836.240366	2853.035978
836.556578	2813.949392
836.872746	2790.699590
837.188871	2765.355189
837.504952	2749.263826
837.820990	2742.478433
838.136984	2730.268758
838.452935	2721.877758
838.768842	2722.565875
839.084706	2738.788308
839.400526	2819.592963
839.716303	2947.101388
840.032037	3026.502082
840.347727	3013.412726
840.663373	2951.484672
840.978977	2879.338198
841.294537	2807.514359
841.610054	2758.290012
841.925527	2736.270252
842.240957	2717.053374
842.556344	2696.041844
842.871687	2680.893177
843.186987	2671.935047
843.502244	2668.277690
843.817458	2664.073367
844.132629	2649.726243
844.447756	2641.647794
844.762840	2634.116311
845.077881	2637.254429
845.392879	2636.999851
845.707833	2632.646814
846.022745	2624.303705
846.337613	2627.240177
846.652438	2625.374950
846.967221	2627.328397
847.281960	2624.603653
847.596656	2622.330093
847.911309	2622.244393
848.225919	2620.737088
848.540485	2615.206942
848.855009	2616.661315
849.169490	2615.579988
849.483928	2615.390945
849.798323	2616.862962
850.112675	2612.845162
850.426984	2615.292642
850.741251	2612.726695
851.055474	2611.622682
851.369654	2616.442025
851.683792	2616.018568
851.997887	2613.984463
852.311938	2610.606890
852.625947	2612.726695
852.939914	2619.131481
853.253837	2617.372118
853.567718	2608.577825
853.881555	2612.673763
854.195350	2617.145266
854.509103	2614.221397
854.822812	2613.417333
855.136479	2612.401540
855.450103	2612.749380
855.763685	2616.210132
856.077224	2613.999586
856.390720	2610.105295
856.704173	2612.537652
857.017584	2618.125771
857.330953	2620.177520
857.644278	2621.316821
857.957561	2618.851697
858.270802	2618.294649
858.584000	2614.735595
858.897155	2617.661984
859.210268	2621.251286
859.523339	2616.636110
859.836367	2614.347426
860.149352	2613.656788
860.462295	2613.218207
860.775195	2612.073865
861.088054	2610.652260
861.400869	2611.718464
861.713642	2607.418360
862.026373	2608.686210
862.339062	2610.813577
862.651708	2617.800616
862.964312	2619.418827
863.276873	2616.779782
863.589392	2616.638630
863.901869	2623.262706
864.214303	2627.580455
864.526696	2627.648510
864.839045	2631.315950
865.151353	2634.232257
865.463619	2634.393574
865.775842	2633.402987
866.088023	2634.791825
866.400162	2633.488687
866.712258	2633.324849
867.024313	2632.281331
867.336325	2631.295785
867.648296	2631.653707
867.960224	2635.661424
868.272110	2634.045734
868.583954	2630.007770
868.895755	2628.286216
869.207515	2637.004892
869.519233	2642.182157
869.830909	2637.365334
870.142542	2632.961886
870.454134	2633.410549
870.765684	2639.631333
871.077191	2641.602424
871.388657	2645.209370
871.700081	2642.429173
872.011463	2643.008906
872.322803	2643.515542
872.634101	2645.355563
872.945357	2657.953407
873.256571	2660.405928
873.567744	2657.658499
873.878874	2657.015752
874.189963	2655.165648
874.501010	2661.807369
874.812015	2667.539161
875.122979	2665.245436
875.433900	2654.422078
875.744780	2659.133037
876.055618	2662.182935
876.366415	2666.886331
876.677169	2666.513286
876.987882	2660.645383
877.298554	2658.805362
877.609183	2670.684841
877.919771	2675.602486
878.230317	2682.188754
878.540822	2695.237780
878.851285	2708.248998
879.161707	2730.460322
879.472087	2767.923657
879.782425	2814.009886
880.092722	2927.743358
880.402977	3110.606172
880.713191	3361.874924
881.023363	3651.285046
881.333494	3835.123323
881.643583	4008.228985
881.953631	3999.921163
882.263637	3828.166531
882.573602	3613.103346
882.883526	3486.822443
883.193408	3373.154506
883.503248	3273.755555
883.813048	3161.610046
884.122806	3049.620813
884.432522	2968.748103
884.742197	2904.652352
885.051831	2866.856301
885.361424	2833.120900
885.670975	2799.725776
885.980485	2768.705036
886.289954	2751.933117
886.599382	2738.322002
886.908768	2731.466032
887.218113	2708.475850
887.527417	2694.852132
887.836680	2689.450536
888.145901	2682.254289
888.455082	2675.640295
888.764221	2664.244767
889.073319	2654.570792
889.382376	2657.913077
889.691392	2657.550114
890.000366	2660.829385
890.309300	2654.049033
890.618193	2658.223108
890.927044	2663.097904
891.235855	2659.180928
891.544625	2659.364930
891.853353	2661.635969
892.162041	2670.193328
892.470687	2686.824095
892.779293	2698.726259
893.087858	2709.176571
893.396381	2730.387226
893.704864	2770.300561
894.013306	2838.479646
894.321707	2931.849377
894.630068	2974.127014
894.938387	2998.027124
895.246665	2988.602687
895.554903	2947.240020
895.863100	2906.701581
896.171256	2848.037674
896.479371	2789.194806
896.787446	2750.098137
897.095480	2734.369737
897.403473	2728.537122
897.711425	2714.116902
898.019336	2694.350537
898.327207	2679.955522
898.635038	2678.475944
898.942827	2678.680111
899.250576	2668.252484
899.558284	2657.582882
899.865952	2651.904022
900.173579	2650.827736
900.481165	2649.070893
900.788711	2639.167547
901.096216	2634.852319
901.403681	2631.283182
901.711105	2631.557925
902.018489	2627.545167
902.325832	2632.931639
902.633135	2631.905765
902.940397	2652.385452
903.247619	2687.303004
903.554800	2749.677201
903.861941	2879.517159
904.169041	3000.703977
904.476101	3057.295970
904.783121	3050.429919
905.090100	2995.882113
905.397039	2921.101637
905.703938	2851.531194
906.010796	2793.416772
906.317614	2736.860067
906.624391	2704.087526
906.931129	2679.375790
907.237826	2655.672284
907.544483	2641.325161
907.851099	2625.846298
908.157675	2616.174844
908.464211	2611.426077
908.770707	2597.527616
909.077163	2594.439909
909.383578	2592.302460
909.689954	2591.447984
909.996289	2592.753643
910.302584	2590.659044
910.608839	2586.805082
910.915054	2587.450349
911.221229	2589.507140
911.527363	2593.096442
911.833458	2593.368664
912.139513	2588.871955
912.445527	2593.345979
912.751502	2598.556011
913.057436	2602.856116
913.363331	2610.112857
913.669186	2619.650720
913.975000	2633.523975
914.280775	2647.261119
914.586510	2668.950684
914.892205	2700.117617
915.197859	2766.035745
915.503475	2850.139835
915.809050	2912.493867
916.114585	2926.881320
916.420081	2935.000098
916.725536	2947.403858
917.030952	2920.189188
917.336328	2878.448435
917.641665	2829.902123
917.946961	2781.509567
918.252218	2750.241810
918.557435	2725.222563
918.862612	2701.130889
919.167750	2689.216122
919.472848	2670.324398
919.777906	2651.319248
920.082925	2642.472023
920.387904	2632.533388
920.692843	2630.577421
920.997743	2623.608025
921.302603	2616.840276
921.607423	2607.970366
921.912204	2604.718822
922.216946	2600.665734
922.521647	2599.624736
922.826310	2598.117431
923.130932	2595.475866
923.435516	2587.750298
923.740059	2586.679053
924.044564	2584.488672
924.349028	2583.503126
924.653454	2574.121539
924.957840	2574.199677
925.262186	2569.592062
925.566493	2571.737073
925.870761	2565.768347
926.174989	2569.849161
926.479178	2565.836402
926.783328	2563.091494
927.087438	2562.552091
927.391509	2563.741803
927.695541	2559.746688
927.999533	2557.195865
928.303486	2559.653427
928.607400	2558.909857
928.911275	2558.090669
929.215110	2558.362892
929.518906	2554.718137
929.822663	2556.926163
930.126381	2557.798282
930.430060	2557.992367
930.733699	2557.223591
931.037299	2559.315670
931.340861	2560.180228
931.644383	2557.710062
931.947866	2559.522357
932.251309	2560.250804
932.554714	2559.456822
932.858080	2559.368602
933.161407	2558.357851
933.464694	2560.114693
933.767943	2559.754250
934.071153	2558.861966
934.374323	2556.265772
934.677455	2556.966492
934.980548	2557.518498
935.283602	2554.156049
935.586617	2556.674105
935.889593	2554.892057
936.192530	2552.706717
936.495428	2555.229815
936.798287	2555.502037
937.101108	2556.543035
937.403890	2560.255845
937.706632	2562.710887
938.009336	2564.278686
938.312002	2571.963925
938.614628	2572.752865
938.917216	2577.259657
939.219765	2574.953329
939.522275	2577.226889
939.824747	2577.524317
940.127179	2568.964438
940.429573	2567.734397
940.731929	2568.412432
941.034246	2567.260528
941.336524	2570.156671
941.638763	2569.150961
941.940964	2568.692216
942.243126	2568.362020
942.545250	2567.857905
942.847335	2562.577296
943.149381	2560.172666
943.451389	2561.027142
943.753359	2556.601008
944.055290	2557.871379
944.357182	2557.836091
944.659036	2561.720300
944.960851	2561.417831
945.262628	2557.342058
945.564367	2559.363561
945.866067	2557.669733
946.167729	2559.235011
946.469352	2556.517829
946.770937	2561.027142
947.072484	2557.871379
947.373992	2560.283571
947.675462	2557.861297
947.976893	2558.761143
948.278286	2555.247459
948.579641	2554.151008
948.880958	2556.384239
949.182236	2551.925338
949.483476	2551.655637
949.784678	2555.988508
950.085841	2554.609753
950.386967	2555.146636
950.688054	2553.699824
950.989103	2556.253169
951.290114	2555.796944
951.591087	2559.436658
951.892021	2561.410269
952.192917	2559.537481
952.493776	2561.372461
952.794596	2562.526885
953.095378	2565.118038
953.396122	2564.031669
953.696828	2561.780794
953.997496	2561.062430
954.298126	2553.762839
954.598718	2558.665361
954.899272	2557.432799
955.199788	2552.623538
955.500266	2557.284085
955.800706	2549.417364
956.101108	2545.374359
956.401472	2549.046839
956.701798	2546.001982
957.002087	2545.649102
957.302337	2544.724050
957.602550	2547.572302
957.902724	2547.007693
958.202861	2548.620862
958.502960	2544.809750
958.803022	2544.582898
959.103045	2542.889070
959.403031	2544.378731
959.702979	2544.043494
960.002889	2542.780685
960.302762	2543.453679
960.602596	2544.207332
960.902393	2541.230530
961.202153	2540.837320
961.501875	2540.555016
961.801559	2542.455531
962.101205	2541.860675
962.400814	2541.880839
962.700385	2543.141128
962.999918	2541.316230
963.299414	2541.086857
963.598873	2541.222969
963.898293	2539.564429
964.197677	2539.347659
964.497022	2539.413194
964.796331	2542.263967
965.095601	2541.638864
965.394835	2539.188863
965.694030	2538.150385
965.993189	2543.526776
966.292309	2539.995448
966.591393	2541.843031
966.890439	2539.529141
967.189447	2541.167516
967.488419	2539.922351
967.787353	2538.926723
968.086249	2542.805891
968.385108	2539.652649
968.683930	2543.519214
968.982714	2540.151723
969.281462	2541.381765
969.580172	2540.025695
969.878844	2539.433359
970.177480	2541.898483
970.476078	2542.458051
970.774639	2541.679193
971.073162	2541.084337
971.371649	2541.439738
971.670098	2538.168029
971.968510	2539.766075
972.266885	2534.445137
972.565223	2543.052908
972.863524	2544.230017
973.161788	2543.662887
973.460014	2540.181970
973.758204	2541.117104
974.056356	2543.292362
974.354471	2543.582229
974.652550	2540.413863
974.950591	2540.920499
975.248595	2542.904193
975.546563	2542.231199
975.844493	2539.153575
976.142386	2542.001827
976.440243	2538.939326
976.738062	2540.794471
977.035845	2539.246836
977.333590	2538.304141
977.631299	2539.796322
977.928971	2539.088040
978.226606	2541.359080
978.524204	2540.860006
978.821765	2541.616179
979.119290	2538.397402
979.416777	2541.817825
979.714228	2539.670293
980.011642	2540.572660
980.309020	2544.580377
980.606360	2540.456713
980.903664	2537.633667
981.200931	2541.283462
981.498162	2541.006199
981.795356	2542.165664
982.092513	2547.675646
982.389633	2551.673281
982.686717	2550.541542
982.983764	2554.513971
983.280775	2555.680998
983.577749	2557.354661
983.874686	2552.744526
984.171587	2548.590615
984.468451	2548.814946
984.765279	2545.500388
985.062070	2546.221273
985.358824	2544.212373
985.655543	2544.020809
985.952224	2540.010571
986.248869	2538.639377
986.545478	2537.185004
986.842050	2537.358924
987.138586	2534.157792
987.435086	2539.173740
987.731549	2537.051414
988.027975	2540.484440
988.324366	2536.063348
988.620719	2536.779192
988.917037	2538.049562
989.213318	2536.958153
989.509563	2535.738193
989.805772	2537.434542
990.101944	2538.823379
990.398080	2538.614172
990.694180	2538.102494
990.990244	2534.969417
991.286271	2536.259953
991.582262	2537.938657
991.878217	2539.224151
992.174136	2537.381609
992.470019	2536.199459
992.765865	2536.937988
993.061676	2537.303472
993.357450	2535.826413
993.653188	2540.025695
993.948890	2537.225334
994.244556	2537.500077
994.540186	2537.626105
994.835780	2538.447813
995.131337	2539.365303
995.426859	2538.150385
995.722345	2540.723894
996.017795	2541.354039
996.313208	2540.302958
996.608586	2538.931764
996.903928	2540.960829
997.199234	2538.152906
997.494504	2539.992927
997.789738	2537.676517
998.084936	2540.481919
998.380099	2537.737011
998.675225	2537.714326
998.970316	2536.814480
999.265371	2538.198276
999.560390	2539.156096
999.855373	2535.160981
1000.150320	2537.875642
1000.445232	2536.413708
1000.740108	2537.217772
1001.034948	2534.808100
1001.329752	2538.021836
1001.624521	2537.096784
1001.919254	2531.783408
1002.213951	2534.220806
1002.508613	2533.817514
1002.803239	2534.399767
1003.097829	2531.548994
1003.392384	2536.718698
1003.686903	2535.818852
1003.981386	2538.762886
1004.275834	2538.828421
1004.570246	2538.861188
1004.864623	2532.854653
1005.158964	2533.968748
1005.453270	2533.852802
1005.747540	2534.316588
1006.041775	2535.977648
1006.335974	2532.978162
1006.630138	2535.347504
1006.924266	2534.520755
1007.218359	2534.636701
1007.512416	2536.121321
1007.806438	2535.418080
1008.100425	2537.066537
1008.394376	2536.527134
1008.688292	2532.358100
1008.982172	2535.138296
1009.276017	2532.242153
1009.569827	2537.121990
1009.863602	2535.274407
1010.157341	2534.417411
1010.451045	2535.276928
1010.744714	2534.644263
1011.038347	2535.017308
1011.331945	2533.089067
1011.625508	2536.829603
1011.919036	2532.400949
1012.212528	2534.288862
1012.505986	2533.988913
1012.799408	2534.266176
1013.092795	2531.755682
1013.386147	2537.096784
1013.679464	2537.469830
1013.972745	2535.460930
1014.265992	2534.137627
1014.559204	2535.932278
1014.852380	2537.432021
1015.145521	2535.065199
1015.438628	2536.096115
1015.731699	2534.737524
1016.024736	2534.722401
1016.317737	2533.361289
1016.610703	2533.363810
1016.903635	2531.022194
1017.196531	2534.248532
1017.489393	2533.280631
1017.782219	2528.471370
1018.075011	2534.014119
1018.367768	2534.888759
1018.660490	2535.569315
1018.953177	2535.569315
1019.245829	2535.569315
