Dividing Wavelength (nm)	Counts (n)	Blue Motor Position (mm): 35.400000	Red Motor Position (mm): 0.000000	
326.493990	2129.605195
326.888308	2129.605195
327.282561	2129.605195
327.676750	2098.430700
328.070874	2097.823241
328.464933	2100.172419
328.858929	2107.056114
329.252859	2116.989708
329.646726	2128.854063
330.040528	2142.563481
330.434265	2158.869093
330.827938	2174.756290
331.221547	2194.802438
331.615091	2211.632330
332.008571	2230.662686
332.401986	2249.700603
332.795338	2267.546288
333.188625	2288.688887
333.581847	2309.823925
333.975006	2325.189362
334.368100	2346.057218
334.761129	2362.740917
335.154095	2378.872609
335.546996	2398.535630
335.939833	2423.259969
336.332606	2440.210848
336.725315	2453.486727
337.117960	2462.160032
337.510540	2468.864767
337.903056	2482.284318
338.295508	2487.151552
338.687896	2497.606906
339.080220	2505.677793
339.472480	2511.086951
339.864676	2515.316479
340.256807	2518.361336
340.648875	2520.924763
341.040879	2526.107069
341.432818	2531.014632
341.824694	2529.280475
342.216506	2528.599919
342.608253	2532.037986
342.999937	2529.731658
343.391557	2527.266534
343.783113	2527.382481
344.174605	2527.997502
344.566033	2527.256452
344.957397	2524.198992
345.348697	2523.523477
345.739934	2521.219670
346.131106	2518.817560
346.522215	2519.742612
346.913260	2515.472755
347.304241	2515.074504
347.695159	2511.626354
348.086012	2511.079389
348.476802	2510.761797
348.867528	2506.900273
349.258191	2506.111332
349.648789	2507.396826
350.039324	2502.196876
350.429796	2506.282731
350.820203	2500.671927
351.210548	2501.647390
351.600828	2497.778305
351.991045	2499.532626
352.381198	2499.411639
352.771288	2497.417862
353.161314	2497.765702
353.551276	2494.960300
353.941175	2498.262256
354.331010	2496.845691
354.720782	2496.886021
355.110490	2497.669920
355.500135	2494.453664
355.889717	2496.785198
356.279235	2494.337717
356.668689	2497.884169
357.058080	2493.977275
357.447408	2497.662358
357.836672	2496.447440
358.225873	2496.346617
358.615010	2494.105824
359.004084	2500.528254
359.393095	2499.318377
359.782043	2501.042452
360.170927	2500.669407
360.559748	2503.119407
360.948505	2500.450116
361.337199	2503.384068
361.725830	2501.604541
362.114398	2504.646877
362.502903	2500.142606
362.891344	2506.272649
363.279722	2502.322905
363.668037	2506.126456
364.056289	2503.731908
364.444478	2508.195849
364.832603	2505.498832
365.220665	2509.715757
365.608665	2506.875067
365.996601	2508.228617
366.384474	2506.738956
366.772284	2508.720129
367.160031	2506.746518
367.547715	2508.329440
367.935336	2506.252484
368.322893	2509.178874
368.710388	2509.425891
369.097820	2513.504184
369.485189	2510.844976
369.872495	2511.732219
370.259738	2510.144255
370.646918	2511.238186
371.034035	2514.608197
371.421090	2513.811695
371.808081	2511.583505
372.195010	2512.153155
372.581875	2514.714061
372.968678	2516.397807
373.355418	2515.039216
373.742096	2512.339678
374.128710	2510.282887
374.515262	2516.299504
374.901751	2517.448887
375.288177	2516.019720
375.674540	2511.704492
376.060841	2516.501150
376.447079	2514.494771
376.833254	2515.755059
377.219367	2510.275325
377.605417	2514.247754
377.991404	2512.211128
378.377329	2515.981911
378.763191	2511.490243
379.148991	2518.177334
379.534727	2517.519463
379.920402	2518.623476
380.306013	2517.423681
380.691563	2514.880419
381.077049	2519.029289
381.462474	2517.516943
381.847835	2518.013496
382.233134	2520.219001
382.618371	2520.481141
383.003545	2523.097500
383.388657	2518.860410
383.773706	2521.176820
384.158693	2521.607839
384.543618	2524.871986
384.928480	2522.253107
385.313280	2520.624814
385.698017	2521.721265
386.082692	2523.137829
386.467305	2523.208405
386.851856	2524.871986
387.236344	2525.194620
387.620770	2526.790145
388.005133	2524.322500
388.389435	2523.692356
388.773674	2529.129241
389.157851	2524.425844
389.541965	2524.738396
389.926018	2526.472552
390.310008	2526.734692
390.693936	2524.448529
391.077802	2526.863242
391.461606	2527.596730
391.845348	2528.468849
392.229027	2530.392050
392.612645	2530.495393
392.996200	2528.650331
393.379694	2531.896834
393.763125	2529.066226
394.146494	2529.867770
394.529801	2534.926567
394.913047	2534.372041
395.296230	2534.177956
395.679351	2531.985054
396.062410	2535.455889
396.445408	2533.502442
396.828343	2532.635363
397.211217	2529.162008
397.594028	2530.772657
397.976778	2531.669982
398.359466	2534.823224
398.742092	2529.751823
399.124656	2535.365148
399.507158	2538.470499
399.889598	2537.031249
400.271977	2541.011240
400.654294	2539.808925
401.036549	2540.933102
401.418742	2542.510983
401.800874	2547.836962
402.182944	2549.203115
402.564952	2551.204453
402.946898	2557.533622
403.328783	2560.797769
403.710606	2562.776422
404.092367	2576.480799
404.474067	2581.398444
404.855705	2590.895978
405.237282	2597.036103
405.618797	2612.237703
406.000250	2624.023921
406.381642	2639.636374
406.762972	2652.992911
407.144240	2670.054696
407.525447	2682.932324
407.906593	2701.561908
408.287677	2723.977398
408.668700	2735.193966
409.049661	2761.052564
409.430560	2786.195319
409.811399	2800.091260
410.192176	2840.990141
410.572891	2858.024200
410.953545	2897.803945
411.334138	2904.740573
411.714669	2946.519135
412.095139	2954.960547
412.475547	3014.194105
412.855894	3041.386089
413.236180	3074.982858
413.616405	3096.495983
413.996568	3152.462872
414.376670	3170.802590
414.756711	3191.501568
415.136691	3235.994792
415.516609	3299.011735
415.896466	3346.688448
416.276262	3400.754823
416.655997	3435.231274
417.035670	3543.114487
417.415283	3627.044657
417.794834	3644.532420
418.174324	3667.739372
418.553753	3672.722552
418.933121	3801.224084
419.312428	3884.365314
419.691674	3904.766864
420.070859	4015.478164
420.449983	4017.416488
420.829045	4128.755412
421.208047	4120.767703
421.586988	4213.247671
421.965867	4265.400928
422.344686	4397.514447
422.723444	4348.385882
423.102141	4270.547946
423.480777	4512.135162
423.859352	4401.070981
424.237866	4628.605980
424.616319	4660.798788
424.994712	4785.600114
425.373044	4733.656064
425.751314	4886.771030
426.129524	4770.083442
426.507673	4962.786589
426.885762	5061.893153
427.263789	5050.422008
427.641756	4980.914578
428.019662	5113.348210
428.397508	5149.190814
428.775292	5136.633300
429.153016	5256.290128
429.530679	5218.073140
429.908282	5318.752544
430.285824	5228.326847
430.663305	5502.840359
431.040726	5281.672337
431.418086	5301.751253
431.795385	5424.125263
432.172624	5454.231033
432.549802	5461.429801
432.926920	5492.891642
433.303977	5516.101115
433.680974	5571.611780
434.057910	5601.238641
434.434786	5619.550633
434.811601	5601.825936
435.188355	5833.595504
435.565050	5721.467640
435.941683	5714.233584
436.318257	5932.475217
436.694770	5926.191418
437.071222	5965.235155
437.447614	5902.702162
437.823946	5822.376417
438.200218	5985.127548
438.576429	5855.547209
438.952580	5955.435152
439.328670	6005.125805
439.704700	5917.956693
440.080670	5905.285753
440.456580	6175.337844
440.832429	6060.253343
441.208218	5912.648358
441.583947	6064.039250
441.959616	6074.245066
442.335224	6003.285784
442.710773	6134.489375
443.086261	6166.125136
443.461689	5962.606193
443.837057	6113.417352
444.212365	6264.389827
444.587612	6159.798488
444.962800	6311.627959
445.337927	6293.116842
445.712995	5909.956382
446.088002	6482.936449
446.462949	6310.798689
446.837837	6245.485500
447.212664	6420.073261
447.587431	6560.013171
447.962139	7099.855213
448.336786	8026.696553
448.711374	7765.703416
449.085901	6843.981367
449.460369	6768.714419
449.834776	6695.655497
450.209124	7088.696619
450.583412	7242.698827
450.957640	7391.037300
451.331808	7154.103069
451.705917	6705.664708
452.079965	6631.829448
452.453954	6844.059505
452.827883	6722.396298
453.201752	6812.189330
453.575562	6614.293795
453.949311	6819.125958
454.323001	6703.862496
454.696632	6782.688498
455.070202	6919.538181
455.443713	7076.186995
455.817164	7174.565113
456.190556	7257.436641
456.563888	7330.672003
456.937160	7370.970987
457.310373	7036.770213
457.683526	7052.324694
458.056619	6948.779394
458.429653	6933.797084
458.802628	6871.309462
459.175542	6978.010524
459.548398	7338.853796
459.921194	7496.407498
460.293930	7492.898855
460.666607	8024.052468
461.039224	8329.311977
461.411782	8459.794683
461.784280	8474.769430
462.156719	8368.567442
462.529099	8242.122701
462.901419	7834.709250
463.273680	7730.107828
463.645882	7741.967143
464.018024	7608.273222
464.390106	7773.040815
464.762130	8160.874424
465.134094	8627.665106
465.505999	9648.687803
465.877845	10869.680470
466.249631	11514.060920
466.621358	11131.359205
466.993026	10501.235139
467.364634	10245.527651
467.736184	9892.442715
468.107674	9550.854130
468.479105	9586.520294
468.850477	9348.915590
469.221790	9119.165003
469.593043	8797.930077
469.964238	8653.823653
470.335373	8669.872167
470.706449	8720.863438
471.077467	8707.902631
471.448425	10016.795378
471.819324	11082.001267
472.190164	11103.244690
472.560945	9855.196150
472.931667	9074.321419
473.302330	8940.012478
473.672934	8585.936955
474.043479	8942.374258
474.413965	8877.902942
474.784393	8766.165767
475.154761	8920.117564
475.525070	9006.820369
475.895321	8830.914347
476.265513	9014.266153
476.635645	9180.447790
477.005719	9180.132718
477.375734	9298.564545
477.745691	9529.270430
478.115588	9662.936624
478.485427	9907.798070
478.855207	10444.068454
479.224928	11261.471386
479.594591	11877.646579
479.964194	11695.711337
480.333739	11628.543003
480.703226	11549.837988
481.072653	11645.176290
481.442022	11875.519212
481.811333	12069.613717
482.180584	11874.422761
482.549777	11585.678072
482.918912	11402.558158
483.287988	11424.585480
483.657005	11439.320773
484.025964	11119.020981
484.394864	11251.240364
484.763706	11226.639533
485.132489	10980.018725
485.501213	10944.105545
485.869879	11029.490088
486.238487	10867.530418
486.607036	10978.342542
486.975527	10757.575291
487.343959	10944.239136
487.712333	10987.474592
488.080648	10922.103429
488.448905	10965.951385
488.817104	10907.269834
489.185244	11173.961996
489.553326	11329.816829
489.921350	11864.317768
490.289315	12920.084098
490.657222	13266.819700
491.025070	13169.727077
491.392861	13055.040827
491.760593	12669.485819
492.128267	12314.558342
492.495883	11992.930206
492.863440	11653.010243
493.230939	11317.292082
493.598380	11255.522824
493.965763	11124.157917
494.333088	11026.324244
494.700354	10946.409352
495.067563	11001.375573
495.434713	10829.066414
495.801805	10962.258740
496.168839	10890.828111
496.535815	10824.849489
496.902733	10818.548047
497.269593	10753.348284
497.636395	10852.520383
498.003139	10843.652993
498.369825	10713.538292
498.736453	10870.482014
499.103023	10790.360435
499.469535	10827.793523
499.835989	10815.455299
500.202385	10775.499114
500.568723	10634.142639
500.935003	10853.909221
501.301226	10656.243058
501.667390	10916.792574
502.033497	11009.874959
502.399546	10873.242046
502.765537	10771.927456
503.131470	10855.040960
503.497345	11023.780982
503.863163	10632.645417
504.228923	10942.247880
504.594625	11008.239104
504.960269	10755.495815
505.325856	10981.425207
505.691385	10771.796386
506.056856	10931.222877
506.422270	10948.856833
506.787625	10838.717703
507.152924	10954.208018
507.518164	10941.005236
507.883347	10860.563544
508.248472	10778.722932
508.613540	11016.872080
508.978550	10900.365974
509.343503	10867.696776
509.708398	10989.622123
510.073236	11102.463311
510.438016	11109.253745
510.802738	11054.491691
511.167403	11109.150402
511.532010	11004.682570
511.896561	11231.423588
512.261053	11315.318470
512.625488	11172.845380
512.989866	11156.811991
513.354186	11144.929991
513.718449	11049.873994
514.082655	11241.578992
514.446803	11138.467232
514.810894	11263.520615
515.174927	11122.149017
515.538904	11150.848306
515.902822	11300.777262
516.266684	11185.934736
516.630488	11127.719492
516.994235	11187.467247
517.357925	11250.864798
517.721558	11334.361429
518.085133	11353.366579
518.448651	11359.398320
518.812112	11246.345403
519.175516	11262.681263
519.538863	11376.681916
519.902152	11299.002776
520.265385	11457.650408
520.628560	11372.223015
520.991678	11342.729744
521.354739	11411.067626
521.717743	11349.399191
522.080690	11319.628657
522.443580	11459.490429
522.806413	11416.260014
523.169189	11445.602050
523.531908	11499.083652
523.894569	11326.058649
524.257174	11329.307672
524.619722	11440.671802
524.982213	11392.483412
525.344647	11441.448140
525.707025	11391.495346
526.069345	11485.936322
526.431608	11407.548901
526.793815	11511.855415
527.155964	11300.210132
527.518057	11354.788184
527.880093	11301.997221
528.242072	11377.639735
528.603995	11278.560897
528.965860	11201.534587
529.327669	11256.062227
529.689421	11196.163238
530.051117	11167.186685
530.412755	11275.082501
530.774337	11163.887250
531.135862	11147.135496
531.497331	11176.999291
531.858743	11028.648216
532.220098	11191.593432
532.581396	11059.994110
532.942638	11044.994157
533.303824	11007.924032
533.664953	11023.057576
534.026025	10937.403331
534.387040	11031.579647
534.747999	11036.479648
535.108902	11093.558113
535.469748	10854.567091
535.830537	10960.496857
536.191270	10936.185892
536.551947	10962.654471
536.912567	10954.177771
537.273131	10880.508869
537.633638	10863.968843
537.994089	10843.983189
538.354483	10799.003493
538.714821	10946.459764
539.075103	10955.715323
539.435328	10921.097719
539.795497	10742.683723
540.155609	10898.989739
540.515665	10988.152627
540.875665	10725.848789
541.235609	10792.999479
541.595496	10788.724581
541.955328	10941.272417
542.315102	10826.056846
542.674821	10782.370206
543.034483	10774.967272
543.394090	10778.806111
543.753640	10708.527385
544.113134	10927.086610
544.472571	10788.497729
544.831953	10923.673749
545.191278	10741.310008
545.550548	10761.386403
545.909761	10905.845708
546.268918	10879.949301
546.628019	10960.232196
546.987064	10823.690024
547.346053	10741.536860
547.704986	10847.824548
548.063863	10829.625982
548.422684	10823.037194
548.781449	10736.631818
549.140158	10844.076450
549.498811	10717.034332
549.857408	10578.437889
550.215949	10808.054885
550.574434	10650.428087
550.932864	10754.653943
551.291237	10817.842285
551.649555	10767.919739
552.007817	10774.495924
552.366022	10733.526467
552.724173	10735.132074
553.082267	10712.063754
553.440305	10850.902172
553.798288	10651.385906
554.156215	10812.586882
554.514086	10784.598396
554.871902	10636.476693
555.229661	10672.810810
555.587365	10648.005812
555.945014	10542.623012
556.302606	10667.273102
556.660143	10565.109078
557.017625	10716.593231
557.375050	10611.631367
557.732421	10750.399209
558.089735	10654.788685
558.446994	10665.238997
558.804197	10698.979439
559.161345	10694.492812
559.518437	10544.478156
559.875474	10636.799327
560.232455	10668.556076
560.589381	10615.954156
560.946251	10613.400812
561.303065	10720.792512
561.659825	10656.185084
562.016528	10595.177041
562.373177	10468.402104
562.729770	10585.377038
563.086307	10501.404017
563.442789	10590.216545
563.799216	10471.693977
564.155587	10517.528148
564.511904	10474.418721
564.868164	10458.418098
565.224370	10476.709925
565.580520	10398.829139
565.936615	10408.954297
566.292654	10280.984607
566.648638	10412.548640
567.004567	10365.877637
567.360441	10347.134627
567.716260	10254.097612
568.072023	10353.965391
568.427732	10306.283637
568.783385	10214.353156
569.138982	10278.423700
569.494525	10300.592174
569.850013	10175.695067
570.205445	10259.564744
570.560823	10145.811107
570.916145	10068.517616
571.271412	10138.249377
571.626625	10082.277445
571.981782	10062.523684
572.336884	10040.498883
572.691931	10041.739007
573.046923	9984.262291
573.401860	9944.474984
573.756743	9884.719667
574.111570	9924.582591
574.466342	9910.663966
574.821059	9930.957130
575.175722	9827.578188
575.530330	9837.789046
575.884882	9830.532305
576.239380	9759.076469
576.593823	9738.309436
576.948211	9749.117670
577.302544	9627.404052
577.656823	9643.991968
578.011047	9652.014965
578.365216	9621.473134
578.719330	9543.375579
579.073389	9553.858658
579.427394	9505.327470
579.781344	9485.026743
580.135239	9429.052292
580.489080	9447.588614
580.842866	9338.291358
581.196597	9352.162093
581.550273	9389.151559
581.903895	9358.864307
582.257463	9423.242362
582.610975	9295.686046
582.964434	9327.684770
583.317837	9246.388603
583.671186	9225.906395
584.024481	9228.726920
584.377721	9143.990165
584.730906	9128.188668
585.084037	9149.016196
585.437113	9085.623686
585.790135	9114.592677
586.143103	9002.590841
586.496016	8984.777924
586.848874	9040.538127
587.201679	9024.610601
587.554428	8911.285462
587.907124	8958.626938
588.259765	8926.887834
588.612352	8935.432589
588.964884	8808.778640
589.317362	8824.423861
589.669786	8828.144233
590.022155	8868.554122
590.374470	8891.569510
590.726731	8827.519130
591.078937	8675.982045
591.431090	8793.617370
591.783188	8663.232967
592.135232	8656.142584
592.487222	8655.313314
592.839157	8712.989155
593.191038	8643.108681
593.542866	8585.422757
593.894639	8486.510278
594.246358	8537.599851
594.598022	8557.167090
594.949633	8455.678581
595.301190	8425.580372
595.652692	8457.299312
596.004141	8570.727794
596.355535	8342.771858
596.706876	8326.307450
597.058162	8255.753981
597.409395	8331.774581
597.760573	8395.761947
598.111698	8308.439080
598.462768	8294.336452
598.813785	8257.016790
599.164748	8228.874549
599.515657	8213.526756
599.866511	8126.483673
600.217312	8253.493023
600.568060	8109.099254
600.918753	8214.955923
601.269392	8186.183537
601.619978	8098.860670
601.970510	8157.839650
602.320988	8156.667582
602.671412	8214.837456
603.021783	8146.721385
603.372100	8124.779763
603.722363	8129.974672
604.072572	8100.204138
604.422728	8118.574102
604.772830	8042.603914
605.122878	8046.909059
605.472872	8041.751959
605.822813	8072.253460
606.172701	8021.194134
606.522534	8091.815658
606.872314	8091.989578
607.222041	8063.517141
607.571714	8120.116696
607.921333	8078.930469
608.270899	8083.389369
608.620411	8173.978904
608.969870	8073.554078
609.319276	8070.584838
609.668627	8087.276099
610.017926	8123.547201
610.367171	8165.363572
610.716362	8145.831621
611.065500	8133.682441
611.414585	8164.420876
611.763616	8147.565778
612.112594	8134.390723
612.461518	8149.965367
612.810389	8207.467289
613.159207	8144.160479
613.507971	8099.710105
613.856682	8217.796613
614.205340	8172.779109
614.553945	8252.409175
614.902496	8148.064852
615.250994	8206.902680
615.599439	8179.178854
615.947830	8194.501441
616.296169	8168.249633
616.644454	8182.828649
616.992686	8182.115326
617.340864	8244.136642
617.688990	8143.217783
618.037063	8238.183039
618.385082	8187.380811
618.733048	8270.035570
619.080961	8202.017802
619.428821	8226.941266
619.776628	8227.805824
620.124382	8177.288421
620.472083	8161.318046
620.819731	8192.232922
621.167326	8080.641940
621.514868	8090.134433
621.862357	7976.587484
622.209793	7994.586924
622.557176	7932.822707
622.904506	7903.032008
623.251783	7840.665373
623.599007	7790.379864
623.946179	7792.945811
624.293297	7748.480313
624.640363	7665.649115
624.987376	7650.215622
625.334336	7599.909948
625.681243	7548.961527
626.028097	7538.619599
626.374899	7513.509612
626.721647	7509.428798
627.068343	7438.920700
627.414987	7408.867861
627.761577	7371.086934
628.108115	7405.507932
628.454600	7295.641025
628.801032	7346.304621
629.147412	7306.746687
629.493739	7294.499204
629.840014	7232.485450
630.186236	7287.519726
630.532405	7172.231058
630.878521	7223.681075
631.224585	7181.622728
631.570597	7103.729339
631.916556	7138.528424
632.262462	7133.225131
632.608316	7094.778771
632.954117	7072.106181
633.299866	7059.157978
633.645562	7051.576082
633.991206	6974.002807
634.336797	6915.550628
634.682336	6870.714606
635.027823	6838.388207
635.373257	6832.253123
635.718639	6761.548419
636.063968	6774.209277
636.409245	6669.980901
636.754470	6668.221538
637.099642	6626.276618
637.444762	6575.267702
637.789829	6574.965233
638.134845	6519.678899
638.479808	6506.075345
638.824719	6515.225039
639.169577	6440.016065
639.514383	6457.846626
639.859137	6387.099073
640.203839	6396.768006
640.548489	6379.202106
640.893086	6357.270566
641.237632	6329.723181
641.582125	6359.513879
641.926566	6319.903013
642.270955	6333.599828
642.615292	6334.479509
642.959576	6348.377971
643.303809	6335.127298
643.647990	6340.682649
643.992118	6334.242575
644.336195	6281.398680
644.680219	6304.603111
645.024192	6293.331091
645.368112	6390.796760
645.711981	6413.973464
646.055797	6484.625236
646.399562	6441.901457
646.743274	6573.929276
647.086935	6629.641588
647.430544	6618.379650
647.774101	6641.639534
648.117606	6648.593806
648.461059	6639.103833
648.804460	6601.842145
649.147810	6506.040057
649.491108	6478.711962
649.834354	6454.597603
650.177548	6371.312700
650.520690	6289.053672
650.863781	6260.251040
651.206820	6284.199041
651.549807	6209.562238
651.892742	6149.023021
652.235626	6153.681047
652.578458	6137.551876
652.921238	6046.334717
653.263967	6086.691674
653.606644	6028.315113
653.949269	6029.298138
654.291843	5972.179344
654.634365	6018.484863
654.976836	5974.788141
655.319255	5976.744109
655.661622	5951.533299
656.003938	5943.727072
656.346203	5905.976391
656.688416	5937.571823
657.030577	5890.348814
657.372687	5860.187591
657.714746	5849.293658
658.056753	5887.901334
658.398708	5830.689279
658.740612	5821.164019
659.082465	5868.485330
659.424266	5861.284042
659.766016	5857.767837
660.107715	5839.226473
660.449362	5854.065110
660.790958	5846.717628
661.132503	5832.700700
661.473996	5869.150763
661.815438	5856.779771
662.156829	5852.396488
662.498168	5847.057906
662.839456	5824.718033
663.180693	5861.263877
663.521879	5857.929154
663.863013	5847.244428
664.204097	5865.591708
664.545129	5907.680301
664.886110	5899.657305
665.227040	5936.722389
665.567918	5902.145114
665.908746	5930.224341
666.249522	5933.322130
666.590248	5918.266724
666.930922	5946.978616
667.271545	5960.947653
667.612118	5964.098375
667.952639	5936.225835
668.293109	5959.621830
668.633528	5914.823616
668.973896	5922.002219
669.314213	5911.685498
669.654480	5895.725205
669.994695	5884.506117
670.334859	5873.040013
670.674973	5870.151432
671.015035	5874.564962
671.355047	5868.485330
671.695008	5857.092323
672.034918	5830.880843
672.374777	5837.847718
672.714585	5828.808929
673.054342	5832.020144
673.394049	5824.581921
673.733705	5858.423187
674.073310	5840.776628
674.412864	5800.908663
674.752368	5795.275173
675.091820	5797.757942
675.431223	5733.727726
675.770574	5734.766204
676.109875	5688.198545
676.449125	5686.781981
676.788324	5659.032950
677.127473	5599.741419
677.466571	5590.347228
677.805619	5585.396815
678.144616	5570.515329
678.483562	5546.816865
678.822458	5512.695815
679.161303	5508.249517
679.500098	5501.474207
679.838842	5480.089632
680.177535	5493.100850
680.516179	5501.017982
680.854771	5512.947873
681.193314	5599.358291
681.531805	5703.546338
681.870247	5853.061920
682.208638	5956.987827
682.546978	5966.061904
682.885268	5947.480211
683.223508	5861.445359
683.561697	5808.684643
683.899836	5778.147853
684.237925	5730.642540
684.575963	5696.690369
684.913951	5655.163864
685.251889	5720.827413
685.589776	5684.584038
685.927614	5657.349204
686.265401	5726.349997
686.603137	5710.359457
686.940824	5789.641684
687.278460	5813.871990
687.616046	5820.213762
687.953582	5889.083485
688.291068	5873.675198
688.628504	5932.334064
688.965889	5899.596811
689.303224	5841.258058
689.640510	5798.088137
689.977745	5713.414397
690.314930	5621.357886
690.652065	5560.299431
690.989150	5469.805678
691.326185	5392.809615
691.663170	5341.122665
692.000105	5264.492085
692.336990	5188.642884
692.673825	5163.507691
693.010610	5095.167289
693.347345	5023.083830
693.684030	5011.973127
694.020665	4972.700018
694.357251	4878.679978
694.693786	4889.100043
695.030272	4858.288511
695.366707	4821.984642
695.703093	4789.822080
696.039429	4806.175583
696.375716	4792.153614
696.711952	4769.276857
697.048139	4754.150875
697.384276	4734.760077
697.720363	4745.848095
698.056400	4753.150206
698.392388	4703.210016
698.728326	4685.402140
699.064214	4660.599663
699.400053	4654.973735
699.735842	4620.328405
700.071581	4596.856793
700.407270	4572.187907
700.742910	4552.487078
701.078501	4501.536136
701.414042	4499.625538
701.749533	4469.728975
702.084974	4401.713728
702.420366	4460.208756
702.755709	4399.941762
703.091002	4345.411601
703.426246	4393.166451
703.761440	4352.660780
704.096584	4313.843896
704.431679	4334.600847
704.766725	4323.459897
705.101721	4309.508503
705.436668	4335.737627
705.771565	4283.728043
706.106413	4312.220644
706.441212	4348.978217
706.775961	4349.873022
707.110661	4335.752750
707.445311	4358.508519
707.779913	4384.205800
708.114465	4393.620155
708.448967	4417.419443
708.783421	4478.268690
709.117825	4521.846944
709.452180	4528.677708
709.786485	4572.886107
710.120742	4660.579498
710.454949	4637.914471
710.789107	4708.745203
711.123216	4787.089775
711.457275	4774.834730
711.791286	4852.274414
712.125247	4863.702710
712.459159	4769.309625
712.793023	4844.879042
713.126837	4798.182834
713.460602	4794.364160
713.794318	4713.294844
714.127985	4721.877408
714.461602	4636.303822
714.795171	4606.114872
715.128691	4539.672464
715.462162	4482.110049
715.795584	4438.539357
716.128957	4421.036470
716.462281	4366.985219
716.795556	4340.251980
717.128782	4302.191268
717.461960	4234.569231
717.795088	4245.886621
718.128167	4201.615208
718.461198	4142.651352
718.794180	4136.591885
719.127113	4119.567909
719.459997	4095.753498
719.792833	4052.074420
720.125619	4042.788615
720.458357	4011.276362
720.791046	4014.326260
721.123686	3987.824915
721.456278	3946.081640
721.788821	3961.968837
722.121315	3939.999488
722.453761	3913.525869
722.786158	3920.424688
723.118506	3945.002833
723.450805	3898.795617
723.783056	3921.478289
724.115259	3933.224177
724.447412	3938.028397
724.779518	3932.306687
725.111574	3933.390535
725.443582	3968.340855
725.775542	3954.313844
726.107453	4002.250176
726.439315	4004.271679
726.771129	4017.693751
727.102895	4055.943506
727.434612	4103.647945
727.766281	4114.249491
728.097901	4114.282259
728.429473	4122.585039
728.760996	4125.889516
729.092471	4120.997076
729.423897	4107.612812
729.755276	4111.565077
730.086606	4112.996765
730.417887	4152.043022
730.749120	4215.044842
731.080305	4278.533133
731.411442	4305.626815
731.742530	4276.998102
732.073570	4282.964308
732.404562	4334.283254
732.735506	4324.730267
733.066401	4288.663332
733.397249	4224.106316
733.728048	4146.134789
734.058798	4061.806368
734.389501	3990.632837
734.720156	3931.273251
735.050762	3884.428329
735.381320	3878.162174
735.711831	3827.796006
736.042293	3798.292653
736.372707	3822.127229
736.703073	3793.533804
737.033391	3785.036939
737.363661	3799.875576
737.693883	3824.524298
738.024056	3833.948735
738.354182	3832.204495
738.684260	3893.772107
739.014290	3916.243051
739.344272	3910.397833
739.674207	3954.747384
740.004093	3956.234524
740.333931	3949.983493
740.663722	3954.540696
740.993464	3951.732774
741.323159	3927.799896
741.652806	3895.947365
741.982405	3866.925442
742.311956	3838.016946
742.641460	3828.733661
742.970915	3803.462357
743.300323	3765.119341
743.629683	3729.916963
743.958996	3716.704099
744.288260	3698.132488
744.617477	3661.465656
744.946647	3647.226917
745.275768	3623.362094
745.604842	3618.822535
745.933869	3570.253539
746.262847	3561.789441
746.591778	3603.936008
746.920662	3573.333684
747.249498	3540.548540
747.578286	3588.860437
747.907027	3605.997840
748.235720	3599.066253
748.564365	3629.078763
748.892963	3625.829739
749.221514	3614.325826
749.550017	3587.522011
749.878473	3584.255343
750.206881	3556.342475
750.535242	3551.087072
750.863555	3555.329203
751.191821	3549.405847
751.520039	3529.639483
751.848210	3508.670803
752.176334	3541.425700
752.504411	3549.037843
752.832440	3506.051924
753.160421	3489.456445
753.488356	3499.836181
753.816243	3512.907893
754.144082	3466.559525
754.471875	3453.873461
754.799620	3470.771409
755.127318	3462.750933
755.454969	3463.973413
755.782572	3468.974237
756.110129	3446.853654
756.437638	3437.114145
756.765100	3450.112760
757.092515	3459.844708
757.419882	3466.236891
757.747203	3441.825103
758.074477	3442.397274
758.401703	3456.759522
758.728882	3480.304231
759.056014	3488.274295
759.383099	3488.140704
759.710138	3486.043584
760.037129	3502.500431
760.364073	3530.602343
760.690970	3522.985160
761.017820	3495.440295
761.344623	3512.434025
761.671379	3558.250551
761.998088	3610.103860
762.324751	3739.454826
762.651366	3984.096981
762.977935	4460.153304
763.304456	4897.901898
763.630931	4995.314634
763.957359	4638.776508
764.283740	4295.617604
764.610074	4099.289867
764.936362	3904.645876
765.262602	3741.892224
765.588796	3631.838795
765.914943	3545.619940
766.241044	3456.343626
766.567097	3429.864966
766.893104	3379.445866
767.219064	3348.258767
767.544978	3322.750529
767.870845	3268.174997
768.196665	3250.669591
768.522438	3259.685694
768.848165	3250.009199
769.173846	3218.436453
769.499479	3202.350131
769.825066	3182.465300
770.150607	3165.063237
770.476101	3180.438756
770.801548	3177.270391
771.126949	3130.632156
771.452303	3112.743621
771.777611	3120.272585
772.102872	3125.396917
772.428087	3101.458998
772.753256	3090.665888
773.078378	3084.056935
773.403453	3048.857079
773.728482	3036.352497
774.053465	3057.154818
774.378401	3047.526214
774.703291	3016.208046
775.028135	3015.247706
775.352932	3009.541120
775.677683	2998.937053
776.002388	2995.239366
776.327046	2996.234994
776.651658	2987.244096
776.976224	2974.802529
777.300743	2977.186994
777.625216	2964.306846
777.949643	2958.191927
778.274024	2962.297947
778.598359	2950.786472
778.922647	2956.195630
779.246889	2956.346864
779.571086	2942.821449
779.895236	2935.050510
780.219339	2945.372273
780.543397	2957.748305
780.867409	2963.704428
781.191374	2955.419292
781.515294	2951.968622
781.839167	2951.530042
782.162995	2942.198866
782.486776	2951.519960
782.810511	2948.772531
783.134201	2937.016560
783.457844	2940.280707
783.781441	2932.739141
784.104993	2912.229207
784.428498	2915.266502
784.751958	2927.766043
785.075372	2920.436205
785.398739	2905.239647
785.722061	2921.328489
786.045337	2935.665531
786.368568	2919.153231
786.691752	2911.392375
787.014891	2959.331228
787.337983	2990.064622
787.661030	3016.213087
787.984031	3083.502408
788.306987	3132.194913
788.629897	3121.263171
788.952760	3105.330605
789.275579	3092.654623
789.598351	3031.644059
789.921078	2987.665033
790.243759	2978.888384
790.566395	2960.813327
790.888984	2936.756941
791.211529	2921.479724
791.534027	2911.639392
791.856480	2901.821744
792.178888	2885.208622
792.501249	2878.750904
792.823566	2875.106150
793.145836	2871.204297
793.468062	2870.216230
793.790241	2867.181456
794.112375	2873.142620
794.434464	2883.144269
794.756507	2889.261710
795.078505	2893.811351
795.400457	2908.791140
795.722364	2945.150462
796.044226	2969.194245
796.366042	2975.044504
796.687812	2962.073615
797.009538	2978.575832
797.331218	2966.908082
797.652852	2956.498099
797.974442	2939.378341
798.295986	2934.576642
798.617484	2925.515168
798.938938	2912.123342
799.260346	2896.213461
799.581709	2891.636093
799.903026	2882.216697
800.224299	2879.577653
800.545526	2870.105325
800.866708	2855.254086
801.187845	2844.009792
801.508936	2844.695389
801.829983	2850.086903
802.150984	2838.819924
802.471940	2827.782318
802.792851	2827.116886
803.113717	2827.026145
803.434538	2830.605364
803.755314	2824.608912
804.076045	2817.591625
804.396731	2815.948209
804.717372	2816.926193
805.037967	2812.250523
805.358518	2817.357212
805.679024	2830.088646
805.999485	2824.913901
806.319901	2831.152329
806.640272	2823.426761
806.960598	2832.263904
807.280879	2837.836899
807.601115	2844.707992
807.921306	2833.272134
808.241453	2828.185610
808.561554	2835.147444
808.881611	2834.252639
809.201623	2830.721311
809.521590	2828.036896
809.841513	2822.579847
810.161390	2828.190651
810.481223	2822.310145
810.801011	2812.915955
811.120755	2813.319247
811.440453	2813.515852
811.760107	2813.301603
812.079716	2809.946716
812.399281	2801.749799
812.718801	2794.861063
813.038276	2789.023407
813.357707	2794.172945
813.677093	2804.950932
813.996434	2797.996660
814.315731	2794.881227
814.634983	2791.375105
814.954191	2791.186062
815.273354	2806.342291
815.592473	2814.065338
815.911547	2813.309165
816.230577	2820.419713
816.549562	2830.055878
816.868502	2828.477997
817.187399	2839.908813
817.506250	2857.215095
817.825058	2849.083713
818.143821	2863.637525
818.462539	2875.920296
818.781213	2905.506828
819.099843	2941.871191
819.418429	2997.086949
819.736970	3061.270920
820.055466	3131.879841
820.373919	3236.410687
820.692327	3381.079199
821.010691	3541.914692
821.329011	3990.912621
821.647286	4889.107605
821.965517	6266.320589
822.283704	7009.918507
822.601847	6993.496949
822.919945	6362.639395
823.237999	5856.134503
823.556010	5273.183034
823.873976	4717.990679
824.191897	4309.632012
824.509775	4012.241743
824.827609	3744.213676
825.145398	3622.568113
825.463144	3607.467336
825.780845	3697.421686
826.098502	3806.877738
826.416116	4085.983742
826.733685	4401.897730
827.051210	4467.886434
827.368692	4352.391078
827.686129	4086.956684
828.003522	3760.950306
828.320872	3501.169566
828.638177	3308.834424
828.955439	3169.751510
829.272656	3084.051894
829.589830	3023.305990
829.906960	2971.132569
830.224046	2925.532812
830.541088	2888.238355
830.858086	2876.217724
831.175041	2857.555373
831.491952	2858.125023
831.808819	2870.914430
832.125642	2894.474263
832.442421	2939.436314
832.759157	3022.237266
833.075849	3201.672096
833.392497	3478.623006
833.709101	3684.176054
834.025662	3631.992550
834.342179	3472.525730
834.658653	3297.585089
834.975083	3146.476502
835.291469	3051.044939
835.607811	2966.240129
835.924110	2908.844072
836.240366	2857.026051
836.556578	2813.384782
836.872746	2793.668830
837.188871	2770.053545
837.504952	2754.249527
837.820990	2745.261150
838.136984	2731.521485
838.452935	2724.065619
838.768842	2723.745505
839.084706	2742.793505
839.400526	2817.705051
839.716303	2949.778241
840.032037	3032.904347
840.347727	3016.752490
840.663373	2955.951134
840.978977	2882.307438
841.294537	2810.027374
841.610054	2761.942328
841.925527	2740.444327
842.240957	2718.336347
842.556344	2697.183666
842.871687	2681.533404
843.186987	2671.065448
843.502244	2667.715601
843.817458	2661.850218
844.132629	2648.508805
844.447756	2641.234420
844.762840	2635.467340
845.077881	2635.835344
845.392879	2636.339459
845.707833	2631.376443
846.022745	2620.588374
846.337613	2627.182203
846.652438	2624.149949
846.967221	2624.442336
847.281960	2623.025772
847.596656	2623.429064
847.911309	2621.740278
848.225919	2618.907149
848.540485	2614.791047
848.855009	2615.315327
849.169490	2615.146449
849.483928	2615.088475
849.798323	2612.845162
850.112675	2613.823146
850.426984	2613.180399
850.741251	2608.865171
851.055474	2612.086468
851.369654	2615.355657
851.683792	2617.102416
851.997887	2612.451952
852.311938	2610.879112
852.625947	2614.914556
852.939914	2614.808691
853.253837	2614.874226
853.567718	2612.031016
853.881555	2610.901797
854.195350	2612.696448
854.509103	2613.757611
854.822812	2612.472117
855.136479	2610.188474
855.450103	2611.985645
855.763685	2614.622169
856.077224	2613.016561
856.390720	2608.877774
856.704173	2612.910697
857.017584	2617.833384
857.330953	2621.609208
857.644278	2620.318672
857.957561	2620.807664
858.270802	2613.069493
858.584000	2614.680142
858.897155	2619.290277
859.210268	2621.949486
859.523339	2616.726850
859.836367	2608.698813
860.149352	2612.025974
860.462295	2614.317179
860.775195	2610.127980
861.088054	2607.930037
861.400869	2609.339039
861.713642	2605.532968
862.026373	2607.040273
862.339062	2610.498505
862.651708	2614.874226
862.964312	2618.702983
863.276873	2611.305089
863.589392	2617.475462
863.901869	2622.148611
864.214303	2626.771349
864.526696	2630.279992
864.839045	2630.826958
865.151353	2632.112452
865.463619	2633.052627
865.775842	2632.808131
866.088023	2630.315281
866.400162	2633.796197
866.712258	2632.818213
867.024313	2631.535240
867.336325	2628.381998
867.648296	2628.107255
867.960224	2634.963224
868.272110	2634.917854
868.583954	2626.216822
868.895755	2629.614560
869.207515	2635.419449
869.519233	2636.941877
869.830909	2635.926085
870.142542	2633.402987
870.454134	2633.216465
870.765684	2639.243164
871.077191	2642.729122
871.388657	2645.103505
871.700081	2644.314565
872.011463	2641.042856
872.322803	2642.527476
872.634101	2647.089720
872.945357	2654.396872
873.256571	2659.876607
873.567744	2656.516678
873.878874	2656.491472
874.189963	2656.607418
874.501010	2662.432472
874.812015	2664.824499
875.122979	2665.109324
875.433900	2658.951555
875.744780	2656.693118
876.055618	2661.641011
876.366415	2665.870539
876.677169	2669.164933
876.987882	2661.290650
877.298554	2657.892913
877.609183	2671.554440
877.919771	2678.596932
878.230317	2685.301666
878.540822	2695.827595
878.851285	2708.564071
879.161707	2730.893862
879.472087	2770.640839
879.782425	2818.211687
880.092722	2931.045313
880.402977	3124.255096
880.713191	3380.232286
881.023363	3673.370341
881.333494	3862.993342
881.643583	4039.864746
881.953631	4032.522305
882.263637	3860.472766
882.573602	3639.345073
882.883526	3506.697192
883.193408	3392.754512
883.503248	3292.977474
883.813048	3177.477078
884.122806	3063.501631
884.432522	2978.822849
884.742197	2908.876839
885.051831	2874.435676
885.361424	2839.747497
885.670975	2802.909265
885.980485	2771.379368
886.289954	2753.788262
886.599382	2740.540109
886.908768	2728.153994
887.218113	2710.121787
887.527417	2697.140816
887.836680	2692.712162
888.145901	2683.822087
888.455082	2676.209945
888.764221	2665.555467
889.073319	2659.788387
889.382376	2658.553304
889.691392	2658.460042
890.000366	2657.363592
890.309300	2658.059271
890.618193	2659.508602
890.927044	2663.584375
891.235855	2662.545898
891.544625	2658.318890
891.853353	2659.528767
892.162041	2667.566887
892.470687	2686.640092
892.779293	2700.823379
893.087858	2707.379399
893.396381	2731.902092
893.704864	2774.305758
894.013306	2844.294617
894.321707	2936.068823
894.630068	2986.583705
894.938387	3007.764113
895.246665	2998.251456
895.554903	2955.920887
895.863100	2915.190884
896.171256	2856.209384
896.479371	2792.216977
896.787446	2757.032244
897.095480	2736.741600
897.403473	2727.894375
897.711425	2715.397355
898.019336	2693.543953
898.327207	2682.755883
898.635038	2680.625996
898.942827	2679.242199
899.250576	2670.853719
899.558284	2657.598005
899.865952	2651.745226
900.173579	2652.037612
900.481165	2647.077117
900.788711	2642.509832
901.096216	2632.455250
901.403681	2628.427368
901.711105	2631.225209
902.018489	2627.126751
902.325832	2631.071454
902.633135	2635.502628
902.940397	2651.200781
903.247619	2688.293591
903.554800	2756.898654
903.861941	2881.596635
904.169041	3010.377951
904.476101	3071.912796
904.783121	3064.552711
905.090100	3009.044566
905.397039	2933.626384
905.703938	2860.995960
906.010796	2796.539767
906.317614	2746.027405
906.624391	2708.690099
906.931129	2683.191943
907.237826	2656.506595
907.544483	2639.018833
907.851099	2629.634725
908.157675	2617.349433
908.464211	2612.514966
908.770707	2601.442072
909.077163	2594.875969
909.383578	2593.620722
909.689954	2589.749116
909.996289	2590.316245
910.302584	2590.437233
910.608839	2585.481779
910.915054	2587.286512
911.221229	2588.897161
911.527363	2589.325659
911.833458	2588.897161
912.139513	2590.485124
912.445527	2592.690629
912.751502	2595.180959
913.057436	2603.138420
913.363331	2608.865171
913.669186	2618.675256
913.975000	2633.004736
914.280775	2651.467962
914.586510	2668.887669
914.892205	2705.806559
915.197859	2771.966662
915.503475	2857.333562
915.809050	2924.544745
916.114585	2939.058227
916.420081	2951.209929
916.725536	2961.317442
917.030952	2934.362393
917.336328	2886.123591
917.641665	2838.124245
917.946961	2790.200516
918.252218	2752.522932
918.557435	2727.559138
918.862612	2705.783874
919.167750	2686.902232
919.472848	2673.160047
919.777906	2655.720175
920.082925	2643.301293
920.387904	2631.600775
920.692843	2627.552728
920.997743	2624.001235
921.302603	2617.016717
921.607423	2611.678135
921.912204	2604.265118
922.216946	2604.726384
922.521647	2604.121445
922.826310	2596.332862
923.130932	2594.752461
923.435516	2584.022365
923.740059	2585.247365
924.044564	2579.865933
924.349028	2581.380800
924.653454	2570.701116
924.957840	2569.264387
925.262186	2566.196845
925.566493	2568.747669
925.870761	2565.135682
926.174989	2567.792370
926.479178	2562.932698
926.783328	2563.527554
927.087438	2561.939590
927.391509	2563.716597
927.695541	2557.551266
927.999533	2557.649568
928.303486	2556.419527
928.607400	2557.004301
928.911275	2554.902140
929.215110	2554.569423
929.518906	2554.607232
929.822663	2556.956410
930.126381	2556.938766
930.430060	2555.038251
930.733699	2556.691749
931.037299	2559.071174
931.340861	2557.747871
931.644383	2555.315514
931.947866	2556.353992
932.251309	2558.211657
932.554714	2555.446584
932.858080	2558.675443
933.161407	2554.592109
933.464694	2557.054712
933.767943	2552.195040
934.071153	2556.810216
934.374323	2552.610935
934.677455	2555.093703
934.980548	2554.743343
935.283602	2552.086655
935.586617	2553.566234
935.889593	2551.857283
936.192530	2552.313507
936.495428	2551.743857
936.798287	2553.374670
937.101108	2558.882131
937.403890	2557.147974
937.706632	2561.057388
938.009336	2561.513613
938.312002	2566.905127
938.614628	2571.255643
938.917216	2573.549368
939.219765	2576.629513
939.522275	2577.322671
939.824747	2577.184040
940.127179	2570.791857
940.429573	2567.663821
940.731929	2566.995868
941.034246	2565.294478
941.336524	2565.160888
941.638763	2567.353790
941.940964	2564.631567
942.243126	2565.312122
942.545250	2565.818758
942.847335	2561.279199
943.149381	2561.942111
943.451389	2558.995557
943.753359	2557.190823
944.055290	2557.125288
944.357182	2560.180228
944.659036	2555.890206
944.960851	2557.667212
945.262628	2553.006666
945.564367	2558.534291
945.866067	2557.256358
946.167729	2558.332645
946.469352	2558.667882
946.770937	2557.533622
947.072484	2555.456667
947.373992	2558.274672
947.675462	2556.361554
947.976893	2554.198899
948.278286	2552.361398
948.579641	2554.254351
948.880958	2553.036913
949.182236	2553.588919
949.483476	2555.386090
949.784678	2553.311656
950.085841	2554.592109
950.386967	2552.527756
950.688054	2550.372663
950.989103	2557.513457
951.290114	2555.633107
951.591087	2556.285936
951.892021	2559.776935
952.192917	2556.890875
952.493776	2559.915567
952.794596	2562.552091
953.095378	2561.584189
953.396122	2562.877245
953.696828	2560.742316
953.997496	2557.473128
954.298126	2552.545400
954.598718	2555.544887
954.899272	2553.500699
955.199788	2551.927859
955.500266	2551.910215
955.800706	2546.969884
956.101108	2544.378731
956.401472	2543.622558
956.701798	2541.381765
957.002087	2541.502753
957.302337	2542.843700
957.602550	2542.190870
957.902724	2544.275387
958.202861	2543.226827
958.502960	2542.697506
958.803022	2540.083668
959.103045	2541.890922
959.403031	2542.810932
959.702979	2541.774975
960.002889	2541.414533
960.302762	2539.309851
960.602596	2541.490150
960.902393	2541.782537
961.202153	2542.092568
961.501875	2537.661393
961.801559	2538.878832
962.101205	2537.857998
962.400814	2539.292207
962.700385	2538.591486
962.999918	2541.613658
963.299414	2540.562577
963.598873	2537.910931
963.898293	2538.662063
964.197677	2540.038298
964.497022	2538.089892
964.796331	2538.614172
965.095601	2535.420601
965.394835	2541.384286
965.694030	2535.821372
965.993189	2539.519059
966.292309	2538.420087
966.591393	2536.912782
966.890439	2537.558050
967.189447	2539.176260
967.488419	2536.743903
967.787353	2536.708615
968.086249	2540.043339
968.385108	2536.597710
968.683930	2537.111908
968.982714	2538.596527
969.281462	2537.132072
969.580172	2536.753986
969.878844	2539.037628
970.177480	2539.254398
970.476078	2537.104346
970.774639	2536.733821
971.073162	2538.858668
971.371649	2537.406815
971.670098	2534.102339
971.968510	2537.043852
972.266885	2536.300282
972.565223	2538.583925
972.863524	2538.790612
973.161788	2538.218441
973.460014	2537.162319
973.758204	2537.908410
974.056356	2538.057124
974.354471	2538.651980
974.652550	2538.382278
974.950591	2538.830941
975.248595	2540.292876
975.546563	2538.336908
975.844493	2537.651311
976.142386	2539.440921
976.440243	2534.432534
976.738062	2539.713143
977.035845	2537.573173
977.333590	2538.306661
977.631299	2535.526465
977.928971	2535.281969
978.226606	2536.219623
978.524204	2539.037628
978.821765	2536.201979
979.119290	2536.239788
979.416777	2536.343132
979.714228	2535.561753
980.011642	2533.769623
980.309020	2539.698020
980.606360	2537.222813
980.903664	2537.855478
981.200931	2539.854295
981.498162	2540.683565
981.795356	2542.029553
982.092513	2542.999975
982.389633	2545.278577
982.686717	2551.569937
982.983764	2551.567416
983.280775	2552.129505
983.577749	2552.217725
983.874686	2553.992211
984.171587	2550.110523
984.468451	2548.290666
984.765279	2545.455017
985.062070	2542.614327
985.358824	2545.462579
985.655543	2540.141641
985.952224	2540.244985
986.248869	2537.258101
986.545478	2536.738862
986.842050	2536.272556
987.138586	2532.158974
987.435086	2533.162164
987.731549	2530.326515
988.027975	2537.240457
988.324366	2535.418080
988.620719	2533.487318
988.917037	2534.361958
989.213318	2532.617719
989.509563	2533.242822
989.805772	2531.264169
990.101944	2533.187369
990.398080	2534.646783
990.694180	2532.809283
990.990244	2534.556043
991.286271	2533.479756
991.582262	2535.423121
991.878217	2533.038655
992.174136	2534.944212
992.470019	2533.976310
992.765865	2532.723583
993.061676	2531.712832
993.357450	2535.579397
993.653188	2534.180477
993.948890	2533.051258
994.244556	2536.479243
994.540186	2536.345652
994.835780	2534.639222
995.131337	2536.829603
995.426859	2536.360776
995.722345	2535.869263
996.017795	2537.361445
996.313208	2538.294058
996.608586	2537.429500
996.903928	2540.910417
997.199234	2536.025539
997.494504	2537.013605
997.789738	2536.484284
998.084936	2537.432021
998.380099	2535.695343
998.675225	2538.646939
998.970316	2534.984541
999.265371	2538.031918
999.560390	2534.576207
999.855373	2536.577545
1000.150320	2534.354397
1000.445232	2531.997657
1000.740108	2531.241484
1001.034948	2534.170394
1001.329752	2529.615712
1001.624521	2533.928419
1001.919254	2529.978675
1002.213951	2531.037317
1002.508613	2529.653521
1002.803239	2530.470187
1003.097829	2528.544467
1003.392384	2534.394726
1003.686903	2531.990095
1003.981386	2534.074612
1004.275834	2531.178470
1004.570246	2533.789787
1004.864623	2530.767616
1005.158964	2534.188038
1005.453270	2534.039324
1005.747540	2531.039838
1006.041775	2529.048582
1006.335974	2533.396577
1006.630138	2532.058151
1006.924266	2535.455889
1007.218359	2531.911958
1007.512416	2533.096629
1007.806438	2530.707122
1008.100425	2533.416742
1008.394376	2534.563604
1008.688292	2530.865918
1008.982172	2532.983203
1009.276017	2530.767616
1009.569827	2531.846423
1009.863602	2532.300126
1010.157341	2532.466484
1010.451045	2533.260466
1010.744714	2531.974972
1011.038347	2533.063861
1011.331945	2530.719725
1011.625508	2532.358100
1011.919036	2533.091587
1012.212528	2531.238963
1012.505986	2533.106711
1012.799408	2528.433561
1013.092795	2531.899355
1013.386147	2534.697195
1013.679464	2530.893644
1013.972745	2531.491021
1014.265992	2531.233922
1014.559204	2533.489839
1014.852380	2530.921371
1015.145521	2533.711649
1015.438628	2531.218799
1015.731699	2533.467153
1016.024736	2532.043027
1016.317737	2532.305167
1016.610703	2533.033614
1016.903635	2527.516071
1017.196531	2524.662778
1017.489393	2530.157636
1017.782219	2529.020856
1018.075011	2532.595034
1018.367768	2531.443130
1018.660490	2532.106042
1018.953177	2532.106042
1019.245829	2532.106042
