Dividing Wavelength (nm)	Counts (n)	Blue Motor Position (mm): 13.800000	Red Motor Position (mm): 0.000000	
326.493990	2064.544064
326.888308	2064.544064
327.282561	2064.544064
327.676750	2039.587832
328.070874	2039.945754
328.464933	2045.828780
328.858929	2053.849256
329.252859	2063.379557
329.646726	2076.103430
330.040528	2097.712336
330.434265	2113.450818
330.827938	2137.267749
331.221547	2153.717034
331.615091	2173.874088
332.008571	2192.962417
332.401986	2217.328834
332.795338	2236.298696
333.188625	2256.281830
333.581847	2273.820004
333.975006	2290.052519
334.368100	2306.484160
334.761129	2324.801193
335.154095	2342.334326
335.546996	2382.529966
335.939833	2460.226750
336.332606	2469.966259
336.725315	2482.480923
337.117960	2491.980978
337.510540	2499.832575
337.903056	2510.769358
338.295508	2518.583147
338.687896	2524.251924
339.080220	2526.775022
339.472480	2533.366330
339.864676	2538.394881
340.256807	2540.333205
340.648875	2539.677855
341.040879	2541.923689
341.432818	2546.357384
341.824694	2541.969059
342.216506	2543.035263
342.608253	2544.512322
342.999937	2541.132228
343.391557	2540.837320
343.783113	2541.694317
344.174605	2537.686599
344.566033	2538.810777
344.957397	2535.821372
345.348697	2534.818183
345.739934	2532.317770
346.131106	2530.439941
346.522215	2528.196627
346.913260	2527.795855
347.304241	2528.662934
347.695159	2527.453057
348.086012	2522.243024
348.476802	2522.515247
348.867528	2518.159690
349.258191	2512.763135
349.648789	2514.572909
350.039324	2510.852537
350.429796	2514.157014
350.820203	2515.054339
351.210548	2515.182888
351.600828	2513.257168
351.991045	2513.514267
352.381198	2512.642147
352.771288	2509.025119
353.161314	2510.353463
353.551276	2510.877743
353.941175	2510.812208
354.331010	2509.249450
354.720782	2516.259175
355.110490	2516.410409
355.500135	2510.635768
355.889717	2511.802795
356.279235	2510.119049
356.668689	2509.740963
357.058080	2515.694566
357.447408	2511.389420
357.836672	2512.851355
358.225873	2512.821108
358.615010	2513.446211
359.004084	2511.626354
359.393095	2515.634072
359.782043	2515.192971
360.170927	2514.560306
360.559748	2517.373270
360.948505	2517.229597
361.337199	2517.998373
361.725830	2517.557272
362.114398	2519.145235
362.502903	2517.216994
362.891344	2516.392765
363.279722	2517.625328
363.668037	2523.407531
364.056289	2516.801099
364.444478	2520.450894
364.832603	2521.398631
365.220665	2520.710514
365.608665	2523.505833
365.996601	2521.484331
366.384474	2524.171266
366.772284	2521.564989
367.160031	2522.210257
367.547715	2522.900895
367.935336	2523.122706
368.322893	2520.579444
368.710388	2519.392252
369.097820	2521.444002
369.485189	2517.985770
369.872495	2524.272089
370.259738	2523.468025
370.646918	2525.461801
371.034035	2524.503982
371.421090	2526.439785
371.808081	2525.418951
372.195010	2524.756040
372.581875	2524.292253
372.968678	2529.189734
373.355418	2526.139836
373.742096	2526.003725
374.128710	2526.928777
374.515262	2524.967768
374.901751	2530.964221
375.288177	2530.190403
375.674540	2525.441637
376.060841	2527.493386
376.447079	2528.592358
376.833254	2528.060516
377.219367	2527.256452
377.605417	2530.482790
377.991404	2527.727800
378.377329	2530.437420
378.763191	2531.352389
379.148991	2529.711494
379.534727	2531.853984
379.920402	2529.250228
380.306013	2533.399098
380.691563	2528.047913
381.077049	2533.336083
381.462474	2531.581762
381.847835	2530.444982
382.233134	2531.957328
382.618371	2529.436751
383.003545	2532.405991
383.388657	2531.470857
383.773706	2533.562935
384.158693	2532.146371
384.543618	2532.365661
384.928480	2530.437420
385.313280	2532.834489
385.698017	2533.603265
386.082692	2536.239788
386.467305	2534.172915
386.851856	2535.498738
387.236344	2532.935312
387.620770	2531.458254
388.005133	2530.870959
388.389435	2532.781557
388.773674	2530.313912
389.157851	2535.176105
389.541965	2532.738707
389.926018	2536.055786
390.310008	2537.290869
390.693936	2536.252391
391.077802	2536.055786
391.461606	2536.824562
391.845348	2537.008564
392.229027	2537.406815
392.612645	2537.048893
392.996200	2534.286341
393.379694	2535.372710
393.763125	2537.553009
394.146494	2538.455375
394.529801	2543.085675
394.913047	2539.589635
395.296230	2536.144006
395.679351	2539.811446
396.062410	2539.327495
396.445408	2538.659542
396.828343	2541.333874
397.211217	2539.017464
397.594028	2541.099460
397.976778	2540.310520
398.359466	2540.081147
398.742092	2539.226672
399.124656	2539.682896
399.507158	2540.580222
399.889598	2541.606096
400.271977	2543.030222
400.654294	2541.210366
401.036549	2540.663401
401.418742	2543.927548
401.800874	2542.069883
402.182944	2542.011909
402.564952	2544.265305
402.946898	2539.884542
403.328783	2541.406971
403.710606	2542.669780
404.092367	2543.451159
404.474067	2541.356559
404.855705	2546.433001
405.237282	2542.672300
405.618797	2543.395706
406.000250	2543.473844
406.381642	2544.169523
406.762972	2541.835469
407.144240	2539.115766
407.525447	2545.860830
407.906593	2539.224151
408.287677	2543.529297
408.668700	2541.769934
409.049661	2545.026519
409.430560	2546.448125
409.811399	2547.295038
410.192176	2546.440563
410.572891	2546.087682
410.953545	2546.458207
411.334138	2544.323278
411.714669	2549.003990
412.095139	2547.489123
412.475547	2544.323278
412.855894	2546.967363
413.236180	2546.561551
413.616405	2548.678835
413.996568	2545.250851
414.376670	2545.898639
414.756711	2548.530121
415.136691	2548.693959
415.516609	2548.522559
415.896466	2547.801674
416.276262	2549.029195
416.655997	2546.985007
417.035670	2547.907539
417.415283	2549.356870
417.794834	2546.236396
418.174324	2548.656150
418.553753	2547.398382
418.933121	2547.952909
419.312428	2547.658002
419.691674	2550.208825
420.070859	2549.314021
420.449983	2548.240255
420.829045	2550.047508
421.208047	2547.421067
421.586988	2548.469627
421.965867	2550.158414
422.344686	2551.345606
422.723444	2547.615152
423.102141	2549.213197
423.480777	2547.531973
423.859352	2550.392828
424.237866	2550.614638
424.616319	2551.290153
424.994712	2549.755122
425.373044	2548.499874
425.751314	2544.865202
426.129524	2545.835624
426.507673	2545.669266
426.885762	2542.367311
427.263789	2547.524411
427.641756	2550.460883
428.019662	2550.826367
428.397508	2549.639175
428.775292	2549.480379
429.153016	2551.857283
429.530679	2551.002807
429.908282	2549.848383
430.285824	2550.859134
430.663305	2547.685728
431.040726	2554.269475
431.418086	2548.976263
431.795385	2552.091696
432.172624	2548.031047
432.549802	2549.871068
432.926920	2549.187992
433.303977	2548.956099
433.680974	2551.995914
434.057910	2550.821326
434.434786	2550.654967
434.811601	2549.989535
435.188355	2548.572971
435.565050	2548.509957
435.941683	2551.658157
436.318257	2550.108002
436.694770	2551.794268
437.071222	2549.868547
437.447614	2549.717313
437.823946	2552.121943
438.200218	2550.012220
438.576429	2552.003476
438.952580	2548.716644
439.328670	2549.790410
439.704700	2546.778320
440.080670	2548.635985
440.456580	2551.007848
440.832429	2551.451470
441.208218	2551.524567
441.583947	2550.352498
441.959616	2549.349309
442.335224	2549.563558
442.710773	2550.148332
443.086261	2550.959957
443.461689	2551.958106
443.837057	2553.387273
444.212365	2549.205636
444.587612	2548.648588
444.962800	2547.262271
445.337927	2548.026006
445.712995	2546.017106
446.088002	2553.046995
446.462949	2548.699000
446.837837	2551.653116
447.212664	2550.181099
447.587431	2549.104813
447.962139	2552.424413
448.336786	2553.243600
448.711374	2551.471634
449.085901	2551.690925
449.460369	2549.704710
449.834776	2551.983312
450.209124	2553.651933
450.583412	2551.529608
450.957640	2550.438198
451.331808	2550.518856
451.705917	2551.902653
452.079965	2553.820812
452.453954	2547.844524
452.827883	2552.394166
453.201752	2550.682694
453.575562	2553.072201
453.949311	2552.144628
454.323001	2549.676984
454.696632	2552.550441
455.070202	2554.559341
455.443713	2550.730585
455.817164	2554.627397
456.190556	2552.442057
456.563888	2553.498178
456.937160	2551.007848
457.310373	2553.241079
457.683526	2550.501212
458.056619	2552.182437
458.429653	2550.632282
458.802628	2551.726213
459.175542	2554.450956
459.548398	2551.985832
459.921194	2555.058415
460.293930	2553.571275
460.666607	2551.950544
461.039224	2553.266285
461.411782	2552.898281
461.784280	2554.246790
462.156719	2553.165462
462.529099	2553.614125
462.901419	2554.687891
463.273680	2552.442057
463.645882	2550.007179
464.018024	2550.208825
464.390106	2552.764690
464.762130	2554.282078
465.134094	2552.442057
465.505999	2557.294167
465.877845	2555.560010
466.249631	2555.471790
466.621358	2558.307439
466.993026	2556.227963
467.364634	2560.341545
467.736184	2556.356512
468.107674	2557.876420
468.479105	2555.731409
468.850477	2557.473128
469.221790	2555.005483
469.593043	2551.950544
469.964238	2555.207129
470.335373	2553.566234
470.706449	2555.885165
471.077467	2556.905998
471.448425	2557.571431
471.819324	2556.255689
472.190164	2558.035217
472.560945	2558.002449
472.931667	2555.991029
473.302330	2553.535987
473.672934	2557.889023
474.043479	2557.631924
474.413965	2556.303580
474.784393	2557.936914
475.154761	2557.722665
475.525070	2559.408931
475.895321	2558.622511
476.265513	2557.190823
476.635645	2556.870710
477.005719	2557.581513
477.375734	2558.403221
477.745691	2556.268292
478.115588	2559.925649
478.485427	2557.989846
478.855207	2560.192831
479.224928	2560.094528
479.594591	2560.641493
479.964194	2560.580999
480.333739	2560.765002
480.703226	2559.592933
481.072653	2563.570404
481.442022	2558.352809
481.811333	2556.795093
482.180584	2556.235525
482.549777	2561.294323
482.918912	2556.341389
483.287988	2561.995043
483.657005	2560.790207
484.025964	2562.181566
484.394864	2562.552091
484.763706	2560.510423
485.132489	2562.375650
485.501213	2560.112172
485.869879	2564.563511
486.238487	2562.635270
486.607036	2560.810372
486.975527	2559.235011
487.343959	2563.308264
487.712333	2564.046793
488.080648	2565.695250
488.448905	2564.026628
488.817104	2563.598130
489.185244	2563.830023
489.553326	2563.867832
489.921350	2566.365723
490.289315	2567.429407
490.657222	2567.058882
491.025070	2565.659962
491.392861	2567.406722
491.760593	2567.308419
492.128267	2568.162895
492.495883	2568.430076
492.863440	2567.774726
493.230939	2567.028635
493.598380	2566.325394
493.965763	2566.320353
494.333088	2567.532751
494.700354	2565.410425
495.067563	2570.045766
495.434713	2565.107956
495.801805	2567.948646
496.168839	2568.102401
496.535815	2566.842112
496.902733	2568.109963
497.269593	2566.688357
497.636395	2573.153637
498.003139	2569.587021
498.369825	2572.581466
498.736453	2571.220355
499.103023	2572.263873
499.469535	2573.556929
499.835989	2572.533575
500.202385	2567.709191
500.568723	2570.549881
500.935003	2570.668348
501.301226	2567.595765
501.667390	2573.516600
502.033497	2579.238310
502.399546	2576.911817
502.765537	2574.413926
503.131470	2576.553895
503.497345	2579.810481
503.863163	2579.248392
504.228923	2577.000037
504.594625	2581.907601
504.960269	2579.422312
505.325856	2581.995821
505.691385	2585.370873
506.056856	2582.648650
506.422270	2582.935996
506.787625	2582.520101
507.152924	2586.605956
507.518164	2585.751481
507.883347	2583.321644
508.248472	2591.145515
508.613540	2588.796337
508.978550	2588.370360
509.343503	2591.548807
509.708398	2593.217429
510.073236	2593.693818
510.438016	2592.383118
510.802738	2593.139292
511.167403	2595.702718
511.532010	2594.419745
511.896561	2596.405959
512.261053	2600.295209
512.625488	2598.961824
512.989866	2599.488625
513.354186	2603.423245
513.718449	2601.976434
514.082655	2605.364090
514.446803	2606.112701
514.810894	2610.034719
515.174927	2610.949688
515.538904	2609.016406
515.902822	2611.272322
516.266684	2614.687704
516.630488	2612.623351
516.994235	2614.743156
517.357925	2614.634772
517.721558	2620.810185
518.085133	2622.524177
518.448651	2621.795731
518.812112	2616.769700
519.175516	2624.376801
519.538863	2623.088787
519.902152	2626.773870
520.265385	2631.910806
520.628560	2631.542802
520.991678	2633.254273
521.354739	2632.407359
521.717743	2637.435910
522.080690	2639.792650
522.443580	2640.009419
522.806413	2640.962197
523.169189	2643.192908
523.531908	2646.499905
523.894569	2647.525780
524.257174	2647.157776
524.619722	2649.486789
524.982213	2653.121461
525.344647	2652.506440
525.707025	2656.486431
526.069345	2657.935762
526.431608	2661.232677
526.793815	2664.650579
527.155964	2659.795948
527.518057	2663.975065
527.880093	2665.643687
528.242072	2668.159222
528.603995	2668.796928
528.965860	2671.304902
529.327669	2672.514779
529.689421	2674.412774
530.051117	2677.205573
530.412755	2678.617096
530.774337	2678.876716
531.135862	2682.854186
531.497331	2685.394927
531.858743	2686.153621
532.220098	2689.992460
532.581396	2689.039682
532.942638	2690.393232
533.303824	2692.742409
533.664953	2695.830116
534.026025	2696.311546
534.387040	2701.095601
534.747999	2701.330015
535.108902	2704.357228
535.469748	2702.426466
535.830537	2707.512990
536.191270	2711.732436
536.551947	2709.642877
536.912567	2710.915769
537.273131	2713.542210
537.633638	2712.055070
537.994089	2718.938765
538.354483	2719.856255
538.714821	2724.978067
539.075103	2729.303377
539.435328	2731.365209
539.795497	2733.396794
540.155609	2734.775550
540.515665	2739.327712
540.875665	2738.692527
541.235609	2743.867271
541.595496	2743.537075
541.955328	2750.584608
542.315102	2749.541090
542.674821	2752.308683
543.034483	2753.962182
543.394090	2759.809920
543.753640	2762.958121
544.113134	2768.379882
544.472571	2769.930036
544.831953	2776.153341
545.191278	2775.618978
545.550548	2778.197529
545.909761	2783.042077
546.268918	2786.732202
546.628019	2794.006587
546.987064	2794.241001
547.346053	2796.307874
547.704986	2801.439768
548.063863	2804.275417
548.422684	2809.669452
548.781449	2813.626758
549.140158	2818.163796
549.498811	2824.871052
549.857408	2825.440702
550.215949	2835.843123
550.574434	2837.534430
550.932864	2843.578773
551.291237	2855.390197
551.649555	2860.721217
552.007817	2868.598020
552.366022	2871.358052
552.724173	2875.330481
553.082267	2889.226422
553.440305	2898.013153
553.798288	2901.297464
554.156215	2909.181829
554.514086	2919.559044
554.871902	2923.967533
555.229661	2937.946653
555.587365	2941.626695
555.945014	2954.436267
556.302606	2966.696353
556.660143	2979.309320
557.017625	2990.225939
557.375050	3001.313957
557.732421	3015.620751
558.089735	3028.251362
558.446994	3039.740152
558.804197	3056.345713
559.161345	3069.273752
559.518437	3076.417067
559.875474	3092.319387
560.232455	3111.377469
560.589381	3128.161990
560.946251	3139.287817
561.303065	3166.915861
561.659825	3178.734846
562.016528	3194.339737
562.373177	3205.478167
562.729770	3232.897003
563.086307	3247.158427
563.442789	3274.816718
563.799216	3293.269861
564.155587	3312.290135
564.511904	3333.271417
564.868164	3352.410158
565.224370	3383.839231
565.580520	3406.403436
565.936615	3434.885955
566.292654	3451.030250
566.648638	3485.163903
567.004567	3513.348994
567.360441	3543.832851
567.716260	3567.851429
568.072023	3603.104218
568.427732	3633.283085
568.783385	3653.929131
569.138982	3695.412786
569.494525	3733.448292
569.850013	3757.986108
570.205445	3790.078093
570.560823	3819.752845
570.916145	3851.922969
571.271412	3897.963827
571.626625	3925.017179
571.981782	3959.725523
572.336884	3987.373731
572.691931	4033.560783
573.046923	4070.061257
573.401860	4104.477215
573.756743	4146.896004
574.111570	4192.301676
574.466342	4233.432451
574.821059	4277.567753
575.175722	4305.967093
575.530330	4356.068600
575.884882	4383.915934
576.239380	4423.778858
576.593823	4475.672496
576.948211	4514.312940
577.302544	4545.847878
577.656823	4595.301597
578.011047	4654.756966
578.365216	4701.990057
578.719330	4737.631014
579.073389	4787.392244
579.427394	4843.470039
579.781344	4891.308069
580.135239	4933.212660
580.489080	4989.832379
580.842866	5018.181308
581.196597	5103.117189
581.550273	5159.222710
581.903895	5219.804777
582.257463	5306.109331
582.610975	5334.241490
582.964434	5418.970683
583.317837	5444.652841
583.671186	5508.362943
584.024481	5586.798256
584.377721	5619.316219
584.730906	5697.257499
585.084037	5762.505153
585.437113	5814.610519
585.790135	5884.223813
586.143103	5916.683802
586.496016	5993.823538
586.848874	6071.764818
587.201679	6143.170242
587.554428	6171.060425
587.907124	6265.503922
588.259765	6320.681871
588.612352	6402.766979
588.964884	6429.515342
589.317362	6529.607451
589.669786	6598.273008
590.022155	6657.705691
590.374470	6777.488548
590.726731	6809.353681
591.078937	6812.295194
591.431090	6923.193017
591.783188	6946.596574
592.135232	7002.250912
592.487222	7104.798064
592.839157	7196.184101
593.191038	7238.804536
593.542866	7290.466281
593.894639	7298.154040
594.246358	7408.908190
594.598022	7492.087229
594.949633	7517.517329
595.301190	7594.135306
595.652692	7664.169536
596.004141	7805.583984
596.355535	7750.728668
596.706876	7823.822878
597.058162	7863.993313
597.409395	8012.218359
597.760573	8129.100032
598.111698	8153.499216
598.462768	8227.800783
598.813785	8315.249679
599.164748	8336.314140
599.515657	8462.375754
599.866511	8473.065520
600.217312	8659.399169
600.568060	8582.821522
600.918753	8801.151374
601.269392	8874.454792
601.619978	8921.629910
601.970510	9043.779588
602.320988	9150.793202
602.671412	9284.023337
603.021783	9357.888843
603.372100	9373.034990
603.722363	9484.164706
604.072572	9578.993851
604.422728	9680.850365
604.772830	9731.748374
605.122878	9849.739101
605.472872	9917.930789
605.822813	10068.759591
606.172701	10113.126786
606.522534	10279.346232
606.872314	10414.623074
607.222041	10475.638680
607.571714	10640.779318
607.921333	10640.960800
608.270899	10778.982551
608.620411	10968.933228
608.969870	11010.464774
609.319276	11120.137596
609.668627	11234.360060
610.017926	11433.727613
610.367171	11564.911038
610.716362	11685.903772
611.065500	11757.097467
611.414585	11922.643918
611.763616	12080.535377
612.112594	12162.612924
612.461518	12313.545070
612.810389	12520.728931
613.159207	12587.746030
613.507971	12700.491436
613.856682	12952.173563
614.205340	13026.956559
614.553945	13325.917147
614.902496	13265.178805
615.250994	13499.179084
615.599439	13639.688645
615.947830	13792.533909
616.296169	13912.460438
616.644454	14046.663515
616.992686	14211.975553
617.340864	14476.903311
617.688990	14458.324138
618.037063	14792.386280
618.385082	14870.705646
618.733048	15099.490852
619.080961	15192.411920
619.428821	15317.803060
619.776628	15449.135200
620.124382	15509.956722
620.472083	15670.804817
620.819731	15832.204919
621.167326	15806.051413
621.514868	15919.497539
621.862357	15866.845208
622.209793	16003.939387
622.557176	15982.842158
622.904506	16018.228537
623.251783	16011.082702
623.599007	16018.190729
623.946179	16108.833196
624.293297	16137.446785
624.640363	16052.422684
624.987376	16110.685820
625.334336	16149.422046
625.681243	16124.062521
626.028097	16200.194027
626.374899	16252.748056
626.721647	16358.433325
627.068343	16390.961371
627.414987	16406.672127
627.761577	16431.164572
628.108115	16662.798030
628.454600	16493.296794
628.801032	16697.211467
629.147412	16764.974657
629.493739	16845.113879
629.840014	16792.509439
630.186236	17068.018579
630.532405	16971.808158
630.878521	17170.159918
631.224585	17199.554886
631.570597	17163.949216
631.916556	17349.788832
632.262462	17422.094102
632.608316	17502.187954
632.954117	17562.056697
633.299866	17665.796082
633.645562	17741.330210
633.991206	17609.554449
634.336797	17531.275412
634.682336	17605.478676
635.027823	17601.418026
635.373257	17651.643042
635.718639	17601.579343
636.063968	17652.893248
636.409245	17452.046117
636.754470	17548.460705
637.099642	17547.429789
637.444762	17376.645579
637.789829	17556.171150
638.134845	17472.639231
638.479808	17534.819343
638.824719	17599.225124
639.169577	17459.907797
639.514383	17606.302904
639.859137	17521.243516
640.203839	17701.857976
640.548489	17654.181263
640.893086	17745.892454
641.237632	17703.387966
641.582125	17864.926700
641.926566	17848.379112
642.270955	17948.829144
642.615292	18023.470988
642.959576	18056.319147
643.303809	18158.571391
643.647990	18300.391651
643.992118	18371.741622
644.336195	18393.224499
644.680219	18542.853507
645.024192	18745.586030
645.368112	19115.972206
645.711981	19227.933712
646.055797	19710.369614
646.399562	19711.871878
646.743274	20274.434401
647.086935	20598.552867
647.430544	20667.036942
647.774101	20786.739140
648.117606	21052.642361
648.461059	21234.817058
648.804460	21107.132193
649.147810	20917.859551
649.491108	20807.624640
649.834354	20811.720578
650.177548	20435.779050
650.520690	20242.347456
650.863781	20319.540125
651.206820	20313.399999
651.549807	20162.626649
651.892742	19910.402599
652.235626	19928.389436
652.578458	19934.927813
652.921238	19608.775241
653.263967	19879.409585
653.606644	19791.209557
653.949269	19814.310645
654.291843	19664.989147
654.634365	19959.090063
654.976836	19751.913763
655.319255	19885.272447
655.661622	19882.605677
656.003938	19879.598628
656.346203	19841.333750
656.688416	20077.058104
657.030577	20005.486322
657.372687	19984.772221
657.714746	20162.856022
658.056753	20369.515603
658.398708	20043.841941
658.740612	20150.490072
659.082465	20361.764829
659.424266	20362.664675
659.766016	20437.757703
660.107715	20431.801580
660.449362	20559.307484
660.790958	20624.918101
661.132503	20643.978704
661.473996	20770.907396
661.815438	20903.532592
662.156829	21059.833567
662.498168	20998.293681
662.839456	21048.793440
663.180693	21212.399047
663.521879	21346.491219
663.863013	21393.084083
664.204097	21450.911159
664.545129	21806.695633
664.886110	21828.803613
665.227040	21965.933080
665.567918	22036.736086
665.908746	22154.139517
666.249522	22277.947735
666.590248	22364.516950
666.930922	22496.698524
667.271545	22558.056928
667.612118	22680.105783
667.952639	22608.165998
668.293109	22710.425803
668.633528	22667.729751
668.973896	22710.637532
669.314213	22770.039968
669.654480	22705.442623
669.994695	22754.256115
670.334859	22753.666300
670.674973	22707.489331
671.015035	22915.109252
671.355047	22919.253081
671.695008	22936.130864
672.034918	22925.597373
672.374777	23070.575916
672.714585	23018.939378
673.054342	23169.785824
673.394049	23119.649028
673.733705	23334.082069
674.073310	23175.888141
674.412864	23280.504686
674.752368	23111.177369
675.091820	23345.399459
675.431223	23107.905661
675.770574	23000.526563
676.109875	22943.944652
676.449125	22840.853056
676.788324	22818.291372
677.127473	22503.741016
677.466571	22481.995999
677.805619	22309.071819
678.144616	22322.335095
678.483562	22322.123367
678.822458	22122.468468
679.161303	22133.085138
679.500098	22111.324998
679.838842	22113.689299
680.177535	22220.783571
680.516179	22458.340385
680.854771	22606.436882
681.193314	23264.919959
681.531805	24118.712459
681.870247	24758.797846
682.208638	25376.528235
682.546978	25648.536294
682.885268	25814.236500
683.223508	25500.437276
683.561697	25309.967360
683.899836	25224.000564
684.237925	24945.638131
684.575963	24863.152251
684.913951	24600.959319
685.251889	24789.271621
685.589776	24846.481155
685.927614	24877.653130
686.265401	25059.545522
686.603137	25178.541959
686.940824	25639.603369
687.278460	25940.575377
687.616046	26100.334584
687.953582	26690.648658
688.291068	26632.955173
688.628504	26944.657277
688.965889	26981.145148
689.303224	26804.374568
689.640510	26623.129964
689.977745	26135.514276
690.314930	25564.858181
690.652065	25259.439875
690.989150	24730.489246
691.326185	24078.932714
691.663170	23595.654939
692.000105	23013.721783
692.336990	22541.892468
692.673825	22208.278989
693.010610	21834.749654
693.347345	21435.046648
693.684030	20932.683064
694.020665	20788.412803
694.357251	20236.300592
694.693786	20266.257649
695.030272	20099.249263
695.366707	19710.044460
695.703093	19482.327979
696.039429	19565.766637
696.375716	19383.120592
696.711952	19399.292613
697.048139	19298.840061
697.384276	19178.003604
697.720363	19297.514238
698.056400	19229.498990
698.392388	19106.537686
698.728326	19131.506521
699.064214	19003.640174
699.400053	19035.868271
699.735842	18724.088029
700.071581	18569.952230
700.407270	18379.414258
700.742910	18249.566738
701.078501	18037.487916
701.414042	17878.280716
701.749533	17627.261502
702.084974	17369.880351
702.420366	17593.911748
702.755709	17241.366216
703.091002	16990.377248
703.426246	17065.250986
703.761440	17024.717588
704.096584	16838.630956
704.431679	16787.291845
704.766725	16757.246568
705.101721	16713.055813
705.436668	16843.004157
705.771565	16608.109072
706.106413	16900.324596
706.441212	16980.335270
706.775961	17084.931650
707.110661	17178.419848
707.445311	17520.447013
707.779913	17421.305161
708.114465	17712.666209
708.448967	18024.743879
708.783421	18599.137990
709.117825	18948.285785
709.452180	19151.305653
709.786485	19572.191588
710.120742	20267.031466
710.454949	20364.895386
710.789107	20823.746250
711.123216	21468.333387
711.457275	21647.780819
711.791286	22168.978154
712.125247	22309.633908
712.459159	22073.352507
712.793023	22779.474488
713.126837	21864.991536
713.460602	22134.083287
713.794318	21858.518694
714.127985	21632.508644
714.461602	20853.408399
714.795171	20859.263699
715.128691	19993.632049
715.462162	19543.409120
715.795584	19161.945008
716.128957	18927.790974
716.462281	18596.163709
716.795556	18347.102983
717.128782	17915.716325
717.461960	17371.226339
717.795088	17340.185434
718.128167	17036.425668
718.461198	16639.210471
718.794180	16536.953186
719.127113	16245.158598
719.459997	16078.621561
719.792833	15743.737711
720.125619	15780.260870
720.458357	15489.522404
720.791046	15366.949269
721.123686	15227.659668
721.456278	15029.862435
721.788821	15031.505851
722.121315	14786.946875
722.453761	14888.914294
722.786158	14791.466270
723.118506	14871.456778
723.450805	14770.948773
723.783056	14936.200317
724.115259	14850.578840
724.447412	14854.150497
724.779518	15053.825560
725.111574	15106.374548
725.443582	15357.368556
725.775542	15322.052753
726.107453	15817.144472
726.439315	15742.487504
726.771129	16147.483722
727.102895	16530.160231
727.434612	16776.060154
727.766281	16936.058815
728.097901	17238.117192
728.429473	17328.684042
728.760996	17345.292123
729.092471	17478.088718
729.423897	17385.371817
729.755276	17275.512471
730.086606	17388.809883
730.417887	17963.798850
730.749120	18511.815123
731.080305	18710.512202
731.411442	19117.640827
731.742530	19230.996213
732.073570	19398.123066
732.404562	19715.531756
732.735506	19564.884435
733.066401	19385.699142
733.397249	18926.172763
733.728048	18330.149582
734.058798	17525.820883
734.389501	16816.739745
734.720156	16350.730442
735.050762	15805.718697
735.381320	15450.871878
735.711831	15186.927145
736.042293	14834.807590
736.372707	14876.134969
736.703073	14684.301421
737.033391	14869.069792
737.363661	14873.526172
737.693883	14987.068080
738.024056	15178.500856
738.354182	15389.773093
738.684260	15728.800772
739.014290	15993.821791
739.344272	16221.250926
739.674207	16542.712704
740.004093	16714.472377
740.333931	16762.272598
740.663722	16845.781832
740.993464	16892.341929
741.323159	16753.044766
741.652806	16493.876526
741.982405	16334.573544
742.311956	16000.909653
742.641460	15906.269552
742.970915	15603.840650
743.300323	15283.956753
743.629683	15076.624178
743.958996	14779.465803
744.288260	14491.474766
744.617477	14192.005022
744.946647	14165.909489
745.275768	13860.405483
745.604842	13670.129652
745.933869	13507.179395
746.262847	13480.282319
746.591778	13399.941450
746.920662	13289.043627
747.249498	13292.758957
747.578286	13458.670892
747.907027	13625.785142
748.235720	13889.898754
748.564365	13956.855359
748.892963	13877.406775
749.221514	13984.790913
749.550017	13863.092418
749.878473	13825.808045
750.206881	13619.889513
750.535242	13547.042319
750.863555	13478.223008
751.191821	13370.460782
751.520039	13403.815577
751.848210	13332.140451
752.176334	13379.955796
752.504411	13309.016679
752.832440	13138.224907
753.160421	13254.975509
753.488356	13144.012152
753.816243	13056.228019
754.144082	12891.934295
754.471875	12848.663551
754.799620	12820.596927
755.127318	12791.879994
755.454969	12785.686936
755.782572	12755.140064
756.110129	12774.694700
756.437638	12686.837471
756.765100	12687.805373
757.092515	12718.314436
757.419882	12763.926796
757.747203	12769.862754
758.074477	12860.747196
758.401703	12837.230214
758.728882	13032.544678
759.056014	13071.868199
759.383099	13243.839601
759.710138	13369.492881
760.037129	13487.781035
760.364073	13546.896126
760.690970	13574.877050
761.017820	13597.920164
761.344623	13826.778467
761.671379	14195.669941
761.998088	14891.339089
762.324751	16632.246117
762.651366	19973.255705
762.977935	24350.902964
763.304456	27223.375111
763.630931	28263.781045
763.957359	27084.889574
764.283740	24894.407405
764.610074	22683.135517
764.936362	20109.881057
765.262602	18280.942880
765.588796	16398.233235
765.914943	15141.939888
766.241044	14062.921236
766.567097	13284.544397
766.893104	12580.106162
767.219064	12129.638736
767.544978	11664.602376
767.870845	11292.832404
768.196665	11076.957593
768.522438	10845.535864
768.848165	10653.697275
769.173846	10453.134969
769.499479	10320.839969
769.825066	10162.260392
770.150607	9942.057751
770.476101	9856.663126
770.801548	9732.774249
771.126949	9585.106250
771.452303	9475.357810
771.777611	9280.035784
772.102872	9269.030945
772.428087	9132.720666
772.753256	8973.001788
773.078378	8888.713696
773.403453	8709.810708
773.728482	8602.658462
774.053465	8524.384467
774.378401	8430.316536
774.703291	8306.286507
775.028135	8188.991460
775.352932	8156.896954
775.677683	8050.596663
776.002388	7949.715613
776.327046	7963.006615
776.651658	7864.348714
776.976224	7759.490193
777.300743	7763.618898
777.625216	7674.987852
777.949643	7633.249619
778.274024	7645.103892
778.598359	7561.662714
778.922647	7579.372287
779.246889	7526.029318
779.571086	7536.025926
779.895236	7543.917852
780.219339	7553.380098
780.543397	7556.107362
780.867409	7635.240875
781.191374	7644.824108
781.515294	7609.155424
781.839167	7707.130249
782.162995	7681.170827
782.486776	7628.155533
782.810511	7579.831032
783.134201	7496.631829
783.457844	7489.352403
783.781441	7437.171419
784.104993	7372.906790
784.428498	7351.958275
784.751958	7335.448497
785.075372	7308.347253
785.398739	7254.318687
785.722061	7301.738301
786.045337	7307.931358
786.368568	7458.727393
786.691752	7486.433575
787.014891	7826.235070
787.337983	8173.925972
787.661030	8761.301053
787.984031	9378.116473
788.306987	9774.089026
788.629897	9979.815993
788.952760	9925.737016
789.275579	9709.922699
789.598351	9321.441301
789.921078	8971.393660
790.243759	8565.951301
790.566395	8279.157538
790.888984	8032.756020
791.211529	7825.050399
791.534027	7609.089889
791.856480	7409.666884
792.178888	7333.006058
792.501249	7237.340081
792.823566	7081.555824
793.145836	7084.290650
793.468062	7057.091105
793.790241	7009.842890
794.112375	7080.217398
794.434464	7227.769450
794.756507	7271.642612
795.078505	7431.364010
795.400457	7735.973211
795.722364	8086.890451
796.044226	8366.520734
796.366042	8639.360583
796.687812	8588.064322
797.009538	8666.396291
797.331218	8561.615908
797.652852	8479.276222
797.974442	8330.113521
798.295986	8249.855831
798.617484	8050.483237
798.938938	7912.022906
799.260346	7812.883574
799.581709	7613.422761
799.903026	7541.054477
800.224299	7432.102539
800.545526	7259.500993
800.866708	7166.476581
801.187845	7098.206755
801.508936	6996.526682
801.829983	6957.455219
802.150984	6811.536501
802.471940	6765.178050
802.792851	6750.137767
803.113717	6719.185083
803.434538	6685.878179
803.755314	6624.693695
804.076045	6629.628985
804.396731	6570.322330
804.717372	6610.671726
805.037967	6606.031344
805.358518	6654.560011
805.679024	6729.332926
805.999485	6742.031592
806.319901	6779.600791
806.640272	6803.085006
806.960598	6880.696090
807.280879	6883.466204
807.601115	6965.168185
807.921306	6911.704228
808.241453	6923.021618
808.561554	6945.396779
808.881611	6907.888074
809.201623	6922.285610
809.521590	6865.350818
809.841513	6851.764908
810.161390	6887.413428
810.481223	6759.600013
810.801011	6747.226501
811.120755	6720.866308
811.440453	6644.933928
811.760107	6613.724144
812.079716	6586.701039
812.399281	6520.399784
812.718801	6513.228742
813.038276	6462.683613
813.357707	6405.345530
813.677093	6446.471263
813.996434	6352.123548
814.315731	6392.624178
814.634983	6388.286265
814.954191	6401.927627
815.273354	6506.609707
815.592473	6566.128090
815.911547	6692.650970
816.230577	6773.495954
816.549562	6919.515496
816.868502	7023.779160
817.187399	7127.276569
817.506250	7271.327540
817.825058	7305.680483
818.143821	7574.653767
818.462539	7843.495981
818.781213	8205.584418
819.099843	8753.257892
819.418429	9746.917206
819.736970	10706.533608
820.055466	11877.553318
820.373919	13397.667890
820.692327	15744.342649
821.010691	19882.610718
821.329011	28802.367839
821.647286	41630.256795
821.965517	54968.365973
822.283704	60404.436249
822.601847	62418.709927
822.919945	59699.718230
823.237999	55486.435271
823.556010	49330.158029
823.873976	42674.637678
824.191897	36207.424588
824.509775	31404.568605
824.827609	26943.671731
825.145398	24362.142217
825.463144	23018.087422
825.780845	23322.265604
826.098502	25103.723674
826.416116	28846.024232
826.733685	32423.378236
827.051210	33540.071950
827.368692	31762.175456
827.686129	27838.201796
828.003522	23767.626341
828.320872	20103.262022
828.638177	17282.917926
828.955439	15148.652184
829.272656	13356.121220
829.589830	11893.619475
829.906960	10635.203802
830.224046	9701.148571
830.541088	8960.502248
830.858086	8508.580449
831.175041	8124.862942
831.491952	8017.856890
831.808819	8061.959424
832.125642	8460.409704
832.442421	9350.657308
832.759157	11136.647375
833.075849	14037.251681
833.392497	17217.516517
833.709101	19372.831597
834.025662	19191.438279
834.342179	17511.461157
834.658653	15348.165930
834.975083	13436.028550
835.291469	11838.454128
835.607811	10533.435509
835.924110	9627.850194
836.240366	8766.909337
836.556578	7966.079199
836.872746	7323.624470
837.188871	6830.229099
837.504952	6416.584782
837.820990	6107.138594
838.136984	5887.303957
838.452935	5796.848013
838.768842	5825.703578
839.084706	6250.977837
839.400526	7447.336906
839.716303	9016.297738
840.032037	10098.383932
840.347727	10017.128094
840.663373	9057.292401
840.978977	8024.433075
841.294537	7220.767288
841.610054	6626.632019
841.925527	6197.130752
842.240957	5831.531152
842.556344	5506.301112
842.871687	5223.729315
843.186987	4944.303198
843.502244	4720.367583
843.817458	4558.135690
844.132629	4424.167027
844.447756	4332.135722
844.762840	4250.978187
845.077881	4174.496321
845.392879	4114.768730
845.707833	4066.822316
846.022745	4022.407230
846.337613	3992.397241
846.652438	3951.450469
846.967221	3933.045216
847.281960	3900.343251
847.596656	3885.398751
847.911309	3863.424361
848.225919	3837.898479
848.540485	3824.156293
848.855009	3811.500477
849.169490	3787.302938
849.483928	3776.570322
849.798323	3767.632356
850.112675	3748.919593
850.426984	3754.704317
850.741251	3741.962800
851.055474	3735.232860
851.369654	3743.931371
851.683792	3738.600351
851.997887	3744.127976
852.311938	3745.892380
852.625947	3744.717791
852.939914	3737.892069
853.253837	3750.711723
853.567718	3747.911362
853.881555	3733.566759
854.195350	3749.693410
854.509103	3746.472113
854.822812	3744.243922
855.136479	3734.980802
855.450103	3746.935899
855.763685	3732.682036
856.077224	3734.524578
856.390720	3754.442177
856.704173	3770.042027
857.017584	3784.459727
857.330953	3795.724186
857.644278	3818.265705
857.957561	3821.139163
858.270802	3821.814677
858.584000	3828.443795
858.897155	3818.737053
859.210268	3800.551090
859.523339	3780.908234
859.836367	3780.487298
860.149352	3773.424642
860.462295	3765.900719
860.775195	3753.285232
861.088054	3753.194491
861.400869	3748.286928
861.713642	3747.220724
862.026373	3758.812857
862.339062	3764.340482
862.651708	3786.140952
862.964312	3819.306703
863.276873	3830.021676
863.589392	3885.081158
863.901869	3932.677212
864.214303	3978.554233
864.526696	4009.678317
864.839045	4055.814957
865.151353	4081.053493
865.463619	4091.541614
865.775842	4097.306173
866.088023	4117.412815
866.400162	4102.659879
866.712258	4110.982824
867.024313	4114.241930
867.336325	4115.502218
867.648296	4120.170327
867.960224	4121.153352
868.272110	4131.800268
868.583954	4130.313128
868.895755	4148.529338
869.207515	4138.850322
869.519233	4187.084082
869.830909	4199.457594
870.142542	4222.989700
870.454134	4239.456629
870.765684	4266.147018
871.077191	4306.340138
871.388657	4330.850228
871.700081	4366.428171
872.011463	4405.713883
872.322803	4440.354172
872.634101	4471.062361
872.945357	4514.486860
873.256571	4566.153646
873.567744	4596.660188
873.878874	4611.607209
874.189963	4649.998116
874.501010	4663.331968
874.812015	4660.355167
875.122979	4702.589954
875.433900	4703.709090
875.744780	4713.088157
876.055618	4742.417590
876.366415	4744.600409
876.677169	4763.832411
876.987882	4810.972241
877.298554	4861.582905
877.609183	4938.445378
877.919771	5048.987799
878.230317	5191.377710
878.540822	5407.481893
878.851285	5725.664401
879.161707	6188.868301
879.472087	6946.034485
879.782425	8182.034668
880.092722	10343.512558
880.402977	13616.411117
880.713191	17316.784398
881.023363	20977.995475
881.333494	23154.097753
881.643583	24355.946639
881.953631	24372.927766
882.263637	23549.077198
882.573602	22098.076846
882.883526	20557.107020
883.193408	18913.237163
883.503248	17227.296355
883.813048	15694.901533
884.122806	14281.818219
884.432522	12815.623828
884.742197	11568.825494
885.051831	10485.617644
885.361424	9494.844391
885.670975	8685.522429
885.980485	7996.442068
886.289954	7424.850839
886.599382	6958.024870
886.908768	6581.969916
887.218113	6220.680502
887.527417	5931.328354
887.836680	5666.360267
888.145901	5443.921874
888.455082	5287.663749
888.764221	5134.427795
889.073319	5003.854349
889.382376	4928.829377
889.691392	4869.215212
890.000366	4846.978682
890.309300	4833.722968
890.618193	4829.836239
890.927044	4820.169826
891.235855	4839.293443
891.544625	4868.204461
891.853353	4936.786838
892.162041	5053.555085
892.470687	5235.510492
892.779293	5485.854192
893.087858	5857.886304
893.396381	6430.258912
893.704864	7227.386323
894.013306	8371.138431
894.321707	9529.867807
894.630068	10332.938738
894.938387	10538.509430
895.246665	10298.573192
895.554903	9705.864570
895.863100	9012.000155
896.171256	8459.288047
896.479371	7957.302550
896.787446	7469.265925
897.095480	7038.791716
897.403473	6727.840744
897.711425	6408.239152
898.019336	6141.667978
898.327207	5874.829622
898.635038	5646.253625
898.942827	5400.888064
899.250576	5210.503848
899.558284	5022.577194
899.865952	4899.925921
900.173579	4750.909413
900.481165	4645.564422
900.788711	4555.025298
901.096216	4481.797498
901.403681	4418.460441
901.711105	4391.754928
902.018489	4375.892938
902.325832	4446.993372
902.633135	4568.558276
902.940397	4914.782202
903.247619	5701.663467
903.554800	7132.930223
903.861941	9034.922281
904.169041	10534.282423
904.476101	11146.782615
904.783121	10793.760693
905.090100	10063.703314
905.397039	9244.614117
905.703938	8500.345724
906.010796	7814.234604
906.317614	7259.226250
906.624391	6729.615230
906.931129	6309.636703
907.237826	5912.850005
907.544483	5535.519639
907.851099	5167.258310
908.157675	4813.999454
908.464211	4494.967512
908.770707	4255.973970
909.077163	4061.133374
909.383578	3920.263371
909.689954	3805.597285
909.996289	3734.746389
910.302584	3670.149043
910.608839	3640.610402
910.915054	3603.313426
911.221229	3593.773042
911.527363	3603.507510
911.833458	3616.596866
912.139513	3646.619458
912.445527	3676.838654
912.751502	3755.417640
913.057436	3856.205429
913.363331	3993.239114
913.669186	4198.363664
913.975000	4450.623002
914.280775	4876.895410
914.586510	5453.225323
914.892205	6243.579944
915.197859	7273.853158
915.503475	8475.898649
915.809050	9516.125622
916.114585	10156.223611
916.420081	10408.379605
916.725536	10373.396518
917.030952	9934.407800
917.336328	9530.603815
917.641665	9127.770253
917.946961	8653.480855
918.252218	8237.946105
918.557435	7733.518169
918.862612	7300.014226
919.167750	6931.810870
919.472848	6512.316294
919.777906	6145.504296
920.082925	5782.815962
920.387904	5425.592238
920.692843	5163.275798
920.997743	4920.859313
921.302603	4690.564281
921.607423	4527.601422
921.912204	4363.290053
922.216946	4248.646653
922.521647	4127.676605
922.826310	4025.512581
923.130932	3929.584464
923.435516	3831.158456
923.740059	3763.579268
924.044564	3684.947350
924.349028	3631.921974
924.653454	3565.003177
924.957840	3495.294102
925.262186	3447.458593
925.566493	3388.247720
925.870761	3333.440296
926.174989	3295.878658
926.479178	3260.063781
926.783328	3215.318499
927.087438	3190.861341
927.391509	3156.185765
927.695541	3127.456229
927.999533	3098.088987
928.303486	3081.707758
928.607400	3065.220664
928.911275	3050.402192
929.215110	3032.692619
929.518906	3024.873789
929.822663	3021.120650
930.126381	3017.843900
930.430060	3027.409490
930.733699	3030.555170
931.037299	3040.924823
931.340861	3036.821324
931.644383	3046.994372
931.947866	3043.699978
932.251309	3040.221582
932.554714	3038.563043
932.858080	3034.953576
933.161407	3027.018800
933.464694	3016.548324
933.767943	3010.647653
934.071153	3006.881911
934.374323	2995.055364
934.677455	2990.619149
934.980548	2981.247644
935.283602	2972.584421
935.586617	2975.352014
935.889593	2984.363077
936.192530	2988.927842
936.495428	3000.835047
936.798287	3021.357584
937.101108	3057.883265
937.403890	3106.195162
937.706632	3166.230264
938.009336	3245.071389
938.312002	3318.087462
938.614628	3381.195146
938.917216	3433.557611
939.219765	3463.270172
939.522275	3495.833505
939.824747	3500.541943
940.127179	3495.586488
940.429573	3492.040037
940.731929	3488.980056
941.034246	3474.516986
941.336524	3463.963330
941.638763	3447.917338
941.940964	3437.036007
942.243126	3391.584964
942.545250	3372.980586
942.847335	3333.669668
943.149381	3298.794966
943.451389	3268.369082
943.753359	3233.580079
944.055290	3207.968497
944.357182	3182.903880
944.659036	3170.573218
944.960851	3160.190961
945.262628	3145.498518
945.564367	3146.756286
945.866067	3140.157416
946.167729	3139.386119
946.469352	3140.409474
946.770937	3133.372023
947.072484	3118.561113
947.373992	3121.016155
947.675462	3112.990638
947.976893	3098.532609
948.278286	3087.784869
948.579641	3082.287490
948.880958	3076.069227
949.182236	3077.856316
949.483476	3070.418094
949.784678	3070.831468
950.085841	3070.730645
950.386967	3083.388982
950.688054	3099.185438
950.989103	3115.939713
951.290114	3138.151037
951.591087	3168.438289
951.892021	3196.520037
952.192917	3222.907956
952.493776	3246.039291
952.794596	3254.924324
953.095378	3260.583020
953.396122	3255.088162
953.696828	3248.690938
953.997496	3237.096284
954.298126	3217.118191
954.598718	3195.189172
954.899272	3167.316632
955.199788	3141.478198
955.500266	3110.719598
955.800706	3077.027046
956.101108	3039.687220
956.401472	3007.224710
956.701798	2975.155409
957.002087	2935.685695
957.302337	2909.650656
957.602550	2880.132180
957.902724	2853.101513
958.202861	2827.787359
958.502960	2807.360604
958.803022	2784.945113
959.103045	2765.080446
959.403031	2749.770462
959.702979	2735.766137
960.002889	2721.678632
960.302762	2709.405943
960.602596	2697.113090
960.902393	2689.047243
961.202153	2680.764628
961.501875	2671.488905
961.801559	2668.270128
962.101205	2659.521205
962.400814	2657.270330
962.700385	2648.022333
962.999918	2644.821201
963.299414	2636.004223
963.598873	2635.144706
963.898293	2629.317132
964.197677	2629.125568
964.497022	2627.283027
964.796331	2626.753705
965.095601	2622.178858
965.394835	2621.047119
965.694030	2622.085597
965.993189	2614.407920
966.292309	2614.697786
966.591393	2615.680811
966.890439	2615.345574
967.189447	2615.393465
967.488419	2613.903804
967.787353	2616.522684
968.086249	2618.309773
968.385108	2619.260030
968.683930	2620.311111
968.982714	2626.645321
969.281462	2629.160856
969.580172	2634.935498
969.878844	2641.662918
970.177480	2647.656850
970.476078	2655.465597
970.774639	2664.459016
971.073162	2670.190807
971.371649	2676.235151
971.670098	2681.475430
971.968510	2687.948272
972.266885	2689.218643
972.565223	2694.519416
972.863524	2698.678368
973.161788	2701.481249
973.460014	2703.676672
973.758204	2710.744370
974.056356	2709.980635
974.354471	2710.948536
974.652550	2711.094730
974.950591	2710.116746
975.248595	2708.604400
975.546563	2707.465099
975.844493	2702.239943
976.142386	2697.425641
976.440243	2692.969261
976.738062	2690.534384
977.035845	2681.230934
977.333590	2676.091478
977.631299	2670.823472
977.928971	2667.793739
978.226606	2657.744199
978.524204	2656.131029
978.821765	2653.237407
979.119290	2656.166317
979.416777	2653.348312
979.714228	2657.683705
980.011642	2660.773932
980.309020	2665.986485
980.606360	2681.021727
980.903664	2707.903679
981.200931	2739.688154
981.498162	2788.660443
981.795356	2862.498224
982.092513	2947.829835
982.389633	3051.014692
982.686717	3147.441883
982.983764	3221.153635
983.280775	3268.497631
983.577749	3278.915176
983.874686	3262.569234
984.171587	3230.240315
984.468451	3192.882844
984.765279	3148.687048
985.062070	3102.792384
985.358824	3058.294119
985.655543	3004.220182
985.952224	2951.091462
986.248869	2886.877244
986.545478	2832.523523
986.842050	2779.046963
987.138586	2733.583317
987.435086	2695.777184
987.731549	2664.582524
988.027975	2641.196611
988.324366	2625.576596
988.620719	2611.163937
988.917037	2601.394181
989.213318	2589.184506
989.509563	2581.647981
989.805772	2582.681418
990.101944	2575.142372
990.398080	2574.146744
990.694180	2570.479305
990.990244	2571.169943
991.286271	2570.789336
991.582262	2573.093143
991.878217	2571.225396
992.174136	2578.295614
992.470019	2579.560944
992.765865	2581.597570
993.061676	2587.573858
993.357450	2597.923347
993.653188	2604.171857
993.948890	2623.108951
994.244556	2641.368010
994.540186	2662.064467
994.835780	2696.203161
995.131337	2732.126424
995.426859	2771.633946
995.722345	2818.020123
996.017795	2867.292361
996.313208	2902.570356
996.608586	2931.569593
996.903928	2943.963270
997.199234	2943.416305
997.494504	2941.709874
997.789738	2923.702873
998.084936	2904.387692
998.380099	2871.547095
998.675225	2842.721777
998.970316	2811.688434
999.265371	2775.747528
999.560390	2742.097826
999.855373	2712.924669
1000.150320	2685.649506
1000.445232	2660.690753
1000.740108	2639.870788
1001.034948	2621.324383
1001.329752	2606.248812
1001.624521	2595.521237
1001.919254	2582.184864
1002.213951	2578.109091
1002.508613	2567.477298
1002.803239	2563.978737
1003.097829	2555.756615
1003.392384	2550.874258
1003.686903	2548.300749
1003.981386	2543.904862
1004.275834	2540.610468
1004.570246	2538.962011
1004.864623	2532.605116
1005.158964	2534.651825
1005.453270	2531.115455
1005.747540	2529.562780
1006.041775	2529.255269
1006.335974	2526.301153
1006.630138	2523.765453
1006.924266	2525.444157
1007.218359	2525.308046
1007.512416	2522.648837
1007.806438	2517.055677
1008.100425	2519.178003
1008.394376	2516.906963
1008.688292	2519.114988
1008.982172	2520.390400
1009.276017	2521.653209
1009.569827	2519.790503
1009.863602	2519.445184
1010.157341	2516.407889
1010.451045	2517.658095
1010.744714	2514.890502
1011.038347	2517.887467
1011.331945	2516.138187
1011.625508	2515.555934
1011.919036	2513.768845
1012.212528	2513.824298
1012.505986	2510.986128
1012.799408	2509.874553
1013.092795	2513.231962
1013.386147	2508.916734
1013.679464	2511.780110
1013.972745	2509.231806
1014.265992	2510.943278
1014.559204	2511.215500
1014.852380	2510.605521
1015.145521	2512.715244
1015.438628	2509.231806
1015.731699	2510.144255
1016.024736	2511.336488
1016.317737	2517.186747
1016.610703	2514.459483
1016.903635	2516.735564
1017.196531	2513.234483
1017.489393	2516.400327
1017.782219	2517.670698
1018.075011	2519.573733
1018.367768	2522.064063
1018.660490	2522.729496
1018.953177	2522.729496
1019.245829	2522.729496
