Dividing Wavelength (nm)	Counts (n)	Blue Motor Position (mm): 10.400000	Red Motor Position (mm): 0.000000	
326.493990	2161.251039
326.888308	2161.251039
327.282561	2161.251039
327.676750	2120.886520
328.070874	2113.881837
328.464933	2117.730758
328.858929	2119.938783
329.252859	2124.571603
329.646726	2133.391102
330.040528	2146.152783
330.434265	2157.555873
330.827938	2178.315344
331.221547	2191.712211
331.615091	2211.289532
332.008571	2231.353324
332.401986	2249.302352
332.795338	2265.761720
333.188625	2285.021448
333.581847	2303.898048
333.975006	2324.808755
334.368100	2339.942298
334.761129	2358.297140
335.154095	2374.353215
335.546996	2396.778787
335.939833	2417.833167
336.332606	2432.674323
336.725315	2443.729574
337.117960	2460.952676
337.510540	2470.079685
337.903056	2479.070583
338.295508	2492.212871
338.687896	2500.825682
339.080220	2506.083606
339.472480	2513.370594
339.864676	2517.771521
340.256807	2523.157994
340.648875	2530.618902
341.040879	2532.534540
341.432818	2534.306506
341.824694	2534.692154
342.216506	2538.326826
342.608253	2536.890097
342.999937	2540.003009
343.391557	2539.108205
343.783113	2537.656352
344.174605	2538.994779
344.566033	2535.266845
344.957397	2535.226516
345.348697	2533.832637
345.739934	2532.516896
346.131106	2532.584952
346.522215	2529.764426
346.913260	2528.244518
347.304241	2524.498941
347.695159	2523.760412
348.086012	2521.307890
348.476802	2519.107427
348.867528	2518.505009
349.258191	2511.449914
349.648789	2509.735922
350.039324	2508.798267
350.429796	2511.548217
350.820203	2512.581653
351.210548	2510.184584
351.600828	2507.069151
351.991045	2507.222907
352.381198	2504.818276
352.771288	2504.631753
353.161314	2505.014881
353.551276	2505.302227
353.941175	2504.228461
354.331010	2503.999089
354.720782	2502.580004
355.110490	2503.961280
355.500135	2503.767196
355.889717	2502.781650
356.279235	2504.818276
356.668689	2505.418173
357.058080	2506.630571
357.447408	2502.733759
357.836672	2504.160406
358.225873	2505.181239
358.615010	2503.989006
359.004084	2506.565036
359.393095	2505.738287
359.782043	2506.890190
360.170927	2504.115035
360.559748	2504.672083
360.948505	2505.829028
361.337199	2510.134173
361.725830	2507.742145
362.114398	2508.548730
362.502903	2508.437825
362.891344	2510.809688
363.279722	2509.637619
363.668037	2510.892867
364.056289	2513.247085
364.444478	2511.008813
364.832603	2513.907477
365.220665	2512.165758
365.608665	2514.918228
365.996601	2513.073166
366.384474	2512.513598
366.772284	2512.634585
367.160031	2515.712210
367.547715	2518.873013
367.935336	2514.988804
368.322893	2511.480161
368.710388	2511.674245
369.097820	2511.026457
369.485189	2510.734070
369.872495	2517.965605
370.259738	2517.209432
370.646918	2516.874196
371.034035	2519.319155
371.421090	2516.637261
371.808081	2520.264372
372.195010	2518.999042
372.581875	2518.557941
372.968678	2519.225894
373.355418	2518.000893
373.742096	2518.779752
374.128710	2519.833353
374.515262	2520.372756
374.901751	2518.857890
375.288177	2521.554907
375.674540	2519.697242
376.060841	2519.546007
376.447079	2522.331245
376.833254	2522.268230
377.219367	2521.312932
377.605417	2519.225894
377.991404	2518.096675
378.377329	2519.775380
378.763191	2524.456091
379.148991	2523.082377
379.534727	2521.824609
379.920402	2523.674712
380.306013	2522.696728
380.691563	2526.477594
381.077049	2522.048940
381.462474	2523.500792
381.847835	2521.554907
382.233134	2524.498941
382.618371	2522.011131
383.003545	2523.089938
383.388657	2525.550021
383.773706	2526.810310
384.158693	2525.376102
384.543618	2526.719569
384.928480	2526.066740
385.313280	2526.878365
385.698017	2524.617408
386.082692	2524.569517
386.467305	2526.154960
386.851856	2524.962727
387.236344	2526.573376
387.620770	2524.715710
388.005133	2526.225536
388.389435	2525.058509
388.773674	2521.648168
389.157851	2528.879703
389.541965	2529.875331
389.926018	2529.204858
390.310008	2529.023376
390.693936	2530.276103
391.077802	2528.710825
391.461606	2528.509179
391.845348	2529.240146
392.229027	2529.570342
392.612645	2530.298788
392.996200	2532.186700
393.379694	2528.428520
393.763125	2531.390198
394.146494	2528.612522
394.529801	2531.501103
394.913047	2529.814837
395.296230	2531.947246
395.679351	2532.088398
396.062410	2529.300640
396.445408	2532.723583
396.828343	2531.579241
397.211217	2530.727286
397.594028	2531.856505
397.976778	2534.508152
398.359466	2530.639066
398.742092	2533.504962
399.124656	2534.346835
399.507158	2531.969931
399.889598	2534.717360
400.271977	2533.192411
400.654294	2533.651156
401.036549	2530.145033
401.418742	2533.026053
401.800874	2534.442617
402.182944	2532.869777
402.564952	2535.539068
402.946898	2535.813811
403.328783	2534.049407
403.710606	2536.675848
404.092367	2535.430683
404.474067	2536.547298
404.855705	2534.228368
405.237282	2539.400592
405.618797	2533.870446
406.000250	2538.074768
406.381642	2534.762730
406.762972	2532.521937
407.144240	2533.149561
407.525447	2535.135775
407.906593	2532.852133
408.287677	2535.576876
408.668700	2536.698533
409.049661	2536.867412
409.430560	2538.442772
409.811399	2537.646270
410.192176	2537.868081
410.572891	2538.757844
410.953545	2537.300951
411.334138	2536.567463
411.714669	2541.084337
412.095139	2540.673483
412.475547	2538.084850
412.855894	2536.196938
413.236180	2540.618030
413.616405	2541.137269
413.996568	2541.613658
414.376670	2538.553678
414.756711	2540.222300
415.136691	2538.893956
415.516609	2539.703061
415.896466	2536.895138
416.276262	2539.045190
416.655997	2539.791281
417.035670	2540.418905
417.415283	2541.883360
417.794834	2542.629451
418.174324	2543.892260
418.553753	2542.054759
418.933121	2538.944367
419.312428	2543.007537
419.691674	2540.141641
420.070859	2541.883360
420.449983	2540.756662
420.829045	2542.042156
421.208047	2541.535520
421.586988	2542.551313
421.965867	2544.116591
422.344686	2543.153731
422.723444	2541.364121
423.102141	2541.510314
423.480777	2544.131714
423.859352	2539.254398
424.237866	2539.198945
424.616319	2542.153062
424.994712	2542.024512
425.373044	2544.340922
425.751314	2540.126518
426.129524	2538.483102
426.507673	2538.573842
426.885762	2538.266332
427.263789	2543.796478
427.641756	2543.854451
428.019662	2545.059287
428.397508	2543.413350
428.775292	2542.997455
429.153016	2542.697506
429.530679	2544.073741
429.908282	2540.252547
430.285824	2544.625747
430.663305	2541.956457
431.040726	2543.123484
431.418086	2545.702034
431.795385	2544.204811
432.172624	2545.795295
432.549802	2543.007537
432.926920	2546.944678
433.303977	2543.743546
433.680974	2544.572815
434.057910	2543.594832
434.434786	2546.929555
434.811601	2543.040305
435.188355	2545.011396
435.565050	2546.513660
435.941683	2546.314534
436.318257	2545.820501
436.694770	2545.641540
437.071222	2545.782692
437.447614	2546.364946
437.823946	2547.017775
438.200218	2543.602393
438.576429	2545.936448
438.952580	2544.295552
439.328670	2546.203629
439.704700	2544.131714
440.080670	2544.945861
440.456580	2546.594318
440.832429	2547.705892
441.208218	2546.082641
441.583947	2544.497198
441.959616	2545.916283
442.335224	2548.250337
442.710773	2547.380738
443.086261	2548.106664
443.461689	2545.581046
443.837057	2548.729247
444.212365	2546.944678
444.587612	2545.568443
444.962800	2543.136087
445.337927	2543.451159
445.712995	2541.235572
446.088002	2550.133208
446.462949	2546.773279
446.837837	2547.562220
447.212664	2549.563558
447.587431	2547.113557
447.962139	2550.420554
448.336786	2550.314690
448.711374	2548.194884
449.085901	2550.349978
449.460369	2549.293856
449.834776	2548.635985
450.209124	2550.954916
450.583412	2549.256047
450.957640	2550.349978
451.331808	2551.365770
451.705917	2548.840152
452.079965	2552.253013
452.453954	2546.843855
452.827883	2550.085317
453.201752	2547.942827
453.575562	2550.904505
453.949311	2549.808054
454.323001	2551.847200
454.696632	2546.659853
455.070202	2551.574978
455.443713	2550.491130
455.817164	2550.503733
456.190556	2549.795451
456.563888	2551.519525
456.937160	2551.254865
457.310373	2551.534649
457.683526	2549.752601
458.056619	2548.154555
458.429653	2551.368291
458.802628	2552.520194
459.175542	2553.682180
459.548398	2552.963816
459.921194	2549.878630
460.293930	2551.874927
460.666607	2552.719320
461.039224	2552.300904
461.411782	2555.824671
461.784280	2551.698486
462.156719	2553.430123
462.529099	2552.747046
462.901419	2550.501212
463.273680	2549.157745
463.645882	2547.920142
464.018024	2551.164124
464.390106	2547.093392
464.762130	2554.881975
465.134094	2551.615307
465.505999	2552.951213
465.877845	2551.522046
466.249631	2554.050185
466.621358	2547.209339
466.993026	2553.581357
467.364634	2558.095711
467.736184	2557.495813
468.107674	2554.110678
468.479105	2554.944989
468.850477	2553.150339
469.221790	2551.849721
469.593043	2552.832746
469.964238	2552.510112
470.335373	2552.618497
470.706449	2551.411141
471.077467	2554.491286
471.448425	2555.171841
471.819324	2555.892726
472.190164	2554.445915
472.560945	2557.112686
472.931667	2553.803168
473.302330	2553.755277
473.672934	2555.804506
474.043479	2555.166800
474.413965	2554.977757
474.784393	2554.922304
475.154761	2554.571944
475.525070	2553.498178
475.895321	2554.400545
476.265513	2554.120761
476.635645	2552.376522
477.005719	2556.061605
477.375734	2555.832232
477.745691	2555.451625
478.115588	2554.957592
478.485427	2560.021431
478.855207	2557.337017
479.224928	2557.508416
479.594591	2558.448591
479.964194	2559.005639
480.333739	2558.173848
480.703226	2557.770556
481.072653	2561.967317
481.442022	2558.143602
481.811333	2558.146122
482.180584	2554.244269
482.549777	2555.716286
482.918912	2554.660164
483.287988	2560.523026
483.657005	2561.634601
484.025964	2558.806513
484.394864	2559.144271
484.763706	2557.228632
485.132489	2559.280382
485.501213	2560.374312
485.869879	2562.418500
486.238487	2560.507903
486.607036	2559.686195
486.975527	2560.502862
487.343959	2561.475804
487.712333	2561.183417
488.080648	2561.440516
488.448905	2561.097718
488.817104	2561.069991
489.185244	2560.056719
489.553326	2559.655948
489.921350	2561.019580
490.289315	2564.455126
490.657222	2562.128634
491.025070	2563.973696
491.392861	2562.234498
491.760593	2560.220557
492.128267	2561.795917
492.495883	2562.602502
492.863440	2562.403377
493.230939	2562.231977
493.598380	2561.697615
493.965763	2560.318859
494.333088	2563.343552
494.700354	2557.904147
495.067563	2560.739796
495.434713	2560.039075
495.801805	2561.803479
496.168839	2561.158212
496.535815	2562.453788
496.902733	2562.365568
497.269593	2563.293140
497.636395	2559.131668
498.003139	2562.473953
498.369825	2565.617112
498.736453	2559.905485
499.103023	2560.689384
499.469535	2561.604354
499.835989	2562.536967
500.202385	2558.400700
500.568723	2560.402038
500.935003	2557.755433
501.301226	2555.645710
501.667390	2563.066288
502.033497	2564.588717
502.399546	2564.805486
502.765537	2560.197872
503.131470	2562.960424
503.497345	2559.683674
503.863163	2562.920095
504.228923	2562.589899
504.594625	2562.917574
504.960269	2561.448078
505.325856	2561.543860
505.691385	2561.990002
506.056856	2562.703325
506.422270	2560.749878
506.787625	2562.113510
507.152924	2561.838767
507.518164	2562.589899
507.883347	2564.112328
508.248472	2567.016032
508.613540	2564.457647
508.978550	2562.955383
509.343503	2562.940259
509.708398	2563.025959
510.073236	2565.934705
510.438016	2565.029818
510.802738	2562.998233
511.167403	2564.440003
511.532010	2565.780950
511.896561	2565.856567
512.261053	2564.855898
512.625488	2565.828841
512.989866	2563.401525
513.354186	2565.072667
513.718449	2566.451423
514.082655	2563.351113
514.446803	2565.808676
514.810894	2562.920095
515.174927	2568.057031
515.538904	2563.255332
515.902822	2567.714232
516.266684	2565.458316
516.630488	2567.618450
516.994235	2568.268759
517.357925	2565.128120
517.721558	2567.782288
518.085133	2564.495455
518.448651	2566.700960
518.812112	2563.721638
519.175516	2568.283882
519.538863	2563.542677
519.902152	2569.692885
520.265385	2569.786146
520.628560	2570.381002
520.991678	2572.021898
521.354739	2570.454099
521.717743	2569.720611
522.080690	2571.996692
522.443580	2571.895869
522.806413	2573.929975
523.169189	2574.983576
523.531908	2573.249419
523.894569	2573.987948
524.257174	2574.136662
524.619722	2575.447362
524.982213	2575.495253
525.344647	2575.245716
525.707025	2576.032136
526.069345	2575.361662
526.431608	2578.862744
526.793815	2578.562795
527.155964	2582.953640
527.518057	2580.458269
527.880093	2580.473392
528.242072	2582.542786
528.603995	2584.370204
528.965860	2583.344330
529.327669	2581.153948
529.689421	2582.704103
530.051117	2583.188054
530.412755	2584.266861
530.774337	2583.843404
531.135862	2586.784917
531.497331	2587.722572
531.858743	2587.006728
532.220098	2589.277768
532.581396	2589.670978
532.942638	2591.218612
533.303824	2590.341451
533.664953	2591.788262
534.026025	2589.613004
534.387040	2592.541915
534.747999	2593.335897
535.108902	2592.892275
535.469748	2595.294385
535.830537	2597.983840
536.191270	2595.697677
536.551947	2596.128696
536.912567	2593.439240
537.273131	2597.194900
537.633638	2593.161977
537.994089	2600.605240
538.354483	2599.130703
538.714821	2602.364603
539.075103	2601.172370
539.435328	2600.345621
539.795497	2601.121959
540.155609	2601.268152
540.515665	2604.328132
540.875665	2602.725046
541.235609	2603.776126
541.595496	2606.634460
541.955328	2601.706732
542.315102	2606.707557
542.674821	2604.975921
543.034483	2607.534306
543.394090	2608.262753
543.753640	2608.716457
544.113134	2610.075048
544.472571	2611.945316
544.831953	2612.010851
545.191278	2610.934565
545.550548	2610.725357
545.909761	2612.993876
546.268918	2614.115533
546.628019	2610.044801
546.987064	2613.538321
547.346053	2613.298866
547.704986	2613.099740
548.063863	2616.333640
548.422684	2614.947323
548.781449	2615.769031
549.140158	2612.666201
549.498811	2615.973198
549.857408	2617.019237
550.215949	2618.559310
550.574434	2618.516460
550.932864	2617.397324
551.291237	2618.498816
551.649555	2618.430760
552.007817	2621.082407
552.366022	2619.113837
552.724173	2616.174844
553.082267	2619.960751
553.440305	2619.670884
553.798288	2619.171810
554.156215	2623.587861
554.514086	2617.921604
554.871902	2616.474793
555.229661	2616.994032
555.587365	2617.004114
555.945014	2622.062912
556.302606	2620.865638
556.660143	2622.476286
557.017625	2622.244393
557.375050	2622.178858
557.732421	2620.638786
558.089735	2621.047119
558.446994	2618.150976
558.804197	2622.277161
559.161345	2622.100720
559.518437	2620.205247
559.875474	2621.440329
560.232455	2624.031482
560.589381	2624.240690
560.946251	2621.785648
561.303065	2622.118364
561.659825	2623.731534
562.016528	2624.618777
562.373177	2622.297325
562.729770	2620.563168
563.086307	2622.927470
563.442789	2625.483335
563.799216	2623.570217
564.155587	2625.130454
564.511904	2628.238325
564.868164	2623.965947
565.224370	2626.604991
565.580520	2622.158694
565.936615	2627.300671
566.292654	2624.601133
566.648638	2623.875207
567.004567	2622.766153
567.360441	2624.865793
567.716260	2622.559465
568.072023	2623.471914
568.427732	2624.079373
568.783385	2623.187089
569.138982	2622.945114
569.494525	2625.755557
569.850013	2621.233642
570.205445	2622.929990
570.560823	2622.304887
570.916145	2621.478138
571.271412	2622.579630
571.626625	2622.446039
571.981782	2623.542490
572.336884	2621.110134
572.691931	2622.032665
573.046923	2619.552417
573.401860	2616.852879
573.756743	2624.704476
574.111570	2623.161883
574.466342	2623.534929
574.821059	2623.766822
575.175722	2623.615587
575.530330	2626.516771
575.884882	2623.174486
576.239380	2622.786317
576.593823	2623.020731
576.948211	2622.345216
577.302544	2623.333282
577.656823	2622.980402
578.011047	2623.139198
578.365216	2623.958386
578.719330	2623.902933
579.073389	2623.252624
579.427394	2624.686832
579.781344	2623.539970
580.135239	2622.446039
580.489080	2623.970988
580.842866	2623.963427
581.196597	2630.441309
581.550273	2625.841257
581.903895	2622.902264
582.257463	2628.656741
582.610975	2626.920063
582.964434	2626.995681
583.317837	2626.272275
583.671186	2629.765795
584.024481	2629.670013
584.377721	2627.754374
584.730906	2627.023407
585.084037	2628.566000
585.437113	2633.161012
585.790135	2631.832668
586.143103	2633.115642
586.496016	2631.900723
586.848874	2631.646145
587.201679	2632.951804
587.554428	2633.211423
587.907124	2635.348873
588.259765	2635.172432
588.612352	2638.131590
588.964884	2637.294758
589.317362	2640.485808
589.669786	2637.312402
590.022155	2639.946405
590.374470	2636.347021
590.726731	2641.675521
591.078937	2638.454223
591.431090	2642.167033
591.783188	2641.315078
592.135232	2643.792805
592.487222	2646.252888
592.839157	2645.713485
593.191038	2648.317241
593.542866	2646.525111
593.894639	2647.097282
594.246358	2650.447128
594.598022	2650.800009
594.949633	2652.284629
595.301190	2650.341264
595.652692	2655.193375
596.004141	2653.766728
596.355535	2654.258241
596.706876	2655.619352
597.058162	2655.800834
597.409395	2657.340906
597.760573	2660.443737
598.111698	2659.783345
598.462768	2661.595640
598.813785	2662.097235
599.164748	2662.956752
599.515657	2663.501196
599.866511	2665.928512
600.217312	2665.734428
600.568060	2667.100580
600.918753	2674.470747
601.269392	2672.199707
601.619978	2674.228772
601.970510	2674.460665
602.320988	2677.064421
602.671412	2679.907632
603.021783	2681.823270
603.372100	2682.657581
603.722363	2683.743950
604.072572	2688.991791
604.422728	2690.325176
604.772830	2693.475897
605.122878	2691.948427
605.472872	2693.332224
605.822813	2697.939839
606.172701	2700.087370
606.522534	2707.039122
606.872314	2708.458206
607.222041	2707.150027
607.571714	2710.184802
607.921333	2712.433156
608.270899	2715.725030
608.620411	2719.301728
608.969870	2725.381360
609.319276	2729.694067
609.668627	2739.095819
610.017926	2745.341808
610.367171	2751.005545
610.716362	2757.417892
611.065500	2756.530649
611.414585	2761.932246
611.763616	2764.064654
612.112594	2766.474325
612.461518	2767.258225
612.810389	2773.226951
613.159207	2776.876746
613.507971	2777.128804
613.856682	2788.768828
614.205340	2793.222688
614.553945	2802.984882
614.902496	2802.059830
615.250994	2813.800678
615.599439	2816.590956
615.947830	2823.409117
616.296169	2827.757112
616.644454	2835.374296
616.992686	2839.117352
617.340864	2854.656709
617.688990	2861.820189
618.037063	2875.320399
618.385082	2881.475648
618.733048	2896.614233
619.080961	2901.115983
619.428821	2914.772469
619.776628	2924.068356
620.124382	2929.376691
620.472083	2936.736776
620.819731	2951.159517
621.167326	2944.164916
621.514868	2951.247737
621.862357	2951.643468
622.209793	2955.547842
622.557176	2958.464149
622.904506	2957.337451
623.251783	2960.518419
623.599007	2967.142495
623.946179	2971.838330
624.293297	2978.550627
624.640363	2980.970380
624.987376	2980.693117
625.334336	2983.395175
625.681243	2991.256855
626.028097	2992.348265
626.374899	3012.815349
626.721647	3013.899197
627.068343	3018.859693
627.414987	3028.100128
627.761577	3043.727705
628.108115	3054.198181
628.454600	3052.469065
628.801032	3062.846281
629.147412	3074.592169
629.493739	3089.072883
629.840014	3098.676282
630.186236	3111.952160
630.532405	3119.498768
630.878521	3140.961480
631.224585	3150.224600
631.570597	3162.494769
631.916556	3173.920544
632.262462	3184.814477
632.608316	3204.608568
632.954117	3213.599466
633.299866	3231.114955
633.645562	3239.999988
633.991206	3237.539905
634.336797	3236.866911
634.682336	3253.101947
635.027823	3253.958943
635.373257	3264.137033
635.718639	3261.273658
636.063968	3270.211623
636.409245	3267.370933
636.754470	3278.244702
637.099642	3287.749798
637.444762	3283.290897
637.789829	3302.792601
638.134845	3302.875780
638.479808	3318.006803
638.824719	3327.917712
639.169577	3330.161025
639.514383	3344.694672
639.859137	3353.957792
640.203839	3370.656614
640.548489	3365.928012
640.893086	3389.482803
641.237632	3382.873850
641.582125	3418.708892
641.926566	3421.703338
642.270955	3432.234308
642.615292	3442.785443
642.959576	3461.036941
643.303809	3485.650374
643.647990	3489.370746
643.992118	3521.818132
644.336195	3510.314219
644.680219	3543.079199
645.024192	3566.006367
645.368112	3603.726800
645.711981	3633.303250
646.055797	3664.069412
646.399562	3690.502702
646.743274	3733.082808
647.086935	3802.209630
647.430544	3823.536231
647.774101	3844.373841
648.117606	3899.483735
648.461059	3895.682705
648.804460	3929.607149
649.147810	3913.755241
649.491108	3905.071854
649.834354	3929.949948
650.177548	3906.531268
650.520690	3904.683685
650.863781	3907.620157
651.206820	3926.337961
651.549807	3928.177982
651.892742	3921.203546
652.235626	3929.322324
652.578458	3949.796971
652.921238	3927.688990
653.263967	3968.131647
653.606644	3966.745330
653.949269	3975.078357
654.291843	3983.575222
654.634365	4013.718801
654.976836	4019.460676
655.319255	4036.842574
655.661622	4059.061460
656.003938	4061.337541
656.346203	4072.942277
656.688416	4097.409517
657.030577	4110.942494
657.372687	4122.680821
657.714746	4130.287922
658.056753	4174.745858
658.398708	4179.567722
658.740612	4194.043395
659.082465	4236.487390
659.424266	4233.271134
659.766016	4265.683232
660.107715	4274.351496
660.449362	4295.811688
660.790958	4327.923838
661.132503	4338.704346
661.473996	4366.377760
661.815438	4396.115526
662.156829	4413.010953
662.498168	4433.387297
662.839456	4449.455975
663.180693	4470.235611
663.521879	4520.412736
663.863013	4533.101320
664.204097	4559.274991
664.545129	4600.859469
664.886110	4605.832567
665.227040	4655.545906
665.567918	4679.493907
665.908746	4716.097726
666.249522	4720.294486
666.590248	4755.368314
666.930922	4806.296571
667.271545	4825.619313
667.612118	4866.130026
667.952639	4873.787538
668.293109	4888.222883
668.633528	4904.999843
668.973896	4910.789608
669.314213	4984.077902
669.654480	4917.816976
669.994695	4941.225574
670.334859	4983.735104
670.674973	4990.326413
671.015035	5029.130694
671.355047	5032.929204
671.695008	5045.920257
672.034918	5066.707455
672.374777	5101.584678
672.714585	5107.530719
673.054342	5142.821316
673.394049	5154.226927
673.733705	5193.689079
674.073310	5200.504719
674.412864	5239.666923
674.752368	5220.876022
675.091820	5226.761569
675.431223	5272.562972
675.770574	5242.837809
676.109875	5245.938118
676.449125	5252.010188
676.788324	5251.337194
677.127473	5235.099638
677.466571	5249.154374
677.805619	5251.440538
678.144616	5252.295013
678.483562	5270.861583
678.822458	5240.322273
679.161303	5255.745683
679.500098	5283.527482
679.838842	5283.875322
680.177535	5312.688036
680.516179	5339.421275
680.854771	5349.619529
681.193314	5451.604592
681.531805	5489.178832
681.870247	5670.463766
682.208638	5813.498945
682.546978	5952.390295
682.885268	6011.553276
683.223508	5913.175159
683.561697	5891.536006
683.899836	5882.945880
684.237925	5827.951933
684.575963	5838.089693
684.913951	5850.891703
685.251889	5819.510521
685.589776	5918.672537
685.927614	5914.861425
686.265401	5899.296863
686.603137	5958.101922
686.940824	6036.350712
687.278460	6091.274083
687.616046	6146.953627
687.953582	6228.217027
688.291068	6198.927924
688.628504	6308.351209
688.965889	6332.510939
689.303224	6364.733994
689.640510	6351.314443
689.977745	6246.019862
690.314930	6189.432910
690.652065	6193.266708
690.989150	6086.883238
691.326185	6020.541654
691.663170	5965.668694
692.000105	5883.434872
692.336990	5886.603237
692.673825	5787.968021
693.010610	5761.297797
693.347345	5692.624678
693.684030	5620.851250
694.020665	5621.201611
694.357251	5560.506118
694.693786	5585.074182
695.030272	5495.850800
695.366707	5474.935052
695.703093	5462.730419
696.039429	5475.691225
696.375716	5486.028111
696.711952	5417.533954
697.048139	5456.113904
697.384276	5459.670438
697.720363	5475.035875
698.056400	5456.814625
698.392388	5463.756294
698.728326	5453.164829
699.064214	5437.711172
699.400053	5491.623792
699.735842	5408.613632
700.071581	5411.391308
700.407270	5397.966715
700.742910	5370.497468
701.078501	5362.585377
701.414042	5312.314991
701.749533	5295.429646
702.084974	5237.889916
702.420366	5299.823012
702.755709	5276.159836
703.091002	5227.666456
703.426246	5248.103294
703.761440	5235.124843
704.096584	5226.786775
704.431679	5206.854053
704.766725	5218.821752
705.101721	5207.227098
705.436668	5243.742696
705.771565	5205.160225
706.106413	5251.851392
706.441212	5300.332168
706.775961	5279.625629
707.110661	5300.821160
707.445311	5403.849742
707.779913	5354.650601
708.114465	5436.728147
708.448967	5471.121419
708.783421	5530.743146
709.117825	5640.985619
709.452180	5670.120967
709.786485	5716.471857
710.120742	5875.789962
710.454949	5879.442278
710.789107	5927.355925
711.123216	6034.407347
711.457275	6142.819881
711.791286	6238.168265
712.125247	6221.877777
712.459159	6261.818838
712.793023	6390.088477
713.126837	6176.361198
713.460602	6273.146311
713.794318	6173.923801
714.127985	6235.511577
714.461602	6109.515498
714.795171	6083.621612
715.128691	5988.454709
715.462162	5857.112487
715.795584	5861.493250
716.128957	5796.374145
716.462281	5691.089647
716.795556	5773.436895
717.128782	5667.877654
717.461960	5506.560731
717.795088	5564.347477
718.128167	5530.294483
718.461198	5446.984375
718.794180	5433.292601
719.127113	5454.306651
719.459997	5368.082755
719.792833	5226.368359
720.125619	5286.244664
720.458357	5204.729206
720.791046	5207.839598
721.123686	5245.461729
721.456278	5149.838602
721.788821	5163.779913
722.121315	5101.138536
722.453761	5150.642667
722.786158	5138.359895
723.118506	5150.546885
723.450805	5147.297861
723.783056	5198.208474
724.115259	5123.024705
724.447412	5131.766066
724.779518	5168.722765
725.111574	5175.442623
725.443582	5243.117593
725.775542	5225.725612
726.107453	5350.085836
726.439315	5304.309639
726.771129	5328.431560
727.102895	5433.763949
727.434612	5519.241753
727.766281	5522.901631
728.097901	5581.089149
728.429473	5571.851235
728.760996	5567.190688
729.092471	5572.935083
729.423897	5569.875103
729.755276	5601.415082
730.086606	5559.306324
730.417887	5621.925016
730.749120	5730.786213
731.080305	5884.916971
731.411442	5969.010979
731.742530	5964.042922
732.073570	6068.364560
732.404562	6145.232073
732.735506	6014.446899
733.066401	6131.457121
733.397249	6103.851762
733.728048	5973.447194
734.058798	5775.904540
734.389501	5661.195605
734.720156	5557.395726
735.050762	5399.799175
735.381320	5337.243497
735.711831	5325.142207
736.042293	5251.700157
736.372707	5286.514366
736.703073	5185.396381
737.033391	5217.664807
737.363661	5230.083689
737.693883	5241.297736
738.024056	5300.566582
738.354182	5344.674157
738.684260	5363.467579
739.014290	5432.788486
739.344272	5507.173231
739.674207	5515.760837
740.004093	5563.132559
740.333931	5580.237194
740.663722	5592.880408
740.993464	5664.109392
741.323159	5687.550757
741.652806	5491.114636
741.982405	5493.118494
742.311956	5592.988793
742.641460	5497.753835
742.970915	5344.628787
743.300323	5369.569896
743.629683	5337.140153
743.958996	5250.664200
744.288260	5199.680491
744.617477	5170.030944
744.946647	5202.223753
745.275768	5080.792439
745.604842	5055.647163
745.933869	5045.506883
746.262847	5010.208723
746.591778	5014.559239
746.920662	4995.012165
747.249498	4984.884487
747.578286	5026.416033
747.907027	5087.628243
748.235720	5131.897136
748.564365	5096.069656
748.892963	5109.688333
749.221514	5260.156693
749.550017	5150.325074
749.878473	5037.902302
750.206881	5093.649902
750.535242	5053.918048
750.863555	5010.773333
751.191821	5038.323238
751.520039	5042.552766
751.848210	4978.764526
752.176334	4990.782637
752.504411	5047.770361
752.832440	4987.284076
753.160421	4916.483591
753.488356	4967.500068
753.816243	5017.820866
754.144082	4895.129263
754.471875	4862.467627
754.799620	4907.870780
755.127318	4921.663377
755.454969	4880.721646
755.782572	4854.933623
756.110129	4900.238473
756.437638	4910.777005
756.765100	4855.863716
757.092515	4847.250905
757.419882	4887.295310
757.747203	4877.805338
758.074477	4938.589051
758.401703	4935.370274
758.728882	4879.234505
759.056014	4915.631636
759.383099	5041.877252
759.710138	5044.334814
760.037129	5023.227503
760.364073	5026.970560
760.690970	5108.765802
761.017820	5111.596409
761.344623	5057.577925
761.671379	5137.243280
761.998088	5241.501903
762.324751	5421.738276
762.651366	5864.066759
762.977935	6814.162942
763.304456	8024.201182
763.630931	8744.440914
763.957359	8536.021970
764.283740	7891.588589
764.610074	7312.455794
764.936362	6542.613628
765.262602	6060.936419
765.588796	5625.794102
765.914943	5343.116441
766.241044	5236.937138
766.567097	5089.667390
766.893104	4874.334504
767.219064	4725.282708
767.544978	4688.222665
767.870845	4639.651148
768.196665	4543.574318
768.522438	4480.015450
768.848165	4471.478256
769.173846	4427.141308
769.499479	4392.586719
769.825066	4350.475440
770.150607	4298.357471
770.476101	4282.200573
770.801548	4286.205770
771.126949	4236.472266
771.452303	4192.405020
771.777611	4157.484947
772.102872	4171.126310
772.428087	4137.655569
772.753256	4116.618834
773.078378	4091.239145
773.403453	4029.215308
773.728482	4020.678114
774.053465	3985.001868
774.378401	3974.110456
774.703291	3983.890294
775.028135	3926.491716
775.352932	3882.414388
775.677683	3873.191597
776.002388	3898.924167
776.327046	3910.420518
776.651658	3841.545753
776.976224	3783.829583
777.300743	3792.018937
777.625216	3813.955518
777.949643	3818.674038
778.274024	3776.736680
778.598359	3734.539701
778.922647	3749.595107
779.246889	3752.435797
779.571086	3753.272629
779.895236	3741.320053
780.219339	3721.415057
780.543397	3712.472050
780.867409	3754.931169
781.191374	3771.272069
781.515294	3723.260120
781.839167	3721.200808
782.162995	3735.109352
782.486776	3725.274061
782.810511	3735.752099
783.134201	3744.254005
783.457844	3706.803273
783.781441	3653.377124
784.104993	3661.994977
784.428498	3682.572967
784.751958	3684.972556
785.075372	3666.708456
785.398739	3629.240080
785.722061	3642.508397
786.045337	3680.974921
786.368568	3715.932803
786.691752	3637.469763
787.014891	3676.379909
787.337983	3776.406484
787.661030	3903.085639
787.984031	4039.093449
788.306987	4194.320658
788.629897	4265.446298
788.952760	4229.906163
789.275579	4181.266591
789.598351	4143.528513
789.921078	4037.548336
790.243759	3855.494626
790.566395	3829.880523
790.888984	3835.216585
791.211529	3740.054724
791.534027	3691.175696
791.856480	3689.108823
792.178888	3632.821820
792.501249	3581.364242
792.823566	3589.525870
793.145836	3623.354533
793.468062	3580.212338
793.790241	3534.380688
794.112375	3565.963517
794.434464	3619.649285
794.756507	3639.725680
795.078505	3631.745533
795.400457	3647.932678
795.722364	3762.749998
796.044226	3851.507073
796.366042	3911.746341
796.687812	3910.980086
797.009538	3921.722785
797.331218	3877.824417
797.652852	3854.554451
797.974442	3846.102957
798.295986	3850.647557
798.617484	3785.082310
798.938938	3701.084084
799.260346	3735.835278
799.581709	3736.982140
799.903026	3671.961338
800.224299	3639.385402
800.545526	3638.379692
800.866708	3604.102366
801.187845	3545.496432
801.508936	3581.281063
801.829983	3585.873554
802.150984	3510.876308
802.471940	3491.314111
802.792851	3508.028056
803.113717	3505.192407
803.434538	3511.768592
803.755314	3463.645738
804.076045	3433.376129
804.396731	3449.717030
804.717372	3474.862305
805.037967	3467.877786
805.358518	3455.665591
805.679024	3475.784836
805.999485	3484.712720
806.319901	3490.479800
806.640272	3505.167201
806.960598	3520.474665
807.280879	3494.192609
807.601115	3503.972448
807.921306	3520.313348
808.241453	3557.479255
808.561554	3538.842109
808.881611	3481.879591
809.201623	3504.723580
809.521590	3524.409286
809.841513	3499.800893
810.161390	3529.773073
810.481223	3514.871423
810.801011	3457.908905
811.120755	3445.779888
811.440453	3483.709530
811.760107	3493.494410
812.079716	3458.276909
812.399281	3421.723502
812.718801	3441.126903
813.038276	3422.169644
813.357707	3419.550765
813.677093	3438.704629
813.996434	3389.913822
814.315731	3396.011097
814.634983	3398.317425
814.954191	3409.342428
815.273354	3440.098508
815.592473	3441.570525
815.911547	3441.918365
816.230577	3475.951194
816.549562	3521.830735
816.868502	3567.801017
817.187399	3592.658947
817.506250	3588.152155
817.825058	3556.670150
818.143821	3641.948829
818.462539	3739.570773
818.781213	3786.042650
819.099843	3832.113755
819.418429	4040.469684
819.736970	4256.720061
820.055466	4476.617712
820.373919	4825.437832
820.692327	5209.122572
821.010691	5578.835754
821.329011	6744.426140
821.647286	9055.185199
821.965517	12827.901558
822.283704	16211.193824
822.601847	18345.414196
822.919945	17039.553704
823.237999	15032.952662
823.556010	12872.969474
823.873976	11062.464276
824.191897	9164.560593
824.509775	7899.251143
824.827609	6855.868408
825.145398	6336.208625
825.463144	6225.096553
825.780845	6342.931004
826.098502	6470.560416
826.416116	7186.736979
826.733685	8358.550670
827.051210	9416.434284
827.368692	9582.139531
827.686129	8512.373918
828.003522	7108.551203
828.320872	6161.744373
828.638177	5512.874776
828.955439	5003.922404
829.272656	4538.591137
829.589830	4259.792644
829.906960	4094.641923
830.224046	3928.603960
830.541088	3802.128972
830.858086	3764.935338
831.175041	3697.141902
831.491952	3671.472346
831.808819	3682.769572
832.125642	3745.524376
832.442421	3878.620919
832.759157	4123.956233
833.075849	4606.046817
833.392497	5385.121855
833.709101	6095.233910
834.025662	6453.055010
834.342179	6178.849008
834.658653	5567.815791
834.975083	4973.927539
835.291469	4429.220784
835.607811	4038.153274
835.924110	3904.648397
836.240366	3725.546283
836.556578	3525.271323
836.872746	3422.436826
837.188871	3392.567989
837.504952	3333.329390
837.820990	3252.134046
838.136984	3201.906509
838.452935	3225.723441
838.768842	3224.690004
839.084706	3242.593662
839.400526	3374.813045
839.716303	3671.185000
840.032037	4137.973161
840.347727	4419.894649
840.663373	4200.410372
840.978977	3849.288966
841.294537	3558.825243
841.610054	3339.207376
841.925527	3234.356417
842.240957	3171.026922
842.556344	3119.339971
842.871687	3065.455078
843.186987	3019.257944
843.502244	2982.170175
843.817458	2951.681277
844.132629	2917.719023
844.447756	2927.876948
844.762840	2916.809095
845.077881	2889.695249
845.392879	2868.827392
845.707833	2866.208513
846.022745	2860.391022
846.337613	2866.604244
846.652438	2854.896164
846.967221	2851.332068
847.281960	2837.771364
847.596656	2834.403873
847.911309	2832.420179
848.225919	2827.946155
848.540485	2821.072542
848.855009	2824.969354
849.169490	2813.682211
849.483928	2804.048566
849.798323	2803.393216
850.112675	2798.924233
850.426984	2810.090388
850.741251	2809.525779
851.055474	2803.834317
851.369654	2794.246042
851.683792	2799.682926
851.997887	2803.461271
852.311938	2805.878504
852.625947	2796.643111
852.939914	2799.246867
853.253837	2812.157262
853.567718	2790.434930
853.881555	2788.247069
854.195350	2804.512352
854.509103	2800.819707
854.822812	2794.833336
855.136479	2792.768984
855.450103	2791.486010
855.763685	2784.415792
856.077224	2780.939916
856.390720	2794.104890
856.704173	2806.007054
857.017584	2799.128399
857.330953	2793.653706
857.644278	2801.144861
857.957561	2811.340595
858.270802	2813.820842
858.584000	2814.912252
858.897155	2800.814665
859.210268	2804.466981
859.523339	2798.082360
859.836367	2799.801393
860.149352	2792.529529
860.462295	2789.252779
860.775195	2797.694191
861.088054	2800.227371
861.400869	2783.064763
861.713642	2778.293311
862.026373	2790.865948
862.339062	2795.024900
862.651708	2799.088070
862.964312	2803.176446
863.276873	2799.677885
863.589392	2804.640901
863.901869	2815.197077
864.214303	2834.376147
864.526696	2851.339630
864.839045	2847.276460
865.151353	2845.426356
865.463619	2844.360152
865.775842	2846.265708
866.088023	2858.966896
866.400162	2869.225644
866.712258	2847.183198
867.024313	2834.171980
867.336325	2840.072651
867.648296	2860.234746
867.960224	2853.091431
868.272110	2839.563494
868.583954	2844.609689
868.895755	2861.217771
869.207515	2848.108250
869.519233	2847.833507
869.830909	2857.759539
870.142542	2868.522403
870.454134	2870.450644
870.765684	2870.642208
871.077191	2872.318392
871.388657	2878.178733
871.700081	2893.014849
872.011463	2903.608833
872.322803	2902.199831
872.634101	2900.722773
872.945357	2916.050401
873.256571	2939.529575
873.567744	2936.673762
873.878874	2923.039961
874.189963	2948.485185
874.501010	2954.201853
874.812015	2943.257508
875.122979	2944.285904
875.433900	2936.489759
875.744780	2939.143927
876.055618	2948.984259
876.366415	2945.831018
876.677169	2959.938687
876.987882	2957.743264
877.298554	2946.375462
877.609183	2965.678040
877.919771	2986.480362
878.230317	3010.143538
878.540822	3061.896023
878.851285	3099.876076
879.161707	3131.705922
879.472087	3220.757904
879.782425	3415.875764
880.092722	3808.682472
880.402977	4299.335455
880.713191	4864.050550
881.023363	5877.342638
881.333494	7037.097888
881.643583	7569.153868
881.953631	7327.196128
882.263637	6813.742006
882.573602	6308.898174
882.883526	5772.595022
883.193408	5223.462134
883.503248	4778.403867
883.813048	4502.100745
884.122806	4237.694746
884.432522	3945.471661
884.742197	3726.418403
885.051831	3540.767830
885.361424	3407.535175
885.670975	3340.838189
885.980485	3266.990326
886.289954	3194.982485
886.599382	3153.498830
886.908768	3118.135135
887.218113	3074.204000
887.527417	3023.878161
887.836680	2975.815801
888.145901	2972.332363
888.455082	2964.687453
888.764221	2924.239756
889.073319	2890.156514
889.382376	2887.721637
889.691392	2893.148439
890.000366	2891.583161
890.309300	2880.969012
890.618193	2891.366391
890.927044	2910.253074
891.235855	2911.052097
891.544625	2894.418810
891.853353	2902.769481
892.162041	2917.552665
892.470687	2956.241000
892.779293	3001.666838
893.087858	3046.190308
893.396381	3109.388733
893.704864	3217.763459
894.013306	3428.264399
894.321707	3709.485167
894.630068	3911.156526
894.938387	3920.858227
895.246665	3874.310733
895.554903	3768.060854
895.863100	3579.556988
896.171256	3422.330961
896.479371	3298.570634
896.787446	3182.762728
897.095480	3086.822008
897.403473	3023.565610
897.711425	2986.805516
898.019336	2982.742346
898.327207	2955.333593
898.635038	2928.171856
898.942827	2909.433887
899.250576	2900.369892
899.558284	2866.702546
899.865952	2850.603621
900.173579	2830.403718
900.481165	2828.765343
900.788711	2817.778148
901.096216	2790.024076
901.403681	2779.044442
901.711105	2786.429733
902.018489	2784.642644
902.325832	2783.339506
902.633135	2792.910136
902.940397	2821.947182
903.247619	2889.501164
903.554800	3059.728327
903.861941	3360.513812
904.169041	3758.296139
904.476101	4056.956778
904.783121	4039.668141
905.090100	3817.136487
905.397039	3563.596695
905.703938	3324.106599
906.010796	3148.029178
906.317614	3044.526728
906.624391	2955.356278
906.931129	2893.420662
907.237826	2832.757937
907.544483	2789.378808
907.851099	2760.319077
908.157675	2741.298803
908.464211	2725.094014
908.770707	2711.719833
909.077163	2699.774819
909.383578	2685.026923
909.689954	2675.597445
909.996289	2673.404543
910.302584	2675.395799
910.608839	2676.928310
910.915054	2672.192146
911.221229	2665.215189
911.527363	2662.429951
911.833458	2672.406395
912.139513	2675.741118
912.445527	2679.232117
912.751502	2686.188909
913.057436	2694.242152
913.363331	2707.281097
913.669186	2728.484190
913.975000	2754.546955
914.280775	2807.758855
914.586510	2872.348638
914.892205	2943.204576
915.197859	3057.394273
915.503475	3225.383163
915.809050	3419.092020
916.114585	3558.737023
916.420081	3588.910849
916.725536	3543.174981
917.030952	3433.088784
917.336328	3318.263902
917.641665	3194.773277
917.946961	3100.438165
918.252218	3035.974410
918.557435	2967.336580
918.862612	2910.500091
919.167750	2865.195241
919.472848	2829.332473
919.777906	2804.434214
920.082925	2783.790689
920.387904	2757.102820
920.692843	2740.671179
920.997743	2727.286916
921.302603	2715.493137
921.607423	2705.211703
921.912204	2696.142667
922.216946	2685.354598
922.521647	2676.648526
922.826310	2669.895900
923.130932	2662.092194
923.435516	2654.621204
923.740059	2648.347488
924.044564	2641.743576
924.349028	2636.273924
924.653454	2627.459467
924.957840	2623.018210
925.262186	2619.186933
925.566493	2614.581839
925.870761	2611.090840
926.174989	2611.733587
926.479178	2604.991044
926.783328	2600.227154
927.087438	2599.153388
927.391509	2597.406628
927.695541	2592.955289
927.999533	2592.055443
928.303486	2588.118302
928.607400	2586.041347
928.911275	2585.363312
929.215110	2584.922211
929.518906	2585.685946
929.822663	2587.258786
930.126381	2584.218970
930.430060	2585.131419
930.733699	2585.534711
931.037299	2587.556214
931.340861	2589.139136
931.644383	2590.812799
931.947866	2585.297777
932.251309	2582.988928
932.554714	2585.340627
932.858080	2582.716706
933.161407	2582.489854
933.464694	2580.763259
933.767943	2577.534400
934.071153	2579.444997
934.374323	2578.850141
934.677455	2579.260995
934.980548	2578.925758
935.283602	2579.112281
935.586617	2577.635223
935.889593	2578.025912
936.192530	2578.507342
936.495428	2579.548341
936.798287	2580.160841
937.101108	2582.199988
937.403890	2586.328693
937.706632	2588.698035
938.009336	2594.883531
938.312002	2604.587752
938.614628	2613.934051
938.917216	2618.818929
939.219765	2620.419496
939.522275	2620.835391
939.824747	2617.064608
940.127179	2615.340533
940.429573	2613.238372
940.731929	2609.810387
941.034246	2604.630602
941.336524	2602.982144
941.638763	2601.038780
941.940964	2599.148347
942.243126	2596.479056
942.545250	2598.061978
942.847335	2594.071905
943.149381	2592.057964
943.451389	2587.848601
943.753359	2582.157138
944.055290	2584.549165
944.357182	2585.514546
944.659036	2583.455235
944.960851	2580.193608
945.262628	2577.279822
945.564367	2580.571695
945.866067	2580.740574
946.167729	2580.183526
946.469352	2579.608835
946.770937	2581.743763
947.072484	2577.451221
947.373992	2579.230748
947.675462	2573.929975
947.976893	2574.862588
948.278286	2570.101218
948.579641	2570.628019
948.880958	2570.247412
949.182236	2571.847978
949.483476	2572.389902
949.784678	2569.763461
950.085841	2569.798749
950.386967	2572.089954
950.688054	2573.567012
950.989103	2574.461817
951.290114	2575.507856
951.591087	2577.073134
951.892021	2577.065573
952.192917	2582.270564
952.493776	2583.488002
952.794596	2582.905749
953.095378	2583.424988
953.396122	2583.677046
953.696828	2583.374577
953.997496	2581.242168
954.298126	2581.710996
954.598718	2576.909297
954.899272	2575.611200
955.199788	2574.275294
955.500266	2568.979562
955.800706	2568.379664
956.101108	2564.210630
956.401472	2565.080229
956.701798	2562.562173
957.002087	2558.756102
957.302337	2559.078736
957.602550	2561.521175
957.902724	2555.270144
958.202861	2554.904660
958.502960	2554.773590
958.803022	2556.729558
959.103045	2554.093034
959.403031	2555.318035
959.702979	2552.255534
960.002889	2551.451470
960.302762	2550.506253
960.602596	2553.485575
960.902393	2554.398024
961.202153	2549.127498
961.501875	2549.543393
961.801559	2551.736295
962.101205	2548.751932
962.400814	2552.101779
962.700385	2549.550955
962.999918	2546.415357
963.299414	2546.251520
963.598873	2545.807898
963.898293	2546.017106
964.197677	2548.875440
964.497022	2546.430481
964.796331	2549.432488
965.095601	2548.003321
965.394835	2549.848383
965.694030	2545.828063
965.993189	2547.496685
966.292309	2547.509287
966.591393	2550.002138
966.890439	2546.561551
967.189447	2545.651622
967.488419	2548.880481
967.787353	2546.954761
968.086249	2547.113557
968.385108	2546.160779
968.683930	2547.030378
968.982714	2548.199926
969.281462	2548.371325
969.580172	2548.270502
969.878844	2549.354350
970.177480	2549.792930
970.476078	2550.405430
970.774639	2549.898794
971.073162	2550.312169
971.371649	2547.151366
971.670098	2550.163455
971.968510	2547.436191
972.266885	2548.247817
972.565223	2547.942827
972.863524	2550.803682
973.161788	2547.688248
973.460014	2548.194884
973.758204	2548.336037
974.056356	2548.714123
974.354471	2546.271684
974.652550	2549.830739
974.950591	2548.512477
975.248595	2548.283105
975.546563	2549.177909
975.844493	2550.322251
976.142386	2548.121788
976.440243	2546.553989
976.738062	2547.930224
977.035845	2547.902498
977.333590	2547.526932
977.631299	2548.479710
977.928971	2547.458876
978.226606	2542.205994
978.524204	2545.381921
978.821765	2541.283463
979.119290	2546.874102
979.416777	2546.059956
979.714228	2547.315203
980.011642	2545.646581
980.309020	2546.879143
980.606360	2547.922662
980.903664	2547.136242
981.200931	2547.589946
981.498162	2550.496171
981.795356	2547.733619
982.092513	2551.713610
982.389633	2551.307797
982.686717	2553.697304
982.983764	2557.445402
983.280775	2561.261555
983.577749	2565.102914
983.874686	2565.488563
984.171587	2563.759447
984.468451	2555.406255
984.765279	2556.638817
985.062070	2554.375339
985.358824	2554.161090
985.655543	2553.883827
985.952224	2551.910215
986.248869	2550.050029
986.545478	2546.435522
986.842050	2546.329657
987.138586	2545.492826
987.435086	2547.690769
987.731549	2547.305121
988.027975	2544.635830
988.324366	2546.864020
988.620719	2544.255223
988.917037	2546.629606
989.213318	2545.611293
989.509563	2545.853268
989.805772	2548.946016
990.101944	2543.204142
990.398080	2549.414844
990.694180	2544.988711
990.990244	2543.869574
991.286271	2544.842517
991.582262	2545.956612
991.878217	2544.023330
992.174136	2546.869061
992.470019	2546.911911
992.765865	2539.529141
993.061676	2540.497043
993.357450	2540.665921
993.653188	2538.135262
993.948890	2545.349153
994.244556	2544.161961
994.540186	2547.032898
994.835780	2544.325799
995.131337	2545.535676
995.426859	2543.042825
995.722345	2547.206818
996.017795	2548.595656
996.313208	2552.999104
996.608586	2547.731098
996.903928	2549.107333
997.199234	2552.613456
997.494504	2551.514484
997.789738	2548.827549
998.084936	2550.990204
998.380099	2550.559186
998.675225	2548.424257
998.970316	2546.501057
999.265371	2546.294369
999.560390	2544.482075
999.855373	2545.485264
1000.150320	2546.148176
1000.445232	2545.659184
1000.740108	2545.790254
1001.034948	2545.964174
1001.329752	2544.280428
1001.624521	2541.681714
1001.919254	2543.430994
1002.213951	2545.548279
1002.508613	2544.043494
1002.803239	2544.038453
1003.097829	2541.013761
1003.392384	2543.138607
1003.686903	2544.817311
1003.981386	2542.533669
1004.275834	2544.242620
1004.570246	2544.587939
1004.864623	2544.111550
1005.158964	2546.080120
1005.453270	2544.308155
1005.747540	2542.878988
1006.041775	2545.359235
1006.335974	2544.620706
1006.630138	2543.272198
1006.924266	2543.935109
1007.218359	2543.622558
1007.512416	2542.715150
1007.806438	2539.277083
1008.100425	2539.637526
1008.394376	2538.979655
1008.688292	2541.364121
1008.982172	2541.979142
1009.276017	2545.452497
1009.569827	2544.111550
1009.863602	2542.654656
1010.157341	2544.661036
1010.451045	2542.276570
1010.744714	2544.633309
1011.038347	2544.792106
1011.331945	2540.907897
1011.625508	2544.459389
1011.919036	2543.935109
1012.212528	2544.746735
1012.505986	2544.900490
1012.799408	2546.221273
1013.092795	2543.720860
1013.386147	2544.721529
1013.679464	2546.024668
1013.972745	2541.928730
1014.265992	2542.521066
1014.559204	2543.884698
1014.852380	2542.697506
1015.145521	2543.897301
1015.438628	2543.678011
1015.731699	2542.359749
1016.024736	2541.361600
1016.317737	2543.962836
1016.610703	2543.428473
1016.903635	2543.494008
1017.196531	2541.893442
1017.489393	2541.613658
1017.782219	2542.432846
1018.075011	2542.337064
1018.367768	2543.322609
1018.660490	2545.034081
1018.953177	2545.034081
1019.245829	2545.034081
