Dividing Wavelength (nm)	Counts (n)	Blue Motor Position (mm): 46.400000	Red Motor Position (mm): 0.000000	
326.493990	2046.887422
326.888308	2046.887422
327.282561	2046.887422
327.676750	2022.914215
328.070874	2025.586027
328.464933	2030.034845
328.858929	2037.364683
329.252859	2049.453370
329.646726	2061.839485
330.040528	2079.813719
330.434265	2097.702253
330.827938	2116.203288
331.221547	2137.751700
331.615091	2158.647283
332.008571	2179.310972
332.401986	2200.582121
332.795338	2218.195913
333.188625	2239.504870
333.581847	2256.554052
333.975006	2276.796805
334.368100	2293.742644
334.761129	2310.418781
335.154095	2325.753971
335.546996	2378.333206
335.939833	2484.389000
336.332606	2493.805876
336.725315	2510.708864
337.117960	2518.411748
337.510540	2528.292409
337.903056	2536.166691
338.295508	2543.055428
338.687896	2553.311656
339.080220	2554.660164
339.472480	2560.860783
339.864676	2562.927657
340.256807	2566.711043
340.648875	2568.954356
341.040879	2569.488718
341.432818	2569.660118
341.824694	2572.483164
342.216506	2573.584656
342.608253	2572.805797
342.999937	2570.106260
343.391557	2568.427555
343.783113	2569.755899
344.174605	2567.515107
344.566033	2566.017884
344.957397	2564.384550
345.348697	2560.301215
345.739934	2557.861297
346.131106	2556.762325
346.522215	2555.496996
346.913260	2555.665874
347.304241	2551.650595
347.695159	2552.767211
348.086012	2551.620348
348.476802	2546.702703
348.867528	2546.828732
349.258191	2543.637681
349.648789	2541.868236
350.039324	2538.125180
350.429796	2543.030222
350.820203	2542.357228
351.210548	2541.159954
351.600828	2540.063503
351.991045	2540.902855
352.381198	2539.435880
352.771288	2539.874460
353.161314	2539.451003
353.551276	2540.123997
353.941175	2538.624254
354.331010	2538.115097
354.720782	2538.089892
355.110490	2546.861499
355.500135	2542.745397
355.889717	2539.592155
356.279235	2538.858667
356.668689	2537.462268
357.058080	2542.034594
357.447408	2543.080634
357.836672	2542.125335
358.225873	2543.156251
358.615010	2542.942002
359.004084	2544.161961
359.393095	2545.641540
359.782043	2544.300593
360.170927	2547.721016
360.559748	2548.401572
360.948505	2544.739173
361.337199	2548.734288
361.725830	2549.921480
362.114398	2547.146324
362.502903	2549.382076
362.891344	2550.259237
363.279722	2551.517005
363.668037	2550.561706
364.056289	2551.436346
364.444478	2549.871068
364.832603	2553.629248
365.220665	2556.409445
365.608665	2551.779145
365.996601	2554.234187
366.384474	2554.024979
366.772284	2554.733261
367.160031	2556.180072
367.547715	2556.711914
367.935336	2556.061605
368.322893	2556.124619
368.710388	2552.477345
369.097820	2552.560524
369.485189	2550.309648
369.872495	2558.869528
370.259738	2557.929353
370.646918	2555.071018
371.034035	2558.362892
371.421090	2560.276010
371.808081	2560.598643
372.195010	2560.613767
372.581875	2561.150650
372.968678	2561.765671
373.355418	2562.037893
373.742096	2563.807338
374.128710	2563.378840
374.515262	2562.277348
374.901751	2567.308419
375.288177	2568.230950
375.674540	2565.901937
376.060841	2569.481157
376.447079	2567.235322
376.833254	2568.724983
377.219367	2570.302865
377.605417	2571.757237
377.991404	2570.915365
378.377329	2572.944429
378.763191	2576.498443
379.148991	2576.979873
379.534727	2582.041191
379.920402	2584.813826
380.306013	2587.238621
380.691563	2591.810947
381.077049	2596.272369
381.462474	2600.204469
381.847835	2605.079264
382.233134	2610.203597
382.618371	2615.668208
383.003545	2625.228756
383.388657	2631.656227
383.773706	2641.093267
384.158693	2646.323465
384.543618	2657.277892
384.928480	2662.992040
385.313280	2674.725325
385.698017	2682.443332
386.082692	2696.624098
386.467305	2709.088351
386.851856	2721.724003
387.236344	2735.075499
387.620770	2745.210738
388.005133	2756.641555
388.389435	2778.822632
388.773674	2790.969292
389.157851	2811.900163
389.541965	2830.859942
389.926018	2845.539782
390.310008	2868.623226
390.693936	2887.651061
391.077802	2908.244174
391.461606	2936.547733
391.845348	2948.830504
392.229027	2975.457879
392.612645	3005.639267
392.996200	3034.590613
393.379694	3063.322670
393.763125	3098.152002
394.146494	3123.856845
394.529801	3156.480672
394.913047	3195.620191
395.296230	3210.897407
395.679351	3238.596027
396.062410	3280.029271
396.445408	3276.631533
396.828343	3319.554437
397.211217	3353.476362
397.594028	3349.531659
397.976778	3391.368194
398.359466	3429.597785
398.742092	3447.851803
399.124656	3470.771409
399.507158	3530.756098
399.889598	3547.233110
400.271977	3606.234774
400.654294	3610.171915
401.036549	3665.576717
401.418742	3674.199610
401.800874	3740.815938
402.182944	3774.521093
402.564952	3855.482023
402.946898	3857.947148
403.328783	3863.270606
403.710606	3916.779933
404.092367	3977.934171
404.474067	4045.541085
404.855705	4033.525495
405.237282	4018.165099
405.618797	4115.736632
406.000250	4185.453269
406.381642	4261.723406
406.762972	4270.250518
407.144240	4241.644490
407.525447	4304.021207
407.906593	4322.091223
408.287677	4402.883275
408.668700	4430.823871
409.049661	4472.589830
409.430560	4507.787166
409.811399	4499.512112
410.192176	4540.106004
410.572891	4614.954535
410.953545	4713.390626
411.334138	4617.616265
411.714669	4723.036874
412.095139	4647.225482
412.475547	4744.494545
412.855894	4752.434362
413.236180	4845.695709
413.616405	4783.376965
413.996568	4876.744175
414.376670	4885.591400
414.756711	4876.761819
415.136691	4943.806645
415.516609	5020.996793
415.896466	5063.781065
416.276262	5136.439216
416.655997	5246.638839
417.035670	5327.877033
417.415283	5454.059634
417.794834	5512.458881
418.174324	5469.220904
418.553753	5476.084435
418.933121	5622.804697
419.312428	5637.025792
419.691674	5579.622174
420.070859	5781.114572
420.449983	5671.091390
420.829045	5851.113514
421.208047	5785.855778
421.586988	5938.600218
421.965867	6001.176061
422.344686	6071.464869
422.723444	6234.344550
423.102141	5885.625253
423.480777	6245.853504
423.859352	6073.743471
424.237866	6416.857004
424.616319	6403.686990
424.994712	6558.339508
425.373044	6488.146482
425.751314	6767.968329
426.129524	6516.094638
426.507673	6765.858606
426.885762	6797.990920
427.263789	6839.267888
427.641756	6924.347442
428.019662	6983.487738
428.397508	7026.650097
428.775292	7026.927361
429.153016	7168.954308
429.530679	7116.226360
429.908282	7165.485995
430.285824	7109.844259
430.663305	7354.783842
431.040726	7259.679954
431.418086	7262.555933
431.795385	7393.119297
432.172624	7569.105977
432.549802	7448.778676
432.926920	7577.539828
433.303977	7535.355452
433.680974	7586.137516
434.057910	7766.762058
434.434786	7813.042371
434.811601	7771.558716
435.188355	8104.524407
435.565050	8001.642018
435.941683	8007.867843
436.318257	8323.738982
436.694770	8267.333511
437.071222	8475.235737
437.447614	8247.768793
437.823946	8226.694250
438.200218	8360.720886
438.576429	8257.614167
438.952580	8413.378259
439.328670	8426.207995
439.704700	8501.608533
440.080670	8406.660921
440.456580	8651.335844
440.832429	8627.755847
441.208218	8377.868371
441.583947	8499.314808
441.959616	8598.280220
442.335224	8632.832289
442.710773	8720.409734
443.086261	8890.394921
443.461689	8628.988409
443.837057	8772.187425
444.212365	8976.989341
444.587612	8969.180594
444.962800	8867.457671
445.337927	8998.885593
445.712995	8560.897544
446.088002	9195.379687
446.462949	9257.978215
446.837837	9270.434907
447.212664	9323.427516
447.587431	10222.837417
447.962139	11181.957266
448.336786	11930.286308
448.711374	11525.201870
449.085901	10388.025947
449.460369	10365.189520
449.834776	10292.034816
450.209124	11210.346524
450.583412	10975.103600
450.957640	11182.358038
451.331808	10775.042889
451.705917	10296.836515
452.079965	10227.094672
452.453954	10415.717005
452.827883	10375.309636
453.201752	10340.165232
453.575562	10358.373880
453.949311	10706.160563
454.323001	10785.437748
454.696632	10704.454132
455.070202	11287.914758
455.443713	11342.845691
455.817164	11486.478246
456.190556	11805.099334
456.563888	11638.660599
456.937160	11853.812004
457.310373	11348.091012
457.683526	11391.429811
458.056619	11433.770462
458.429653	11512.702329
458.802628	11682.138030
459.175542	11746.947104
459.548398	12291.089250
459.921194	12868.316489
460.293930	13199.217827
460.666607	14023.529660
461.039224	14741.853754
461.411782	14988.693852
461.784280	14595.466208
462.156719	14493.216485
462.529099	14395.254263
462.901419	13821.235718
463.273680	13478.674191
463.645882	13700.684086
464.018024	13664.788550
464.390106	14078.216097
464.762130	15250.523821
465.134094	16933.139987
465.505999	19195.511531
465.877845	21198.024197
466.249631	22051.809136
466.621358	21381.542361
466.993026	20532.170953
467.364634	19825.849846
467.736184	19128.943094
468.107674	18589.244725
468.479105	18444.412375
468.850477	18174.566972
469.221790	17752.869411
469.593043	17130.367570
469.964238	16791.067669
470.335373	16897.622538
470.706449	17753.552488
471.077467	18904.896573
471.448425	21230.789176
471.819324	22720.011557
472.190164	22188.114374
472.560945	20520.286433
472.931667	19111.793089
473.302330	18867.798722
473.672934	18429.445190
474.043479	18873.089413
474.413965	18672.133898
474.784393	18518.507255
475.154761	19139.045567
475.525070	19283.141908
475.895321	19125.341190
476.265513	19633.585280
476.635645	20216.287212
477.005719	20264.823441
477.375734	20659.795324
477.745691	21258.533166
478.115588	21914.092374
478.485427	23176.649355
478.855207	25047.635796
479.224928	26756.954954
479.594591	27915.951512
479.964194	27352.983177
480.333739	27704.684316
480.703226	27997.890426
481.072653	28508.251801
481.442022	29013.085550
481.811333	29302.137749
482.180584	28800.031265
482.549777	28593.467465
482.918912	28401.059226
483.287988	28335.287292
483.657005	28180.039918
484.025964	27822.359970
484.394864	28011.889711
484.763706	27958.161093
485.132489	27469.716135
485.501213	27543.914358
485.869879	27734.313698
486.238487	27694.415485
486.607036	27978.189597
486.975527	27690.740484
487.343959	28038.355768
487.712333	28335.607405
488.080648	28325.298245
488.448905	28753.503935
488.817104	28682.960549
489.185244	29570.826208
489.553326	30723.584338
489.921350	32671.234126
490.289315	35043.235642
490.657222	35710.623918
491.025070	36110.730216
491.392861	35702.747115
491.760593	34873.968820
492.128267	33883.671955
492.495883	32945.747638
492.863440	32122.164252
493.230939	31233.093757
493.598380	30745.629303
493.965763	30622.257145
494.333088	30179.467397
494.700354	30008.894916
495.067563	29986.938170
495.434713	29926.519941
495.801805	30210.939321
496.168839	30072.138711
496.535815	29947.463415
496.902733	30093.150241
497.269593	29919.434600
497.636395	30082.347048
498.003139	30375.633817
498.369825	30142.087242
498.736453	30555.620653
499.103023	30401.573074
499.469535	30521.003050
499.835989	30656.607568
500.202385	30522.132268
500.568723	30603.501533
500.935003	30932.358683
501.301226	30826.141572
501.667390	31522.065298
502.033497	31721.256410
502.399546	31520.288292
502.765537	31141.707720
503.131470	31597.158326
503.497345	32024.144057
503.863163	31038.227955
504.228923	31787.479528
504.594625	32190.300488
504.960269	31680.735616
505.325856	32364.376571
505.691385	32055.933573
506.056856	32356.467001
506.422270	32858.815461
506.787625	32405.227561
507.152924	32873.255846
507.518164	33069.891093
507.883347	32647.301248
508.248472	32807.481391
508.613540	33496.954962
508.978550	33729.679829
509.343503	33587.274794
509.708398	33950.890701
510.073236	34561.951644
510.438016	34655.195346
510.802738	34366.732961
511.167403	34915.954070
511.532010	35165.947409
511.896561	35653.600906
512.261053	36405.799033
512.625488	36185.790477
512.989866	36121.346886
513.354186	36182.627153
513.718449	36142.744064
514.082655	37021.603702
514.446803	36740.960147
514.810894	37347.738629
515.174927	37371.449697
515.538904	37372.490695
515.902822	38029.917650
516.266684	37726.762823
516.630488	38078.690814
516.994235	38103.805842
517.357925	38687.077424
517.721558	38945.272722
518.085133	39338.313843
518.448651	39513.977890
518.812112	39418.448024
519.175516	39568.629039
519.538863	40003.962920
519.902152	40066.150594
520.265385	40622.346139
520.628560	40631.027006
520.991678	40607.207554
521.354739	40842.929387
521.717743	41192.503160
522.080690	41101.427154
522.443580	41774.272478
522.806413	41807.763384
523.169189	41943.352778
523.531908	42184.420755
523.894569	42037.420709
524.257174	42237.224321
524.619722	42574.938779
524.982213	42712.884913
525.344647	42735.796957
525.707025	42889.494176
526.069345	43329.271835
526.431608	43234.205755
526.793815	43618.419816
527.155964	43176.081252
527.518057	43443.443887
527.880093	43295.591886
528.242072	43918.663378
528.603995	43651.386442
528.965860	43584.147532
529.327669	43802.421932
529.689421	43857.471332
530.051117	43816.383407
530.412755	44102.000061
530.774337	44163.550029
531.135862	44100.913692
531.497331	44252.685190
531.858743	44249.602525
532.220098	44668.240105
532.581396	44375.820414
532.942638	44149.679294
533.303824	44408.020784
533.664953	44467.818951
534.026025	44135.720339
534.387040	44730.959620
534.747999	44801.797914
535.108902	45099.568790
535.469748	44427.330924
535.830537	44684.548237
536.191270	44935.075940
536.551947	44666.024518
536.912567	44947.729236
537.273131	45112.990862
537.633638	44714.507815
537.994089	44935.822030
538.354483	44682.849369
538.714821	45321.797975
539.075103	45605.889679
539.435328	45474.938146
539.795497	45229.025620
540.155609	45351.903745
540.515665	45927.452280
540.875665	45238.903761
541.235609	45526.902360
541.595496	45653.397513
541.955328	46225.646612
542.315102	45657.561506
542.674821	45542.829886
543.034483	45422.621052
543.394090	45452.116843
543.753640	45429.847546
544.113134	46492.646285
544.472571	45608.503517
544.831953	46737.638800
545.191278	45982.277349
545.550548	45667.442167
545.909761	46334.076790
546.268918	46479.050293
546.628019	46868.860034
546.987064	46329.839701
547.346053	45606.892869
547.704986	46513.521703
548.063863	46165.992118
548.422684	46379.583286
548.781449	45959.778679
549.140158	46507.961310
549.498811	46266.855524
549.857408	45664.009142
550.215949	46489.931623
550.574434	46328.879361
550.932864	46254.723988
551.291237	46984.463774
551.649555	46739.284737
552.007817	46917.862570
552.366022	46596.136132
552.724173	46675.499017
553.082267	47071.776559
553.440305	47413.047551
553.798288	46673.207812
554.156215	47055.962459
554.514086	47252.368334
554.871902	46880.696664
555.229661	47053.129331
555.587365	46742.644666
555.945014	46865.671505
556.302606	46896.762821
556.660143	46986.026532
557.017625	47210.670430
557.375050	46904.727844
557.732421	47319.007347
558.089735	47379.236532
558.446994	47253.802542
558.804197	47731.315758
559.161345	47589.949201
559.518437	46947.570090
559.875474	47181.908127
560.232455	47420.700023
560.589381	47476.417375
560.946251	47284.664486
561.303065	47929.160882
561.659825	47629.751631
562.016528	47429.776620
562.373177	47009.568721
562.729770	47641.898292
563.086307	47181.202365
563.442789	47697.156899
563.799216	47564.675376
564.155587	47437.696273
564.511904	47423.626412
564.868164	47459.264849
565.224370	47781.155125
565.580520	47524.371351
565.936615	47711.360350
566.292654	47359.034108
566.648638	47732.273577
567.004567	47678.161832
567.360441	47762.480171
567.716260	47475.401583
568.072023	47842.740381
568.427732	47781.608829
568.783385	47334.627362
569.138982	47730.723422
569.494525	47875.835556
569.850013	47457.107236
570.205445	47593.351980
570.560823	47371.029534
570.916145	47240.778721
571.271412	47485.239395
571.626625	47138.919687
571.981782	47208.212867
572.336884	46801.323696
572.691931	47129.641443
573.046923	46797.746998
573.401860	46632.061915
573.756743	46645.990623
574.111570	46777.693288
574.466342	46697.060032
574.821059	46844.193669
575.175722	46353.371807
575.530330	46458.820142
575.884882	46082.447596
576.239380	45978.451113
576.593823	46083.909531
576.948211	46015.115425
577.302544	45565.378967
577.656823	45561.953503
578.011047	45817.434138
578.365216	45636.739020
578.719330	45378.760492
579.073389	45344.286562
579.427394	45400.097176
579.781344	45326.859293
580.135239	45098.008552
580.489080	45139.386343
580.842866	44634.920598
581.196597	45135.497093
581.550273	45135.156815
581.903895	45057.137398
582.257463	45505.656417
582.610975	44936.709273
582.964434	45261.019303
583.317837	44781.154389
583.671186	44725.265637
584.024481	45005.596641
584.377721	44549.866251
584.730906	44766.184683
585.084037	44880.384462
585.437113	44590.679432
585.790135	44725.598353
586.143103	44269.061379
586.496016	44433.493735
586.848874	44551.373556
587.201679	44560.503085
587.554428	44077.658849
587.907124	44336.416235
588.259765	44117.292401
588.612352	44258.663999
588.964884	43732.148247
589.317362	44036.596131
589.669786	44043.900763
590.022155	43880.176689
590.374470	44346.629613
590.726731	43903.098815
591.078937	43259.207358
591.431090	43590.118779
591.783188	43125.687357
592.135232	42906.853389
592.487222	43176.892877
592.839157	43322.340248
593.191038	42953.942807
593.542866	42778.077114
593.894639	42194.888711
594.246358	42490.683454
594.598022	42465.911224
594.949633	42048.836402
595.301190	42029.344780
595.652692	41960.318781
596.004141	42438.522635
596.355535	41347.894206
596.706876	41360.383665
597.058162	41088.607499
597.409395	41587.553181
597.760573	41810.387304
598.111698	41405.091138
598.462768	41326.328150
598.813785	41339.024296
599.164748	40949.186828
599.515657	41206.769625
599.866511	40727.978477
600.217312	41408.917374
600.568060	40355.744718
600.918753	41187.199866
601.269392	41094.301483
601.619978	40830.298776
601.970510	41019.311799
602.320988	41164.582729
602.671412	41417.661255
603.021783	41297.608697
603.372100	40855.239885
603.722363	40969.996711
604.072572	40995.562923
604.422728	40998.617862
604.772830	40776.481938
605.122878	40945.806734
605.472872	40806.895220
605.822813	41041.465149
606.172701	40797.223766
606.522534	41131.464869
606.872314	41339.979595
607.222041	41176.353823
607.571714	41502.687876
607.921333	40998.980825
608.270899	41223.302089
608.620411	41586.633170
608.969870	41334.565396
609.319276	41362.879036
609.668627	41391.898438
610.017926	41779.477469
610.367171	41926.568256
610.716362	41968.306490
611.065500	41847.785104
611.414585	42075.940165
611.763616	42246.759663
612.112594	42157.120386
612.461518	42280.111937
612.810389	42658.148064
613.159207	42466.410298
613.507971	42439.543469
613.856682	42934.972945
614.205340	42764.128242
614.553945	43439.141262
614.902496	42773.620734
615.250994	43202.580077
615.599439	43256.533026
615.947830	43372.756828
616.296169	43370.074934
616.644454	43415.767952
616.992686	43581.261471
617.340864	44024.446950
617.688990	43577.291563
618.037063	44249.047998
618.385082	44055.825612
618.733048	44387.732661
619.080961	44263.390081
619.428821	44289.505778
619.776628	44304.538499
620.124382	44115.641423
620.472083	44214.422833
620.819731	44314.409078
621.167326	43870.989186
621.514868	43852.069735
621.862357	43312.870441
622.209793	43390.599992
622.557176	42966.792708
622.904506	42737.568923
623.251783	42354.567259
623.599007	42044.841287
623.946179	41966.897487
624.293297	41713.178735
624.640363	41154.510504
624.987376	41012.871725
625.334336	40803.401700
625.681243	40395.184185
626.028097	40320.864974
626.374899	40138.397890
626.721647	40098.930697
627.068343	39887.608048
627.414987	39611.466243
627.761577	39359.043068
628.108115	39669.862970
628.454600	38937.469015
628.801032	39156.562603
629.147412	39063.336545
629.493739	38980.573401
629.840014	38537.713077
630.186236	38960.784352
630.532405	38427.470604
630.878521	38650.839090
631.224585	38436.559805
631.570597	38092.748071
631.916556	38247.589632
632.262462	38147.502564
632.608316	38081.347502
632.954117	37943.096378
633.299866	37903.440141
633.645562	37805.949267
633.991206	37269.315920
634.336797	36855.497683
634.682336	36770.791175
635.027823	36516.530498
635.373257	36393.458289
635.718639	36053.321556
636.063968	35950.141740
636.409245	35307.281199
636.754470	35270.261485
637.099642	35036.394797
637.444762	34475.329497
637.789829	34617.048935
638.134845	34251.255250
638.479808	34160.297711
638.824719	34098.924183
639.169577	33592.313428
639.514383	33697.998698
639.859137	33318.793023
640.203839	33479.147086
640.548489	33201.752554
640.893086	33180.718340
641.237632	32908.677513
641.582125	33027.996584
641.926566	32812.252843
642.270955	32844.526310
642.615292	32774.149282
642.959576	32658.996725
643.303809	32672.295289
643.647990	32762.408435
643.992118	32722.895871
644.336195	32572.545978
644.680219	32657.615449
645.024192	32864.637993
645.368112	33391.907398
645.711981	33406.264604
646.055797	34150.258253
646.399562	33965.051302
646.743274	34837.672512
647.086935	35237.246969
647.430544	35183.525913
647.774101	35226.930247
648.117606	35514.828023
648.461059	35647.705277
648.804460	35228.966874
649.147810	34720.853854
649.491108	34353.242833
649.834354	34213.854929
650.177548	33378.694533
650.520690	32892.203023
650.863781	32875.491598
651.206820	32699.388970
651.549807	32298.050110
651.892742	31707.778885
652.235626	31623.548766
652.578458	31493.151760
652.921238	30829.682982
653.263967	31126.344804
653.606644	30844.370384
653.949269	30754.476528
654.291843	30363.986231
654.634365	30719.974872
654.976836	30248.014487
655.319255	30330.102115
655.661622	30218.289323
656.003938	30072.539483
656.346203	29888.169363
656.688416	30129.229779
657.030577	29906.166283
657.372687	29728.420239
657.714746	29887.128365
658.056753	30079.282026
658.398708	29462.910228
658.740612	29541.741271
659.082465	29750.865977
659.424266	29644.001077
659.766016	29638.745674
660.107715	29513.346972
660.449362	29603.069428
660.790958	29592.641802
661.132503	29517.422745
661.473996	29602.257802
661.815438	29666.968574
662.156829	29792.503387
662.498168	29608.508833
662.839456	29579.194524
663.180693	29711.340810
663.521879	29793.937595
663.863013	29750.898744
664.204097	29728.815970
664.545129	30140.993311
664.886110	30068.930017
665.227040	30178.207109
665.567918	30174.186789
665.908746	30251.996998
666.249522	30343.297336
666.590248	30375.361595
666.930922	30459.909306
667.271545	30462.318978
667.612118	30520.803924
667.952639	30322.805045
668.293109	30364.848268
668.633528	30223.332997
668.973896	30170.342909
669.314213	30158.909572
669.654480	29974.000049
669.994695	29948.597675
670.334859	29872.246879
670.674973	29702.004593
671.015035	29885.361441
671.355047	29829.346660
671.695008	29758.775547
672.034918	29674.316056
672.374777	29781.145667
672.714585	29641.664502
673.054342	29772.336251
673.394049	29635.645364
673.733705	29854.970845
674.073310	29565.099458
674.412864	29630.747883
674.752368	29318.518979
675.091820	29547.049606
675.431223	29133.846390
675.770574	28918.110211
676.109875	28771.939435
676.449125	28561.682990
676.788324	28468.335944
677.127473	27986.068921
677.466571	27897.090035
677.805619	27614.188043
678.144616	27551.080358
678.483562	27499.504313
678.822458	27183.746601
679.161303	27126.441284
679.500098	27051.131487
679.838842	26977.051731
680.177535	27071.626298
680.516179	27314.004975
680.854771	27443.575232
681.193314	28233.834070
681.531805	29254.990358
681.870247	30016.736431
682.208638	30743.096124
682.546978	30997.467706
682.885268	31133.006688
683.223508	30673.480310
683.561697	30394.107125
683.899836	30229.730222
684.237925	29833.722381
684.575963	29678.487610
684.913951	29318.365224
685.251889	29488.668003
685.589776	29519.018270
685.927614	29544.166066
686.265401	29721.501256
686.603137	29846.048002
686.940824	30351.121206
687.278460	30687.996312
687.616046	30864.552643
687.953582	31526.713242
688.291068	31441.394234
688.628504	31761.033635
688.965889	31736.180746
689.303224	31467.134365
689.640510	31165.166729
689.977745	30511.571051
690.314930	29776.434709
690.652065	29327.338478
690.989150	28642.288520
691.326185	27805.726683
691.663170	27170.420311
692.000105	26438.636336
692.336990	25834.033111
692.673825	25413.159779
693.010610	24920.573514
693.347345	24435.362456
693.684030	23807.254851
694.020665	23609.387042
694.357251	22940.897275
694.693786	22951.612247
695.030272	22715.978634
695.366707	22229.461918
695.703093	21957.988221
696.039429	22024.113036
696.375716	21800.870579
696.711952	21799.259931
697.048139	21662.521153
697.384276	21512.269563
697.720363	21619.510029
698.056400	21516.037825
698.392388	21358.842046
698.728326	21350.088082
699.064214	21194.230728
699.400053	21194.757529
699.735842	20806.830658
700.071581	20612.612645
700.407270	20364.406394
700.742910	20187.585402
701.078501	19933.312123
701.414042	19725.780422
701.749533	19423.404452
702.084974	19113.975909
702.420366	19341.672225
702.755709	18935.347663
703.091002	18637.087796
703.426246	18705.990287
703.761440	18641.367736
704.096584	18400.687928
704.431679	18335.140325
704.766725	18280.912633
705.101721	18220.885093
705.436668	18346.379577
705.771565	18070.167196
706.106413	18391.064365
706.441212	18462.641188
706.775961	18572.049350
707.110661	18663.654677
707.445311	19020.883441
707.779913	18901.803826
708.114465	19189.469708
708.448967	19509.204891
708.783421	20146.157200
709.117825	20510.320071
709.452180	20740.594938
709.786485	21196.985719
710.120742	21970.364254
710.454949	22085.244588
710.789107	22589.720416
711.123216	23299.582933
711.457275	23523.798332
711.791286	24066.642381
712.125247	24218.643252
712.459159	23930.997534
712.793023	24675.291132
713.126837	23630.665753
713.460602	23878.967785
713.794318	23531.836452
714.127985	23248.052258
714.461602	22360.390765
714.795171	22327.038492
715.128691	21344.222699
715.462162	20829.273875
715.795584	20391.956300
716.128957	20125.264138
716.462281	19761.577655
716.795556	19475.124170
717.128782	19007.857100
717.461960	18410.031706
717.795088	18377.261686
718.128167	18032.434160
718.461198	17582.034790
718.794180	17461.785627
719.127113	17130.647354
719.459997	16944.399404
719.792833	16578.701502
720.125619	16614.896986
720.458357	16290.667615
720.791046	16153.722150
721.123686	16002.648852
721.456278	15782.965449
721.788821	15778.221723
722.121315	15512.494943
722.453761	15621.807323
722.786158	15508.487225
723.118506	15590.625265
723.450805	15475.019005
723.783056	15650.831766
724.115259	15550.394337
724.447412	15554.041612
724.779518	15764.028355
725.111574	15825.512788
725.443582	16081.679020
725.775542	16038.010025
726.107453	16550.433231
726.439315	16481.669372
726.771129	16900.438022
727.102895	17329.818301
727.434612	17599.681349
727.766281	17758.044156
728.097901	18079.972240
728.429473	18151.612078
728.760996	18173.755346
729.092471	18291.766237
729.423897	18178.907405
729.755276	18051.088949
730.086606	18158.213469
730.417887	18736.993383
730.749120	19301.222007
731.080305	19522.329535
731.411442	19907.771117
731.742530	20013.710965
732.073570	20177.528300
732.404562	20497.848257
732.735506	20321.995167
733.066401	20115.408682
733.397249	19614.305387
733.728048	18977.711000
734.058798	18128.692472
734.389501	17367.952109
734.720156	16860.592742
735.050762	16279.030111
735.381320	15912.830613
735.711831	15643.355735
736.042293	15282.502381
736.372707	15319.854810
736.703073	15117.308810
737.033391	15323.459235
737.363661	15329.642210
737.693883	15454.922445
738.024056	15654.988197
738.354182	15874.190169
738.684260	16250.824855
739.014290	16524.592277
739.344272	16747.106287
739.674207	17099.493023
740.004093	17268.132222
740.333931	17312.680899
740.663722	17390.987662
740.993464	17417.393226
741.323159	17261.498064
741.652806	16969.058208
741.982405	16794.024306
742.311956	16425.946978
742.641460	16324.927296
742.970915	15986.723847
743.300323	15633.729651
743.629683	15429.046202
743.958996	15107.801194
744.288260	14791.196568
744.617477	14493.571886
744.946647	14455.914467
745.275768	14141.971570
745.604842	13943.178709
745.933869	13773.309468
746.262847	13751.279626
746.591778	13667.964477
746.920662	13552.874934
747.249498	13566.218868
747.578286	13724.211151
747.907027	13902.544488
748.235720	14162.499148
748.564365	14239.958998
748.892963	14153.049505
749.221514	14261.051185
749.550017	14123.538591
749.878473	14100.926495
750.206881	13877.459707
750.535242	13797.239826
750.863555	13719.754771
751.191821	13625.636428
751.520039	13646.529490
751.848210	13570.889497
752.176334	13615.541518
752.504411	13542.006207
752.832440	13365.344011
753.160421	13480.123522
753.488356	13366.430380
753.816243	13280.614818
754.144082	13118.337555
754.471875	13061.755644
754.799620	13035.806305
755.127318	13020.024973
755.454969	12989.573883
755.782572	12961.000623
756.110129	12983.653048
756.437638	12893.726425
756.765100	12896.657856
757.092515	12921.891351
757.419882	12965.913227
757.747203	12984.227739
758.074477	13073.693097
758.401703	13052.593347
758.728882	13245.465373
759.056014	13289.015901
759.383099	13465.211789
759.710138	13592.684926
760.037129	13713.039954
760.364073	13765.563736
760.690970	13801.749138
761.017820	13817.739678
761.344623	14038.925344
761.671379	14424.669395
761.998088	15118.934582
762.324751	16892.972073
762.651366	20322.617749
762.977935	24803.883405
763.304456	27768.056661
763.630931	28789.520459
763.957359	27541.151806
764.283740	25254.015594
764.610074	22980.041834
764.936362	20357.953717
765.262602	18480.650710
765.588796	16567.195068
765.914943	15289.134018
766.241044	14195.969889
766.567097	13414.359150
766.893104	12699.594111
767.219064	12240.897002
767.544978	11773.519026
767.870845	11388.730273
768.196665	11168.197437
768.522438	10934.287898
768.848165	10742.492159
769.173846	10535.262927
769.499479	10408.982023
769.825066	10242.823072
770.150607	10006.685343
770.476101	9924.207025
770.801548	9805.823089
771.126949	9653.202156
771.452303	9535.299650
771.777611	9338.845885
772.102872	9329.126540
772.428087	9186.832411
772.753256	9033.092342
773.078378	8943.047252
773.403453	8764.224922
773.728482	8651.257706
774.053465	8579.474196
774.378401	8479.918969
774.703291	8353.474228
775.028135	8235.478460
775.352932	8198.400774
775.677683	8090.729289
776.002388	7989.666757
776.327046	7997.808221
776.651658	7908.519304
776.976224	7804.341339
777.300743	7805.599107
777.625216	7714.066877
777.949643	7672.941144
778.274024	7685.236518
778.598359	7602.601924
778.922647	7619.557845
779.246889	7568.864002
779.571086	7577.174344
779.895236	7591.803773
780.219339	7601.790298
780.543397	7605.661904
780.867409	7687.494955
781.191374	7695.689350
781.515294	7662.810945
781.839167	7751.583144
782.162995	7722.404945
782.486776	7667.267325
782.810511	7620.001467
783.134201	7532.729011
783.457844	7521.361209
783.781441	7476.003428
784.104993	7407.010196
784.428498	7382.457256
784.751958	7367.999227
785.075372	7340.981163
785.398739	7285.213398
785.722061	7331.597055
786.045337	7339.181471
786.368568	7494.726273
786.691752	7517.292998
787.014891	7866.899538
787.337983	8223.808189
787.661030	8820.703490
787.984031	9454.734450
788.306987	9854.525676
788.629897	10060.628210
788.952760	10000.101597
789.275579	9776.725549
789.598351	9371.021049
789.921078	9017.492492
790.243759	8606.275490
790.566395	8311.748597
790.888984	8066.579642
791.211529	7849.240376
791.534027	7628.899103
791.856480	7434.882736
792.178888	7357.120417
792.501249	7265.527693
792.823566	7111.333920
793.145836	7115.891123
793.468062	7085.787873
793.790241	7040.556120
794.112375	7113.209229
794.434464	7264.595079
794.756507	7308.846328
795.078505	7466.394988
795.400457	7778.369315
795.722364	8131.207234
796.044226	8423.485772
796.366042	8697.961476
796.687812	8642.299576
797.009538	8724.974499
797.331218	8614.081717
797.652852	8524.081997
797.974442	8371.007361
798.295986	8280.216180
798.617484	8083.066735
798.938938	7943.890560
799.260346	7841.658481
799.581709	7641.582646
799.903026	7561.642549
800.224299	7460.816952
800.545526	7287.282792
800.866708	7192.093205
801.187845	7124.052751
801.508936	7020.651124
801.829983	6983.943962
802.150984	6831.144069
802.471940	6786.986082
802.792851	6770.614934
803.113717	6742.152580
803.434538	6707.325768
803.755314	6651.484907
804.076045	6659.074364
804.396731	6600.402895
804.717372	6633.712319
805.037967	6640.049050
805.358518	6682.961872
805.679024	6772.260871
805.999485	6777.125585
806.319901	6823.345404
806.640272	6845.554207
806.960598	6931.573936
807.280879	6922.701505
807.601115	7003.697724
807.921306	6952.761905
808.241453	6965.321940
808.561554	6980.848694
808.881611	6945.726975
809.201623	6954.057482
809.521590	6895.711167
809.841513	6879.277006
810.161390	6913.861842
810.481223	6782.600278
810.801011	6770.151148
811.120755	6743.370018
811.440453	6661.128635
811.760107	6628.479602
812.079716	6601.995900
812.399281	6532.211207
812.718801	6522.716194
813.038276	6477.517209
813.357707	6415.732827
813.677093	6462.461803
813.996434	6362.306679
814.315731	6411.097486
814.634983	6400.372431
814.954191	6413.829792
815.273354	6517.281830
815.592473	6580.276089
815.911547	6702.992897
816.230577	6790.628315
816.549562	6938.278670
816.868502	7031.197218
817.187399	7135.891901
817.506250	7282.327338
817.825058	7316.886968
818.143821	7580.614932
818.462539	7859.904937
818.781213	8221.728713
819.099843	8776.951315
819.418429	9785.071179
819.736970	10753.910372
820.055466	11938.059767
820.373919	13465.942757
820.692327	15804.075281
821.010691	19945.990625
821.329011	28961.199474
821.647286	42039.177551
821.965517	55543.365021
822.283704	60927.065271
822.601847	62892.971598
822.919945	60158.803507
823.237999	55905.458499
823.556010	49678.242141
823.873976	42904.922627
824.191897	36356.005036
824.509775	31517.671933
824.827609	26989.614287
825.145398	24404.591253
825.463144	23047.326115
825.780845	23349.273586
826.098502	25151.223946
826.416116	28983.715787
826.733685	32691.484441
827.051210	33892.647730
827.368692	32105.094905
827.686129	28109.289844
828.003522	23946.199134
828.320872	20216.509022
828.638177	17354.610696
828.955439	15210.479416
829.272656	13399.649063
829.589830	11917.895151
829.906960	10644.502210
830.224046	9702.756699
830.541088	8953.104354
830.858086	8500.295313
831.175041	8123.002756
831.491952	8011.431939
831.808819	8060.036224
832.125642	8462.592523
832.442421	9338.815638
832.759157	11151.307051
833.075849	14100.785343
833.392497	17342.227101
833.709101	19536.900990
834.025662	19377.749243
834.342179	17657.611768
834.658653	15449.001610
834.975083	13501.419877
835.291469	11884.144626
835.607811	10562.984232
835.924110	9646.328543
836.240366	8774.188763
836.556578	7976.736198
836.872746	7335.834145
837.188871	6837.208577
837.504952	6417.330873
837.820990	6111.156394
838.136984	5888.407970
838.452935	5794.766017
838.768842	5833.235062
839.084706	6252.318784
839.400526	7464.776778
839.716303	9063.480418
840.032037	10152.127673
840.347727	10080.991951
840.663373	9100.742106
840.978977	8045.560551
841.294537	7237.690441
841.610054	6634.523945
841.925527	6202.229879
842.240957	5840.247307
842.556344	5511.584241
842.871687	5230.640737
843.186987	4950.622285
843.502244	4726.046443
843.817458	4559.912697
844.132629	4426.271709
844.447756	4336.501362
844.762840	4257.708127
845.077881	4180.880942
845.392879	4122.794247
845.707833	4070.678799
846.022745	4028.214639
846.337613	3999.764887
846.652438	3958.944144
846.967221	3941.791618
847.281960	3910.032349
847.596656	3894.112385
847.911309	3873.763768
848.225919	3850.675283
848.540485	3834.452850
848.855009	3818.656394
849.169490	3794.844504
849.483928	3784.729429
849.798323	3775.902369
850.112675	3756.408227
850.426984	3767.652520
850.741251	3751.629213
851.055474	3745.123604
851.369654	3752.624841
851.683792	3750.076538
851.997887	3755.561313
852.311938	3757.270264
852.625947	3761.388887
852.939914	3751.092330
853.253837	3761.013321
853.567718	3759.251438
853.881555	3748.599479
854.195350	3761.330913
854.509103	3757.784462
854.822812	3756.307404
855.136479	3749.799274
855.450103	3757.759256
855.763685	3743.744848
856.077224	3747.835745
856.390720	3766.011625
856.704173	3784.807567
857.017584	3798.990853
857.330953	3812.198676
857.644278	3831.181141
857.957561	3835.841688
858.270802	3838.263962
858.584000	3840.855115
858.897155	3829.348682
859.210268	3817.512052
859.523339	3794.073208
859.836367	3794.262251
860.149352	3783.675828
860.462295	3778.501083
860.775195	3771.269548
861.088054	3764.214453
861.400869	3762.273609
861.713642	3763.100358
862.026373	3775.126031
862.339062	3777.729787
862.651708	3799.719300
862.964312	3835.534178
863.276873	3844.399047
863.589392	3903.902306
863.901869	3947.225982
864.214303	3997.761029
864.526696	4028.617932
864.839045	4070.797266
865.151353	4099.680557
865.463619	4108.217751
865.775842	4113.349645
866.088023	4132.518633
866.400162	4121.571767
866.712258	4129.965288
867.024313	4131.175165
867.336325	4131.381853
867.648296	4135.757574
867.960224	4136.475939
868.272110	4147.311899
868.583954	4148.776354
868.895755	4165.230680
869.207515	4160.096265
869.519233	4203.309036
869.830909	4215.977455
870.142542	4239.519644
870.454134	4254.111264
870.765684	4286.815749
871.077191	4323.127180
871.388657	4344.453782
871.700081	4382.781674
872.011463	4428.051236
872.322803	4461.905105
872.634101	4492.837625
872.945357	4533.020662
873.256571	4589.138787
873.567744	4615.398157
873.878874	4635.378770
874.189963	4672.292619
874.501010	4684.189742
874.812015	4683.325184
875.122979	4723.793047
875.433900	4721.713571
875.744780	4733.018358
876.055618	4763.058594
876.366415	4764.185292
876.677169	4784.092809
876.987882	4825.710054
877.298554	4877.641501
877.609183	4959.411537
877.919771	5069.646448
878.230317	5213.465526
878.540822	5430.651036
878.851285	5752.901755
879.161707	6213.411159
879.472087	6971.182281
879.782425	8208.054583
880.092722	10408.682075
880.402977	13746.046908
880.713191	17547.225623
881.023363	21312.551650
881.333494	23568.856165
881.643583	24800.102540
881.953631	24777.724858
882.263637	23888.482963
882.573602	22391.724057
882.883526	20812.252419
883.193408	19111.276371
883.503248	17404.959220
883.813048	15835.065774
884.122806	14391.415424
884.432522	12918.291967
884.742197	11646.814665
885.051831	10549.211800
885.361424	9549.430004
885.670975	8725.826454
885.980485	8037.235085
886.289954	7456.854605
886.599382	6986.146947
886.908768	6604.816426
887.218113	6248.855511
887.527417	5961.875226
887.836680	5690.777095
888.145901	5472.737109
888.455082	5308.211492
888.764221	5158.552237
889.073319	5026.315210
889.382376	4951.640598
889.691392	4893.800919
890.000366	4869.893247
890.309300	4855.851113
890.618193	4859.747925
890.927044	4843.535574
891.235855	4863.543914
891.544625	4895.151948
891.853353	4957.891629
892.162041	5079.970731
892.470687	5263.980408
892.779293	5513.167163
893.087858	5885.710953
893.396381	6467.253419
893.704864	7272.151769
894.013306	8435.672762
894.321707	9632.460329
894.630068	10468.044182
894.938387	10671.605974
895.246665	10434.369274
895.554903	9816.875819
895.863100	9111.545299
896.171256	8548.259371
896.479371	8033.839868
896.787446	7532.396295
897.095480	7100.744976
897.403473	6778.174145
897.711425	6459.963911
898.019336	6189.014495
898.327207	5917.911323
898.635038	5685.309964
898.942827	5436.274443
899.250576	5241.910236
899.558284	5046.873035
899.865952	4924.735960
900.173579	4772.223412
900.481165	4666.031506
900.788711	4569.679933
901.096216	4495.562368
901.403681	4436.969037
901.711105	4411.649842
902.018489	4397.390938
902.325832	4470.417093
902.633135	4591.810598
902.940397	4940.212302
903.247619	5735.174537
903.554800	7191.934408
903.861941	9126.436867
904.169041	10668.190592
904.476101	11304.018724
904.783121	10928.024264
905.090100	10178.795377
905.397039	9326.472373
905.703938	8568.605468
906.010796	7874.960343
906.317614	7311.538304
906.624391	6777.692714
906.931129	6347.475604
907.237826	5952.390295
907.544483	5570.699331
907.851099	5196.015572
908.157675	4840.619267
908.464211	4515.694216
908.770707	4279.984986
909.077163	4080.617433
909.383578	3937.277265
909.689954	3822.495233
909.996289	3751.009151
910.302584	3688.624872
910.608839	3653.576250
910.915054	3623.616673
911.221229	3607.767285
911.527363	3622.931076
911.833458	3633.462046
912.139513	3662.138650
912.445527	3694.835574
912.751502	3772.902882
913.057436	3877.403481
913.363331	4013.169316
913.669186	4216.975604
913.975000	4478.533351
914.280775	4895.580447
914.586510	5481.034848
914.892205	6282.704339
915.197859	7334.039494
915.503475	8574.969925
915.809050	9647.470364
916.114585	10315.430811
916.420081	10576.814638
916.725536	10539.764677
917.030952	10084.135111
917.336328	9672.693778
917.641665	9244.132686
917.946961	8764.693750
918.252218	8336.273811
918.557435	7819.207702
918.862612	7385.151753
919.167750	7009.293404
919.472848	6578.088228
919.777906	6201.115784
920.082925	5843.297205
920.387904	5467.718641
920.692843	5203.819278
920.997743	4956.560764
921.302603	4717.995720
921.607423	4555.027819
921.912204	4390.696286
922.216946	4272.743368
922.521647	4152.653001
922.826310	4043.083522
923.130932	3951.697486
923.435516	3852.081765
923.740059	3778.821197
924.044564	3706.720094
924.349028	3647.405878
924.653454	3578.513469
924.957840	3512.217255
925.262186	3464.908547
925.566493	3402.970410
925.870761	3347.187522
926.174989	3309.116728
926.479178	3275.847633
926.783328	3233.428844
927.087438	3204.474977
927.391509	3169.585152
927.695541	3136.482415
927.999533	3114.356791
928.303486	3092.546238
928.607400	3076.575863
928.911275	3065.306364
929.215110	3046.732232
929.518906	3038.989020
929.822663	3041.640667
930.126381	3038.371479
930.430060	3045.169475
930.733699	3044.496481
931.037299	3058.069787
931.340861	3053.111813
931.644383	3062.516085
931.947866	3062.846281
932.251309	3053.124415
932.554714	3054.840928
932.858080	3050.840773
933.161407	3039.835934
933.464694	3033.257228
933.767943	3024.785569
934.071153	3019.772142
934.374323	3010.627488
934.677455	3007.680934
934.980548	2997.918740
935.283602	2993.873214
935.586617	2990.563696
935.889593	3001.689523
936.192530	3002.793535
936.495428	3020.182996
936.798287	3040.771068
937.101108	3074.962694
937.403890	3123.274592
937.706632	3190.821012
938.009336	3272.759927
938.312002	3348.296576
938.614628	3408.306471
938.917216	3462.690439
939.219765	3496.814009
939.522275	3528.785007
939.824747	3529.589071
940.127179	3531.305584
940.429573	3521.268647
940.731929	3517.888553
941.034246	3505.774660
941.336524	3491.205726
941.638763	3474.746358
941.940964	3459.378401
942.243126	3414.849889
942.545250	3396.190058
942.847335	3357.214377
943.149381	3320.222390
943.451389	3284.828449
943.753359	3253.752256
944.055290	3226.005745
944.357182	3203.960780
944.659036	3189.389324
944.960851	3176.955318
945.262628	3167.427538
945.564367	3168.944925
945.866067	3159.402021
946.167729	3157.345230
946.469352	3154.348264
946.770937	3151.457162
947.072484	3136.449647
947.373992	3138.511479
947.675462	3133.800521
947.976893	3117.220166
948.278286	3106.686675
948.579641	3099.429934
948.880958	3094.938266
949.182236	3095.454984
949.483476	3087.953747
949.784678	3089.098089
950.085841	3090.466762
950.386967	3102.772219
950.688054	3117.184878
950.989103	3137.803197
951.290114	3163.986950
951.591087	3191.332689
951.892021	3216.271277
952.192917	3245.346132
952.493776	3271.608023
952.794596	3279.104219
953.095378	3283.724436
953.396122	3280.409878
953.696828	3271.053496
953.997496	3259.678132
954.298126	3238.958990
954.598718	3217.700444
954.899272	3187.456042
955.199788	3161.635252
955.500266	3130.622073
955.800706	3091.215374
956.101108	3052.516956
956.401472	3021.246679
956.701798	2986.750063
957.002087	2947.212294
957.302337	2920.232038
957.602550	2892.891340
957.902724	2862.669623
958.202861	2837.597444
958.502960	2816.883343
958.803022	2795.284520
959.103045	2776.032353
959.403031	2758.660537
959.702979	2744.182343
960.002889	2730.309088
960.302762	2715.241079
960.602596	2707.805377
960.902393	2697.221474
961.202153	2689.165711
961.501875	2681.175482
961.801559	2674.571570
962.101205	2668.179387
962.400814	2665.585713
962.700385	2657.134219
962.999918	2650.293373
963.299414	2646.235244
963.598873	2643.127373
963.898293	2632.651855
964.197677	2639.258287
964.497022	2634.620426
964.796331	2630.983233
965.095601	2627.784621
965.394835	2627.207409
965.694030	2624.442336
965.993189	2624.175155
966.292309	2621.596605
966.591393	2622.125926
966.890439	2623.557614
967.189447	2621.354630
967.488419	2621.634414
967.787353	2623.640793
968.086249	2623.928139
968.385108	2627.746813
968.683930	2629.203706
968.982714	2633.581948
969.281462	2637.637557
969.580172	2641.887249
969.878844	2648.720533
970.177480	2658.011380
970.476078	2663.919612
970.774639	2670.526044
971.073162	2677.061900
971.371649	2682.947447
971.670098	2689.485824
971.968510	2698.486804
972.266885	2701.456044
972.565223	2703.752289
972.863524	2704.821014
973.161788	2709.375696
973.460014	2713.690924
973.758204	2718.240565
974.056356	2717.774259
974.354471	2721.540001
974.652550	2718.011193
974.950591	2718.217880
975.248595	2715.833414
975.546563	2713.885008
975.844493	2712.841490
976.142386	2706.797146
976.440243	2699.860518
976.738062	2698.416228
977.035845	2689.236287
977.333590	2683.827129
977.631299	2678.007117
977.928971	2669.353976
978.226606	2663.201248
978.524204	2660.458860
978.821765	2656.257058
979.119290	2661.361227
979.416777	2658.989364
979.714228	2664.204437
980.011642	2666.934222
980.309020	2672.925633
980.606360	2690.599919
980.903664	2712.135728
981.200931	2748.348857
981.498162	2799.146043
981.795356	2876.195039
982.092513	2964.206023
982.389633	3069.188052
982.686717	3167.409894
982.983764	3243.306985
983.280775	3292.208698
983.577749	3300.879483
983.874686	3287.233079
984.171587	3251.939961
984.468451	3213.569219
984.765279	3168.518947
985.062070	3121.895836
985.358824	3071.358269
985.655543	3015.673683
985.952224	2964.619398
986.248869	2900.742938
986.545478	2841.932837
986.842050	2786.147428
987.138586	2738.909296
987.435086	2697.574355
987.731549	2669.343894
988.027975	2641.257105
988.324366	2625.931997
988.620719	2614.972529
988.917037	2599.372678
989.213318	2593.156936
989.509563	2584.758373
989.805772	2577.617579
990.101944	2573.090623
990.398080	2574.030798
990.694180	2571.220355
990.990244	2573.572053
991.286271	2570.605334
991.582262	2574.565160
991.878217	2577.068093
992.174136	2579.061869
992.470019	2580.523804
992.765865	2587.036975
993.061676	2590.943869
993.357450	2597.237750
993.653188	2605.442227
993.948890	2624.606174
994.244556	2642.497229
994.540186	2665.711742
994.835780	2696.369519
995.131337	2736.043400
995.426859	2777.033022
995.722345	2826.824499
996.017795	2878.098074
996.313208	2916.708272
996.608586	2942.856737
996.903928	2955.749488
997.199234	2955.895681
997.494504	2954.779066
997.789738	2938.228958
998.084936	2913.134094
998.380099	2880.104454
998.675225	2853.955989
998.970316	2820.399548
999.265371	2786.137346
999.560390	2745.311562
999.855373	2717.960781
1000.150320	2690.695701
1000.445232	2662.361896
1000.740108	2640.001858
1001.034948	2622.541821
1001.329752	2608.048504
1001.624521	2593.605598
1001.919254	2582.227714
1002.213951	2576.574060
1002.508613	2566.879921
1002.803239	2562.146278
1003.097829	2556.323745
1003.392384	2552.152190
1003.686903	2544.202291
1003.981386	2541.301107
1004.275834	2537.744573
1004.570246	2535.022349
1004.864623	2532.605116
1005.158964	2532.897503
1005.453270	2527.989940
1005.747540	2526.298633
1006.041775	2523.967099
1006.335974	2523.256296
1006.630138	2525.691174
1006.924266	2522.953827
1007.218359	2521.572551
1007.512416	2517.458969
1007.806438	2518.696573
1008.100425	2518.346213
1008.394376	2511.926303
1008.688292	2519.742612
1008.982172	2520.014834
1009.276017	2518.487365
1009.569827	2518.358815
1009.863602	2515.351767
1010.157341	2519.268744
1010.451045	2514.149452
1010.744714	2513.645337
1011.038347	2514.184740
1011.331945	2513.852024
1011.625508	2512.564009
1011.919036	2510.872702
1012.212528	2509.214162
1012.505986	2506.504542
1012.799408	2509.511590
1013.092795	2506.993534
1013.386147	2510.005623
1013.679464	2508.180726
1013.972745	2505.539161
1014.265992	2503.968842
1014.559204	2506.244923
1014.852380	2506.328102
1015.145521	2505.773575
1015.438628	2507.197701
1015.731699	2506.559995
1016.024736	2507.568226
1016.317737	2508.347084
1016.610703	2512.561488
1016.903635	2512.495953
1017.196531	2512.841273
1017.489393	2514.479648
1017.782219	2514.905625
1018.075011	2517.030471
1018.367768	2516.024761
1018.660490	2518.111799
1018.953177	2518.111799
1019.245829	2518.111799
