Dividing Wavelength (nm)	Counts (n)	Blue Motor Position (mm): 39.000000	Red Motor Position (mm): 0.000000	
326.493990	2243.066445
326.888308	2243.066445
327.282561	2243.066445
327.676750	2206.082020
328.070874	2201.988603
328.464933	2204.630168
328.858929	2206.581094
329.252859	2209.323482
329.646726	2219.814123
330.040528	2230.889538
330.434265	2242.980745
330.827938	2262.812645
331.221547	2278.601538
331.615091	2295.020577
332.008571	2316.352219
332.401986	2332.196566
332.795338	2350.914370
333.188625	2371.772144
333.581847	2392.050185
333.975006	2409.669018
334.368100	2430.342790
334.761129	2449.436160
335.154095	2467.934674
335.546996	2493.672285
335.939833	2530.513037
336.332606	2547.660522
336.725315	2560.157543
337.117960	2572.992320
337.510540	2582.699062
337.903056	2594.545773
338.295508	2602.571290
338.687896	2612.598145
339.080220	2619.103754
339.472480	2624.467542
339.864676	2631.348717
340.256807	2637.556898
340.648875	2638.970942
341.040879	2643.205511
341.432818	2645.842034
341.824694	2647.792961
342.216506	2650.154742
342.608253	2652.660195
342.999937	2650.701707
343.391557	2651.331851
343.783113	2650.245482
344.174605	2648.135759
344.566033	2648.067704
344.957397	2647.452683
345.348697	2645.403454
345.739934	2643.785244
346.131106	2645.489154
346.522215	2640.049749
346.913260	2640.115284
347.304241	2640.788278
347.695159	2635.069089
348.086012	2635.553039
348.476802	2634.312916
348.867528	2629.407873
349.258191	2626.274796
349.648789	2625.080042
350.039324	2622.814044
350.429796	2622.942593
350.820203	2623.232459
351.210548	2624.890999
351.600828	2621.667181
351.991045	2619.577623
352.381198	2621.989815
352.771288	2620.416975
353.161314	2617.964454
353.551276	2621.163066
353.941175	2620.492592
354.331010	2617.238527
354.720782	2615.731222
355.110490	2620.749691
355.500135	2617.145266
355.889717	2617.349433
356.279235	2615.537138
356.668689	2616.142077
357.058080	2614.304576
357.447408	2618.118209
357.836672	2617.949330
358.225873	2619.416306
358.615010	2618.299690
359.004084	2618.763477
359.393095	2620.278343
359.782043	2622.488889
360.170927	2619.302880
360.559748	2618.380349
360.948505	2621.916718
361.337199	2623.275309
361.725830	2624.752367
362.114398	2620.895885
362.502903	2622.957717
362.891344	2623.492079
363.279722	2623.802110
363.668037	2624.954013
364.056289	2624.638941
364.444478	2627.625825
364.832603	2627.550208
365.220665	2627.590537
365.608665	2628.734879
365.996601	2628.034158
366.384474	2629.710342
366.772284	2627.797224
367.160031	2630.272431
367.547715	2630.683285
367.935336	2631.114303
368.322893	2630.463995
368.710388	2628.639097
369.097820	2632.079684
369.485189	2627.225053
369.872495	2633.962555
370.259738	2631.502472
370.646918	2637.428349
371.034035	2638.484470
371.421090	2636.457927
371.808081	2638.149234
372.195010	2639.407002
372.581875	2640.105201
372.968678	2639.792650
373.355418	2637.642598
373.742096	2641.088226
374.128710	2638.459265
374.515262	2638.035808
374.901751	2638.214769
375.288177	2642.134266
375.674540	2643.177785
376.060841	2641.287352
376.447079	2640.778195
376.833254	2646.389000
377.219367	2643.024029
377.605417	2644.450676
377.991404	2645.111067
378.377329	2646.797333
378.763191	2646.719195
379.148991	2643.757517
379.534727	2648.077786
379.920402	2645.143835
380.306013	2644.992600
380.691563	2649.706079
381.077049	2648.816315
381.462474	2649.605256
381.847835	2650.789927
382.233134	2649.811943
382.618371	2650.888229
383.003545	2651.354536
383.388657	2651.399907
383.773706	2655.488282
384.158693	2654.535504
384.543618	2656.564569
384.928480	2654.021307
385.313280	2654.031389
385.698017	2655.324445
386.082692	2657.502223
386.467305	2655.243786
386.851856	2656.176400
387.236344	2657.832419
387.620770	2657.865186
388.005133	2658.618839
388.389435	2660.133706
388.773674	2657.061122
389.157851	2664.022956
389.541965	2664.348110
389.926018	2665.646207
390.310008	2667.234171
390.693936	2672.726508
391.077802	2679.113650
391.461606	2682.987777
391.845348	2692.031607
392.229027	2700.296578
392.612645	2713.330482
392.996200	2728.733727
393.379694	2748.381624
393.763125	2776.571757
394.146494	2806.092753
394.529801	2841.075841
394.913047	2885.196019
395.296230	2917.774476
395.679351	2976.209011
396.062410	3033.731097
396.445408	3083.207501
396.828343	3146.978097
397.211217	3216.556102
397.594028	3250.646905
397.976778	3337.122858
398.359466	3415.306113
398.742092	3488.463338
399.124656	3522.123122
399.507158	3634.684526
399.889598	3725.422775
400.271977	3851.096219
400.654294	3911.955549
401.036549	4008.972555
401.418742	4039.751320
401.800874	4213.046024
402.182944	4318.418743
402.564952	4459.346719
402.946898	4566.829160
403.328783	4544.638001
403.710606	4619.925113
404.092367	4898.680756
404.474067	4989.842462
404.855705	4990.129808
405.237282	4997.194985
405.618797	5250.142441
406.000250	5301.506757
406.381642	5508.047871
406.762972	5587.083081
407.144240	5693.544689
407.525447	5731.197067
407.906593	5812.573893
408.287677	5998.816801
408.668700	5960.985462
409.049661	6112.683864
409.430560	6177.823133
409.811399	6079.001394
410.192176	6369.530652
410.572891	6398.635754
410.953545	6627.075640
411.334138	6401.327730
411.714669	6585.357572
412.095139	6414.921201
412.475547	6668.884450
412.855894	6752.192038
413.236180	6937.598114
413.616405	6648.742520
413.996568	6875.231480
414.376670	6909.057622
414.756711	6823.037893
415.136691	6917.546925
415.516609	7126.515355
415.896466	7131.228834
416.276262	7326.465160
416.655997	7317.002915
417.035670	7515.626897
417.415283	7852.267589
417.794834	7899.442707
418.174324	7763.646625
418.553753	7682.778955
418.933121	8006.249633
419.312428	8105.620858
419.691674	7889.700677
420.070859	8363.332204
420.449983	8043.183647
420.829045	8412.458248
421.208047	8183.559617
421.586988	8479.281263
421.965867	8500.023091
422.344686	8614.369063
422.723444	8647.204618
423.102141	8021.899895
423.480777	8762.921784
423.859352	8287.518291
424.237866	8908.616172
424.616319	8779.320658
424.994712	9187.606228
425.373044	8756.383408
425.751314	9218.667298
426.129524	9081.442049
426.507673	9210.430052
426.885762	9360.117033
427.263789	9277.794991
427.641756	9191.860962
428.019662	9295.048340
428.397508	9537.185042
428.775292	9234.115914
429.153016	9606.634498
429.530679	9435.583107
429.908282	9480.482143
430.285824	9199.132827
430.663305	9882.947702
431.040726	9325.774173
431.418086	9326.895830
431.795385	9639.170105
432.172624	9730.334331
432.549802	9643.775199
432.926920	9723.024658
433.303977	9596.345503
433.680974	9805.316453
434.057910	9896.178210
434.434786	9958.514598
434.811601	9796.998549
435.188355	10365.640703
435.565050	10094.164486
435.941683	10019.900728
436.318257	10515.486481
436.694770	10642.634463
437.071222	10707.199041
437.447614	10562.102030
437.823946	10453.863416
438.200218	10590.037584
438.576429	10405.470860
438.952580	10645.432303
439.328670	10696.194202
439.704700	10482.625719
440.080670	10477.294699
440.456580	11028.202074
440.832429	10787.038315
441.208218	10383.511593
441.583947	10708.822292
441.959616	10866.184430
442.335224	10669.037506
442.710773	10798.587598
443.086261	11011.659527
443.461689	10294.489858
443.837057	10954.409664
444.212365	11220.622916
444.587612	10857.760662
444.962800	11090.959398
445.337927	10854.110867
445.712995	10451.547006
446.088002	11530.510205
446.462949	11193.786333
446.837837	11172.379074
447.212664	11150.553398
447.587431	11675.382884
447.962139	12400.119325
448.336786	14671.340615
448.711374	15209.536720
449.085901	13051.912791
449.460369	12673.982529
449.834776	12116.047786
450.209124	13003.913445
450.583412	13412.609870
450.957640	14355.756822
451.331808	13477.270229
451.705917	12487.180052
452.079965	11783.883638
452.453954	12684.674816
452.827883	12328.290445
453.201752	12617.962707
453.575562	12131.531690
453.949311	12550.091132
454.323001	12520.020649
454.696632	12746.796955
455.070202	13034.546016
455.443713	13258.325356
455.817164	13735.037028
456.190556	13719.043968
456.563888	14080.845059
456.937160	14246.610800
457.310373	13588.135285
457.683526	13676.244572
458.056619	13216.352709
458.429653	13386.842012
458.802628	12808.914053
459.175542	13186.317515
459.548398	14137.989058
459.921194	14476.807529
460.293930	14537.646694
460.666607	15412.274283
461.039224	16467.188658
461.411782	17168.198909
461.784280	17006.919794
462.156719	17080.876042
462.529099	16762.207063
462.901419	15693.860534
463.273680	15480.768441
463.645882	15354.600963
464.018024	15089.421147
464.390106	15304.121369
464.762130	16026.478386
465.134094	16796.854914
465.505999	18806.382345
465.877845	22070.617681
466.249631	24912.290898
466.621358	24565.194853
466.993026	23136.305001
467.364634	22552.413357
467.736184	21100.626584
468.107674	20292.693460
468.479105	20423.813871
468.850477	19885.675739
469.221790	19476.208018
469.593043	18797.613258
469.964238	18236.578205
470.335373	17886.258342
470.706449	18350.689764
471.077467	17906.415396
471.448425	19749.567106
471.819324	23820.913858
472.190164	25775.081858
472.560945	22200.419830
472.931667	19847.635192
473.302330	19216.591116
473.672934	18774.607952
474.043479	19070.178364
474.413965	18884.616012
474.784393	18499.552516
475.154761	19211.476865
475.525070	19182.207926
475.895321	18868.282673
476.265513	19460.676223
476.635645	20044.567868
477.005719	19822.555452
477.375734	20005.294758
477.745691	20491.463635
478.115588	21011.115856
478.485427	21560.152963
478.855207	22632.895378
479.224928	24406.103599
479.594591	26629.257486
479.964194	26629.827137
480.333739	26838.886307
480.703226	26408.427222
481.072653	26101.499090
481.442022	26692.965068
481.811333	27610.248381
482.180584	27520.072221
482.549777	26569.991161
482.918912	26207.910286
483.287988	26351.300866
483.657005	25995.130744
484.025964	25769.329902
484.394864	25663.374930
484.763706	25339.894170
485.132489	24779.572441
485.501213	24951.309429
485.869879	24870.035946
486.238487	24690.565828
486.607036	24827.148330
486.975527	24558.328801
487.343959	24867.686769
487.712333	24792.684482
488.080648	24457.054541
488.448905	24942.527739
488.817104	24703.682911
489.185244	25399.369703
489.553326	25351.030079
489.921350	26370.769802
490.289315	28672.200206
490.657222	30424.684244
491.025070	30927.710739
491.392861	30694.406139
491.760593	29845.342241
492.128267	28959.891294
492.495883	27883.307520
492.863440	27020.753494
493.230939	26148.790154
493.598380	25986.626318
493.965763	25594.817758
494.333088	25115.119202
494.700354	25070.134466
495.067563	24946.076711
495.434713	24693.784605
495.801805	24855.532547
496.168839	24643.824250
496.535815	24493.519727
496.902733	24710.279260
497.269593	24396.732094
497.636395	24568.000255
498.003139	24519.343038
498.369825	24277.196254
498.736453	24476.223528
499.103023	24351.036555
499.469535	24359.362021
499.835989	24562.439862
500.202385	24598.698361
500.568723	24122.596668
500.935003	24330.050232
501.301226	23972.206446
501.667390	24821.565252
502.033497	25036.083992
502.399546	24772.247644
502.765537	24323.476567
503.131470	24716.832760
503.497345	24850.902247
503.863163	24086.552418
504.228923	24650.092925
504.594625	24880.947524
504.960269	24422.341156
505.325856	24905.427367
505.691385	24300.370438
506.056856	24906.433077
506.422270	24885.812237
506.787625	24444.370998
507.152924	24851.504665
507.518164	24900.053497
507.883347	24700.370872
508.248472	24380.683581
508.613540	25165.810525
508.978550	24948.753564
509.343503	24967.864578
509.708398	25196.884197
510.073236	25357.901172
510.438016	25570.153913
510.802738	25238.519087
511.167403	25487.751212
511.532010	25205.766710
511.896561	25968.490767
512.261053	25933.132113
512.625488	25768.326712
512.989866	25670.924058
513.354186	25500.475085
513.718449	25615.032785
514.082655	26001.853123
514.446803	25730.155095
514.810894	26212.613683
515.174927	25687.688415
515.538904	25725.028242
515.902822	26217.337244
516.266684	25963.588244
516.630488	25883.494392
516.994235	25828.684447
517.357925	26176.284608
517.721558	26333.515675
518.085133	26435.062158
518.448651	26338.720667
518.812112	26085.344713
519.175516	26295.092001
519.538863	26435.536026
519.902152	26223.938635
520.265385	26497.121282
520.628560	26294.534953
520.991678	26301.426211
521.354739	26355.011155
521.717743	26427.974296
522.080690	26208.815173
522.443580	26546.292697
522.806413	26528.101693
523.169189	26638.616388
523.531908	26703.264145
523.894569	26296.044779
524.257174	26386.127678
524.619722	26545.987707
524.982213	26239.609062
525.344647	26291.578317
525.707025	26437.315554
526.069345	26400.515131
526.431608	26361.110952
526.793815	26556.148153
527.155964	26019.600505
527.518057	26209.856172
527.880093	26115.261440
528.242072	26343.058580
528.603995	26063.355200
528.965860	25867.531578
529.327669	25902.738997
529.689421	25891.653500
530.051117	25730.003860
530.412755	25897.682720
530.774337	25698.451278
531.135862	25562.322481
531.497331	25774.053463
531.858743	25347.045047
532.220098	25814.818753
532.581396	25492.759599
532.942638	25411.392855
533.303824	25522.502406
533.664953	25536.403388
534.026025	25187.003536
534.387040	25435.938233
534.747999	25490.239022
535.108902	25643.911035
535.469748	25152.448947
535.830537	25323.830533
536.191270	25448.684791
536.551947	25296.878004
536.912567	24930.146665
537.273131	25330.658776
537.633638	25014.578430
537.994089	25238.118315
538.354483	24747.155301
538.714821	25252.546097
539.075103	25292.262828
539.435328	25072.909621
539.795497	24655.912937
540.155609	25019.095304
540.515665	25327.394629
540.875665	24550.517533
541.235609	24879.939293
541.595496	24824.393339
541.955328	25180.767628
542.315102	25098.576656
542.674821	24634.034329
543.034483	24499.959801
543.394090	24671.895915
543.753640	24483.180321
544.113134	25097.644042
544.472571	24693.134296
544.831953	25006.144580
545.191278	24636.932992
545.550548	24536.913980
545.909761	24730.874894
546.268918	24977.510826
546.628019	24934.842500
546.987064	24639.181347
547.346053	24385.518047
547.704986	24491.384799
548.063863	24647.584951
548.422684	24673.814074
548.781449	24173.315717
549.140158	24599.318423
549.498811	24164.604603
549.857408	23924.877573
550.215949	24325.888759
550.574434	24017.614640
550.932864	24221.136103
551.291237	24390.909561
551.649555	24247.513940
552.007817	24309.205060
552.366022	24165.350694
552.724173	24185.535474
553.082267	24149.531553
553.440305	24639.153621
553.798288	23882.821747
554.156215	24383.756164
554.514086	24497.492157
554.871902	23879.718917
555.229661	24153.932481
555.587365	24008.114585
555.945014	23898.401433
556.302606	24123.562049
556.660143	24103.931796
557.017625	24343.547921
557.375050	23861.689231
557.732421	24241.870368
558.089735	24061.843203
558.446994	24118.346976
558.804197	24161.963039
559.161345	24073.924328
559.518437	23851.838816
559.875474	24032.959912
560.232455	24212.099834
560.589381	24023.288458
560.946251	24031.654253
561.303065	24336.548279
561.659825	24430.921199
562.016528	24016.296378
562.373177	23763.600980
562.729770	24134.909687
563.086307	23982.157684
563.442789	24157.937677
563.799216	23991.405681
564.155587	23995.914993
564.511904	23977.517302
564.868164	23914.263424
565.224370	23891.001020
565.580520	23819.489732
565.936615	23932.217493
566.292654	23627.446976
566.648638	23884.306367
567.004567	23728.043201
567.360441	23667.347709
567.716260	23388.201376
568.072023	23722.472726
568.427732	23487.809535
568.783385	23270.107306
569.138982	23510.860211
569.494525	23535.287122
569.850013	23297.866420
570.205445	23396.226893
570.560823	23215.657803
570.916145	22974.282316
571.271412	23154.541375
571.626625	22899.302714
571.981782	23009.358665
572.336884	22814.777688
572.691931	22961.253454
573.046923	22690.246064
573.401860	22565.391807
573.756743	22598.935645
574.111570	22505.442406
574.466342	22414.978900
574.821059	22507.342921
575.175722	22210.628167
575.530330	22177.926202
575.884882	22192.525383
576.239380	22120.247840
576.593823	22010.872446
576.948211	21971.995067
577.302544	21836.302329
577.656823	21697.572296
578.011047	21793.359260
578.365216	21662.735402
578.719330	21543.479346
579.073389	21438.507400
579.427394	21595.418354
579.781344	21345.248574
580.135239	21235.608519
580.489080	21188.428360
580.842866	20968.571038
581.196597	21172.805825
581.550273	21146.763224
581.903895	21019.045591
582.257463	21332.791883
582.610975	20857.038030
582.964434	21190.180161
583.317837	20859.677074
583.671186	20960.963937
584.024481	20939.695309
584.377721	20707.078827
584.730906	20791.089655
585.084037	20785.809047
585.437113	20700.482477
585.790135	20905.455792
586.143103	20364.774398
586.496016	20379.358456
586.848874	20620.970878
587.201679	20543.450534
587.554428	20238.012064
587.907124	20562.758154
588.259765	20319.769497
588.612352	20403.220758
588.964884	19960.932605
589.317362	20131.696650
589.669786	20198.181907
590.022155	20219.195957
590.374470	20439.025553
590.726731	20209.862261
591.078937	19993.087604
591.431090	20076.962322
591.783188	19849.029072
592.135232	19801.231371
592.487222	19900.476567
592.839157	19920.245452
593.191038	19792.122006
593.542866	19692.312201
593.894639	19390.241222
594.246358	19611.194995
594.598022	19515.831487
594.949633	19266.057438
595.301190	19238.426874
595.652692	19411.076311
596.004141	19637.290528
596.355535	18965.773547
596.706876	18992.100973
597.058162	18880.872955
597.409395	19117.078739
597.760573	19170.207459
598.111698	18949.939283
598.462768	18890.267145
598.813785	18864.302682
599.164748	18661.401281
599.515657	18715.397080
599.866511	18507.598198
600.217312	18861.018370
600.568060	18376.195482
600.918753	18688.873049
601.269392	18588.871680
601.619978	18386.870125
601.970510	18583.644003
602.320988	18526.139562
602.671412	18728.330160
603.021783	18656.851640
603.372100	18363.466568
603.722363	18519.003808
604.072572	18459.422411
604.422728	18607.937324
604.772830	18360.106639
605.122878	18317.380340
605.472872	18300.651271
605.822813	18289.424621
606.172701	18267.750180
606.522534	18449.214074
606.872314	18477.384042
607.222041	18313.425554
607.571714	18528.466054
607.921333	18351.425772
608.270899	18435.441642
608.620411	18598.530531
608.969870	18375.802272
609.319276	18385.912306
609.668627	18408.393331
610.017926	18552.681237
610.367171	18653.400970
610.716362	18708.699907
611.065500	18515.669085
611.414585	18660.806425
611.763616	18641.705493
612.112594	18592.158512
612.461518	18558.957473
612.810389	18741.243076
613.159207	18606.573692
613.507971	18520.059930
613.856682	18776.563920
614.205340	18697.921920
614.553945	18857.353452
614.902496	18602.944061
615.250994	18814.246545
615.599439	18770.736346
615.947830	18743.418333
616.296169	18821.407504
616.644454	18778.724054
616.992686	18749.871010
617.340864	18968.168095
617.688990	18718.348675
618.037063	18892.223113
618.385082	18751.423686
618.733048	19020.157515
619.080961	18910.018386
619.428821	18928.663093
619.776628	18808.781934
620.124382	18747.776411
620.472083	18803.675245
620.819731	18801.999062
621.167326	18502.511673
621.514868	18542.530873
621.862357	18316.288930
622.209793	18328.818718
622.557176	18158.793201
622.904506	17997.922420
623.251783	17916.754802
623.599007	17654.521541
623.946179	17592.691789
624.293297	17528.996810
624.640363	17274.350485
624.987376	17296.372766
625.334336	17106.825381
625.681243	16940.258097
626.028097	16957.181250
626.374899	16879.527316
626.721647	16745.689723
627.068343	16576.964824
627.414987	16520.234199
627.761577	16483.567367
628.108115	16520.060279
628.454600	16239.605768
628.801032	16337.091601
629.147412	16278.160512
629.493739	16293.704910
629.840014	16103.552587
630.186236	16201.628235
630.532405	15971.950745
630.878521	16167.116496
631.224585	16071.495890
631.570597	15878.346601
631.916556	15913.639719
632.262462	15891.922428
632.608316	15799.283664
632.954117	15746.568318
633.299866	15742.928605
633.645562	15657.327293
633.991206	15416.229069
634.336797	15288.095541
634.682336	15262.141160
635.027823	15130.322549
635.373257	15008.712274
635.718639	14923.917546
636.063968	14861.928998
636.409245	14615.666112
636.754470	14646.492767
637.099642	14500.710160
637.444762	14268.917906
637.789829	14309.045491
638.134845	14140.197084
638.479808	14170.602803
638.824719	14095.776957
639.169577	13959.373416
639.514383	13995.223581
639.859137	13835.857585
640.203839	13920.075101
640.548489	13762.891924
640.893086	13758.899330
641.237632	13631.201862
641.582125	13778.459007
641.926566	13598.885545
642.270955	13612.017751
642.615292	13566.836410
642.959576	13582.171600
643.303809	13617.343730
643.647990	13543.647102
643.992118	13613.088996
644.336195	13380.049057
644.680219	13592.019494
645.024192	13512.018903
645.368112	13747.491199
645.711981	13798.298468
646.055797	13979.898474
646.399562	13963.242501
646.743274	14225.372419
647.086935	14499.843081
647.430544	14468.169512
647.774101	14507.510676
648.117606	14645.998734
648.461059	14615.666112
648.804460	14598.450571
649.147810	14326.127440
649.491108	14231.946084
649.834354	14245.642899
650.177548	13922.179783
650.520690	13744.516918
650.863781	13665.118745
651.206820	13710.194222
651.549807	13539.924210
651.892742	13331.837982
652.235626	13279.914097
652.578458	13280.002318
652.921238	12971.425729
653.263967	13173.729753
653.606644	12999.260460
653.949269	12986.899551
654.291843	12777.467335
654.634365	12931.411570
654.976836	12794.619861
655.319255	12786.523768
655.661622	12751.918767
656.003938	12675.429340
656.346203	12600.527876
656.688416	12671.771983
657.030577	12633.048359
657.372687	12537.286601
657.714746	12523.405784
658.056753	12718.599261
658.398708	12529.934078
658.740612	12527.655477
659.082465	12630.023667
659.424266	12602.627517
659.766016	12629.519552
660.107715	12539.996221
660.449362	12612.498096
660.790958	12565.653174
661.132503	12507.561437
661.473996	12582.692274
661.815438	12591.907503
662.156829	12620.947070
662.498168	12587.312491
662.839456	12595.154006
663.180693	12606.274791
663.521879	12710.914022
663.863013	12682.895289
664.204097	12650.510916
664.545129	12784.542594
664.886110	12754.154519
665.227040	12842.364629
665.567918	12851.269827
665.908746	12861.417670
666.249522	12856.535312
666.590248	12911.118406
666.930922	13019.183100
667.271545	12997.952281
667.612118	13089.640787
667.952639	12979.458808
668.293109	13012.196061
668.633528	12956.773615
668.973896	12923.368409
669.314213	13007.911080
669.654480	12737.987538
669.994695	12827.011795
670.334859	12848.061133
670.674973	12788.688943
671.015035	12827.349552
671.355047	12768.592383
671.695008	12743.305956
672.034918	12749.892223
672.374777	12794.420735
672.714585	12709.638610
673.054342	12738.978125
673.394049	12701.799616
673.733705	12796.621199
674.073310	12695.319212
674.412864	12710.540976
674.752368	12565.028071
675.091820	12602.405706
675.431223	12588.114035
675.770574	12438.757249
676.109875	12366.840148
676.449125	12323.435814
676.788324	12270.889347
677.127473	12105.216867
677.466571	12099.273346
677.805619	11985.938125
678.144616	11913.700911
678.483562	11884.832744
678.822458	11758.214083
679.161303	11736.630382
679.500098	11718.509955
679.838842	11670.429950
680.177535	11702.673170
680.516179	11767.883016
680.854771	11721.403577
681.193314	11924.564598
681.531805	12093.292017
681.870247	12523.441072
682.208638	12931.620778
682.546978	13234.944485
682.885268	13279.168007
683.223508	12976.479486
683.561697	12815.971668
683.899836	12725.735014
684.237925	12514.687108
684.575963	12435.510746
684.913951	12353.208868
685.251889	12305.224645
685.589776	12404.825242
685.927614	12321.321050
686.265401	12288.775360
686.603137	12344.706962
686.940824	12495.235816
687.278460	12625.562246
687.616046	12657.555929
687.953582	12826.429542
688.291068	12759.505704
688.628504	12996.447496
688.965889	13010.242614
689.303224	12959.077423
689.640510	12853.787883
689.977745	12532.033719
690.314930	12313.136736
690.652065	12227.749673
690.989150	11932.060794
691.326185	11707.152235
691.663170	11500.447284
692.000105	11256.790674
692.336990	11144.206585
692.673825	10879.130113
693.010610	10767.334965
693.347345	10562.142359
693.684030	10371.196055
694.020665	10298.293408
694.357251	10108.219223
694.693786	10035.855980
695.030272	9883.338391
695.366707	9764.387325
695.703093	9703.832985
696.039429	9692.132467
696.375716	9601.147202
696.711952	9477.996854
697.048139	9526.172641
697.384276	9482.969953
697.720363	9499.714145
698.056400	9429.702601
698.392388	9381.415908
698.728326	9349.245785
699.064214	9287.322772
699.400053	9330.013783
699.735842	9139.143096
700.071581	9101.778063
700.407270	9028.232670
700.742910	8951.841545
701.078501	8853.397893
701.414042	8723.663799
701.749533	8661.844129
702.084974	8525.934621
702.420366	8647.602869
702.755709	8522.907408
703.091002	8395.116679
703.426246	8412.148217
703.761440	8372.350828
704.096584	8331.401536
704.431679	8262.849405
704.766725	8232.983089
705.101721	8200.263480
705.436668	8244.406344
705.771565	8131.290413
706.106413	8219.369453
706.441212	8253.107375
706.775961	8215.223104
707.110661	8259.534846
707.445311	8399.273110
707.779913	8286.071480
708.114465	8416.869258
708.448967	8455.686142
708.783421	8610.802446
709.117825	8790.380949
709.452180	8823.234149
709.786485	8912.820494
710.120742	9207.337304
710.454949	9203.518630
710.789107	9300.482704
711.123216	9530.167756
711.457275	9699.800062
711.791286	9844.697947
712.125247	9840.735600
712.459159	9832.667233
712.793023	10063.148787
713.126837	9641.567173
713.460602	9800.255135
713.794318	9632.208271
714.127985	9657.023351
714.461602	9318.192277
714.795171	9273.799877
715.128691	9023.307463
715.462162	8776.558105
715.795584	8722.423675
716.128957	8560.176659
716.462281	8390.216678
716.795556	8443.869678
717.128782	8229.580310
717.461960	7972.501629
717.795088	8050.868886
718.128167	7955.795245
718.461198	7789.999257
718.794180	7730.901810
719.127113	7724.678506
719.459997	7561.002322
719.792833	7334.210893
720.125619	7405.674290
720.458357	7259.621981
720.791046	7242.199753
721.123686	7242.708910
721.456278	7077.890905
721.788821	7102.327899
722.121315	6997.376117
722.453761	7063.742907
722.786158	7002.760069
723.118506	7015.849425
723.450805	6974.703527
723.783056	7041.279526
724.115259	6961.233564
724.447412	6958.332380
724.779518	7006.956830
725.111574	7003.425501
725.443582	7084.525064
725.775542	7063.425314
726.107453	7260.436127
726.439315	7166.932806
726.771129	7241.065494
727.102895	7415.549911
727.434612	7519.687546
727.766281	7554.708442
728.097901	7630.860112
728.429473	7633.053014
728.760996	7623.008515
729.092471	7595.814010
729.423897	7531.136007
729.755276	7530.578959
730.086606	7452.982998
730.417887	7556.903864
730.749120	7770.144672
731.080305	7954.814740
731.411442	8067.267759
731.742530	8056.018424
732.073570	8173.532762
732.404562	8254.755832
732.735506	8116.124102
733.066401	8238.387206
733.397249	8160.945001
733.728048	7925.364320
734.058798	7592.799400
734.389501	7363.888166
734.720156	7186.195055
735.050762	6964.099460
735.381320	6879.397993
735.711831	6811.465925
736.042293	6703.013061
736.372707	6724.868984
736.703073	6587.295895
737.033391	6627.625126
737.363661	6641.604246
737.693883	6674.933834
738.024056	6758.483398
738.354182	6793.761392
738.684260	6825.689540
739.014290	6948.096317
739.344272	7064.635191
739.674207	7096.419666
740.004093	7168.016654
740.333931	7174.948240
740.663722	7184.778490
740.993464	7263.594410
741.323159	7237.627427
741.652806	6990.562997
741.982405	7020.220105
742.311956	7072.635502
742.641460	6888.051134
742.970915	6700.978956
743.300323	6688.824734
743.629683	6645.407796
743.958996	6506.682804
744.288260	6422.099804
744.617477	6373.661878
744.946647	6366.596701
745.275768	6204.213573
745.604842	6158.979300
745.933869	6142.378780
746.262847	6099.201298
746.591778	6084.599596
746.920662	6044.519902
747.249498	6037.981525
747.578286	6091.601758
747.907027	6159.324619
748.235720	6224.360545
748.564365	6195.121853
748.892963	6232.020578
749.221514	6375.595160
749.550017	6197.034970
749.878473	6082.676395
750.206881	6143.356764
750.535242	6089.797025
750.863555	6016.347414
751.191821	6028.514238
751.520039	6024.735894
751.848210	5931.605618
752.176334	5964.660463
752.504411	6009.607391
752.832440	5933.402789
753.160421	5863.933168
753.488356	5914.896713
753.816243	5937.730619
754.144082	5791.796777
754.471875	5765.214773
754.799620	5806.184230
755.127318	5823.487991
755.454969	5776.590137
755.782572	5738.284929
756.110129	5786.430469
756.437638	5766.313745
756.765100	5706.215629
757.092515	5711.833995
757.419882	5766.895998
757.747203	5740.404734
758.074477	5798.458662
758.401703	5784.940808
758.728882	5740.185444
759.056014	5811.089273
759.383099	5925.959525
759.710138	5942.280261
760.037129	5924.905924
760.364073	5931.149393
760.690970	6008.952041
761.017820	5989.135265
761.344623	5949.864677
761.671379	6054.924843
761.998088	6181.924112
762.324751	6435.922648
762.651366	7060.622433
762.977935	8410.817353
763.304456	10062.480834
763.630931	10935.656571
763.957359	10499.742957
764.283740	9539.720742
764.610074	8680.793826
764.936362	7684.256013
765.262602	7092.427072
765.588796	6550.941614
765.914943	6219.183280
766.241044	6057.100101
766.567097	5842.543553
766.893104	5586.188277
767.219064	5411.565228
767.544978	5345.546277
767.870845	5267.882261
768.196665	5158.153986
768.522438	5091.290642
768.848165	5054.863264
769.173846	4989.003110
769.499479	4942.347231
769.825066	4888.953850
770.150607	4831.247762
770.476101	4806.964524
770.801548	4798.412206
771.126949	4717.892376
771.452303	4667.047299
771.777611	4629.140342
772.102872	4645.002333
772.428087	4611.395481
772.753256	4567.708842
773.078378	4519.195298
773.403453	4448.490594
773.728482	4435.277730
774.053465	4389.113364
774.378401	4382.955594
774.703291	4371.713821
775.028135	4301.730003
775.352932	4253.662601
775.677683	4242.009974
776.002388	4260.853807
776.327046	4269.055764
776.651658	4195.996842
776.976224	4135.399652
777.300743	4140.241681
777.625216	4162.548786
777.949643	4153.404133
778.274024	4112.094398
778.598359	4076.418152
778.922647	4097.661575
779.246889	4086.182867
779.571086	4079.626847
779.895236	4060.170513
780.219339	4050.420922
780.543397	4047.028225
780.867409	4095.156121
781.191374	4110.229171
781.515294	4045.606620
781.839167	4040.283162
782.162995	4062.292839
782.486776	4048.210376
782.810511	4060.271337
783.134201	4052.465110
783.457844	4003.011391
783.781441	3950.054069
784.104993	3957.441880
784.428498	3978.652535
784.751958	3970.609374
785.075372	3951.974749
785.398739	3915.542330
785.722061	3924.939041
786.045337	3972.169611
786.368568	3998.955782
786.691752	3911.695930
787.014891	3969.359168
787.337983	4102.354889
787.661030	4260.725258
787.984031	4419.251902
788.306987	4592.481072
788.629897	4674.808155
788.952760	4627.265033
789.275579	4560.540321
789.598351	4495.587574
789.921078	4344.320191
790.243759	4143.558760
790.566395	4133.242038
790.888984	4123.792396
791.211529	4017.524872
791.534027	3957.981284
791.856480	3944.135755
792.178888	3883.117629
792.501249	3836.570135
792.823566	3849.220910
793.145836	3872.987430
793.468062	3818.898370
793.790241	3777.054272
794.112375	3805.735917
794.434464	3875.346690
794.756507	3894.452663
795.078505	3871.732183
795.400457	3914.929830
795.722364	4054.778999
796.044226	4163.141122
796.366042	4234.639807
796.687812	4207.919171
797.009538	4212.826734
797.331218	4172.227802
797.652852	4147.873988
797.974442	4125.289618
798.295986	4121.460862
798.617484	4041.518244
798.938938	3957.945996
799.260346	4003.553315
799.581709	3993.319772
799.903026	3915.948143
800.224299	3881.887587
800.545526	3872.117831
800.866708	3830.679546
801.187845	3778.690127
801.508936	3812.859068
801.829983	3805.299857
802.150984	3724.618711
802.471940	3719.610324
802.792851	3725.803382
803.113717	3727.862693
803.434538	3730.257241
803.755314	3670.731297
804.076045	3646.780775
804.396731	3669.150895
804.717372	3696.239535
805.037967	3677.010054
805.358518	3668.203158
805.679024	3694.966644
805.999485	3708.799570
806.319901	3713.939026
806.640272	3727.706417
806.960598	3739.860639
807.280879	3713.543296
807.601115	3730.622725
807.921306	3744.395157
808.241453	3783.138945
808.561554	3757.877723
808.881611	3692.027651
809.201623	3732.399732
809.521590	3743.820466
809.841513	3713.044221
810.161390	3742.792070
810.481223	3723.522260
810.801011	3664.412210
811.120755	3660.553207
811.440453	3695.208619
811.760107	3691.757949
812.079716	3650.498626
812.399281	3622.845376
812.718801	3645.744818
813.038276	3622.361425
813.357707	3613.758696
813.677093	3631.518681
813.996434	3577.996751
814.315731	3591.844801
814.634983	3593.846139
814.954191	3608.813324
815.273354	3636.106131
815.592473	3630.515492
815.911547	3642.838592
816.230577	3687.825849
816.549562	3736.465422
816.868502	3778.511166
817.187399	3799.978919
817.506250	3799.605874
817.825058	3776.232564
818.143821	3870.081205
818.462539	3970.364878
818.781213	4011.314171
819.099843	4078.124583
819.418429	4337.769212
819.736970	4579.537909
820.055466	4834.080890
820.373919	5199.544379
820.692327	5612.674499
821.010691	6088.254432
821.329011	7543.345681
821.647286	10392.474765
821.965517	15083.938892
822.283704	19114.895919
822.601847	21170.038231
822.919945	19271.143962
823.237999	16637.957744
823.556010	14121.078508
823.873976	11981.249852
824.191897	9862.662099
824.509775	8523.880351
824.827609	7385.723924
825.145398	6858.041145
825.463144	6736.035140
825.780845	6847.522778
826.098502	7060.534213
826.416116	7978.498081
826.733685	9340.713632
827.051210	10444.872518
827.368692	10423.200598
827.686129	9118.386145
828.003522	7598.833662
828.320872	6574.972795
828.638177	5871.109251
828.955439	5293.844203
829.272656	4796.793996
829.589830	4522.645967
829.906960	4343.546374
830.224046	4154.326664
830.541088	4028.486862
830.858086	3983.749142
831.175041	3903.219230
831.491952	3888.766242
831.808819	3899.312335
832.125642	3979.504490
832.442421	4134.073829
832.759157	4420.151748
833.075849	4994.029140
833.392497	5879.109562
833.709101	6666.116856
834.025662	6984.780794
834.342179	6586.025525
834.658653	5907.150980
834.975083	5253.174695
835.291469	4666.200385
835.607811	4266.966206
835.924110	4120.520687
836.240366	3919.161879
836.556578	3715.249726
836.872746	3606.880042
837.188871	3564.093249
837.504952	3496.125892
837.820990	3410.562388
838.136984	3369.716439
838.452935	3393.508164
838.768842	3388.666136
839.084706	3411.915938
839.400526	3578.579004
839.716303	3935.505299
840.032037	4479.692816
840.347727	4721.413622
840.663373	4422.881533
840.978977	4032.252603
841.294537	3725.095100
841.610054	3495.803258
841.925527	3390.448184
842.240957	3319.738439
842.556344	3263.829523
842.871687	3205.364741
843.186987	3156.412617
843.502244	3119.982718
843.817458	3083.363777
844.132629	3053.310938
844.447756	3060.413924
844.762840	3044.347767
845.077881	3012.880884
845.392879	2993.432113
845.707833	2993.263234
846.022745	2989.046309
846.337613	2990.820795
846.652438	2978.182622
846.967221	2976.448465
847.281960	2965.736013
847.596656	2960.379788
847.911309	2960.152936
848.225919	2954.070783
848.540485	2945.883950
848.855009	2949.599280
849.169490	2935.965479
849.483928	2928.471804
849.798323	2926.225970
850.112675	2925.268151
850.426984	2934.488421
850.741251	2931.793925
851.055474	2919.070052
851.369654	2915.276584
851.683792	2924.769077
851.997887	2931.652772
852.311938	2932.005653
852.625947	2920.534508
852.939914	2925.245466
853.253837	2929.404418
853.567718	2914.666604
853.881555	2914.341450
854.195350	2928.728903
854.509103	2921.865372
854.822812	2915.720206
855.136479	2912.647622
855.450103	2915.962181
855.763685	2908.859195
856.077224	2907.301479
856.390720	2916.867068
856.704173	2927.773604
857.017584	2918.833118
857.330953	2918.674322
857.644278	2926.488110
857.957561	2937.467743
858.270802	2941.301541
858.584000	2940.941098
858.897155	2924.252358
859.210268	2924.622883
859.523339	2922.261103
859.836367	2921.288160
860.149352	2915.082500
860.462295	2909.017992
860.775195	2918.303797
861.088054	2918.238262
861.400869	2900.629512
861.713642	2901.988103
862.026373	2915.722726
862.339062	2918.697007
862.651708	2924.040630
862.964312	2928.625559
863.276873	2919.354878
863.589392	2930.614295
863.901869	2942.221551
864.214303	2963.535550
864.526696	2980.153713
864.839045	2976.536686
865.151353	2971.561067
865.463619	2970.555357
865.775842	2976.556850
866.088023	2994.881444
866.400162	3000.139368
866.712258	2969.153916
867.024313	2959.215281
867.336325	2966.829944
867.648296	2990.538490
867.960224	2982.810402
868.272110	2971.014102
868.583954	2975.306644
868.895755	2989.560507
869.207515	2975.228506
869.519233	2980.741008
869.830909	2991.816423
870.142542	3000.058709
870.454134	3000.444358
870.765684	3002.390243
871.077191	3003.479132
871.388657	3012.064217
871.700081	3024.541073
872.011463	3032.954759
872.322803	3038.994061
872.634101	3036.801159
872.945357	3051.899415
873.256571	3080.283632
873.567744	3069.601427
873.878874	3068.106725
874.189963	3088.949375
874.501010	3090.010538
874.812015	3079.885381
875.122979	3076.112077
875.433900	3075.302972
875.744780	3083.068869
876.055618	3090.156732
876.366415	3086.335537
876.677169	3098.638473
876.987882	3096.904316
877.298554	3091.157401
877.609183	3111.271604
877.919771	3137.480563
878.230317	3167.200686
878.540822	3217.602142
878.851285	3257.185282
879.161707	3302.621202
879.472087	3411.968870
879.782425	3656.258144
880.092722	4107.423769
880.402977	4647.497704
880.713191	5299.966685
881.023363	6507.630541
881.333494	7813.634706
881.643583	8347.916356
881.953631	8030.338787
882.263637	7367.159875
882.573602	6749.356389
882.883526	6161.772099
883.193408	5587.511579
883.503248	5126.886229
883.813048	4816.956091
884.122806	4494.660002
884.432522	4171.655631
884.742197	3936.490845
885.051831	3738.219744
885.361424	3610.199642
885.670975	3535.066285
885.980485	3440.597582
886.289954	3362.626056
886.599382	3318.193326
886.908768	3278.350566
887.218113	3237.829772
887.527417	3178.961698
887.836680	3125.830457
888.145901	3120.111268
888.455082	3110.112139
888.764221	3056.756567
889.073319	3027.681712
889.382376	3027.051568
889.691392	3031.495345
890.000366	3031.165149
890.309300	3015.855165
890.618193	3028.561393
890.927044	3046.006306
891.235855	3044.783826
891.544625	3034.031045
891.853353	3046.817932
892.162041	3061.908626
892.470687	3106.739607
892.779293	3156.364726
893.087858	3204.482539
893.396381	3281.213942
893.704864	3409.390319
894.013306	3658.196467
894.321707	3969.228098
894.630068	4169.215712
894.938387	4160.865041
895.246665	4114.652784
895.554903	3991.141994
895.863100	3783.365797
896.171256	3614.277935
896.479371	3472.225782
896.787446	3344.155268
897.095480	3242.817993
897.403473	3175.735359
897.711425	3142.010040
898.019336	3130.090232
898.327207	3099.714759
898.635038	3061.351578
898.942827	3049.197357
899.250576	3038.515152
899.558284	3006.440810
899.865952	2982.386945
900.173579	2964.400108
900.481165	2955.346195
900.788711	2943.670883
901.096216	2920.277409
901.403681	2907.608989
901.711105	2914.225503
902.018489	2913.350863
902.325832	2911.140317
902.633135	2921.986360
902.940397	2956.455249
903.247619	3049.232645
903.554800	3249.805033
903.861941	3611.873305
904.169041	4057.700348
904.476101	4348.796736
904.783121	4291.667860
905.090100	4032.499620
905.397039	3752.065273
905.703938	3495.024400
906.010796	3309.769558
906.317614	3195.327804
906.624391	3100.269286
906.931129	3025.524098
907.237826	2961.982874
907.544483	2913.207190
907.851099	2884.787686
908.157675	2863.493852
908.464211	2840.685151
908.770707	2829.609736
909.077163	2815.476861
909.383578	2799.113276
909.689954	2788.864610
909.996289	2788.640279
910.302584	2790.931483
910.608839	2789.202367
910.915054	2781.617952
911.221229	2776.420522
911.527363	2778.003444
911.833458	2788.383180
912.139513	2789.194806
912.445527	2795.481125
912.751502	2801.222999
913.057436	2811.232210
913.363331	2826.315342
913.669186	2848.226717
913.975000	2887.280536
914.280775	2950.466358
914.586510	3021.261803
914.892205	3102.603340
915.197859	3237.620564
915.503475	3441.265535
915.809050	3665.458250
916.114585	3808.085095
916.420081	3823.863906
916.725536	3756.211622
917.030952	3636.027993
917.336328	3499.160667
917.641665	3368.488918
917.946961	3266.660131
918.252218	3192.650951
918.557435	3113.220010
918.862612	3052.161555
919.167750	3001.946622
919.472848	2962.691157
919.777906	2932.068668
920.082925	2905.209400
920.387904	2874.899462
920.692843	2857.389014
920.997743	2849.822242
921.302603	2835.006291
921.607423	2822.320228
921.912204	2807.877322
922.216946	2797.679068
922.521647	2789.880403
922.826310	2784.322531
923.130932	2773.617640
923.435516	2765.665220
923.740059	2758.431164
924.044564	2748.580750
924.349028	2743.227044
924.653454	2736.693709
924.957840	2729.968810
925.262186	2726.770198
925.566493	2722.008828
925.870761	2717.406254
926.174989	2715.644371
926.479178	2708.312013
926.783328	2704.142979
927.087438	2704.125335
927.391509	2699.305992
927.695541	2697.687781
927.999533	2696.288861
928.303486	2691.151925
928.607400	2692.200485
928.911275	2691.474559
929.215110	2690.463808
929.518906	2689.155628
929.822663	2686.622448
930.126381	2688.490196
930.430060	2689.526153
930.733699	2689.992460
931.037299	2690.423478
931.340861	2692.061853
931.644383	2692.752492
931.947866	2692.588654
932.251309	2689.344672
932.554714	2690.221832
932.858080	2686.309897
933.161407	2683.607838
933.464694	2683.325534
933.767943	2681.858558
934.071153	2681.533404
934.374323	2682.415606
934.677455	2682.254289
934.980548	2680.797395
935.283602	2679.713547
935.586617	2676.797240
935.889593	2679.426201
936.192530	2679.403516
936.495428	2681.513239
936.798287	2683.050791
937.101108	2684.134639
937.403890	2692.024045
937.706632	2693.445650
938.009336	2701.035107
938.312002	2712.254195
938.614628	2721.454301
938.917216	2728.196844
939.219765	2725.217522
939.522275	2725.099055
939.824747	2721.345916
940.127179	2720.690566
940.429573	2716.183775
940.731929	2713.988352
941.034246	2711.689586
941.336524	2709.794112
941.638763	2706.076261
941.940964	2705.199100
942.243126	2702.101311
942.545250	2702.698688
942.847335	2697.604602
943.149381	2691.303160
943.451389	2690.050433
943.753359	2688.797706
944.055290	2686.698066
944.357182	2684.177489
944.659036	2681.911490
944.960851	2683.416275
945.262628	2681.435101
945.564367	2682.569361
945.866067	2683.902746
946.167729	2681.117508
946.469352	2683.975843
946.770937	2680.739422
947.072484	2679.804288
947.373992	2682.823939
947.675462	2681.951819
947.976893	2675.680624
948.278286	2673.880932
948.579641	2674.148113
948.880958	2670.510921
949.182236	2674.337157
949.483476	2673.467557
949.784678	2673.071827
950.085841	2675.587363
950.386967	2674.468227
950.688054	2674.198525
950.989103	2676.555264
951.290114	2675.320182
951.591087	2677.739935
951.892021	2680.754545
952.192917	2685.490709
952.493776	2685.767973
952.794596	2686.430885
953.095378	2685.941893
953.396122	2685.047088
953.696828	2683.514577
953.997496	2682.108095
954.298126	2679.350584
954.598718	2677.286232
954.899272	2674.332115
955.199788	2671.226765
955.500266	2670.442865
955.800706	2667.861794
956.101108	2664.123779
956.401472	2663.634787
956.701798	2664.027997
957.002087	2658.586071
957.302337	2658.853252
957.602550	2658.482728
957.902724	2654.606080
958.202861	2654.628766
958.502960	2655.488282
958.803022	2653.605411
959.103045	2652.713127
959.403031	2649.575009
959.702979	2649.002838
960.002889	2650.099289
960.302762	2649.895122
960.602596	2647.697179
960.902393	2652.337561
961.202153	2648.871768
961.501875	2647.818167
961.801559	2646.885553
962.101205	2650.842859
962.400814	2649.839669
962.700385	2645.617703
962.999918	2645.423619
963.299414	2642.277939
963.598873	2644.707775
963.898293	2640.327012
964.197677	2647.190543
964.497022	2646.724236
964.796331	2644.861530
965.095601	2645.713485
965.394835	2645.302631
965.694030	2645.753814
965.993189	2646.293218
966.292309	2644.478402
966.591393	2646.058804
966.890439	2645.564771
967.189447	2645.274905
967.488419	2643.298772
967.787353	2643.218114
968.086249	2645.229534
968.385108	2643.513021
968.683930	2642.053607
968.982714	2645.249699
969.281462	2642.398926
969.580172	2642.598052
969.878844	2644.785913
970.177480	2644.748104
970.476078	2646.903197
970.774639	2645.242137
971.073162	2644.337250
971.371649	2645.075779
971.670098	2645.910090
971.968510	2645.995790
972.266885	2644.649802
972.565223	2646.111736
972.863524	2645.211890
973.161788	2647.515697
973.460014	2645.408495
973.758204	2648.092910
974.056356	2644.289359
974.354471	2645.408495
974.652550	2645.647950
974.950591	2644.722898
975.248595	2646.973773
975.546563	2643.394554
975.844493	2646.993938
976.142386	2645.385810
976.440243	2643.671818
976.738062	2644.271715
977.035845	2646.257930
977.333590	2643.961684
977.631299	2642.782054
977.928971	2638.764254
978.226606	2639.495222
978.524204	2641.136117
978.821765	2639.969090
979.119290	2642.910603
979.416777	2641.920017
979.714228	2645.564771
980.011642	2642.635861
980.309020	2643.896149
980.606360	2643.505460
980.903664	2643.192908
981.200931	2645.663073
981.498162	2643.298772
981.795356	2645.221972
982.092513	2646.550317
982.389633	2650.600884
982.686717	2652.241779
982.983764	2654.399393
983.280775	2658.951555
983.577749	2661.265445
983.874686	2661.525064
984.171587	2659.090187
984.468451	2654.089362
984.765279	2650.905873
985.062070	2651.735143
985.358824	2648.647437
985.655543	2645.937816
985.952224	2645.796664
986.248869	2646.615852
986.545478	2645.131232
986.842050	2644.508649
987.138586	2641.632671
987.435086	2641.345325
987.731549	2640.947074
988.027975	2641.645274
988.324366	2639.394399
988.620719	2639.018833
988.917037	2639.349028
989.213318	2639.001189
989.509563	2639.669142
989.805772	2639.197794
990.101944	2636.972124
990.398080	2640.145531
990.694180	2641.380613
990.990244	2636.778040
991.286271	2638.113946
991.582262	2639.477578
991.878217	2637.514048
992.174136	2641.304996
992.470019	2637.597227
992.765865	2636.336939
993.061676	2633.750827
993.357450	2635.618574
993.653188	2635.941208
993.948890	2640.778195
994.244556	2640.291724
994.540186	2638.930612
994.835780	2641.247023
995.131337	2642.393885
995.426859	2641.622589
995.722345	2642.189718
996.017795	2641.615027
996.313208	2644.387662
996.608586	2644.072589
996.903928	2644.334729
997.199234	2643.944040
997.494504	2644.662404
997.789738	2645.748773
998.084936	2644.929586
998.380099	2643.293731
998.675225	2642.542599
998.970316	2641.892290
999.265371	2640.901704
999.560390	2638.557567
999.855373	2643.346663
1000.150320	2638.149234
1000.445232	2640.460603
1000.740108	2637.728297
1001.034948	2639.906076
1001.329752	2636.553708
1001.624521	2636.503297
1001.919254	2638.207207
1002.213951	2639.850623
1002.508613	2638.860036
1002.803239	2635.931126
1003.097829	2638.648308
1003.392384	2637.907258
1003.686903	2636.432721
1003.981386	2636.780560
1004.275834	2638.542444
1004.570246	2638.214769
1004.864623	2635.699233
1005.158964	2638.141672
1005.453270	2633.289561
1005.747540	2636.984727
1006.041775	2636.813328
1006.335974	2636.299130
1006.630138	2637.970273
1006.924266	2637.453554
1007.218359	2636.525982
1007.512416	2636.173101
1007.806438	2631.956176
1008.100425	2636.800725
1008.394376	2633.110600
1008.688292	2637.173770
1008.982172	2636.430200
1009.276017	2636.732669
1009.569827	2636.571352
1009.863602	2635.515231
1010.157341	2635.109418
1010.451045	2638.381127
1010.744714	2636.165540
1011.038347	2634.691002
1011.331945	2637.579583
1011.625508	2636.727628
1011.919036	2637.198976
1012.212528	2636.578914
1012.505986	2637.267032
1012.799408	2636.624285
1013.092795	2635.260652
1013.386147	2634.048255
1013.679464	2635.006074
1013.972745	2635.215282
1014.265992	2636.147896
1014.559204	2632.316619
1014.852380	2636.576394
1015.145521	2635.288379
1015.438628	2636.591517
1015.731699	2638.633184
1016.024736	2637.377937
1016.317737	2635.542957
1016.610703	2635.787453
1016.903635	2637.914820
1017.196531	2634.174284
1017.489393	2633.034983
1017.782219	2634.476753
1018.075011	2634.222175
1018.367768	2633.254273
1018.660490	2635.381640
1018.953177	2635.381640
1019.245829	2635.381640
