Dividing Wavelength (nm)	Counts (n)	Blue Motor Position (mm): 25.300000	Red Motor Position (mm): 0.000000	
326.493990	2201.464323
326.888308	2201.464323
327.282561	2201.464323
327.676750	2158.745585
328.070874	2156.671150
328.464933	2153.790131
328.858929	2160.353713
329.252859	2164.888231
329.646726	2175.187308
330.040528	2186.187106
330.434265	2196.544157
330.827938	2217.691797
331.221547	2234.683006
331.615091	2250.542476
332.008571	2268.637698
332.401986	2290.647376
332.795338	2304.540796
333.188625	2325.403611
333.581847	2343.115705
333.975006	2361.513396
334.368100	2380.231200
334.761129	2398.225599
335.154095	2418.077663
335.546996	2440.563729
335.939833	2476.451703
336.332606	2492.336379
336.725315	2506.885149
337.117960	2517.627848
337.510540	2526.071781
337.903056	2542.526107
338.295508	2548.416695
338.687896	2557.173179
339.080220	2565.123079
339.472480	2572.422670
339.864676	2579.316448
340.256807	2584.360122
340.648875	2585.577561
341.040879	2587.626790
341.432818	2593.363623
341.824694	2591.815989
342.216506	2595.206165
342.608253	2597.043665
342.999937	2597.152050
343.391557	2597.817482
343.783113	2600.577514
344.174605	2597.101638
344.566033	2593.938314
344.957397	2596.080805
345.348697	2591.198447
345.739934	2593.608119
346.131106	2589.373550
346.522215	2589.434043
346.913260	2587.243662
347.304241	2582.474731
347.695159	2581.995821
348.086012	2580.163362
348.476802	2578.028433
348.867528	2575.142372
349.258191	2571.550550
349.648789	2569.695406
350.039324	2569.677762
350.429796	2571.696744
350.820203	2570.229768
351.210548	2568.835889
351.600828	2567.053841
351.991045	2564.545867
352.381198	2565.322205
352.771288	2565.044941
353.161314	2563.530074
353.551276	2564.263562
353.941175	2564.329097
354.331010	2560.928839
354.720782	2561.720300
355.110490	2563.270455
355.500135	2566.186762
355.889717	2563.182235
356.279235	2564.195507
356.668689	2563.424210
357.058080	2564.319015
357.447408	2564.709704
357.836672	2560.949004
358.225873	2565.271793
358.615010	2564.661813
359.004084	2563.497307
359.393095	2565.750703
359.782043	2566.446382
360.170927	2567.111814
360.559748	2565.475960
360.948505	2565.231464
361.337199	2569.977710
361.725830	2567.189952
362.114398	2569.743297
362.502903	2568.256156
362.891344	2571.779923
363.279722	2568.097360
363.668037	2568.341856
364.056289	2568.573749
364.444478	2573.080540
364.832603	2572.951991
365.220665	2572.934347
365.608665	2575.341498
365.996601	2571.860581
366.384474	2572.611713
366.772284	2573.539285
367.160031	2571.706826
367.547715	2577.221848
367.935336	2574.809656
368.322893	2573.766137
368.710388	2574.144224
369.097820	2574.938206
369.485189	2573.776220
369.872495	2578.618248
370.259738	2577.168916
370.646918	2577.899883
371.034035	2577.181519
371.421090	2578.850141
371.808081	2579.591191
372.195010	2578.313258
372.581875	2577.173957
372.968678	2581.723599
373.355418	2579.732343
373.742096	2579.477765
374.128710	2578.164544
374.515262	2581.748804
374.901751	2581.216963
375.288177	2580.322158
375.674540	2582.419278
376.060841	2583.941706
376.447079	2582.492375
376.833254	2581.905080
377.219367	2579.545820
377.605417	2583.608990
377.991404	2581.922724
378.377329	2581.965574
378.763191	2583.175451
379.148991	2585.698548
379.534727	2583.959350
379.920402	2583.714854
380.306013	2583.392221
380.691563	2585.297777
381.077049	2587.621749
381.462474	2586.157293
381.847835	2586.527818
382.233134	2584.443301
382.618371	2586.273240
383.003545	2586.721903
383.388657	2585.290215
383.773706	2588.451018
384.158693	2584.982705
384.543618	2585.953127
384.928480	2587.707448
385.313280	2590.185175
385.698017	2586.656368
386.082692	2589.139136
386.467305	2589.335741
386.851856	2586.797520
387.236344	2588.234249
387.620770	2584.095462
388.005133	2585.978332
388.389435	2586.631162
388.773674	2586.109402
389.157851	2591.256421
389.541965	2591.652151
389.926018	2590.389342
390.310008	2589.807089
390.693936	2592.889754
391.077802	2590.003694
391.461606	2592.496544
391.845348	2591.505958
392.229027	2592.312542
392.612645	2593.224991
392.996200	2592.914960
393.379694	2594.593664
393.763125	2593.613160
394.146494	2592.088211
394.529801	2593.300608
394.913047	2595.909406
395.296230	2596.688264
395.679351	2595.884200
396.062410	2594.371854
396.445408	2597.149529
396.828343	2593.865218
397.211217	2596.196751
397.594028	2597.454519
397.976778	2596.360589
398.359466	2596.602564
398.742092	2596.423603
399.124656	2595.758171
399.507158	2593.938314
399.889598	2598.606423
400.271977	2597.457040
400.654294	2599.652462
401.036549	2597.300764
401.418742	2597.134406
401.800874	2595.092739
402.182944	2598.931577
402.564952	2596.975610
402.946898	2600.688419
403.328783	2601.706732
403.710606	2600.920312
404.092367	2602.215889
404.474067	2602.924171
404.855705	2600.522061
405.237282	2601.041300
405.618797	2600.942998
406.000250	2602.604058
406.381642	2602.339397
406.762972	2601.278234
407.144240	2600.093563
407.525447	2599.841506
407.906593	2601.056424
408.287677	2604.340735
408.668700	2603.534151
409.049661	2603.632453
409.430560	2603.216558
409.811399	2605.142279
410.192176	2605.290993
410.572891	2606.445417
410.953545	2604.862495
411.334138	2606.730242
411.714669	2607.786364
412.095139	2604.106322
412.475547	2606.216045
412.855894	2606.178236
413.236180	2607.521703
413.616405	2606.538678
413.996568	2609.008844
414.376670	2610.299379
414.756711	2610.130501
415.136691	2608.562702
415.516609	2609.412136
415.896466	2608.224944
416.276262	2611.146293
416.655997	2607.746035
417.035670	2608.482043
417.415283	2611.569750
417.794834	2610.279215
418.174324	2608.600510
418.553753	2612.719133
418.933121	2613.079576
419.312428	2611.567229
419.691674	2614.168465
420.070859	2612.099071
420.449983	2611.196705
420.829045	2613.692076
421.208047	2610.102774
421.586988	2613.079576
421.965867	2614.972529
422.344686	2614.783486
422.723444	2613.918928
423.102141	2616.169803
423.480777	2616.689042
423.859352	2612.890532
424.237866	2615.733743
424.616319	2618.947479
424.994712	2617.445215
425.373044	2616.681480
425.751314	2615.935389
426.129524	2611.819287
426.507673	2615.131325
426.885762	2610.243927
427.263789	2616.608383
427.641756	2616.689042
428.019662	2617.127622
428.397508	2618.977726
428.775292	2619.144084
429.153016	2616.971346
429.530679	2619.827160
429.908282	2619.960751
430.285824	2621.117695
430.663305	2618.609721
431.040726	2621.347068
431.418086	2622.461163
431.795385	2621.647017
432.172624	2622.685494
432.549802	2620.439660
432.926920	2624.681791
433.303977	2621.397479
433.680974	2623.663478
434.057910	2624.800258
434.434786	2624.762450
434.811601	2624.361678
435.188355	2626.698253
435.565050	2624.908643
435.941683	2627.787142
436.318257	2630.219499
436.694770	2628.699591
437.071222	2631.119345
437.447614	2629.410393
437.823946	2633.546660
438.200218	2629.682616
438.576429	2632.906434
438.952580	2633.022380
439.328670	2633.206382
439.704700	2633.350055
440.080670	2633.445837
440.456580	2634.736372
440.832429	2639.306178
441.208218	2636.483132
441.583947	2641.582259
441.959616	2639.278452
442.335224	2638.633184
442.710773	2641.234420
443.086261	2642.887918
443.461689	2641.703247
443.837057	2645.864720
444.212365	2647.878661
444.587612	2645.463948
444.962800	2648.208856
445.337927	2649.217087
445.712995	2646.215080
446.088002	2658.676812
446.462949	2658.790238
446.837837	2659.674961
447.212664	2664.063285
447.587431	2668.817093
447.962139	2676.343536
448.336786	2695.620908
448.711374	2705.388144
449.085901	2699.046372
449.460369	2701.350179
449.834776	2710.809905
450.209124	2723.445557
450.583412	2740.030953
450.957640	2763.661362
451.331808	2768.526075
451.705917	2773.118566
452.079965	2777.406067
452.453954	2803.859522
452.827883	2815.252530
453.201752	2842.177333
453.575562	2852.519260
453.949311	2890.174158
454.323001	2915.518559
454.696632	2953.712862
455.070202	2990.861124
455.443713	3040.478681
455.817164	3096.392639
456.190556	3136.522744
456.563888	3201.702343
456.937160	3260.172166
457.310373	3269.896551
457.683526	3318.120229
458.056619	3345.438242
458.429653	3411.152203
458.802628	3437.693878
459.175542	3524.537835
459.548398	3673.395546
459.921194	3786.957619
460.293930	3878.842730
460.666607	4066.965989
461.039224	4298.375115
461.411782	4504.752392
461.784280	4585.189043
462.156719	4697.190878
462.529099	4731.846290
462.901419	4678.505841
463.273680	4741.346345
463.645882	4817.397192
464.018024	4873.076736
464.390106	5025.508625
464.762130	5294.580212
465.134094	5561.665584
465.505999	6134.711185
465.877845	7081.482728
466.249631	7954.673588
466.621358	8048.552476
466.993026	7861.107252
467.364634	7869.228551
467.736184	7689.970161
468.107674	7624.021787
468.479105	7828.228847
468.850477	7869.536061
469.221790	7901.774240
469.593043	7841.015733
469.964238	7859.100873
470.335373	7901.408757
470.706449	8206.363276
471.077467	8191.083539
471.448425	9012.600052
471.819324	10728.752494
472.190164	11786.915892
472.560945	10680.377582
472.931667	9875.713646
473.302330	9787.669894
473.672934	9722.563392
474.043479	10090.197098
474.413965	10193.230721
474.784393	10210.854595
475.154761	10696.264778
475.525070	10892.680735
475.895321	10879.172963
476.265513	11355.829183
476.635645	11835.580671
477.005719	11934.306628
477.375734	12222.615257
477.745691	12705.126777
478.115588	13172.403930
478.485427	13700.900855
478.855207	14481.672242
479.224928	15688.451376
479.594591	17280.450282
479.964194	17561.552582
480.333739	18065.078151
480.703226	17990.978231
481.072653	18038.851548
481.442022	18657.249891
481.811333	19460.033476
482.180584	19690.557880
482.549777	19255.791128
482.918912	19270.143293
483.287988	19555.966634
483.657005	19545.985149
484.025964	19542.998266
484.394864	19733.551360
484.763706	19717.916222
485.132489	19513.726806
485.501213	19793.319280
485.869879	19966.803028
486.238487	19905.767258
486.607036	20275.190574
486.975527	20160.201854
487.343959	20605.129052
487.712333	20770.862026
488.080648	20613.961153
488.448905	21174.847492
488.817104	21104.929209
489.185244	21806.057927
489.553326	21969.925674
489.921350	22868.506306
490.289315	24944.524036
490.657222	26683.679263
491.025070	27285.845090
491.392861	27256.508095
491.760593	26653.301270
492.128267	26076.273156
492.495883	25266.227789
492.863440	24604.094916
493.230939	23897.108377
493.598380	23851.110369
493.965763	23571.729623
494.333088	23261.910390
494.700354	23270.981946
495.067563	23261.723867
495.434713	23102.980453
495.801805	23286.697743
496.168839	23205.872924
496.535815	23093.452673
496.902733	23352.101673
497.269593	23077.177307
497.636395	23345.379295
498.003139	23368.187995
498.369825	23181.740920
498.736453	23393.129104
499.103023	23328.798940
499.469535	23396.736050
499.835989	23623.613178
500.202385	23700.059756
500.568723	23236.364343
500.935003	23543.174007
501.301226	23148.010560
501.667390	23983.380164
502.033497	24262.728143
502.399546	24016.427448
502.765537	23656.695751
503.131470	24043.924422
503.497345	24189.737276
503.863163	23431.547738
504.228923	24084.556122
504.594625	24265.437763
504.960269	23794.089878
505.325856	24307.556603
505.691385	23729.754673
506.056856	24355.588717
506.422270	24328.915972
506.787625	23940.968937
507.152924	24349.057902
507.518164	24370.797878
507.883347	24189.142420
508.248472	23901.421085
508.613540	24677.867162
508.978550	24457.190652
509.343503	24452.915754
509.708398	24738.285391
510.073236	24889.104111
510.438016	25106.904642
510.802738	24793.299502
511.167403	25041.283942
511.532010	24740.037192
511.896561	25523.800503
512.261053	25497.803273
512.625488	25346.339285
512.989866	25236.321144
513.354186	25096.764361
513.718449	25188.029410
514.082655	25571.903193
514.446803	25315.489944
514.810894	25760.608705
515.174927	25251.868062
515.538904	25283.650017
515.902822	25782.242817
516.266684	25535.574118
516.630488	25437.780775
516.994235	25443.409223
517.357925	25718.769649
517.721558	25909.600007
518.085133	25995.201320
518.448651	25925.630877
518.812112	25644.526056
519.175516	25827.577914
519.538863	26013.092375
519.902152	25781.658043
520.265385	26085.553921
520.628560	25864.242226
520.991678	25888.233077
521.354739	25957.173376
521.717743	26012.164803
522.080690	25820.757233
522.443580	26134.768185
522.806413	26144.779917
523.169189	26225.143471
523.531908	26288.110003
523.894569	25897.125672
524.257174	25959.507430
524.619722	26168.490984
524.982213	25835.316085
525.344647	25929.472236
525.707025	26039.129935
526.069345	26029.385384
526.431608	25986.248231
526.793815	26179.871388
527.155964	25627.865042
527.518057	25801.157226
527.880093	25725.560083
528.242072	25955.842512
528.603995	25663.082543
528.965860	25450.366015
529.327669	25507.762072
529.689421	25501.805949
530.051117	25319.805172
530.412755	25509.463462
530.774337	25307.512318
531.135862	25189.259452
531.497331	25388.768157
531.858743	24931.941316
532.220098	25416.693628
532.581396	25088.086015
532.942638	25049.851383
533.303824	25140.546782
533.664953	25163.257180
534.026025	24819.939480
534.387040	25047.172010
534.747999	25124.634380
535.108902	25283.697908
535.469748	24753.542443
535.830537	24971.211904
536.191270	25066.406533
536.551947	24962.359638
536.912567	24637.290914
537.273131	24936.886688
537.633638	24673.055380
537.994089	24874.424271
538.354483	24418.081381
538.714821	24915.255096
539.075103	24957.865449
539.435328	24752.181331
539.795497	24301.850017
540.155609	24712.096596
540.515665	24991.709236
540.875665	24240.940276
541.235609	24512.038406
541.595496	24497.106508
541.955328	24844.782286
542.315102	24757.774491
542.674821	24327.774151
543.034483	24198.957546
543.394090	24373.714186
543.753640	24170.482589
544.113134	24798.698578
544.472571	24390.526434
544.831953	24681.519478
545.191278	24287.122286
545.550548	24225.070723
545.909761	24432.746097
546.268918	24656.273379
546.628019	24619.873728
546.987064	24323.668131
547.346053	24090.668521
547.704986	24218.265166
548.063863	24368.940213
548.422684	24363.006775
548.781449	23927.451083
549.140158	24310.213291
549.498811	23894.015630
549.857408	23626.650474
550.215949	24063.811773
550.574434	23759.880608
550.932864	23972.942455
551.291237	24117.288333
551.649555	23989.971473
552.007817	24040.168762
552.366022	23906.426950
552.724173	23948.334062
553.082267	23873.432598
553.440305	24357.958059
553.798288	23631.071566
554.156215	24157.287369
554.514086	24228.980138
554.871902	23599.166103
555.229661	23892.591504
555.587365	23761.760958
555.945014	23591.241409
556.302606	23867.342885
556.660143	23798.142966
557.017625	24072.787548
557.375050	23594.624023
557.732421	23981.157015
558.089735	23808.013545
558.446994	23846.326314
558.804197	23885.128075
559.161345	23834.756866
559.518437	23569.811464
559.875474	23786.959166
560.232455	23954.287665
560.589381	23789.867912
560.946251	23755.807356
561.303065	24095.233285
561.659825	24184.176883
562.016528	23768.579119
562.373177	23524.791440
562.729770	23861.868192
563.086307	23741.540890
563.442789	23907.198247
563.799216	23732.940682
564.155587	23736.633327
564.511904	23730.304158
564.868164	23660.101050
565.224370	23656.347911
565.580520	23548.283217
565.936615	23677.823226
566.292654	23357.725081
566.648638	23667.587163
567.004567	23491.797088
567.360441	23434.441360
567.716260	23175.946114
568.072023	23505.040199
568.427732	23268.489096
568.783385	23045.339900
569.138982	23267.632100
569.494525	23312.064830
569.850013	23067.526018
570.205445	23155.451303
570.560823	22949.285755
570.916145	22728.064801
571.271412	22889.580849
571.626625	22648.941370
571.981782	22771.338065
572.336884	22565.641344
572.691931	22704.610832
573.046923	22434.697373
573.401860	22319.270073
573.756743	22324.802740
574.111570	22236.569945
574.466342	22176.862518
574.821059	22260.991814
575.175722	21955.676852
575.530330	21940.334101
575.884882	21974.313998
576.239380	21875.272969
576.593823	21774.770005
576.948211	21748.308989
577.302544	21599.589909
577.656823	21473.631639
578.011047	21560.062222
578.365216	21440.977565
578.719330	21314.759676
579.073389	21221.155531
579.427394	21361.463446
579.781344	21146.375055
580.135239	21024.837877
580.489080	20997.363588
580.842866	20763.638052
581.196597	20957.150304
581.550273	20924.284502
581.903895	20824.951086
582.257463	21139.897172
582.610975	20656.153090
582.964434	20980.168213
583.317837	20673.209834
583.671186	20776.971904
584.024481	20739.188456
584.377721	20513.808550
584.730906	20559.751105
585.084037	20588.291598
585.437113	20500.517548
585.790135	20704.734690
586.143103	20179.726243
586.496016	20180.353867
586.848874	20421.936042
587.201679	20366.175839
587.554428	20027.768222
587.907124	20354.808037
588.259765	20136.901641
588.612352	20226.992102
588.964884	19789.760226
589.317362	19960.718356
589.669786	20001.405508
590.022155	20050.740760
590.374470	20231.488811
590.726731	20045.331602
591.078937	19797.410177
591.431090	19896.307533
591.783188	19638.301279
592.135232	19620.367374
592.487222	19713.046467
592.839157	19741.516383
593.191038	19623.213106
593.542866	19507.939561
593.894639	19229.970338
594.246358	19446.170303
594.598022	19350.524491
594.949633	19109.257389
595.301190	19073.986956
595.652692	19224.031859
596.004141	19485.922322
596.355535	18807.680442
596.706876	18824.258277
597.058162	18708.210915
597.409395	18936.912942
597.760573	19012.379015
598.111698	18800.358166
598.462768	18734.795440
598.813785	18690.186269
599.164748	18517.806534
599.515657	18540.464000
599.866511	18339.689966
600.217312	18705.891984
600.568060	18232.162154
600.918753	18536.254637
601.269392	18441.909443
601.619978	18209.413948
601.970510	18434.282177
602.320988	18366.904635
602.671412	18587.694571
603.021783	18487.610023
603.372100	18223.619919
603.722363	18352.885186
604.072572	18293.946536
604.422728	18426.959901
604.772830	18195.815435
605.122878	18133.350498
605.472872	18133.675652
605.822813	18124.793139
606.172701	18092.275176
606.522534	18282.099824
606.872314	18309.773238
607.222041	18147.942118
607.571714	18364.913379
607.921333	18190.998613
608.270899	18263.989479
608.620411	18442.300132
608.969870	18211.932004
609.319276	18212.284885
609.668627	18246.673116
610.017926	18375.991315
610.367171	18489.981886
610.716362	18534.036529
611.065500	18358.813583
611.414585	18493.460282
611.763616	18474.465214
612.112594	18422.135517
612.461518	18383.447181
612.810389	18581.355320
613.159207	18436.896015
613.507971	18331.084716
613.856682	18618.952245
614.205340	18546.709990
614.553945	18692.094346
614.902496	18430.516435
615.250994	18675.793775
615.599439	18619.229508
615.947830	18601.635882
616.296169	18646.350916
616.644454	18616.817316
616.992686	18583.641483
617.340864	18802.833373
617.688990	18563.650787
618.037063	18732.317713
618.385082	18581.448581
618.733048	18871.682931
619.080961	18733.668742
619.428821	18769.279453
619.776628	18655.404828
620.124382	18577.866841
620.472083	18612.875134
620.819731	18649.073139
621.167326	18343.554010
621.514868	18382.002891
621.862357	18141.219739
622.209793	18146.538156
622.557176	17980.779977
622.904506	17814.716807
623.251783	17721.541161
623.599007	17487.291344
623.946179	17434.107171
624.293297	17381.200262
624.640363	17129.697096
624.987376	17146.355589
625.334336	16935.022858
625.681243	16787.765713
626.028097	16789.772093
626.374899	16727.917135
626.721647	16592.615086
627.068343	16419.227120
627.414987	16345.843044
627.761577	16324.980228
628.108115	16373.428237
628.454600	16084.960812
628.801032	16190.709096
629.147412	16120.503467
629.493739	16145.558001
629.840014	15947.833865
630.186236	16047.139555
630.532405	15816.400902
630.878521	16010.107239
631.224585	15910.304995
631.570597	15727.661471
631.916556	15760.807057
632.262462	15739.470374
632.608316	15659.005997
632.954117	15603.490290
633.299866	15597.728251
633.645562	15518.942578
633.991206	15272.886380
634.336797	15142.726308
634.682336	15112.562564
635.027823	14997.105017
635.373257	14886.602925
635.718639	14778.097130
636.063968	14727.955293
636.409245	14486.486544
636.754470	14516.178940
637.099642	14358.786556
637.444762	14131.828768
637.789829	14172.750335
638.134845	14006.699768
638.479808	14031.325805
638.824719	13988.861645
639.169577	13840.331609
639.514383	13887.733578
639.859137	13699.607799
640.203839	13788.669864
640.548489	13622.581489
640.893086	13620.391108
641.237632	13486.679543
641.582125	13641.750477
641.926566	13472.062717
642.270955	13478.979181
642.615292	13439.237244
642.959576	13455.689050
643.303809	13483.211229
643.647990	13419.417948
643.992118	13476.451042
644.336195	13242.612080
644.680219	13455.242908
645.024192	13374.218962
645.368112	13620.234832
645.711981	13662.411646
646.055797	13848.707486
646.399562	13813.842866
646.743274	14090.403087
647.086935	14364.798132
647.430544	14319.954547
647.774101	14365.846692
648.117606	14509.597714
648.461059	14475.627899
648.804460	14469.492815
649.147810	14196.310167
649.491108	14099.368779
649.834354	14117.577426
650.177548	13808.980673
650.520690	13626.178352
650.863781	13545.345971
651.206820	13580.497937
651.549807	13418.616404
651.892742	13219.574007
652.235626	13166.503259
652.578458	13167.808918
652.921238	12850.869055
653.263967	13049.735013
653.606644	12876.891492
653.949269	12847.514167
654.291843	12650.223571
654.634365	12817.725989
654.976836	12658.685147
655.319255	12676.798013
655.661622	12627.674489
656.003938	12546.713559
656.346203	12474.430974
656.688416	12543.096531
657.030577	12501.509532
657.372687	12426.224941
657.714746	12395.378120
658.056753	12576.279926
658.398708	12407.665933
658.740612	12406.529153
659.082465	12504.766118
659.424266	12474.292342
659.766016	12497.474088
660.107715	12401.939182
660.449362	12482.275010
660.790958	12444.501644
661.132503	12382.225750
661.473996	12443.697580
661.815438	12464.676342
662.156829	12479.091521
662.498168	12461.649129
662.839456	12449.288219
663.180693	12474.395686
663.521879	12559.502966
663.863013	12535.554965
664.204097	12520.035773
664.545129	12641.303249
664.886110	12609.077673
665.227040	12698.890870
665.567918	12707.780945
665.908746	12734.173906
666.249522	12714.495762
666.590248	12769.691355
666.930922	12882.968602
667.271545	12863.086292
667.612118	12950.852780
667.952639	12851.829395
668.293109	12860.240560
668.633528	12818.290599
668.973896	12790.045014
669.314213	12868.104760
669.654480	12607.845111
669.994695	12678.905215
670.334859	12706.215666
670.674973	12645.283240
671.015035	12684.727748
671.355047	12623.707101
671.695008	12602.529214
672.034918	12604.666663
672.374777	12649.346410
672.714585	12561.421125
673.054342	12595.998399
673.394049	12554.192110
673.733705	12637.464410
674.073310	12552.357130
674.412864	12571.720202
674.752368	12437.043257
675.091820	12447.039865
675.431223	12439.515943
675.770574	12312.677991
676.109875	12231.099519
676.449125	12194.722553
676.788324	12142.561734
677.127473	11969.864406
677.466571	11965.619755
677.805619	11857.991120
678.144616	11786.573094
678.483562	11750.763257
678.822458	11616.855088
679.161303	11598.313724
679.500098	11587.684451
679.838842	11542.881196
680.177535	11567.257696
680.516179	11626.188784
680.854771	11569.551421
681.193314	11786.225254
681.531805	11938.258892
681.870247	12349.264165
682.208638	12763.682300
682.546978	13076.760639
682.885268	13136.652067
683.223508	12819.704642
683.561697	12659.620281
683.899836	12568.690469
684.237925	12366.285621
684.575963	12278.640121
684.913951	12212.222919
685.251889	12148.653969
685.589776	12250.155081
685.927614	12179.082373
686.265401	12141.329172
686.603137	12190.727439
686.940824	12341.387363
687.278460	12456.807100
687.616046	12504.907270
687.953582	12687.041638
688.291068	12592.759458
688.628504	12828.415756
688.965889	12846.127850
689.303224	12818.971154
689.640510	12703.024616
689.977745	12402.602094
690.314930	12173.579954
690.652065	12090.158940
690.989150	11796.985597
691.326185	11568.596122
691.663170	11368.056501
692.000105	11123.679007
692.336990	11014.676658
692.673825	10766.498133
693.010610	10641.837961
693.347345	10433.020765
693.684030	10235.034489
694.020665	10180.269914
694.357251	9981.650973
694.693786	9928.943189
695.030272	9766.605433
695.366707	9640.130444
695.703093	9575.946474
696.039429	9572.538654
696.375716	9495.827416
696.711952	9370.844609
697.048139	9404.627901
697.384276	9357.883802
697.720363	9376.583963
698.056400	9307.222727
698.392388	9261.575079
698.728326	9225.346827
699.064214	9158.710334
699.400053	9214.321823
699.735842	9025.144963
700.071581	8983.651226
700.407270	8912.581039
700.742910	8829.124737
701.078501	8736.193587
701.414042	8616.889640
701.749533	8546.036222
702.084974	8412.281808
702.420366	8520.671657
702.755709	8406.998679
703.091002	8273.516487
703.426246	8299.869118
703.761440	8256.477387
704.096584	8208.039460
704.431679	8136.381978
704.766725	8132.109601
705.101721	8079.500119
705.436668	8119.846994
705.771565	8023.437447
706.106413	8097.547450
706.441212	8138.963049
706.775961	8094.124506
707.110661	8129.846123
707.445311	8279.848176
707.779913	8169.817431
708.114465	8297.184704
708.448967	8342.955860
708.783421	8485.393662
709.117825	8657.493613
709.452180	8701.059265
709.786485	8785.710320
710.120742	9068.307322
710.454949	9068.443434
710.789107	9161.919029
711.123216	9378.872646
711.457275	9544.323316
711.791286	9707.394560
712.125247	9704.747954
712.459159	9686.894708
712.793023	9943.343245
713.126837	9517.481692
713.460602	9668.625567
713.794318	9487.164193
714.127985	9524.115850
714.461602	9207.032315
714.795171	9153.122215
715.128691	8901.805573
715.462162	8656.550918
715.795584	8599.313657
716.128957	8453.349568
716.462281	8282.764483
716.795556	8333.571752
717.128782	8129.515927
717.461960	7863.660597
717.795088	7932.956297
718.128167	7844.652926
718.461198	7676.996752
718.794180	7612.807740
719.127113	7611.862524
719.459997	7462.747713
719.792833	7227.671148
720.125619	7289.425282
720.458357	7153.046947
720.791046	7136.791747
721.123686	7136.171685
721.456278	6977.390462
721.788821	6997.565160
722.121315	6890.022225
722.453761	6957.044365
722.786158	6903.802219
723.118506	6910.753970
723.450805	6880.973354
723.783056	6949.165042
724.115259	6856.007039
724.447412	6850.539908
724.779518	6898.912300
725.111574	6896.333750
725.443582	6978.915411
725.775542	6957.024201
726.107453	7153.316649
726.439315	7065.711478
726.771129	7120.302133
727.102895	7288.598533
727.434612	7397.207672
727.766281	7434.630678
728.097901	7518.702001
728.429473	7507.243458
728.760996	7483.479459
729.092471	7458.684543
729.423897	7404.819815
729.755276	7414.307266
730.086606	7341.011410
730.417887	7442.152079
730.749120	7630.144268
731.080305	7820.470511
731.411442	7947.852907
731.742530	7937.689941
732.073570	8048.517187
732.404562	8136.203017
732.735506	7981.081672
733.066401	8126.166080
733.397249	8054.458187
733.728048	7819.331210
734.058798	7487.030952
734.389501	7268.393589
734.720156	7088.371464
735.050762	6849.967737
735.381320	6758.916937
735.711831	6712.802982
736.042293	6597.423573
736.372707	6620.887624
736.703073	6481.318239
737.033391	6519.918354
737.363661	6533.247164
737.693883	6562.652215
738.024056	6639.053422
738.354182	6685.915988
738.684260	6721.630042
739.014290	6835.376117
739.344272	6938.170285
739.674207	6974.171686
740.004093	7043.109464
740.333931	7054.651186
740.663722	7067.584266
740.993464	7139.766028
741.323159	7136.703527
741.652806	6881.308591
741.982405	6892.016001
742.311956	6953.074457
742.641460	6795.593852
742.970915	6596.256546
743.300323	6586.779177
743.629683	6536.332351
743.958996	6403.656743
744.288260	6318.020142
744.617477	6262.988386
744.946647	6268.150528
745.275768	6099.980156
745.604842	6056.137241
745.933869	6038.006731
746.262847	5994.980483
746.591778	5984.888093
746.920662	5943.434685
747.249498	5934.700886
747.578286	5983.083360
747.907027	6056.119597
748.235720	6117.614112
748.564365	6090.119659
748.892963	6115.040603
749.221514	6270.779489
749.550017	6105.285970
749.878473	5981.611343
750.206881	6033.232758
750.535242	5979.725952
750.863555	5907.803810
751.191821	5928.117139
751.520039	5927.605462
751.848210	5837.225135
752.176334	5855.123752
752.504411	5907.108130
752.832440	5829.542417
753.160421	5755.167753
753.488356	5808.606505
753.816243	5840.557338
754.144082	5693.464030
754.471875	5660.986397
754.799620	5706.127409
755.127318	5723.292538
755.454969	5667.552500
755.782572	5636.647706
756.110129	5683.684192
756.437638	5671.393859
756.765100	5609.491010
757.092515	5608.046720
757.419882	5652.078678
757.747203	5634.003621
758.074477	5699.382345
758.401703	5689.211817
758.728882	5639.019569
759.056014	5691.918917
759.383099	5820.952291
759.710138	5831.768086
760.037129	5818.363658
760.364073	5820.168391
760.690970	5903.047481
761.017820	5887.588783
761.344623	5840.882492
761.671379	5944.815961
761.998088	6057.090019
762.324751	6300.086237
762.651366	6887.100876
762.977935	8184.527518
763.304456	9802.644642
763.630931	10718.314785
763.957359	10341.271765
764.283740	9404.625381
764.610074	8575.479081
764.936362	7579.750374
765.262602	6984.690053
765.588796	6449.198527
765.914943	6110.417865
766.241044	5949.521878
766.567097	5746.799438
766.893104	5490.976004
767.219064	5310.661492
767.544978	5252.874746
767.870845	5176.279454
768.196665	5068.229883
768.522438	4996.136342
768.848165	4963.779696
769.173846	4902.086056
769.499479	4851.777861
769.825066	4800.249707
770.150607	4738.740068
770.476101	4717.249629
770.801548	4718.129311
771.126949	4639.870438
771.452303	4586.320782
771.777611	4548.338208
772.102872	4561.546031
772.428087	4519.858209
772.753256	4483.211541
773.078378	4440.190334
773.403453	4366.947410
773.728482	4357.729660
774.053465	4311.068740
774.378401	4296.817398
774.703291	4299.078356
775.028135	4225.880802
775.352932	4177.586548
775.677683	4164.035927
776.002388	4183.638453
776.327046	4194.303014
776.651658	4120.563537
776.976224	4060.478024
777.300743	4063.308632
777.625216	4086.187908
777.949643	4082.044080
778.274024	4036.862739
778.598359	3994.272550
778.922647	4013.605375
779.246889	4009.380888
779.571086	4002.998788
779.895236	3990.259792
780.219339	3971.889827
780.543397	3965.071667
780.867409	4016.627547
781.191374	4032.930639
781.515294	3972.230105
781.839167	3961.910863
782.162995	3981.964573
782.486776	3967.441009
782.810511	3980.585818
783.134201	3974.574242
783.457844	3933.879527
783.781441	3875.616392
784.104993	3881.144017
784.428498	3902.095052
784.751958	3897.633631
785.075372	3878.018502
785.398739	3839.887214
785.722061	3851.406250
786.045337	3892.990728
786.368568	3926.088424
786.691752	3839.146164
787.014891	3886.230541
787.337983	4015.652084
787.661030	4172.963810
787.984031	4331.069518
788.306987	4503.638297
788.629897	4584.067386
788.952760	4546.016757
789.275579	4474.235767
789.598351	4410.107249
789.921078	4271.846043
790.243759	4074.749530
790.566395	4050.917476
790.888984	4049.536199
791.211529	3943.772792
791.534027	3878.941033
791.856480	3874.880383
792.178888	3812.972493
792.501249	3760.781428
792.823566	3773.565794
793.145836	3801.831543
793.468062	3749.910179
793.790241	3704.955690
794.112375	3734.043148
794.434464	3796.319042
794.756507	3817.774193
795.078505	3803.023776
795.400457	3834.324301
795.722364	3972.300681
796.044226	4077.358327
796.366042	4147.082526
796.687812	4131.023931
797.009538	4136.702791
797.331218	4094.828446
797.652852	4064.780649
797.974442	4044.850447
798.295986	4047.797001
798.617484	3966.851194
798.938938	3879.672000
799.260346	3919.464348
799.581709	3917.490736
799.903026	3842.853933
800.224299	3806.131648
800.545526	3799.807520
800.866708	3764.693363
801.187845	3704.633056
801.508936	3736.568766
801.829983	3737.438365
802.150984	3654.743277
802.471940	3646.044766
802.792851	3660.442302
803.113717	3659.232425
803.434538	3661.632014
803.755314	3602.375771
804.076045	3576.698654
804.396731	3597.022066
804.717372	3623.321765
805.037967	3609.761061
805.358518	3596.850666
805.679024	3621.958133
805.999485	3636.819455
806.319901	3641.406905
806.640272	3655.252434
806.960598	3670.653159
807.280879	3643.340187
807.601115	3653.281342
807.921306	3673.506452
808.241453	3710.390054
808.561554	3687.969522
808.881611	3626.921149
809.201623	3657.999862
809.521590	3669.753313
809.841513	3643.693068
810.161390	3675.412008
810.481223	3653.929131
810.801011	3594.244390
811.120755	3587.859768
811.440453	3623.609111
811.760107	3627.901653
812.079716	3584.560333
812.399281	3550.162020
812.718801	3574.891400
813.038276	3546.741597
813.357707	3547.427194
813.677093	3564.612487
813.996434	3511.609796
814.315731	3517.528111
814.634983	3524.794934
814.954191	3537.503683
815.273354	3568.589958
815.592473	3563.127868
815.911547	3568.632808
816.230577	3611.207872
816.549562	3656.391734
816.868502	3704.305381
817.187399	3722.907239
817.506250	3723.728947
817.825058	3694.505378
818.143821	3781.845889
818.462539	3890.371849
818.781213	3930.554886
819.099843	3986.526817
819.418429	4230.190989
819.736970	4471.879028
820.055466	4712.389957
820.373919	5079.388478
820.692327	5480.843285
821.010691	5913.207927
821.329011	7266.798063
821.647286	9978.502773
821.965517	14490.819416
822.283704	18516.147995
822.601847	20719.964016
822.919945	18929.290717
823.237999	16369.327259
823.556010	13892.832706
823.873976	11808.156794
824.191897	9726.450122
824.509775	8369.205148
824.827609	7250.132009
825.145398	6700.724378
825.463144	6580.634011
825.780845	6700.497526
826.098502	6875.438167
826.416116	7740.706854
826.733685	9051.986587
827.051210	10160.165793
827.368692	10227.084590
827.686129	8998.205037
828.003522	7481.899057
828.320872	6466.804757
828.638177	5768.307521
828.955439	5216.376792
829.272656	4716.921954
829.589830	4433.838481
829.906960	4257.700565
830.224046	4074.089139
830.541088	3947.790591
830.858086	3899.705545
831.175041	3825.522446
831.491952	3808.102739
831.808819	3817.771672
832.125642	3888.146180
832.442421	4036.340979
832.759157	4305.531033
833.075849	4849.138817
833.392497	5704.138674
833.709101	6476.014945
834.025662	6823.234498
834.342179	6468.455735
834.658653	5807.668850
834.975083	5168.223691
835.291469	4591.692131
835.607811	4182.136190
835.924110	4043.426321
836.240366	3846.927185
836.556578	3642.092502
836.872746	3532.417158
837.188871	3495.536077
837.504952	3429.789348
837.820990	3346.441431
838.136984	3302.321253
838.452935	3325.273626
838.768842	3319.952688
839.084706	3343.890608
839.400526	3498.132271
839.716303	3830.785411
840.032037	4350.256150
840.347727	4617.981748
840.663373	4345.519986
840.978977	3964.333138
841.294537	3662.113444
841.610054	3435.450564
841.925527	3326.496106
842.240957	3255.226794
842.556344	3204.669062
842.871687	3146.657984
843.186987	3100.798607
843.502244	3059.214129
843.817458	3026.923018
844.132629	2994.331959
844.447756	3002.516272
844.762840	2988.383397
845.077881	2956.382153
845.392879	2940.467230
845.707833	2937.820624
846.022745	2934.869028
846.337613	2936.308278
846.652438	2922.561051
846.967221	2921.580547
847.281960	2906.615882
847.596656	2904.044893
847.911309	2902.809811
848.225919	2898.371075
848.540485	2890.542163
848.855009	2892.311608
849.169490	2882.688045
849.483928	2872.184801
849.798323	2866.752958
850.112675	2866.100128
850.426984	2882.982953
850.741251	2877.810729
851.055474	2868.691281
851.369654	2860.048223
851.683792	2865.936291
851.997887	2873.891232
852.311938	2877.130173
852.625947	2865.916126
852.939914	2867.693133
853.253837	2873.588762
853.567718	2856.937831
853.881555	2856.090917
854.195350	2874.077754
854.509103	2871.174050
854.822812	2860.388501
855.136479	2856.723582
855.450103	2859.218953
855.763685	2850.966584
856.077224	2847.389886
856.390720	2863.438399
856.704173	2870.705222
857.017584	2864.794469
857.330953	2860.844725
857.644278	2871.458875
857.957561	2878.277035
858.270802	2883.577809
858.584000	2884.192829
858.897155	2868.156919
859.210268	2866.846219
859.523339	2864.161805
859.836367	2866.891589
860.149352	2859.022348
860.462295	2857.184848
860.775195	2863.665251
861.088054	2865.447299
861.400869	2848.589680
861.713642	2845.033146
862.026373	2858.740044
862.339062	2861.784901
862.651708	2869.656662
862.964312	2872.129348
863.276873	2862.478059
863.589392	2875.335522
863.901869	2887.272974
864.214303	2907.795512
864.526696	2923.639858
864.839045	2918.437388
865.151353	2917.146852
865.463619	2913.181985
865.775842	2915.493354
866.088023	2933.961621
866.400162	2943.310441
866.712258	2916.151224
867.024313	2903.906262
867.336325	2912.032602
867.648296	2929.676640
867.960224	2925.666402
868.272110	2913.812129
868.583954	2916.433529
868.895755	2931.020108
869.207515	2916.864548
869.519233	2923.407965
869.830909	2931.778801
870.142542	2939.862291
870.454134	2940.482353
870.765684	2942.849175
871.077191	2942.886984
871.388657	2951.398972
871.700081	2964.072433
872.011463	2976.120790
872.322803	2977.343270
872.634101	2976.075420
872.945357	2993.812720
873.256571	3016.749970
873.567744	3011.401306
873.878874	3005.878722
874.189963	3026.030734
874.501010	3030.696322
874.812015	3018.095958
875.122979	3022.464118
875.433900	3016.248375
875.744780	3023.512678
876.055618	3031.485263
876.366415	3025.496372
876.677169	3037.171684
876.987882	3033.398380
877.298554	3029.557021
877.609183	3045.628220
877.919771	3072.336253
878.230317	3097.978082
878.540822	3151.184940
878.851285	3188.607946
879.161707	3226.724110
879.472087	3331.542301
879.782425	3550.643450
880.092722	3986.050428
880.402977	4504.323894
880.713191	5125.192401
881.023363	6272.697648
881.333494	7555.497383
881.643583	8110.704861
881.953631	7822.628125
882.263637	7198.596293
882.573602	6615.009639
882.883526	6033.714189
883.193408	5460.358556
883.503248	5005.994319
883.813048	4700.727247
884.122806	4401.590219
884.432522	4087.178495
884.742197	3854.279708
885.051831	3662.017662
885.361424	3527.749050
885.670975	3456.701548
885.980485	3372.547047
886.289954	3294.494862
886.599382	3251.055239
886.908768	3214.106102
887.218113	3169.764112
887.527417	3111.062397
887.836680	3061.941393
888.145901	3054.127605
888.455082	3047.543858
888.764221	2995.133502
889.073319	2970.668783
889.382376	2964.329532
889.691392	2974.311016
890.000366	2965.385653
890.309300	2954.872327
890.618193	2969.602578
890.927044	2984.075731
891.235855	2987.347440
891.544625	2971.762713
891.853353	2980.284783
892.162041	2999.650376
892.470687	3038.512631
892.779293	3093.814089
893.087858	3138.577014
893.396381	3206.483877
893.704864	3323.574758
894.013306	3563.654668
894.321707	3860.727344
894.630068	4071.117379
894.938387	4069.221905
895.246665	4022.220707
895.554903	3901.059095
895.863100	3701.923436
896.171256	3540.543498
896.479371	3397.009246
896.787446	3278.569857
897.095480	3174.490194
897.403473	3110.119701
897.711425	3073.341963
898.019336	3065.283678
898.327207	3038.542878
898.635038	3002.496107
898.942827	2985.348623
899.250576	2978.036429
899.558284	2943.784309
899.865952	2924.491813
900.173579	2904.546488
900.481165	2897.100704
900.788711	2885.795916
901.096216	2861.457226
901.403681	2850.419619
901.711105	2859.246680
902.018489	2856.640403
902.325832	2856.453880
902.633135	2865.860673
902.940397	2896.364695
903.247619	2975.520893
903.554800	3166.537774
903.861941	3506.006553
904.169041	3930.514557
904.476101	4229.550762
904.783121	4190.438970
905.090100	3948.138431
905.397039	3673.536699
905.703938	3425.884975
906.010796	3244.277408
906.317614	3130.286837
906.624391	3039.367107
906.931129	2969.491673
907.237826	2907.568660
907.544483	2858.384642
907.851099	2830.045796
908.157675	2810.206335
908.464211	2788.375618
908.770707	2774.845161
909.077163	2761.639859
909.383578	2744.358783
909.689954	2739.857033
909.996289	2737.316292
910.302584	2737.878380
910.608839	2737.981724
910.915054	2732.277658
911.221229	2722.938921
911.527363	2727.012173
911.833458	2730.772874
912.139513	2739.660428
912.445527	2740.681262
912.751502	2749.072262
913.057436	2757.904364
913.363331	2771.724687
913.669186	2794.772842
913.975000	2826.791731
914.280775	2885.309445
914.586510	2955.207564
914.892205	3032.362423
915.197859	3158.663492
915.503475	3352.311855
915.809050	3561.776838
916.114585	3708.638253
916.420081	3729.906881
916.725536	3672.742717
917.030952	3558.129564
917.336328	3427.757763
917.641665	3295.616518
917.946961	3196.976261
918.252218	3127.788945
918.557435	3051.055022
918.862612	2992.504540
919.167750	2944.525359
919.472848	2903.013977
919.777906	2878.700492
920.082925	2850.666636
920.387904	2821.990032
920.692843	2804.847588
920.997743	2792.161525
921.302603	2780.150976
921.607423	2767.848040
921.912204	2757.301946
922.216946	2747.214597
922.521647	2737.061713
922.826310	2728.413614
923.130932	2723.657285
923.435516	2716.657643
923.740059	2707.119780
924.044564	2696.283820
924.349028	2693.697708
924.653454	2688.538087
924.957840	2684.792510
925.262186	2677.926458
925.566493	2674.369924
925.870761	2670.301713
926.174989	2665.074036
926.479178	2661.376350
926.783328	2654.830412
927.087438	2654.255720
927.391509	2655.533653
927.695541	2649.471665
927.999533	2647.424957
928.303486	2643.628968
928.607400	2642.114101
928.911275	2641.990593
929.215110	2642.507311
929.518906	2640.836169
929.822663	2641.428504
930.126381	2640.523617
930.430060	2640.868936
930.733699	2641.821714
931.037299	2642.983700
931.340861	2645.320275
931.644383	2646.542755
931.947866	2642.782054
932.251309	2641.511683
932.554714	2640.664769
932.858080	2640.911786
933.161407	2638.366003
933.464694	2634.955663
933.767943	2632.167905
934.071153	2632.248563
934.374323	2632.394757
934.677455	2632.349386
934.980548	2633.803759
935.283602	2630.400980
935.586617	2632.041876
935.889593	2631.711680
936.192530	2631.973820
936.495428	2633.118162
936.798287	2634.938019
937.101108	2637.468678
937.403890	2643.626447
937.706632	2647.155255
938.009336	2654.187665
938.312002	2663.667554
938.614628	2669.820283
938.917216	2677.908814
939.219765	2677.654236
939.522275	2676.272960
939.824747	2672.739111
940.127179	2671.889676
940.429573	2669.636281
940.731929	2663.344921
941.034246	2661.078922
941.336524	2658.039106
941.638763	2656.690598
941.940964	2654.613642
942.243126	2651.949392
942.545250	2649.943013
942.847335	2649.852272
943.149381	2646.527631
943.451389	2642.265336
943.753359	2640.596714
944.055290	2639.006230
944.357182	2636.505817
944.659036	2638.305509
944.960851	2636.541106
945.262628	2631.885600
945.564367	2635.522792
945.866067	2636.157978
946.167729	2635.363996
946.469352	2636.031949
946.770937	2636.500776
947.072484	2633.455919
947.373992	2633.274438
947.675462	2630.653038
947.976893	2626.690691
948.278286	2623.103910
948.579641	2626.912502
948.880958	2622.735906
949.182236	2626.786473
949.483476	2627.315794
949.784678	2623.862604
950.085841	2625.473252
950.386967	2627.605660
950.688054	2627.741772
950.989103	2628.848305
951.290114	2629.891824
951.591087	2632.520785
951.892021	2632.634211
952.192917	2634.380971
952.493776	2637.370375
952.794596	2639.694347
953.095378	2637.027577
953.396122	2639.633853
953.696828	2634.217134
953.997496	2635.414408
954.298126	2630.302678
954.598718	2632.001547
954.899272	2625.974847
955.199788	2627.469549
955.500266	2622.375463
955.800706	2621.584002
956.101108	2619.539814
956.401472	2618.866820
956.701798	2614.324741
957.002087	2611.305089
957.302337	2611.395830
957.602550	2609.923813
957.902724	2607.791405
958.202861	2606.049687
958.502960	2607.471292
958.803022	2606.198401
959.103045	2606.296703
959.403031	2603.037597
959.702979	2603.030035
960.002889	2604.078595
960.302762	2600.965683
960.602596	2602.238574
960.902393	2602.853595
961.202153	2598.934098
961.501875	2600.204469
961.801559	2599.455857
962.101205	2600.199427
962.400814	2599.360075
962.700385	2598.513162
962.999918	2597.368820
963.299414	2593.739189
963.598873	2597.240270
963.898293	2595.468305
964.197677	2599.254211
964.497022	2599.929726
964.796331	2598.777822
965.095601	2598.480394
965.394835	2597.509972
965.694030	2599.208841
965.993189	2598.465271
966.292309	2595.465784
966.591393	2599.108018
966.890439	2598.195569
967.189447	2596.436206
967.488419	2599.622215
967.787353	2597.187338
968.086249	2597.068871
968.385108	2596.990733
968.683930	2597.101638
968.982714	2599.508789
969.281462	2597.000815
969.580172	2597.421752
969.878844	2595.513675
970.177480	2597.497369
970.476078	2600.388471
970.774639	2596.799169
971.073162	2596.448809
971.371649	2598.414859
971.670098	2599.796135
971.968510	2598.256063
972.266885	2598.006526
972.565223	2599.460898
972.863524	2600.385950
973.161788	2598.835795
973.460014	2595.879159
973.758204	2597.215064
974.056356	2597.948552
974.354471	2597.394025
974.652550	2596.680702
974.950591	2602.364603
975.248595	2596.516865
975.546563	2599.375199
975.844493	2597.636001
976.142386	2596.715990
976.440243	2595.490990
976.738062	2596.620208
977.035845	2597.129365
977.333590	2597.983840
977.631299	2601.336208
977.928971	2592.355392
978.226606	2588.932449
978.524204	2592.249528
978.821765	2590.371698
979.119290	2594.412183
979.416777	2596.579879
979.714228	2595.400249
980.011642	2596.196751
980.309020	2595.957297
980.606360	2597.630960
980.903664	2594.386977
981.200931	2597.207503
981.498162	2596.048037
981.795356	2596.758840
982.092513	2599.004674
982.389633	2600.983327
982.686717	2605.265787
982.983764	2607.110849
983.280775	2613.835749
983.577749	2612.779627
983.874686	2616.169803
984.171587	2611.678135
984.468451	2605.243102
984.765279	2602.871239
985.062070	2603.259408
985.358824	2603.884511
985.655543	2599.581886
985.952224	2598.987030
986.248869	2597.991402
986.545478	2597.787235
986.842050	2595.979982
987.138586	2593.998808
987.435086	2593.824888
987.731549	2594.208016
988.027975	2592.383118
988.324366	2593.187182
988.620719	2592.904878
988.917037	2592.166349
989.213318	2592.693149
989.509563	2592.120978
989.805772	2593.449322
990.101944	2592.854466
990.398080	2591.833633
990.694180	2591.798345
990.990244	2591.586616
991.286271	2592.257090
991.582262	2592.539394
991.878217	2592.753643
992.174136	2591.972264
992.470019	2591.079980
992.765865	2590.139805
993.061676	2589.721389
993.357450	2587.823395
993.653188	2585.759042
993.948890	2592.302460
994.244556	2593.212388
994.540186	2590.369177
994.835780	2595.324632
995.131337	2594.593664
995.426859	2593.290526
995.722345	2595.740527
996.017795	2593.086359
996.313208	2597.078953
996.608586	2596.652976
996.903928	2598.785384
997.199234	2598.198089
997.494504	2598.061978
997.789738	2598.558532
998.084936	2595.075095
998.380099	2595.420414
998.675225	2596.741196
998.970316	2594.160125
999.265371	2593.116606
999.560390	2590.525453
999.855373	2591.621904
1000.150320	2591.601740
1000.445232	2591.934456
1000.740108	2592.110896
1001.034948	2593.010742
1001.329752	2589.562593
1001.624521	2588.083014
1001.919254	2589.063519
1002.213951	2591.649631
1002.508613	2587.473035
1002.803239	2588.836667
1003.097829	2589.489496
1003.392384	2589.587799
1003.686903	2587.236100
1003.981386	2589.975967
1004.275834	2591.954620
1004.570246	2590.303642
1004.864623	2590.442274
1005.158964	2587.374732
1005.453270	2588.887078
1005.747540	2588.249372
1006.041775	2590.790114
1006.335974	2589.794486
1006.630138	2591.563931
1006.924266	2587.410020
1007.218359	2591.435382
1007.512416	2586.230390
1007.806438	2585.287694
1008.100425	2585.885071
1008.394376	2583.394741
1008.688292	2588.889599
1008.982172	2589.716348
1009.276017	2591.939497
1009.569827	2590.248190
1009.863602	2588.085535
1010.157341	2589.880186
1010.451045	2590.676688
1010.744714	2590.379260
1011.038347	2589.718869
1011.331945	2592.783890
1011.625508	2588.423292
1011.919036	2588.718200
1012.212528	2590.895978
1012.505986	2587.515884
1012.799408	2587.805751
1013.092795	2588.539239
1013.386147	2588.750967
1013.679464	2589.693663
1013.972745	2587.730133
1014.265992	2587.568817
1014.559204	2588.637541
1014.852380	2586.956316
1015.145521	2588.070411
1015.438628	2590.699373
1015.731699	2589.640731
1016.024736	2588.534198
1016.317737	2589.048395
1016.610703	2585.373394
1016.903635	2588.773652
1017.196531	2587.931780
1017.489393	2588.572006
1017.782219	2591.596698
1018.075011	2586.797520
1018.367768	2587.939341
1018.660490	2589.804568
1018.953177	2589.804568
1019.245829	2589.804568
