Dividing Wavelength (nm)	Counts (n)	Blue Motor Position (mm): 36.000000	Red Motor Position (mm): 0.000000	
326.493990	2096.285689
326.888308	2096.285689
327.282561	2096.285689
327.676750	2071.972204
328.070874	2076.547051
328.464933	2082.067115
328.858929	2091.572210
329.252859	2105.505959
329.646726	2120.334513
330.040528	2135.485701
330.434265	2153.379277
330.827938	2171.706392
331.221547	2194.668848
331.615091	2214.399924
332.008571	2235.245095
332.401986	2258.278127
332.795338	2277.179933
333.188625	2298.531740
333.581847	2315.154945
333.975006	2333.051041
334.368100	2351.098372
334.761129	2369.496063
335.154095	2384.571633
335.546996	2429.684919
335.939833	2513.123577
336.332606	2526.006246
336.725315	2535.841537
337.117960	2546.571633
337.510540	2552.507592
337.903056	2565.566701
338.295508	2568.099880
338.687896	2576.790830
339.080220	2585.040678
339.472480	2589.098807
339.864676	2590.921184
340.256807	2593.378746
340.648875	2594.172728
341.040879	2598.346803
341.432818	2601.434510
341.824694	2599.002153
342.216506	2600.728749
342.608253	2597.152050
342.999937	2600.194386
343.391557	2596.897472
343.783113	2593.567790
344.174605	2594.697008
344.566033	2591.006883
344.957397	2589.686101
345.348697	2589.580237
345.739934	2588.617377
346.131106	2587.286512
346.522215	2584.350040
346.913260	2585.615369
347.304241	2581.973136
347.695159	2579.755028
348.086012	2581.017837
348.476802	2575.706982
348.867528	2576.316961
349.258191	2575.104564
349.648789	2574.582804
350.039324	2572.460478
350.429796	2573.902248
350.820203	2570.466702
351.210548	2571.353945
351.600828	2572.856209
351.991045	2569.460992
352.381198	2569.571897
352.771288	2569.866805
353.161314	2567.981413
353.551276	2568.724983
353.941175	2568.835889
354.331010	2569.455951
354.720782	2571.931157
355.110490	2572.836044
355.500135	2572.347052
355.889717	2570.464182
356.279235	2567.956207
356.668689	2570.242371
357.058080	2571.033832
357.447408	2568.785477
357.836672	2568.125086
358.225873	2570.791857
358.615010	2569.521486
359.004084	2571.822772
359.393095	2576.506004
359.782043	2575.119687
360.170927	2575.553226
360.559748	2575.422156
360.948505	2578.981211
361.337199	2577.985583
361.725830	2578.708989
362.114398	2580.879205
362.502903	2577.998186
362.891344	2578.829976
363.279722	2578.267888
363.668037	2580.695203
364.056289	2581.305183
364.444478	2582.320975
364.832603	2581.272415
365.220665	2583.019175
365.608665	2586.439598
365.996601	2585.524629
366.384474	2586.076635
366.772284	2586.041347
367.160031	2582.361305
367.547715	2587.006728
367.935336	2585.131419
368.322893	2587.848601
368.710388	2589.055957
369.097820	2589.912953
369.485189	2585.809454
369.872495	2589.587799
370.259738	2589.207192
370.646918	2588.574527
371.034035	2593.978644
371.421090	2592.947728
371.808081	2593.456884
372.195010	2593.754312
372.581875	2591.460587
372.968678	2594.359251
373.355418	2592.980495
373.742096	2596.869745
374.128710	2594.611308
374.515262	2597.179776
374.901751	2595.233891
375.288177	2597.484766
375.674540	2597.729262
376.060841	2598.198089
376.447079	2599.302102
376.833254	2599.523913
377.219367	2596.005188
377.605417	2597.391505
377.991404	2596.721031
378.377329	2598.762699
378.763191	2599.108018
379.148991	2601.600868
379.534727	2603.624892
379.920402	2605.046497
380.306013	2606.218565
380.691563	2605.840479
381.077049	2605.802670
381.462474	2605.948863
381.847835	2606.263936
382.233134	2608.590428
382.618371	2607.133535
383.003545	2609.523042
383.388657	2610.004472
383.773706	2609.538165
384.158693	2610.460696
384.543618	2615.723661
384.928480	2614.682662
385.313280	2614.881788
385.698017	2616.499998
386.082692	2617.225925
386.467305	2614.423043
386.851856	2619.065946
387.236344	2618.428240
387.620770	2618.587036
388.005133	2617.818260
388.389435	2621.173148
388.773674	2622.473766
389.157851	2622.597274
389.541965	2622.292284
389.926018	2625.838736
390.310008	2623.870165
390.693936	2624.535598
391.077802	2625.579117
391.461606	2629.604478
391.845348	2627.179683
392.229027	2628.271093
392.612645	2631.099180
392.996200	2630.496762
393.379694	2633.299644
393.763125	2634.209572
394.146494	2637.143523
394.529801	2636.072278
394.913047	2640.082516
395.296230	2640.309368
395.679351	2639.601086
396.062410	2640.899183
396.445408	2642.590490
396.828343	2643.311375
397.211217	2643.016468
397.594028	2646.736839
397.976778	2641.710809
398.359466	2648.150883
398.742092	2648.055101
399.124656	2653.002993
399.507158	2654.588436
399.889598	2657.184631
400.271977	2659.296874
400.654294	2663.236536
401.036549	2666.077226
401.418742	2669.779953
401.800874	2670.488236
402.182944	2671.473781
402.564952	2679.264884
402.946898	2682.866789
403.328783	2692.036648
403.710606	2697.682740
404.092367	2706.287990
404.474067	2713.784185
404.855705	2720.410782
405.237282	2733.142216
405.618797	2748.391707
406.000250	2767.827875
406.381642	2788.602470
406.762972	2802.016981
407.144240	2819.655978
407.525447	2847.510873
407.906593	2869.873432
408.287677	2903.513052
408.668700	2940.189966
409.049661	2976.173723
409.430560	3018.975639
409.811399	3064.746796
410.192176	3112.118518
410.572891	3167.152795
410.953545	3245.976276
411.334138	3273.138013
411.714669	3378.162892
412.095139	3395.330541
412.475547	3504.529495
412.855894	3562.946386
413.236180	3675.356555
413.616405	3726.914956
413.996568	3842.196062
414.376670	3927.547838
414.756711	4004.382584
415.136691	4139.016680
415.516609	4267.336731
415.896466	4384.651943
416.276262	4553.575967
416.655997	4745.417076
417.035670	4882.823807
417.415283	5135.042816
417.794834	5285.750631
418.174324	5364.155697
418.553753	5483.298327
418.933121	5751.006281
419.312428	5859.015523
419.691674	5981.898689
420.070859	6269.236896
420.449983	6322.267314
420.829045	6656.533623
421.208047	6743.566623
421.586988	7059.460447
421.965867	7328.335428
422.344686	7500.838672
422.723444	7909.078872
423.102141	7564.148003
423.480777	8219.886171
423.859352	8198.025208
424.237866	8858.779325
424.616319	8931.175335
424.994712	9419.307741
425.373044	9520.566878
425.751314	10048.184122
426.129524	9808.449530
426.507673	10559.868799
426.885762	10617.080854
427.263789	10913.969528
427.641756	11209.605474
428.019662	11442.098448
428.397508	11664.317551
428.775292	12029.947398
429.153016	12212.414482
429.530679	12462.985034
429.908282	12671.182168
430.285824	12681.892099
430.663305	13345.532277
431.040726	13277.186833
431.418086	13343.432636
431.795385	13945.507722
432.172624	14440.428042
432.549802	14304.563905
432.926920	14623.114416
433.303977	14702.492425
433.680974	15056.429316
434.057910	15448.071517
434.434786	15645.745242
434.811601	15734.104066
435.188355	16729.792444
435.565050	16613.813138
435.941683	16730.578864
436.318257	17624.667828
436.694770	17603.439529
437.071222	18263.959232
437.447614	17602.532121
437.823946	17749.305316
438.200218	18047.582827
438.576429	17971.471486
438.952580	18354.505917
439.328670	18445.115616
439.704700	18922.187731
440.080670	18644.064753
440.456580	19297.173960
440.832429	19559.787828
441.208218	18736.078413
441.583947	19235.707171
441.959616	19428.594320
442.335224	19734.194108
442.710773	19941.597259
443.086261	20544.151255
443.461689	19987.018055
443.837057	20196.520847
444.212365	20888.419213
444.587612	20944.895259
444.962800	20621.674119
445.337927	21094.428485
445.712995	19901.351207
446.088002	21778.792846
446.462949	22026.540352
446.837837	22265.186054
447.212664	22319.441473
447.587431	25279.256651
447.962139	28209.127375
448.336786	30503.764824
448.711374	28852.073616
449.085901	25243.270374
449.460369	25316.011704
449.834776	25352.688618
450.209124	27894.471155
450.583412	27393.183858
450.957640	27874.175470
451.331808	26564.289616
451.705917	25223.130965
452.079965	25299.149044
452.453954	25693.629415
452.827883	25626.778674
453.201752	25425.314001
453.575562	25596.577121
453.949311	26754.845232
454.323001	26836.645514
454.696632	26630.820244
455.070202	28231.865500
455.443713	28406.569207
455.817164	29008.561114
456.190556	29569.107175
456.563888	28984.391302
456.937160	29423.581666
457.310373	27732.496362
457.683526	28179.654269
458.056619	28194.203039
458.429653	28171.059102
458.802628	28784.121383
459.175542	28940.949159
459.548398	30308.069753
459.921194	31941.020471
460.293930	32686.423123
460.666607	34762.750884
461.039224	36562.261325
461.411782	36912.296363
461.784280	35640.443495
462.156719	35114.310871
462.529099	34541.048499
462.901419	33215.441807
463.273680	32169.742662
463.645882	32300.948773
464.018024	32308.266008
464.390106	33264.048613
464.762130	36156.380385
465.134094	40507.417914
465.505999	45967.163969
465.877845	50473.658080
466.249631	51461.633493
466.621358	49634.900821
466.993026	47433.771734
467.364634	45323.637996
467.736184	43366.042011
468.107674	42085.949376
468.479105	41293.197687
468.850477	40576.181773
469.221790	39114.821849
469.593043	37346.324586
469.964238	36441.308921
470.335373	36399.832828
470.706449	38289.816857
471.077467	41105.598708
471.448425	45734.718886
471.819324	48423.234288
472.190164	46367.817233
472.560945	42773.981177
472.931667	39653.380917
473.302330	38552.796209
473.672934	37717.124136
474.043479	38240.955474
474.413965	37459.770712
474.784393	37085.021417
475.154761	38011.061214
475.525070	38054.871362
475.895321	37575.871006
476.265513	38202.373003
476.635645	39205.348369
477.005719	39050.461438
477.375734	39562.907329
477.745691	40268.870514
478.115588	41660.188646
478.485427	43792.311898
478.855207	47263.993235
479.224928	49883.137318
479.594591	51430.567382
479.964194	50337.562049
480.333739	50484.236941
480.703226	50569.656772
481.072653	51221.435115
481.442022	51669.818023
481.811333	51888.808267
482.180584	50608.208997
482.549777	50098.152612
482.918912	49556.233615
483.287988	49245.401110
483.657005	48416.645500
484.025964	47721.349397
484.394864	47749.466432
484.763706	47310.633990
485.132489	46426.014834
485.501213	46272.511699
485.869879	46402.026503
486.238487	45998.782086
486.607036	46200.776080
486.975527	45644.731769
487.343959	45858.257402
487.712333	45904.036120
488.080648	45814.482543
488.448905	46291.663042
488.817104	46095.597446
489.185244	47123.276987
489.553326	48920.493703
489.921350	51661.091786
490.289315	54431.435197
490.657222	54939.512928
491.025070	55174.871799
491.392861	54249.956179
491.760593	53012.310060
492.128267	51336.882579
492.495883	49794.231529
492.863440	48393.062982
493.230939	47008.189965
493.598380	45910.264466
493.965763	45579.284990
494.333088	44760.107572
494.700354	44254.999080
495.067563	43959.998319
495.434713	43815.276874
495.801805	43892.154470
496.168839	43508.116850
496.535815	43160.844364
496.902733	43183.564844
497.269593	42746.569903
497.636395	42679.043647
498.003139	43096.511679
498.369825	42535.983262
498.736453	42831.651977
499.103023	42352.795293
499.469535	42224.334091
499.835989	42314.442195
500.202385	41972.876296
500.568723	41996.405881
500.935003	42187.231198
501.301226	41977.889723
501.667390	42590.273969
502.033497	42834.172554
502.399546	42246.285795
502.765537	41552.197048
503.131470	41939.912191
503.497345	42308.702841
503.863163	40935.704262
504.228923	41581.249218
504.594625	41991.294151
504.960269	41239.698442
505.325856	41959.766775
505.691385	41319.089053
506.056856	41458.900414
506.422270	41890.791188
506.787625	41437.656992
507.152924	41649.110710
507.518164	41751.017635
507.883347	40937.095621
508.248472	41193.624816
508.613540	41677.610874
508.978550	41967.789771
509.343503	41727.745149
509.708398	41950.617081
510.073236	42462.959628
510.438016	42468.792243
510.802738	41916.647266
511.167403	42559.013774
511.532010	42770.447328
511.896561	43076.397475
512.261053	43941.580463
512.625488	43475.472858
512.989866	43360.917678
513.354186	43183.126264
513.718449	43187.597768
514.082655	43866.237898
514.446803	43535.129873
514.810894	44060.435747
515.174927	43959.453874
515.538904	43877.918252
515.902822	44546.080344
516.266684	43979.724354
516.630488	44408.045990
516.994235	44262.490235
517.357925	44838.941136
517.721558	45019.532911
518.085133	45324.023644
518.448651	45437.414317
518.812112	45204.744903
519.175516	45311.892107
519.538863	45652.338871
519.902152	45611.258508
520.265385	46089.459841
520.628560	46113.415404
520.991678	45886.787812
521.354739	46116.099819
521.717743	46438.383305
522.080690	46326.888105
522.443580	46879.695995
522.806413	46924.312727
523.169189	46870.263996
523.531908	47052.990699
523.894569	46893.649908
524.257174	47076.956345
524.619722	47355.167543
524.982213	47336.006117
525.344647	47263.668080
525.707025	47308.143660
526.069345	47687.664407
526.431608	47605.150801
526.793815	47930.217003
527.155964	47459.053121
527.518057	47625.766599
527.880093	47408.644103
528.242072	47940.889126
528.603995	47631.379924
528.965860	47621.920199
529.327669	47725.997341
529.689421	47627.606620
530.051117	47574.959330
530.412755	47724.137155
530.774337	47793.523596
531.135862	47589.107328
531.497331	47791.333215
531.858743	47676.049588
532.220098	48031.176192
532.581396	47726.503977
532.942638	47372.861993
533.303824	47703.559165
533.664953	47682.535033
534.026025	47390.841268
534.387040	47852.442082
534.747999	47806.784352
535.108902	47971.297366
535.469748	47491.629057
535.830537	47578.500741
536.191270	47777.401986
536.551947	47425.332843
536.912567	47724.936178
537.273131	47868.863641
537.633638	47347.406687
537.994089	47680.102676
538.354483	47270.037578
538.714821	47850.725569
539.075103	48203.601297
539.435328	47948.493707
539.795497	47829.217486
540.155609	47815.157708
540.515665	48302.884302
540.875665	47719.600116
541.235609	48049.936846
541.595496	48027.712919
541.955328	48710.549810
542.315102	48043.539621
542.674821	47831.112960
543.034483	47862.511787
543.394090	47848.396556
543.753640	47789.226013
544.113134	48816.217436
544.472571	47787.345662
544.831953	49042.240089
545.191278	48223.788598
545.550548	47947.351885
545.909761	48427.262170
546.268918	48615.387949
546.628019	48921.101162
546.987064	48478.649172
547.346053	47738.131398
547.704986	48600.642574
548.063863	48159.949946
548.422684	48334.973766
548.781449	48158.583793
549.140158	48565.430114
549.498811	48415.811189
549.857408	47812.894230
550.215949	48675.354995
550.574434	48608.559706
550.932864	48342.991722
551.291237	49071.105736
551.649555	48663.992234
552.007817	48909.153628
552.366022	48551.834123
552.724173	48711.893278
553.082267	49090.763716
553.440305	49365.867043
553.798288	48674.187968
554.156215	48982.111727
554.514086	49186.432213
554.871902	48906.449049
555.229661	48929.716494
555.587365	48739.657432
555.945014	48852.720431
556.302606	48768.868398
556.660143	48991.889045
557.017625	49031.951094
557.375050	48834.451289
557.732421	49179.775369
558.089735	49144.769597
558.446994	49047.886182
558.804197	49512.448673
559.161345	49434.159554
559.518437	48667.027008
559.875474	48981.075770
560.232455	49142.985028
560.589381	49320.920115
560.946251	49006.571405
561.303065	49673.122849
561.659825	49454.296443
562.016528	49127.531371
562.373177	48829.770578
562.729770	49305.988217
563.086307	48810.248710
563.442789	49281.233631
563.799216	49317.537501
564.155587	49086.965206
564.511904	49112.763311
564.868164	49192.947904
565.224370	49429.095715
565.580520	49151.272685
565.936615	49339.590028
566.292654	49063.687678
566.648638	49309.065842
567.004567	49270.390109
567.360441	49308.050049
567.716260	49178.825112
568.072023	49422.244787
568.427732	49397.283513
568.783385	48934.200601
569.138982	49312.914763
569.494525	49268.681158
569.850013	49025.818531
570.205445	49003.400519
570.560823	48940.174368
570.916145	48820.381429
571.271412	48830.952729
571.626625	48559.312674
571.981782	48614.041961
572.336884	48295.630081
572.691931	48605.169530
573.046923	48200.793374
573.401860	48045.871155
573.756743	47980.865476
574.111570	48100.487016
574.466342	47946.822564
574.821059	48050.786280
575.175722	47540.392138
575.530330	47559.215807
575.884882	47262.954757
576.239380	47218.743838
576.593823	47177.938218
576.948211	47102.310828
577.302544	46617.341746
577.656823	46620.540358
578.011047	46828.651791
578.365216	46574.071002
578.719330	46332.377922
579.073389	46182.832093
579.427394	46250.426404
579.781344	46211.475929
580.135239	45843.575042
580.489080	45918.794098
580.842866	45397.586682
581.196597	45829.870665
581.550273	45762.437671
581.903895	45632.012938
582.257463	46038.786163
582.610975	45404.533392
582.964434	45684.995465
583.317837	45301.913143
583.671186	45145.125697
584.024481	45351.946595
584.377721	44854.770359
584.730906	45148.021840
585.084037	45178.687179
585.437113	44892.274023
585.790135	44896.677471
586.143103	44481.793030
586.496016	44600.832316
586.848874	44618.539369
587.201679	44640.947298
587.554428	44097.962097
587.907124	44290.042661
588.259765	44030.466088
588.612352	44280.719047
588.964884	43648.586081
589.317362	43938.394454
589.669786	43862.890572
590.022155	43621.124395
590.374470	44024.182289
590.726731	43560.842278
591.078937	43048.698856
591.431090	43158.371678
591.783188	42802.314982
592.135232	42463.113384
592.487222	42724.361099
592.839157	42807.285560
593.191038	42436.627161
593.542866	42197.883156
593.894639	41593.466454
594.246358	41861.537372
594.598022	41840.661954
594.949633	41432.557865
595.301190	41403.425037
595.652692	41232.015723
596.004141	41531.266178
596.355535	40555.376931
596.706876	40474.899951
597.058162	40320.993524
597.409395	40776.514706
597.760573	40863.857738
598.111698	40426.608218
598.462768	40442.810486
598.813785	40470.627573
599.164748	39919.059807
599.515657	40302.341255
599.866511	39796.032968
600.217312	40381.963759
600.568060	39360.290753
600.918753	40112.577100
601.269392	40051.735415
601.619978	39705.186335
601.970510	39906.197303
602.320988	40076.285834
602.671412	40396.847766
603.021783	40135.794134
603.372100	39776.964804
603.722363	39877.666893
604.072572	39943.446389
604.422728	39965.062857
604.772830	39775.422211
605.122878	39873.709587
605.472872	39807.650307
605.822813	40068.686294
606.172701	39892.939068
606.522534	40138.811265
606.872314	40401.036965
607.222041	40155.701651
607.571714	40536.137367
607.921333	39976.985185
608.270899	40262.516139
608.620411	40618.184667
608.969870	40397.631665
609.319276	40402.216595
609.668627	40447.597062
610.017926	40924.449886
610.367171	41079.193145
610.716362	41153.078816
611.065500	41088.199166
611.414585	41300.678759
611.763616	41576.510533
612.112594	41519.172449
612.461518	41732.582136
612.810389	42030.053062
613.159207	41886.869170
613.507971	41979.346617
613.856682	42438.119343
614.205340	42328.837210
614.553945	43023.583827
614.902496	42471.784168
615.250994	42945.592136
615.599439	43004.208152
615.947830	43207.303638
616.296169	43276.221252
616.644454	43387.187131
616.992686	43557.661310
617.340864	44069.716512
617.688990	43782.010300
618.037063	44395.531326
618.385082	44353.001631
618.733048	44650.802754
619.080961	44656.368188
619.428821	44680.946333
619.776628	44795.521678
620.124382	44627.331141
620.472083	44751.315800
620.819731	44876.961518
621.167326	44537.167584
621.514868	44546.433225
621.862357	44069.792129
622.209793	44115.538079
622.557176	43776.523004
622.904506	43506.710368
623.251783	43168.345601
623.599007	42938.411012
623.946179	42714.296436
624.293297	42671.176926
624.640363	42088.787546
624.987376	42050.061402
625.334336	41824.840292
625.681243	41462.225055
626.028097	41419.171081
626.374899	41285.547736
626.721647	41274.212702
627.068343	41152.887252
627.414987	40922.778744
627.761577	40693.877592
628.108115	41022.056707
628.454600	40455.068052
628.801032	40662.897181
629.147412	40624.586932
629.493739	40598.937541
629.840014	40256.610428
630.186236	40608.238470
630.532405	40193.306138
630.878521	40414.829562
631.224585	40284.586311
631.570597	39990.072021
631.916556	40151.152010
632.262462	40091.336199
632.608316	40128.333227
632.954117	40017.100167
633.299866	40003.998208
633.645562	39923.690107
633.991206	39440.223288
634.336797	39006.026187
634.682336	38991.086728
635.027823	38755.672405
635.373257	38552.155983
635.718639	38325.908998
636.063968	38184.343316
636.409245	37608.391489
636.754470	37655.554004
637.099642	37425.732841
637.444762	36947.932280
637.789829	37086.503517
638.134845	36733.728612
638.479808	36678.525456
638.824719	36576.278253
639.169577	36190.347680
639.514383	36273.365401
639.859137	35939.265451
640.203839	36193.591662
640.548489	35836.219225
640.893086	35899.568885
641.237632	35636.690356
641.582125	35752.757882
641.926566	35682.869845
642.270955	35637.343185
642.615292	35655.882028
642.959576	35637.302856
643.303809	35632.702803
643.647990	35783.435823
643.992118	35738.751036
644.336195	35720.509621
644.680219	35817.793807
645.024192	36121.104911
645.368112	36652.606364
645.711981	36637.346791
646.055797	37514.449587
646.399562	37434.766589
646.743274	38390.619770
647.086935	38808.352462
647.430544	38703.914878
647.774101	38828.572531
648.117606	39074.646373
648.461059	39362.062719
648.804460	38977.047114
649.147810	38352.286836
649.491108	38103.939433
649.834354	37729.968996
650.177548	36908.651609
650.520690	36462.186860
650.863781	36483.019428
651.206820	36332.818249
651.549807	35892.486063
651.892742	35404.744347
652.235626	35198.392276
652.578458	35072.943162
652.921238	34459.212928
653.263967	34807.964993
653.606644	34473.880165
653.949269	34418.442597
654.291843	34002.809544
654.634365	34410.941360
654.976836	34013.065772
655.319255	34020.355280
655.661622	34009.040410
656.003938	33802.963082
656.346203	33663.184489
656.688416	33888.272008
657.030577	33674.143958
657.372687	33511.082795
657.714746	33774.173053
658.056753	33890.805188
658.398708	33350.595142
658.740612	33398.438212
659.082465	33669.826209
659.424266	33505.789584
659.766016	33630.706855
660.107715	33501.373533
660.449362	33623.853407
660.790958	33594.586988
661.132503	33604.707104
661.473996	33638.543329
661.815438	33757.438943
662.156829	33956.128460
662.498168	33700.776373
662.839456	33740.172991
663.180693	33885.007861
663.521879	34047.043149
663.863013	34008.712735
664.204097	33991.514839
664.545129	34451.404181
664.886110	34393.256992
665.227040	34477.023325
665.567918	34606.575938
665.908746	34651.321219
666.249522	34817.558308
666.590248	34820.267928
666.930922	34924.072848
667.271545	34898.872120
667.612118	34965.516174
667.952639	34736.625104
668.293109	34813.462371
668.633528	34696.285791
668.973896	34624.464472
669.314213	34655.389430
669.654480	34393.123401
669.994695	34422.132721
670.334859	34311.287830
670.674973	34195.321127
671.015035	34360.842373
671.355047	34301.364319
671.695008	34248.810290
672.034918	34154.744880
672.374777	34237.318980
672.714585	34060.238369
673.054342	34289.056342
673.394049	34050.093047
673.733705	34325.211497
674.073310	33982.511338
674.412864	34044.590627
674.752368	33670.053061
675.091820	33969.051458
675.431223	33533.001732
675.770574	33250.374483
676.109875	33111.974645
676.449125	32837.884590
676.788324	32753.185644
677.127473	32210.782696
677.466571	32142.371717
677.805619	31800.452937
678.144616	31790.042954
678.483562	31709.654195
678.822458	31385.505482
679.161303	31316.174493
679.500098	31227.503117
679.838842	31101.154158
680.177535	31252.973547
680.516179	31548.992622
680.854771	31793.546556
681.193314	32648.014572
681.531805	33778.783188
681.870247	34523.810274
682.208638	35209.833174
682.546978	35440.259275
682.885268	35510.132188
683.223508	35011.501579
683.561697	34674.462636
683.899836	34484.252339
684.237925	33985.624251
684.575963	33814.754341
684.913951	33367.830847
685.251889	33525.129970
685.589776	33507.551467
685.927614	33511.584390
686.265401	33644.126407
686.603137	33731.560179
686.940824	34240.913323
687.278460	34612.395950
687.616046	34740.920167
687.953582	35344.522723
688.291068	35189.245102
688.628504	35486.600082
688.965889	35411.713742
689.303224	35041.967792
689.640510	34693.412333
689.977745	33957.602997
690.314930	33157.695390
690.652065	32655.281395
690.989150	31918.942738
691.326185	31012.896157
691.663170	30311.734671
692.000105	29566.352184
692.336990	28883.626198
692.673825	28432.581561
693.010610	27911.588393
693.347345	27327.081728
693.684030	26667.512282
694.020665	26388.434005
694.357251	25704.616610
694.693786	25666.026577
695.030272	25428.084115
695.366707	24880.312338
695.703093	24592.638894
696.039429	24587.161681
696.375716	24320.696371
696.711952	24288.813593
697.048139	24125.432317
697.384276	23942.077990
697.720363	24063.615168
698.056400	23860.736453
698.392388	23641.431137
698.728326	23612.890644
699.064214	23404.086052
699.400053	23346.455581
699.735842	22982.038131
700.071581	22704.900699
700.407270	22402.892733
700.742910	22225.839849
701.078501	21957.849590
701.414042	21668.295795
701.749533	21367.616174
702.084974	21010.263901
702.420366	21225.203578
702.755709	20784.248810
703.091002	20489.376598
703.426246	20502.919657
703.761440	20399.475181
704.096584	20123.187182
704.431679	20078.361242
704.766725	19984.870524
705.101721	19928.724673
705.436668	20015.503095
705.771565	19685.975471
706.106413	20039.246930
706.441212	20026.742347
706.775961	20155.054836
707.110661	20213.779238
707.445311	20580.467727
707.779913	20406.066489
708.114465	20646.665639
708.448967	20932.123496
708.783421	21611.406374
709.117825	21892.992625
709.452180	22088.556627
709.786485	22498.266323
710.120742	23295.539927
710.454949	23307.981495
710.789107	23776.443319
711.123216	24483.187883
711.457275	24592.250725
711.791286	25132.654856
712.125247	25194.713980
712.459159	24889.643514
712.793023	25559.945577
713.126837	24452.333500
713.460602	24721.783173
713.794318	24349.194013
714.127985	23964.521207
714.461602	23073.272934
714.795171	23027.032950
715.128691	22017.826718
715.462162	21472.998974
715.795584	21065.872869
716.128957	20799.069802
716.462281	20397.645242
716.795556	20154.192799
717.128782	19653.054216
717.461960	19107.044322
717.795088	19027.240336
718.128167	18626.884501
718.461198	18163.607503
718.794180	18019.851440
719.127113	17650.637332
719.459997	17464.701934
719.792833	17096.997652
720.125619	17064.318372
720.458357	16745.543529
720.791046	16572.379895
721.123686	16410.999957
721.456278	16175.600758
721.788821	16144.832075
722.121315	15875.790736
722.453761	15951.342508
722.786158	15877.492125
723.118506	15888.633075
723.450805	15742.497587
723.783056	15900.948614
724.115259	15802.688964
724.447412	15728.616770
724.779518	15975.028370
725.111574	15987.684186
725.443582	16195.747729
725.775542	16176.064544
726.107453	16651.505845
726.439315	16521.663366
726.771129	16921.489881
727.102895	17281.836599
727.434612	17486.777147
727.766281	17606.781814
728.097901	17859.341101
728.429473	17913.951921
728.760996	17888.635246
729.092471	17974.407958
729.423897	17854.718363
729.755276	17718.488742
730.086606	17850.042693
730.417887	18372.175161
730.749120	18880.593171
731.080305	19043.372028
731.411442	19363.634012
731.742530	19444.962947
732.073570	19541.004489
732.404562	19824.135854
732.735506	19642.818153
733.066401	19347.857721
733.397249	18816.567996
733.728048	18180.422272
734.058798	17356.274277
734.389501	16678.566759
734.720156	16223.542131
735.050762	15686.999524
735.381320	15334.615308
735.711831	15103.465802
736.042293	14751.033695
736.372707	14764.332259
736.703073	14544.696748
737.033391	14743.280401
737.363661	14700.665007
737.693883	14807.403877
738.024056	14975.763292
738.354182	15148.125384
738.684260	15418.560602
739.014290	15646.907228
739.344272	15819.609597
739.674207	16095.080928
740.004093	16214.276490
740.333931	16199.379880
740.663722	16247.701861
740.993464	16239.106693
741.323159	16058.716565
741.652806	15799.392049
741.982405	15584.328864
742.311956	15248.792185
742.641460	15139.855371
742.970915	14834.827754
743.300323	14509.353218
743.629683	14292.646617
743.958996	14010.422660
744.288260	13744.564809
744.617477	13446.811578
744.946647	13376.497564
745.275768	13102.241151
745.604842	12910.180751
745.933869	12744.709917
746.262847	12699.478164
746.591778	12624.856484
746.920662	12516.249866
747.249498	12511.349864
747.578286	12636.801498
747.907027	12773.452056
748.235720	12995.290551
748.564365	13015.266123
748.892963	12919.272472
749.221514	12974.974701
749.550017	12827.581445
749.878473	12786.289354
750.206881	12568.909759
750.535242	12462.445631
750.863555	12388.088612
751.191821	12287.535237
751.520039	12303.545941
751.848210	12221.753220
752.176334	12248.002508
752.504411	12156.777788
752.832440	11987.258908
753.160421	12049.128989
753.488356	11930.969384
753.816243	11850.880573
754.144082	11704.162831
754.471875	11641.629838
754.799620	11593.169226
755.127318	11557.240923
755.454969	11522.887980
755.782572	11475.405352
756.110129	11486.667290
756.437638	11403.987325
756.765100	11400.017417
757.092515	11402.714434
757.419882	11407.979919
757.747203	11414.901423
758.074477	11490.594348
758.401703	11439.797162
758.728882	11595.331881
759.056014	11645.980354
759.383099	11753.561098
759.710138	11857.156809
760.037129	11946.788525
760.364073	11955.973507
760.690970	11940.749222
761.017820	11950.806324
761.344623	12136.527473
761.671379	12471.066004
761.998088	13130.685861
762.324751	14729.553339
762.651366	17622.076675
762.977935	21206.740352
763.304456	23296.616214
763.630931	23686.531820
763.957359	22487.904231
764.283740	20611.490988
764.610074	18756.888297
764.936362	16664.378432
765.262602	15165.134237
765.588796	13721.675450
765.914943	12712.617932
766.241044	11871.632482
766.567097	11250.244736
766.893104	10706.521006
767.219064	10348.251243
767.544978	9977.345828
767.870845	9668.081122
768.196665	9480.635898
768.522438	9285.235734
768.848165	9123.412175
769.173846	8955.844221
769.499479	8831.725973
769.825066	8681.814660
770.150607	8499.153492
770.476101	8431.596989
770.801548	8335.767175
771.126949	8188.643620
771.452303	8103.201104
771.777611	7939.116587
772.102872	7917.016169
772.428087	7797.082078
772.753256	7675.391144
773.078378	7584.562155
773.403453	7444.498737
773.728482	7331.208886
774.053465	7273.412057
774.378401	7194.896086
774.703291	7094.504028
775.028135	6994.185066
775.352932	6960.752134
775.677683	6878.583847
776.002388	6785.753519
776.327046	6786.953314
776.651658	6704.202774
776.976224	6626.821062
777.300743	6612.221881
777.625216	6547.614453
777.949643	6508.006107
778.274024	6504.716754
778.598359	6439.811898
778.922647	6442.627383
779.246889	6402.346043
779.571086	6412.655203
779.895236	6415.647127
780.219339	6413.033289
780.543397	6412.181334
780.867409	6456.293951
781.191374	6459.805115
781.515294	6427.052738
781.839167	6474.124512
782.162995	6446.781294
782.486776	6404.007103
782.810511	6355.677561
783.134201	6282.033865
783.457844	6271.492813
783.781441	6223.518672
784.104993	6175.534449
784.428498	6154.800183
784.751958	6141.284850
785.075372	6113.992043
785.398739	6071.522842
785.722061	6100.398572
786.045337	6102.346978
786.368568	6206.522422
786.691752	6232.761628
787.014891	6485.545246
787.337983	6757.873418
787.661030	7200.950512
787.984031	7612.379242
788.306987	7860.630863
788.629897	7938.163809
788.952760	7842.845672
789.275579	7671.766555
789.598351	7375.356791
789.921078	7118.104190
790.243759	6834.824111
790.566395	6640.074256
790.888984	6453.564166
791.211529	6315.870090
791.534027	6154.291027
791.856480	6019.326736
792.178888	5962.016378
792.501249	5901.736781
792.823566	5796.840452
793.145836	5784.522392
793.468062	5768.171410
793.790241	5726.133228
794.112375	5767.417757
794.434464	5865.745463
794.756507	5898.099588
795.078505	6020.922261
795.400457	6231.531586
795.722364	6460.626823
796.044226	6655.245608
796.366042	6805.771941
796.687812	6753.742193
797.009538	6777.871675
797.331218	6690.175763
797.652852	6624.252594
797.974442	6501.228276
798.295986	6435.539521
798.617484	6307.418596
798.938938	6199.477409
799.260346	6136.455425
799.581709	5998.955433
799.903026	5946.671106
800.224299	5868.951637
800.545526	5760.592035
800.866708	5696.413105
801.187845	5649.263193
801.508936	5566.409309
801.829983	5541.556421
802.150984	5435.553558
802.471940	5412.636473
802.792851	5390.899018
803.113717	5371.863621
803.434538	5347.482080
803.755314	5316.978058
804.076045	5302.215039
804.396731	5273.004073
804.717372	5285.874139
805.037967	5283.325836
805.358518	5313.938243
805.679024	5363.880954
805.999485	5377.613057
806.319901	5391.849275
806.640272	5407.353344
806.960598	5452.837154
807.280879	5446.230722
807.601115	5482.015353
807.921306	5442.303663
808.241453	5440.589671
808.561554	5449.262976
808.881611	5421.662659
809.201623	5419.638636
809.521590	5365.196695
809.841513	5351.141958
810.161390	5372.302201
810.481223	5283.106546
810.801011	5270.135657
811.120755	5247.437862
811.440453	5198.926838
811.760107	5167.722096
812.079716	5144.300895
812.399281	5092.155200
812.718801	5083.691102
813.038276	5051.984765
813.357707	5016.003530
813.677093	5038.882806
813.996434	4978.668744
814.315731	5003.735882
814.634983	5000.302856
814.954191	5010.173435
815.273354	5064.605294
815.592473	5105.857056
815.911547	5180.534188
816.230577	5231.457404
816.549562	5316.708357
816.868502	5375.941914
817.187399	5426.736580
817.506250	5504.718189
817.825058	5532.177354
818.143821	5688.800963
818.462539	5859.401171
818.781213	6095.695175
819.099843	6452.626512
819.418429	7086.712925
819.736970	7693.491407
820.055466	8397.259169
820.373919	9322.580602
820.692327	10820.516618
821.010691	13637.836021
821.329011	20010.746766
821.647286	29488.481481
821.965517	39471.017177
822.283704	44434.340649
822.601847	45589.707575
822.919945	41010.875428
823.237999	36045.686729
823.556010	31004.850475
823.873976	26448.406092
824.191897	22375.620091
824.509775	19382.066991
824.827609	16698.197012
825.145398	15202.990782
825.463144	14507.273742
825.780845	14856.953379
826.098502	16150.142931
826.416116	18562.781188
826.733685	20678.341729
827.051210	21023.509533
827.368692	19538.766217
827.686129	17030.043567
828.003522	14645.625689
828.320872	12500.496260
828.638177	10911.186811
828.955439	9703.354075
829.272656	8668.879059
829.589830	7845.227618
829.906960	7128.410829
830.224046	6611.606860
830.541088	6211.626590
830.858086	5959.906655
831.175041	5761.741418
831.491952	5709.056319
831.808819	5749.388071
832.125642	6007.921125
832.442421	6574.882054
832.759157	7709.066052
833.075849	9464.756264
833.392497	11245.982440
833.709101	12269.008996
834.025662	11943.796600
834.342179	10882.749662
834.658653	9616.570612
834.975083	8549.663332
835.291469	7682.559665
835.607811	6963.295396
835.924110	6456.185566
836.240366	5975.236804
836.556578	5531.159041
836.872746	5188.045508
837.188871	4917.088529
837.504952	4703.774625
837.820990	4538.722207
838.136984	4427.799178
838.452935	4386.703692
838.768842	4428.497378
839.084706	4725.950661
839.400526	5480.165249
839.716303	6355.226378
840.032037	6875.992694
840.347727	6690.082502
840.663373	6096.421101
840.978977	5535.078538
841.294537	5109.242191
841.610054	4787.417450
841.925527	4555.070669
842.240957	4352.668342
842.556344	4172.189993
842.871687	4015.785674
843.186987	3867.205227
843.502244	3749.685848
843.817458	3666.060667
844.132629	3594.650203
844.447756	3544.858726
844.762840	3502.379443
845.077881	3463.383598
845.392879	3432.514092
845.707833	3402.935122
846.022745	3377.167264
846.337613	3366.447250
846.652438	3340.485308
846.967221	3334.728310
847.281960	3314.634271
847.596656	3304.267138
847.911309	3291.381949
848.225919	3280.031791
848.540485	3270.345214
848.855009	3260.928339
849.169490	3250.901484
849.483928	3244.027870
849.798323	3236.937487
850.112675	3226.051116
850.426984	3230.598237
850.741251	3221.125908
851.055474	3220.526011
851.369654	3221.342678
851.683792	3218.645661
851.997887	3220.662122
852.311938	3221.249417
852.625947	3220.120198
852.939914	3211.227603
853.253837	3219.495095
853.567718	3215.807491
853.881555	3209.957232
854.195350	3213.599466
854.509103	3211.651060
854.822812	3209.972356
855.136479	3203.048331
855.450103	3209.485884
855.763685	3202.327446
856.077224	3209.352294
856.390720	3211.399002
856.704173	3226.701425
857.017584	3227.233266
857.330953	3233.204513
857.644278	3241.771954
857.957561	3244.975607
858.270802	3238.825400
858.584000	3237.111407
858.897155	3235.498238
859.210268	3224.435426
859.523339	3212.835731
859.836367	3207.290462
860.149352	3207.524875
860.462295	3203.388609
860.775195	3193.767567
861.088054	3188.471834
861.400869	3187.680373
861.713642	3186.195753
862.026373	3194.841332
862.339062	3199.436344
862.651708	3210.632747
862.964312	3223.381825
863.276873	3233.832137
863.589392	3263.088473
863.901869	3284.830970
864.214303	3309.963642
864.526696	3325.006445
864.839045	3344.026719
865.151353	3356.939634
865.463619	3358.172196
865.775842	3357.766383
866.088023	3366.757281
866.400162	3355.681866
866.712258	3357.431147
867.024313	3357.526929
867.336325	3354.000642
867.648296	3359.044316
867.960224	3353.065508
868.272110	3361.481714
868.583954	3357.574820
868.895755	3365.209647
869.207515	3359.641693
869.519233	3379.385372
869.830909	3389.008934
870.142542	3399.628125
870.454134	3403.033424
870.765684	3421.468924
871.077191	3437.376285
871.388657	3448.625620
871.700081	3467.131696
872.011463	3487.553410
872.322803	3507.891945
872.634101	3521.440046
872.945357	3544.074827
873.256571	3568.834454
873.567744	3583.481526
873.878874	3589.649378
874.189963	3607.981534
874.501010	3607.217799
874.812015	3603.749485
875.122979	3622.774800
875.433900	3619.515694
875.744780	3620.919655
876.055618	3631.259062
876.366415	3625.736478
876.677169	3637.535298
876.987882	3650.506187
877.298554	3674.305475
877.609183	3709.790157
877.919771	3759.238835
878.230317	3828.428671
878.540822	3933.526647
878.851285	4089.295780
879.161707	4315.537723
879.472087	4700.906208
879.782425	5344.328838
880.092722	6552.774074
880.402977	8487.977253
880.713191	10812.153343
881.023363	13089.192124
881.333494	14299.094253
881.643583	14694.545046
881.953631	14264.083439
882.263637	13459.958907
882.573602	12459.988068
882.883526	11546.833461
883.193408	10623.490681
883.503248	9732.572603
883.813048	8927.051671
884.122806	8178.150459
884.432522	7422.680623
884.742197	6780.402335
885.051831	6228.345577
885.361424	5740.412296
885.670975	5364.480851
885.980485	5040.480852
886.289954	4781.216830
886.599382	4567.665992
886.908768	4390.252664
887.218113	4227.410792
887.527417	4096.590329
887.836680	3975.779077
888.145901	3874.703943
888.455082	3798.022952
888.764221	3730.226994
889.073319	3670.232222
889.382376	3641.240547
889.691392	3614.691310
890.000366	3610.875156
890.309300	3603.371399
890.618193	3609.077985
890.927044	3601.362499
891.235855	3607.958849
891.544625	3626.298567
891.853353	3658.211591
892.162041	3716.096640
892.470687	3808.856391
892.779293	3931.336265
893.087858	4104.865383
893.396381	4390.643354
893.704864	4812.038445
894.013306	5376.415783
894.321707	5919.020377
894.630068	6243.927783
894.938387	6259.351194
895.246665	6073.592236
895.554903	5770.127377
895.863100	5443.611843
896.171256	5180.635011
896.479371	4947.940391
896.787446	4730.117174
897.095480	4536.539387
897.403473	4389.451121
897.711425	4251.326026
898.019336	4127.963950
898.327207	4008.750744
898.635038	3910.760796
898.942827	3805.168787
899.250576	3720.177454
899.558284	3638.286430
899.865952	3584.441866
900.173579	3522.947351
900.481165	3476.548571
900.788711	3434.507868
901.096216	3406.413518
901.403681	3377.799929
901.711105	3365.461705
902.018489	3365.353320
902.325832	3399.474370
902.633135	3464.326293
902.940397	3643.763644
903.247619	4063.175041
903.554800	4822.549251
903.861941	5758.290748
904.169041	6416.310039
904.476101	6588.604075
904.783121	6306.428009
905.090100	5915.267238
905.397039	5516.620353
905.703938	5172.319628
906.010796	4855.314230
906.317614	4612.917909
906.624391	4379.724215
906.931129	4186.612734
907.237826	4007.750075
907.544483	3837.497707
907.851099	3669.206347
908.157675	3510.041997
908.464211	3367.689895
908.770707	3273.775719
909.077163	3194.092721
909.383578	3136.260604
909.689954	3090.028182
909.996289	3062.074984
910.302584	3044.882129
910.608839	3030.353523
910.915054	3020.266175
911.221229	3012.096985
911.527363	3019.119312
911.833458	3026.953265
912.139513	3036.763351
912.445527	3052.756411
912.751502	3087.192533
913.057436	3129.311373
913.363331	3190.304294
913.669186	3277.977521
913.975000	3399.615522
914.280775	3591.615428
914.586510	3865.725648
914.892205	4245.180860
915.197859	4737.210078
915.503475	5300.846366
915.809050	5769.429178
916.114585	6031.175968
916.420081	6082.683957
916.725536	6015.291292
917.030952	5782.987361
917.336328	5584.391105
917.641665	5376.020052
917.946961	5161.957536
918.252218	4962.595025
918.557435	4743.682919
918.862612	4549.480029
919.167750	4381.566756
919.472848	4193.299825
919.777906	4029.769835
920.082925	3874.136813
920.387904	3725.667271
920.692843	3617.836990
920.997743	3521.145138
921.302603	3427.273813
921.607423	3362.552959
921.912204	3296.866724
922.216946	3247.375197
922.521647	3199.675799
922.826310	3159.182731
923.130932	3121.502626
923.435516	3083.905701
923.740059	3059.766136
924.044564	3026.980992
924.349028	3002.135665
924.653454	2970.625933
924.957840	2945.672221
925.262186	2927.493820
925.566493	2903.394584
925.870761	2877.873743
926.174989	2868.345962
926.479178	2852.983046
926.783328	2837.355469
927.087438	2825.349961
927.391509	2812.520225
927.695541	2803.788946
927.999533	2790.891154
928.303486	2783.891512
928.607400	2775.434976
928.911275	2771.379368
929.215110	2764.722524
929.518906	2762.738830
929.822663	2762.375867
930.126381	2760.727410
930.430060	2765.072885
930.733699	2765.289654
931.037299	2769.194028
931.340861	2767.716970
931.644383	2771.792743
931.947866	2769.365427
932.251309	2765.710591
932.554714	2766.943153
932.858080	2764.785539
933.161407	2761.009715
933.464694	2756.964189
933.767943	2755.585433
934.071153	2751.287849
934.374323	2744.764596
934.677455	2745.576222
934.980548	2743.285018
935.283602	2737.369224
935.586617	2736.497104
935.889593	2738.735376
936.192530	2741.911303
936.495428	2746.153434
936.798287	2755.840011
937.101108	2769.443565
937.403890	2791.468366
937.706632	2817.921821
938.009336	2845.108764
938.312002	2877.425080
938.614628	2900.553894
938.917216	2917.214908
939.219765	2926.203285
939.522275	2941.636778
939.824747	2938.506221
940.127179	2930.793256
940.429573	2926.047009
940.731929	2925.565579
941.034246	2916.015113
941.336524	2916.073086
941.638763	2907.795512
941.940964	2903.719739
942.243126	2889.488562
942.545250	2879.262581
942.847335	2862.987216
943.149381	2845.638085
943.451389	2836.319512
943.753359	2823.850218
944.055290	2814.889567
944.357182	2805.644091
944.659036	2802.460602
944.960851	2799.897175
945.262628	2793.295784
945.564367	2796.053296
945.866067	2791.493572
946.167729	2790.724796
946.469352	2789.010804
946.770937	2787.947120
947.072484	2781.635596
947.373992	2781.970832
947.675462	2775.893721
947.976893	2774.068824
948.278286	2769.635129
948.579641	2768.425252
948.880958	2763.401742
949.182236	2763.409304
949.483476	2759.446957
949.784678	2761.818820
950.085841	2758.169024
950.386967	2762.378388
950.688054	2769.103287
950.989103	2776.768362
951.290114	2785.025772
951.591087	2796.202010
951.892021	2807.960501
952.192917	2821.745536
952.493776	2828.717452
952.794596	2832.684840
953.095378	2835.170129
953.396122	2831.729541
953.696828	2828.193172
953.997496	2824.404745
954.298126	2816.785041
954.598718	2809.112405
954.899272	2797.754685
955.199788	2787.367387
955.500266	2775.140069
955.800706	2758.529467
956.101108	2745.341808
956.401472	2732.658265
956.701798	2721.141749
957.002087	2706.774461
957.302337	2697.788604
957.602550	2687.436595
957.902724	2677.853361
958.202861	2669.338852
958.502960	2661.751916
958.803022	2656.451143
959.103045	2645.274905
959.403031	2643.870943
959.702979	2637.173770
960.002889	2632.387195
960.302762	2628.820578
960.602596	2622.259517
960.902393	2621.836060
961.202153	2618.798765
961.501875	2613.901284
961.801559	2611.869699
962.101205	2609.417177
962.400814	2608.585387
962.700385	2604.922989
962.999918	2600.897627
963.299414	2603.692947
963.598873	2599.957452
963.898293	2600.060796
964.197677	2596.184148
964.497022	2598.336721
964.796331	2595.122986
965.095601	2595.130547
965.394835	2595.294385
965.694030	2592.758684
965.993189	2591.173242
966.292309	2588.435895
966.591393	2594.744899
966.890439	2590.258272
967.189447	2592.970413
967.488419	2592.751123
967.787353	2589.333220
968.086249	2590.774990
968.385108	2591.299270
968.683930	2593.139292
968.982714	2595.586772
969.281462	2594.444950
969.580172	2598.180445
969.878844	2600.486773
970.177480	2601.195055
970.476078	2606.689913
970.774639	2607.388113
971.073162	2608.572784
971.371649	2609.994389
971.670098	2609.553288
971.968510	2613.407251
972.266885	2611.252157
972.565223	2617.714917
972.863524	2619.244907
973.161788	2619.640637
973.460014	2619.854886
973.758204	2621.841101
974.056356	2620.328755
974.354471	2621.503344
974.652550	2624.296143
974.950591	2625.977368
975.248595	2622.075515
975.546563	2621.604167
975.844493	2618.093003
976.142386	2616.384052
976.440243	2614.725512
976.738062	2612.925820
977.035845	2612.416664
977.333590	2609.049173
977.631299	2607.347784
977.928971	2604.519696
978.226606	2602.407453
978.524204	2600.902668
978.821765	2599.604571
979.119290	2603.120776
979.416777	2599.118100
979.714228	2602.127669
980.011642	2603.077926
980.309020	2607.007506
980.606360	2609.515480
980.903664	2618.592077
981.200931	2632.001547
981.498162	2651.054587
981.795356	2678.039884
982.092513	2715.558672
982.389633	2758.242121
982.686717	2796.615384
982.983764	2827.137050
983.280775	2845.796881
983.577749	2842.807477
983.874686	2837.221878
984.171587	2819.978612
984.468451	2805.868422
984.765279	2785.799589
985.062070	2768.271497
985.358824	2748.694176
985.655543	2728.179200
985.952224	2711.435008
986.248869	2683.101202
986.545478	2656.861997
986.842050	2636.352062
987.138586	2620.137191
987.435086	2605.180088
987.731549	2595.130547
988.027975	2594.656679
988.324366	2586.164855
988.620719	2582.240317
988.917037	2576.314441
989.213318	2574.741601
989.509563	2571.968966
989.805772	2569.995354
990.101944	2570.539799
990.398080	2566.791701
990.694180	2567.825138
990.990244	2569.650035
991.286271	2569.029973
991.582262	2564.797925
991.878217	2572.221024
992.174136	2570.055848
992.470019	2573.395612
992.765865	2574.353432
993.061676	2575.833010
993.357450	2581.484144
993.653188	2581.479103
993.948890	2586.616038
994.244556	2590.926225
994.540186	2602.271342
994.835780	2611.055552
995.131337	2629.768315
995.426859	2641.930099
995.722345	2660.272337
996.017795	2680.126922
996.313208	2693.213757
996.608586	2702.267669
996.903928	2706.847558
997.199234	2701.637525
997.494504	2699.646269
997.789738	2690.988088
998.084936	2685.536080
998.380099	2671.892197
998.675225	2660.673109
998.970316	2648.539052
999.265371	2636.528503
999.560390	2624.374281
999.855373	2615.373301
1000.150320	2600.577514
1000.445232	2596.950404
1000.740108	2587.977150
1001.034948	2579.167734
1001.329752	2576.231262
1001.624521	2574.875191
1001.919254	2566.653069
1002.213951	2566.733728
1002.508613	2558.529250
1002.803239	2562.504200
1003.097829	2556.573282
1003.392384	2558.771225
1003.686903	2558.496482
1003.981386	2556.051523
1004.275834	2556.701832
1004.570246	2556.112017
1004.864623	2554.123281
1005.158964	2554.309804
1005.453270	2553.046995
1005.747540	2553.480534
1006.041775	2549.319062
1006.335974	2549.956768
1006.630138	2547.534493
1006.924266	2547.950388
1007.218359	2548.401572
1007.512416	2549.619010
1007.806438	2549.230842
1008.100425	2547.562220
1008.394376	2549.520708
1008.688292	2546.750594
1008.982172	2547.721016
1009.276017	2545.757487
1009.569827	2545.855789
1009.863602	2546.029709
1010.157341	2544.356046
1010.451045	2545.462579
1010.744714	2545.407126
1011.038347	2548.298228
1011.331945	2546.662374
1011.625508	2543.819163
1011.919036	2545.797816
1012.212528	2544.892929
1012.505986	2538.946888
1012.799408	2543.448638
1013.092795	2543.758669
1013.386147	2542.679862
1013.679464	2545.719678
1013.972745	2541.137269
1014.265992	2543.937630
1014.559204	2543.365459
1014.852380	2542.064841
1015.145521	2541.659028
1015.438628	2543.178936
1015.731699	2541.822866
1016.024736	2541.827907
1016.317737	2541.843031
1016.610703	2547.012734
1016.903635	2541.059131
1017.196531	2539.251878
1017.489393	2541.860675
1017.782219	2540.091230
1018.075011	2545.313865
1018.367768	2546.599359
1018.660490	2545.152548
1018.953177	2545.152548
1019.245829	2545.152548
