Dividing Wavelength (nm)	Counts (n)	Blue Motor Position (mm): 38.400000	Red Motor Position (mm): 0.000000	
326.493990	2051.827753
326.888308	2051.827753
327.282561	2051.827753
327.676750	2023.776253
328.070874	2027.511748
328.464933	2035.605320
328.858929	2043.396423
329.252859	2053.899668
329.646726	2068.461040
330.040528	2086.039544
330.434265	2101.067223
330.827938	2122.902981
331.221547	2143.780920
331.615091	2159.658034
332.008571	2185.259534
332.401986	2204.930116
332.795338	2224.900647
333.188625	2243.200036
333.581847	2261.968251
333.975006	2280.267640
334.368100	2297.992337
334.761129	2314.728968
335.154095	2329.703715
335.546996	2380.785727
335.939833	2491.781852
336.332606	2500.808038
336.725315	2515.283712
337.117960	2524.009949
337.510540	2531.879190
337.903056	2542.432846
338.295508	2547.186654
338.687896	2558.108313
339.080220	2559.587892
339.472480	2565.904458
339.864676	2570.428893
340.256807	2573.501477
340.648875	2575.427197
341.040879	2574.799574
341.432818	2576.952147
341.824694	2582.570512
342.216506	2575.583473
342.608253	2577.693196
342.999937	2579.185378
343.391557	2573.307392
343.783113	2571.651373
344.174605	2569.967628
344.566033	2571.298493
344.957397	2570.098698
345.348697	2566.496793
345.739934	2566.340518
346.131106	2565.037379
346.522215	2560.510423
346.913260	2562.622667
347.304241	2558.677964
347.695159	2558.289795
348.086012	2559.338355
348.476802	2555.224773
348.867528	2552.668908
349.258191	2546.674977
349.648789	2548.020965
350.039324	2543.425953
350.429796	2549.377035
350.820203	2545.911242
351.210548	2547.995759
351.600828	2544.131714
351.991045	2546.173382
352.381198	2545.623896
352.771288	2545.467620
353.161314	2541.837989
353.551276	2543.846889
353.941175	2542.261446
354.331010	2543.657846
354.720782	2549.634134
355.110490	2548.971222
355.500135	2547.040460
355.889717	2544.499719
356.279235	2546.496016
356.668689	2546.848896
357.058080	2546.705223
357.447408	2546.584236
357.836672	2549.387117
358.225873	2551.580019
358.615010	2549.203115
359.004084	2548.777138
359.393095	2551.280071
359.782043	2550.024823
360.170927	2550.715461
360.559748	2550.717982
360.948505	2547.342929
361.337199	2552.981460
361.725830	2554.488765
362.114398	2554.329969
362.502903	2554.433312
362.891344	2557.029507
363.279722	2556.217881
363.668037	2553.742674
364.056289	2553.490617
364.444478	2554.965154
364.832603	2557.589075
365.220665	2554.937428
365.608665	2557.727706
365.996601	2559.174517
366.384474	2557.097562
366.772284	2558.521688
367.160031	2558.519168
367.547715	2558.960268
367.935336	2559.265258
368.322893	2556.928683
368.710388	2555.948179
369.097820	2558.398180
369.485189	2557.084959
369.872495	2562.824313
370.259738	2562.131154
370.646918	2559.363561
371.034035	2561.783315
371.421090	2562.539488
371.808081	2561.937070
372.195010	2562.216854
372.581875	2566.033007
372.968678	2563.792214
373.355418	2565.115517
373.742096	2563.804817
374.128710	2566.058213
374.515262	2564.936556
374.901751	2565.460836
375.288177	2567.845302
375.674540	2566.758933
376.060841	2569.413101
376.447079	2566.438820
376.833254	2568.702298
377.219367	2567.628532
377.605417	2570.217165
377.991404	2571.507700
378.377329	2569.178687
378.763191	2568.747669
379.148991	2570.428893
379.534727	2571.263204
379.920402	2571.835375
380.306013	2572.815880
380.691563	2572.697413
381.077049	2574.839903
381.462474	2571.633729
381.847835	2573.146075
382.233134	2573.987948
382.618371	2573.481312
383.003545	2574.988617
383.388657	2573.940057
383.773706	2574.822259
384.158693	2578.880388
384.543618	2579.644123
384.928480	2576.740418
385.313280	2577.720922
385.698017	2576.972311
386.082692	2577.413412
386.467305	2578.023392
386.851856	2582.943558
387.236344	2580.241499
387.620770	2578.373752
388.005133	2576.017012
388.389435	2578.230079
388.773674	2576.793350
389.157851	2583.099834
389.541965	2582.320975
389.926018	2583.573702
390.310008	2582.603280
390.693936	2586.348857
391.077802	2582.918352
391.461606	2587.314238
391.845348	2583.382138
392.229027	2587.785586
392.612645	2589.287850
392.996200	2589.229877
393.379694	2588.544280
393.763125	2590.351533
394.146494	2589.343303
394.529801	2595.400249
394.913047	2592.090732
395.296230	2594.906216
395.679351	2598.770260
396.062410	2597.648604
396.445408	2598.024170
396.828343	2604.421394
397.211217	2602.412494
397.594028	2605.716970
397.976778	2609.283587
398.359466	2610.264091
398.742092	2613.245934
399.124656	2616.384052
399.507158	2625.800927
399.889598	2630.688326
400.271977	2636.359624
400.654294	2641.804070
401.036549	2651.841007
401.418742	2659.012049
401.800874	2669.974038
402.182944	2681.737570
402.564952	2693.526309
402.946898	2704.508462
403.328783	2716.027499
403.710606	2732.081053
404.092367	2751.479413
404.474067	2772.899276
404.855705	2786.066770
405.237282	2796.771660
405.618797	2824.341730
406.000250	2853.716534
406.381642	2886.415978
406.762972	2902.885428
407.144240	2915.498395
407.525447	2954.723613
407.906593	2973.060810
408.287677	3016.334075
408.668700	3046.089485
409.049661	3081.811101
409.430560	3114.586163
409.811399	3138.680358
410.192176	3173.618075
410.572891	3225.972978
410.953545	3284.909108
411.334138	3284.117646
411.714669	3346.443952
412.095139	3352.584077
412.475547	3419.659150
412.855894	3453.560909
413.236180	3523.131353
413.616405	3533.004453
413.996568	3601.997684
414.376670	3637.174856
414.756711	3668.838343
415.136691	3734.191862
415.516609	3811.109787
415.896466	3868.904095
416.276262	3943.132565
416.655997	4036.131771
417.035670	4120.205615
417.415283	4230.624528
417.794834	4306.682937
418.174324	4321.367818
418.553753	4366.241649
418.933121	4500.764839
419.312428	4549.933733
419.691674	4553.570926
420.070859	4725.812029
420.449983	4702.305129
420.829045	4859.510991
421.208047	4858.349005
421.586988	5004.928115
421.965867	5095.820118
422.344686	5188.602555
422.723444	5349.528789
423.102141	5123.238954
423.480777	5432.044915
423.859352	5348.200445
424.237866	5653.994316
424.616319	5686.910530
424.994712	5849.951528
425.373044	5829.822201
425.751314	6102.286484
426.129524	5927.940699
426.507673	6174.783317
426.885762	6241.457618
427.263789	6300.597914
427.641756	6421.043683
428.019662	6503.990828
428.397508	6574.687970
428.775292	6605.809533
429.153016	6762.271825
429.530679	6746.283805
429.908282	6813.933569
430.285824	6792.738038
430.663305	7045.398148
431.040726	6986.124261
431.418086	7000.292424
431.795385	7156.628687
432.172624	7341.016451
432.549802	7245.824343
432.926920	7391.123000
433.303977	7368.074844
433.680974	7429.619771
434.057910	7621.907023
434.434786	7683.905653
434.811601	7663.844382
435.188355	8003.184612
435.565050	7907.705158
435.941683	7933.793129
436.318257	8251.794155
436.694770	8203.925878
437.071222	8429.734283
437.447614	8212.969708
437.823946	8204.866053
438.200218	8351.795523
438.576429	8262.317563
438.952580	8417.897653
439.328670	8429.983820
439.704700	8524.717183
440.080670	8419.536028
440.456580	8678.709309
440.832429	8666.517279
441.208218	8411.644102
441.583947	8533.738328
441.959616	8643.809401
442.335224	8687.017131
442.710773	8773.964432
443.086261	8944.773848
443.461689	8688.312707
443.837057	8841.188218
444.212365	9045.145741
444.587612	9037.689875
444.962800	8943.483312
445.337927	9070.228002
445.712995	8631.108214
446.088002	9270.739896
446.462949	9338.835803
446.837837	9346.465589
447.212664	9397.192199
447.587431	10308.035438
447.962139	11271.972109
448.336786	12025.193590
448.711374	11628.606017
449.085901	10491.954374
449.460369	10471.310849
449.834776	10389.553416
450.209124	11308.117182
450.583412	11076.473642
450.957640	11287.884511
451.331808	10881.257480
451.705917	10405.959852
452.079965	10323.083282
452.453954	10517.044197
452.827883	10477.624895
453.201752	10443.158526
453.575562	10466.294901
453.949311	10820.682976
454.323001	10899.503937
454.696632	10813.794239
455.070202	11401.161759
455.443713	11456.062445
455.817164	11603.231369
456.190556	11924.236923
456.563888	11747.725962
456.937160	11966.035650
457.310373	11473.484672
457.683526	11507.545228
458.056619	11556.358721
458.429653	11634.342850
458.802628	11809.848101
459.175542	11866.228366
459.548398	12413.952252
459.921194	12990.075478
460.293930	13311.287718
460.666607	14135.793636
461.039224	14870.955183
461.411782	15116.761845
461.784280	14745.223765
462.156719	14656.562472
462.529099	14562.527309
462.901419	13994.331297
463.273680	13634.123211
463.645882	13865.219785
464.018024	13824.086491
464.390106	14235.714346
464.762130	15395.197375
465.134094	17057.699337
465.505999	19321.837805
465.877845	21341.684478
466.249631	22226.802709
466.621358	21602.271803
466.993026	20786.184613
467.364634	20078.830070
467.736184	19384.617815
468.107674	18832.861006
468.479105	18687.242236
468.850477	18427.252288
469.221790	18001.930138
469.593043	17372.174076
469.964238	17025.932506
470.335373	17141.538767
470.706449	18011.473042
471.077467	19146.813985
471.448425	21483.192187
471.819324	22979.777174
472.190164	22443.826903
472.560945	20773.359917
472.931667	19377.366115
473.302330	19130.886459
473.672934	18684.514971
474.043479	19121.305746
474.413965	18928.826931
474.784393	18775.800185
475.154761	19404.031298
475.525070	19539.701351
475.895321	19376.057935
476.265513	19895.536236
476.635645	20483.566668
477.005719	20538.069103
477.375734	20919.964233
477.745691	21522.886233
478.115588	22181.570956
478.485427	23458.643939
478.855207	25321.141078
479.224928	27039.042800
479.594591	28224.205467
479.964194	27687.504063
480.333739	28081.886132
480.703226	28371.192910
481.072653	28886.106446
481.442022	29364.317862
481.811333	29663.412040
482.180584	29165.600618
482.549777	28975.120620
482.918912	28767.566234
483.287988	28728.404030
483.657005	28558.628051
484.025964	28207.763743
484.394864	28400.900429
484.763706	28352.613737
485.132489	27851.664197
485.501213	27941.517723
485.869879	28121.491957
486.238487	28079.912520
486.607036	28354.872174
486.975527	28076.345904
487.343959	28409.001564
487.712333	28731.474093
488.080648	28717.779798
488.448905	29147.281065
488.817104	29084.919471
489.185244	29972.621293
489.553326	31125.311367
489.921350	33060.350709
490.289315	35456.035566
490.657222	36119.393439
491.025070	36529.191356
491.392861	36140.321789
491.760593	35348.709401
492.128267	34337.040565
492.495883	33399.842174
492.863440	32574.380958
493.230939	31697.517617
493.598380	31187.620029
493.965763	31073.359756
494.333088	30610.541504
494.700354	30435.905852
495.067563	30427.782033
495.434713	30346.478304
495.801805	30644.712965
496.168839	30500.697282
496.535815	30371.522756
496.902733	30523.702588
497.269593	30348.101555
497.636395	30492.041621
498.003139	30792.050769
498.369825	30569.980380
498.736453	30975.029530
499.103023	30826.285244
499.469535	30928.028332
499.835989	31070.277091
500.202385	30931.073189
500.568723	31013.231394
500.935003	31346.963340
501.301226	31251.539339
501.667390	31940.677673
502.033497	32135.649339
502.399546	31935.455037
502.765537	31559.233726
503.131470	32028.020704
503.497345	32465.406335
503.863163	31456.863014
504.228923	32221.159911
504.594625	32636.142654
504.960269	32129.922588
505.325856	32796.557211
505.691385	32481.898470
506.056856	32818.438339
506.422270	33318.510718
506.787625	32856.683053
507.152924	33312.433607
507.518164	33522.432953
507.883347	33092.583847
508.248472	33256.539814
508.613540	33936.213381
508.978550	34198.181982
509.343503	34051.028181
509.708398	34414.581073
510.073236	35028.288621
510.438016	35133.845342
510.802738	34818.427907
511.167403	35393.971401
511.532010	35637.191950
511.896561	36137.027395
512.261053	36903.068531
512.625488	36683.359923
512.989866	36619.223843
513.354186	36679.279109
513.718449	36644.883316
514.082655	37535.342649
514.446803	37242.610407
514.810894	37875.832262
515.174927	37891.774911
515.538904	37904.992817
515.902822	38547.031650
516.266684	38252.696321
516.630488	38607.956515
516.994235	38637.129672
517.357925	39234.763502
517.721558	39494.317390
518.085133	39876.535154
518.448651	40057.399151
518.812112	39962.935490
519.175516	40110.865629
519.538863	40563.858672
519.902152	40628.700513
520.265385	41182.554442
520.628560	41207.911446
520.991678	41156.327840
521.354739	41398.134346
521.717743	41759.736311
522.080690	41671.100223
522.443580	42363.283414
522.806413	42389.716704
523.169189	42531.486553
523.531908	42750.950665
523.894569	42618.333031
524.257174	42829.532172
524.619722	43165.696475
524.982213	43302.742762
525.344647	43343.734905
525.707025	43472.511180
526.069345	43930.356334
526.431608	43814.316534
526.793815	44220.177310
527.155964	43766.211324
527.518057	44041.838931
527.880093	43892.887958
528.242072	44526.611408
528.603995	44268.952994
528.965860	44175.369014
529.327669	44399.221450
529.689421	44476.582997
530.051117	44411.511783
530.412755	44707.130086
530.774337	44770.938491
531.135862	44705.584972
531.497331	44860.973499
531.858743	44851.297004
532.220098	45269.301919
532.581396	44998.271844
532.942638	44750.642806
533.303824	45007.718967
533.664953	45069.679788
534.026025	44731.231843
534.387040	45304.476570
534.747999	45390.123253
535.108902	45705.611264
535.469748	45037.799532
535.830537	45300.264686
536.191270	45549.489250
536.551947	45268.094563
536.912567	45570.352065
537.273131	45707.688219
537.633638	45328.810220
537.994089	45535.290840
538.354483	45277.728208
538.714821	45934.804803
539.075103	46219.750983
539.435328	46070.230360
539.795497	45819.221227
540.155609	45954.225848
540.515665	46527.906635
540.875665	45840.383991
541.235609	46141.986144
541.595496	46260.541479
541.955328	46832.150352
542.315102	46259.674401
542.674821	46155.637588
543.034483	46035.242232
543.394090	46064.864052
543.753640	46039.718776
544.113134	47111.848691
544.472571	46202.865638
544.831953	47349.902058
545.191278	46603.397914
545.550548	46297.891388
545.909761	46944.893237
546.268918	47088.303982
546.628019	47513.452212
546.987064	46926.550999
547.346053	46220.703761
547.704986	47128.698748
548.063863	46780.347455
548.422684	46975.084708
548.781449	46584.491067
549.140158	47119.516286
549.498811	46882.506438
549.857408	46258.903104
550.215949	47130.279149
550.574434	46943.942980
550.932864	46864.010444
551.291237	47602.047970
551.649555	47366.316055
552.007817	47541.496151
552.366022	47206.856797
552.724173	47260.290507
553.082267	47686.235240
553.440305	48025.383906
553.798288	47274.738454
554.156215	47663.411416
554.514086	47878.714055
554.871902	47500.304883
555.229661	47670.222014
555.587365	47347.094135
555.945014	47483.777460
556.302606	47513.981533
556.660143	47604.205584
557.017625	47832.418619
557.375050	47513.174949
557.732421	47943.490362
558.089735	48001.408178
558.446994	47857.125314
558.804197	48361.918734
559.161345	48217.933297
559.518437	47546.771718
559.875474	47807.752253
560.232455	48047.958193
560.589381	48091.307075
560.946251	47899.186181
561.303065	48574.567206
561.659825	48239.748891
562.016528	48057.362465
562.373177	47633.230028
562.729770	48272.002193
563.086307	47791.701219
563.442789	48349.585551
563.799216	48181.581537
564.155587	48073.365608
564.511904	48049.074808
564.868164	48097.033825
565.224370	48410.069315
565.580520	48140.720465
565.936615	48334.250361
566.292654	47978.917070
566.648638	48354.205768
567.004567	48290.959452
567.360441	48380.462618
567.716260	48100.625647
568.072023	48458.189649
568.427732	48401.695958
568.783385	47933.718085
569.138982	48341.050877
569.494525	48473.965940
569.850013	48070.991225
570.205445	48205.511894
570.560823	47983.940580
570.916145	47851.345631
571.271412	48082.704346
571.626625	47726.446003
571.981782	47806.597829
572.336884	47403.963392
572.691931	47713.555773
573.046923	47396.464675
573.401860	47230.381341
573.756743	47232.339830
574.111570	47394.596928
574.466342	47290.900393
574.821059	47450.069785
575.175722	46948.999257
575.530330	47035.634007
575.884882	46675.428441
576.239380	46579.913699
576.593823	46677.782660
576.948211	46609.326311
577.302544	46142.654097
577.656823	46152.118863
578.011047	46413.921106
578.365216	46224.371200
578.719330	45955.907073
579.073389	45934.363702
579.427394	45977.931874
579.781344	45909.961997
580.135239	45666.638103
580.489080	45731.164873
580.842866	45211.840327
581.196597	45698.029368
581.550273	45696.464090
581.903895	45631.060160
582.257463	46069.380925
582.610975	45496.254665
582.964434	45828.761611
583.317837	45346.804618
583.671186	45286.663653
584.024481	45556.254478
584.377721	45127.769004
584.730906	45330.204099
585.084037	45443.556963
585.437113	45136.235622
585.790135	45274.461540
586.143103	44826.625597
586.496016	44985.921017
586.848874	45093.814313
587.201679	45123.673067
587.554428	44624.581192
587.907124	44901.567390
588.259765	44663.062840
588.612352	44831.855794
588.964884	44269.033652
589.317362	44588.171458
589.669786	44590.187920
590.022155	44442.499756
590.374470	44904.415642
590.726731	44466.336852
591.078937	43812.045494
591.431090	44155.804296
591.783188	43694.566445
592.135232	43453.443016
592.487222	43751.589457
592.839157	43880.585022
593.191038	43516.139846
593.542866	43330.726207
593.894639	42720.416397
594.246358	43035.843913
594.598022	43015.689380
594.949633	42616.455201
595.301190	42582.112341
595.652692	42520.985830
596.004141	43005.554140
596.355535	41909.912284
596.706876	41925.597834
597.058162	41628.986424
597.409395	42130.490491
597.760573	42363.169988
598.111698	41954.213944
598.462768	41866.903680
598.813785	41894.546847
599.164748	41496.172185
599.515657	41777.070318
599.866511	41273.635490
600.217312	41964.616365
600.568060	40903.024982
600.918753	41734.885943
601.269392	41643.976295
601.619978	41369.989584
601.970510	41570.287229
602.320988	41705.158259
602.671412	41967.633496
603.021783	41847.684281
603.372100	41405.890161
603.722363	41511.444361
604.072572	41544.836964
604.422728	41548.481718
604.772830	41319.283138
605.122878	41486.258756
605.472872	41327.651453
605.822813	41596.574326
606.172701	41352.771523
606.522534	41684.965917
606.872314	41889.258677
607.222041	41703.056098
607.571714	42060.809142
607.921333	41546.135061
608.270899	41736.559606
608.620411	42155.166939
608.969870	41877.346430
609.319276	41900.076993
609.668627	41926.238061
610.017926	42337.901204
610.367171	42452.922691
610.716362	42493.879546
611.065500	42390.165367
611.414585	42613.029737
611.763616	42788.855101
612.112594	42688.604195
612.461518	42806.380673
612.810389	43200.273749
613.159207	42992.011081
613.507971	42969.749345
613.856682	43450.115854
614.205340	43289.499651
614.553945	43986.073687
614.902496	43290.671720
615.250994	43740.962705
615.599439	43795.858349
615.947830	43892.318308
616.296169	43899.312909
616.644454	43923.117237
616.992686	44084.207308
617.340864	44540.993820
617.688990	44058.343668
618.037063	44744.245581
618.385082	44557.445626
618.733048	44885.826387
619.080961	44761.624959
619.428821	44801.936546
619.776628	44811.141693
620.124382	44626.650586
620.472083	44742.791208
620.819731	44840.645046
621.167326	44399.594496
621.514868	44401.023663
621.862357	43856.178276
622.209793	43946.336792
622.557176	43521.604457
622.904506	43278.822488
623.251783	42898.603541
623.599007	42593.954011
623.946179	42514.734799
624.293297	42253.736620
624.640363	41706.587426
624.987376	41555.120918
625.334336	41347.203568
625.681243	40938.660899
626.028097	40852.409277
626.374899	40658.667652
626.721647	40628.476182
627.068343	40417.753431
627.414987	40136.784721
627.761577	39864.348164
628.108115	40199.226973
628.454600	39434.136095
628.801032	39676.731542
629.147412	39551.947861
629.493739	39487.191719
629.840014	39030.995022
630.186236	39456.173499
630.532405	38893.184999
630.878521	39130.187286
631.224585	38922.741284
631.570597	38555.566323
631.916556	38726.237107
632.262462	38623.841191
632.608316	38553.988442
632.954117	38423.959441
633.299866	38364.367961
633.645562	38286.303173
633.991206	37744.278312
634.336797	37340.862496
634.682336	37230.098263
635.027823	36995.467840
635.373257	36871.271453
635.718639	36553.620788
636.063968	36441.253468
636.409245	35788.300537
636.754470	35732.701651
637.099642	35523.072830
637.444762	34942.248728
637.789829	35091.928148
638.134845	34705.322059
638.479808	34632.331192
638.824719	34573.480763
639.169577	34061.279367
639.514383	34159.047505
639.859137	33767.196096
640.203839	33942.623208
640.548489	33648.759227
640.893086	33650.856347
641.237632	33354.330637
641.582125	33473.924450
641.926566	33268.051289
642.270955	33289.997952
642.615292	33219.331057
642.959576	33117.777013
643.303809	33104.284365
643.647990	33199.053016
643.992118	33145.581497
644.336195	32990.568537
644.680219	33087.905656
645.024192	33288.074752
645.368112	33804.765295
645.711981	33812.324505
646.055797	34550.140220
646.399562	34346.223027
646.743274	35220.238116
647.086935	35622.164271
647.430544	35572.718113
647.774101	35627.207945
648.117606	35917.936329
648.461059	36059.544861
648.804460	35655.566956
649.147810	35148.873021
649.491108	34804.126154
649.834354	34658.651057
650.177548	33827.901670
650.520690	33328.466997
650.863781	33321.076666
651.206820	33164.659744
651.549807	32723.674729
651.892742	32147.581750
652.235626	32051.822512
652.578458	31914.385535
652.921238	31239.496022
653.263967	31551.266182
653.606644	31242.180437
653.949269	31156.894196
654.291843	30745.614180
654.634365	31116.675871
654.976836	30659.377682
655.319255	30725.033669
655.661622	30598.238568
656.003938	30471.090586
656.346203	30293.596600
656.688416	30524.494049
657.030577	30297.138010
657.372687	30123.497987
657.714746	30291.413780
658.056753	30481.530815
658.398708	29853.526554
658.740612	29915.797407
659.082465	30134.853186
659.424266	30028.061383
659.766016	30029.999706
660.107715	29883.211389
660.449362	29992.619551
660.790958	29977.191099
661.132503	29893.419725
661.473996	29969.354626
661.815438	30049.713138
662.156829	30161.848565
662.498168	29973.148094
662.839456	29954.039600
663.180693	30071.117878
663.521879	30153.172739
663.863013	30106.884864
664.204097	30084.943242
664.545129	30517.181855
664.886110	30437.715627
665.227040	30543.864682
665.567918	30541.328982
665.908746	30611.955548
666.249522	30698.902848
666.590248	30732.061038
666.930922	30830.189618
667.271545	30831.369248
667.612118	30872.094209
667.952639	30689.619564
668.293109	30726.969472
668.633528	30593.799832
668.973896	30558.350438
669.314213	30526.812980
669.654480	30357.402484
669.994695	30339.758446
670.334859	30243.195144
670.674973	30085.132285
671.015035	30272.910225
671.355047	30207.508816
671.695008	30138.510543
672.034918	30038.388186
672.374777	30146.120165
672.714585	30009.212508
673.054342	30148.061009
673.394049	29988.284158
673.733705	30211.955113
674.073310	29927.676886
674.412864	29999.379738
674.752368	29680.241932
675.091820	29916.122562
675.431223	29515.338228
675.770574	29311.801641
676.109875	29151.316509
676.449125	28940.681977
676.788324	28853.323823
677.127473	28362.849800
677.466571	28262.167876
677.805619	27985.978180
678.144616	27918.915710
678.483562	27870.369399
678.822458	27550.067086
679.161303	27491.446029
679.500098	27414.840655
679.838842	27330.214805
680.177535	27415.566581
680.516179	27661.968099
680.854771	27786.771944
681.193314	28543.514672
681.531805	29552.070595
681.870247	30292.303544
682.208638	31034.747038
682.546978	31296.995423
682.885268	31436.494232
683.223508	30999.726143
683.561697	30736.562788
683.899836	30580.536556
684.237925	30155.940332
684.575963	30020.660969
684.913951	29642.473607
685.251889	29818.702263
685.589776	29834.546610
685.927614	29846.317704
686.265401	30023.879746
686.603137	30116.649579
686.940824	30622.675561
687.278460	30947.827464
687.616046	31118.578906
687.953582	31781.107509
688.291068	31689.666020
688.628504	32036.310882
688.965889	32049.077604
689.303224	31783.096244
689.640510	31497.734169
689.977745	30866.969877
690.314930	30145.565638
690.652065	29696.550065
690.989150	29041.938594
691.326185	28191.513584
691.663170	27565.435044
692.000105	26827.732754
692.336990	26212.654012
692.673825	25787.866224
693.010610	25293.339114
693.347345	24786.693070
693.684030	24163.800539
694.020665	23958.517193
694.357251	23287.161530
694.693786	23272.315332
695.030272	23053.171333
695.366707	22560.060787
695.703093	22262.025251
696.039429	22336.772960
696.375716	22098.318821
696.711952	22092.425712
697.048139	21954.018313
697.384276	21786.281480
697.720363	21896.849108
698.056400	21800.792442
698.392388	21640.813945
698.728326	21633.456381
699.064214	21473.845888
699.400053	21483.477013
699.735842	21081.802915
700.071581	20886.087679
700.407270	20642.494084
700.742910	20470.386571
701.078501	20217.323169
701.414042	20017.398569
701.749533	19709.802485
702.084974	19389.611078
702.420366	19622.656058
702.755709	19215.441733
703.091002	18907.369259
703.426246	18983.220981
703.761440	18906.950844
704.096584	18661.877670
704.431679	18597.487012
704.766725	18544.786790
705.101721	18474.790368
705.436668	18599.745449
705.771565	18313.039906
706.106413	18634.834400
706.441212	18701.049956
706.775961	18799.029822
707.110661	18877.306338
707.445311	19240.314786
707.779913	19108.566751
708.114465	19414.577392
708.448967	19720.585513
708.783421	20341.461582
709.117825	20707.285514
709.452180	20934.465112
709.786485	21382.739635
710.120742	22160.645127
710.454949	22247.579825
710.789107	22749.850147
711.123216	23476.807217
711.457275	23691.792264
711.791286	24254.584158
712.125247	24401.944647
712.459159	24137.402537
712.793023	24899.660287
713.126837	23887.068920
713.460602	24138.136025
713.794318	23814.902282
714.127985	23547.867321
714.461602	22659.792454
714.795171	22637.939052
715.128691	21653.721819
715.462162	21138.949435
715.795584	20695.222033
716.128957	20431.015160
716.462281	20063.096628
716.795556	19778.321848
717.128782	19300.508683
717.461960	18692.306075
717.795088	18647.399476
718.128167	18307.620666
718.461198	17848.096808
718.794180	17714.022280
719.127113	17379.997947
719.459997	17190.783278
719.792833	16817.821073
720.125619	16859.977722
720.458357	16525.232503
720.791046	16382.436779
721.123686	16230.178810
721.456278	16009.119173
721.788821	15993.332799
722.121315	15719.386417
722.453761	15835.128789
722.786158	15703.811772
723.118506	15783.552744
723.450805	15668.485887
723.783056	15848.172774
724.115259	15733.804117
724.447412	15729.370422
724.779518	15950.906448
725.111574	16006.984244
725.443582	16262.840446
725.775542	16218.896708
726.107453	16731.818988
726.439315	16646.182387
726.771129	17060.724029
727.102895	17484.183473
727.434612	17771.524201
727.766281	17932.142924
728.097901	18255.893386
728.429473	18337.572681
728.760996	18352.728910
729.092471	18481.633735
729.423897	18383.820227
729.755276	18253.287110
730.086606	18365.304069
730.417887	18940.232541
730.749120	19488.468104
731.080305	19702.162616
731.411442	20112.285687
731.742530	20230.430169
732.073570	20399.331508
732.404562	20732.576983
732.735506	20575.721481
733.066401	20367.685664
733.397249	19879.510408
733.728048	19258.435213
734.058798	18400.156086
734.389501	17627.874002
734.720156	17114.767719
735.050762	16529.368770
735.381320	16144.164122
735.711831	15874.434665
736.042293	15488.352857
736.372707	15519.199677
736.703073	15304.998530
737.033391	15500.519682
737.363661	15494.571120
737.693883	15620.161386
738.024056	15804.881866
738.354182	16027.582398
738.684260	16388.347532
739.014290	16656.436094
739.344272	16886.184160
739.674207	17238.893530
740.004093	17417.335252
740.333931	17457.740101
740.663722	17555.165440
740.993464	17606.156711
741.323159	17458.566850
741.652806	17155.742218
741.982405	16994.931931
742.311956	16637.667878
742.641460	16535.183741
742.970915	16199.947010
743.300323	15844.515417
743.629683	15641.629139
743.958996	15324.742209
744.288260	14998.287168
744.617477	14700.465881
744.946647	14674.440924
745.275768	14346.481099
745.604842	14144.691272
745.933869	13955.290081
746.262847	13936.363069
746.591778	13847.724461
746.920662	13726.802304
747.249498	13734.207759
747.578286	13895.270103
747.907027	14067.475919
748.235720	14335.493904
748.564365	14404.250202
748.892963	14322.959075
749.221514	14429.244242
749.550017	14291.643428
749.878473	14259.188479
750.206881	14028.800187
750.535242	13954.758239
750.863555	13885.792734
751.191821	13786.008135
751.520039	13800.420794
751.848210	13724.914392
752.176334	13774.602524
752.504411	13691.657900
752.832440	13506.105629
753.160421	13632.111790
753.488356	13521.271941
753.816243	13426.430193
754.144082	13262.138989
754.471875	13214.890775
754.799620	13181.561186
755.127318	13156.849450
755.454969	13139.346564
755.782572	13120.822844
756.110129	13128.492959
756.437638	13034.145245
756.765100	13036.012992
757.092515	13064.619020
757.419882	13095.722939
757.747203	13109.848252
758.074477	13205.083210
758.401703	13182.955065
758.728882	13375.847255
759.056014	13414.848142
759.383099	13592.188373
759.710138	13708.641547
760.037129	13840.208101
760.364073	13888.608219
760.690970	13915.394390
761.017820	13940.751393
761.344623	14168.069623
761.671379	14543.118867
761.998088	15248.860240
762.324751	17008.812748
762.651366	20402.172198
762.977935	24869.894794
763.304456	27881.522952
763.630931	28962.726943
763.957359	27793.547255
764.283740	25545.333792
764.610074	23289.843423
764.936362	20644.697068
765.262602	18769.781048
765.588796	16817.132955
765.914943	15524.835687
766.241044	14409.727415
766.567097	13613.986322
766.893104	12891.135272
767.219064	12409.085017
767.544978	11925.081316
767.870845	11542.054447
768.196665	11312.916361
768.522438	11080.909858
768.848165	10876.486028
769.173846	10671.653865
769.499479	10534.557166
769.825066	10368.773780
770.150607	10135.464139
770.476101	10053.502539
770.801548	9929.787583
771.126949	9771.424776
771.452303	9660.259772
771.777611	9462.928846
772.102872	9449.592473
772.428087	9309.201380
772.753256	9147.738263
773.078378	9057.284840
773.403453	8876.730873
773.728482	8765.283565
774.053465	8693.500055
774.378401	8584.076769
774.703291	8464.835837
775.028135	8338.030653
775.352932	8304.595200
775.677683	8201.634674
776.002388	8090.275585
776.327046	8106.404757
776.651658	8008.273656
776.976224	7903.326916
777.300743	7901.870022
777.625216	7810.156310
777.949643	7768.319774
778.274024	7786.210829
778.598359	7688.982095
778.922647	7713.527473
779.246889	7658.198289
779.571086	7663.105852
779.895236	7677.508429
780.219339	7682.854573
780.543397	7683.681322
780.867409	7765.164012
781.191374	7774.376721
781.515294	7738.387923
781.839167	7838.449786
782.162995	7807.907956
782.486776	7757.398115
782.810511	7708.067904
783.134201	7620.911395
783.457844	7616.686908
783.781441	7560.195738
784.104993	7497.115780
784.428498	7475.824467
784.751958	7457.585572
785.075372	7433.362828
785.398739	7369.773713
785.722061	7415.592760
786.045337	7424.248422
786.368568	7576.745846
786.691752	7601.807942
787.014891	7943.598173
787.337983	8289.002911
787.661030	8880.801605
787.984031	9507.449796
788.306987	9917.577908
788.629897	10134.856680
788.952760	10087.013609
789.275579	9867.123520
789.598351	9470.790525
789.921078	9115.875650
790.243759	8702.952218
790.566395	8414.328516
790.888984	8162.933736
791.211529	7946.648071
791.534027	7724.078608
791.856480	7521.358689
792.178888	7441.118643
792.501249	7349.931732
792.823566	7190.354007
793.145836	7191.982299
793.468062	7160.008781
793.790241	7116.062522
794.112375	7181.224477
794.434464	7334.760379
794.756507	7367.754731
795.078505	7530.379833
795.400457	7836.594642
795.722364	8188.837705
796.044226	8478.986356
796.366042	8750.452490
796.687812	8704.641005
797.009538	8792.357082
797.331218	8682.165020
797.652852	8600.931867
797.974442	8452.490051
798.295986	8364.095939
798.617484	8172.607710
798.938938	8031.256277
799.260346	7929.490504
799.581709	7728.928198
799.903026	7648.052967
800.224299	7544.079169
800.545526	7372.473251
800.866708	7275.272243
801.187845	7203.002262
801.508936	7101.004596
801.829983	7057.638070
802.150984	6899.721405
802.471940	6863.029367
802.792851	6841.702765
803.113717	6815.400545
803.434538	6777.753208
803.755314	6714.879938
804.076045	6719.663993
804.396731	6662.162071
804.717372	6695.184149
805.037967	6697.114911
805.358518	6736.062866
805.679024	6820.487069
805.999485	6829.099881
806.319901	6865.549944
806.640272	6891.627833
806.960598	6969.526262
807.280879	6970.403423
807.601115	7052.574231
807.921306	6998.374265
808.241453	7011.017479
808.561554	7034.191663
808.881611	6996.009964
809.201623	7011.125864
809.521590	6951.577234
809.841513	6937.971160
810.161390	6980.780638
810.481223	6847.444640
810.801011	6836.845614
811.120755	6810.427447
811.440453	6737.691159
811.760107	6701.180602
812.079716	6670.152300
812.399281	6601.287618
812.718801	6594.096412
813.038276	6551.833899
813.357707	6491.987841
813.677093	6533.118615
813.996434	6434.306958
814.315731	6482.961655
814.634983	6472.602084
814.954191	6482.321428
815.273354	6592.495846
815.592473	6653.695453
815.911547	6779.429392
816.230577	6862.560539
816.549562	7011.483786
816.868502	7110.658405
817.187399	7211.529373
817.506250	7366.479319
817.825058	7401.139772
818.143821	7677.659664
818.462539	7946.645551
818.781213	8314.826222
819.099843	8859.117082
819.418429	9866.752995
819.736970	10838.072436
820.055466	12028.714836
820.373919	13574.730857
820.692327	15934.114365
821.010691	20094.016546
821.329011	29118.861560
821.647286	42141.850731
821.965517	55612.176771
822.283704	60997.684275
822.601847	63022.831722
822.919945	60410.357084
823.237999	56340.489912
823.556010	50271.331370
823.873976	43544.755956
824.191897	36969.473130
824.509775	32076.294793
824.827609	27485.086613
825.145398	24848.235477
825.463144	23441.471249
825.780845	23727.786102
826.098502	25473.285621
826.416116	29236.769107
826.733685	32868.829713
827.051210	34054.851896
827.368692	32269.300409
827.686129	28322.129880
828.003522	24203.764287
828.320872	20462.890375
828.638177	17600.923993
828.955439	15430.624083
829.272656	13595.208024
829.589830	12098.081113
829.906960	10816.702985
830.224046	9866.369867
830.541088	9103.378630
830.858086	8637.828072
831.175041	8255.847242
831.491952	8131.734035
831.808819	8175.390427
832.125642	8570.813493
832.442421	9454.439542
832.759157	11250.748851
833.075849	14177.945244
833.392497	17405.861586
833.709101	19603.630743
834.025662	19476.260950
834.342179	17795.681410
834.658653	15602.131699
834.975083	13652.057116
835.291469	12026.829445
835.607811	10697.285612
835.924110	9779.641857
836.240366	8902.786077
836.556578	8088.405317
836.872746	7431.270749
837.188871	6931.271466
837.504952	6505.548545
837.820990	6194.032963
838.136984	5965.963602
838.452935	5863.797057
838.768842	5895.606738
839.084706	6321.007026
839.400526	7530.064761
839.716303	9117.791289
840.032037	10228.478469
840.347727	10161.484055
840.663373	9191.936579
840.978977	8144.873802
841.294537	7328.670665
841.610054	6720.858746
841.925527	6284.632580
842.240957	5915.826806
842.556344	5581.842802
842.871687	5292.664573
843.186987	5010.675030
843.502244	4780.115338
843.817458	4610.014205
844.132629	4476.736179
844.447756	4383.510121
844.762840	4303.060868
845.077881	4223.420719
845.392879	4162.321934
845.707833	4111.106332
846.022745	4065.892223
846.337613	4038.019683
846.652438	3991.993949
846.967221	3976.046259
847.281960	3942.885549
847.596656	3924.094648
847.911309	3904.792070
848.225919	3878.807442
848.540485	3863.061398
848.855009	3850.725695
849.169490	3825.983712
849.483928	3818.157320
849.798323	3806.464364
850.112675	3786.851755
850.426984	3792.770069
850.741251	3780.731794
851.055474	3775.612502
851.369654	3782.002165
851.683792	3775.494035
851.997887	3777.480250
852.311938	3782.733132
852.625947	3784.759676
852.939914	3773.427162
853.253837	3787.134059
853.567718	3784.530303
853.881555	3771.884569
854.195350	3791.504740
854.509103	3785.583905
854.822812	3785.641878
855.136479	3771.413221
855.450103	3782.453348
855.763685	3768.373405
856.077224	3776.325826
856.390720	3793.173362
856.704173	3812.816218
857.017584	3821.313082
857.330953	3833.399249
857.644278	3852.835417
857.957561	3863.174824
858.270802	3860.500492
858.584000	3868.919219
858.897155	3856.948999
859.210268	3841.303778
859.523339	3820.332578
859.836367	3815.235972
860.149352	3809.826813
860.462295	3800.039413
860.775195	3793.049853
861.088054	3787.867547
861.400869	3784.111888
861.713642	3784.600880
862.026373	3795.618321
862.339062	3798.479176
862.651708	3821.464317
862.964312	3858.622662
863.276873	3869.612377
863.589392	3927.109258
863.901869	3970.100218
864.214303	4016.123432
864.526696	4046.642577
864.839045	4096.441615
865.151353	4121.924648
865.463619	4135.432420
865.775842	4139.094818
866.088023	4160.413858
866.400162	4151.264163
866.712258	4158.752798
867.024313	4161.835463
867.336325	4159.483765
867.648296	4165.979292
867.960224	4164.164476
868.272110	4178.952701
868.583954	4177.457999
868.895755	4194.247562
869.207515	4187.147097
869.519233	4232.625866
869.830909	4245.054831
870.142542	4267.651803
870.454134	4282.659318
870.765684	4311.882887
871.077191	4350.969473
871.388657	4373.011918
871.700081	4410.298813
872.011463	4454.396306
872.322803	4491.879805
872.634101	4520.624465
872.945357	4566.035178
873.256571	4618.425370
873.567744	4647.023836
873.878874	4668.511754
874.189963	4705.344944
874.501010	4713.209144
874.812015	4714.411460
875.122979	4759.373511
875.433900	4757.770424
875.744780	4772.936735
876.055618	4799.337258
876.366415	4797.910611
876.677169	4818.443231
876.987882	4862.386969
877.298554	4922.540537
877.609183	5001.306046
877.919771	5111.147747
878.230317	5259.859265
878.540822	5472.331296
878.851285	5804.634076
879.161707	6267.764879
879.472087	7033.523710
879.782425	8271.033718
880.092722	10474.950562
880.402977	13804.279797
880.713191	17600.205629
881.023363	21355.275429
881.333494	23604.008131
881.643583	24853.957186
881.953631	24862.449010
882.263637	24034.620972
882.573602	22555.964849
882.883526	20990.056436
883.193408	19313.605601
883.503248	17601.234024
883.813048	16030.808737
884.122806	14585.209981
884.432522	13099.362652
884.742197	11808.544963
885.051831	10695.468276
885.361424	9672.880300
885.670975	8840.666459
885.980485	8144.732650
886.289954	7547.678553
886.599382	7071.559216
886.908768	6689.601072
887.218113	6318.065512
887.527417	6025.189598
887.836680	5750.527371
888.145901	5529.739956
888.455082	5363.303742
888.764221	5209.233477
889.073319	5072.880348
889.382376	5002.178165
889.691392	4943.007622
890.000366	4913.451337
890.309300	4893.889139
890.618193	4893.929469
890.927044	4880.608220
891.235855	4903.762239
891.544625	4937.069143
891.853353	4997.721785
892.162041	5113.242346
892.470687	5303.137570
892.779293	5556.926899
893.087858	5929.493374
893.396381	6515.363671
893.704864	7322.732186
894.013306	8481.267478
894.321707	9661.852776
894.630068	10487.951698
894.938387	10705.036386
895.246665	10474.028031
895.554903	9865.286019
895.863100	9160.043720
896.171256	8604.102753
896.479371	8086.824916
896.787446	7590.987106
897.095480	7155.070971
897.403473	6836.386869
897.711425	6511.512230
898.019336	6237.981742
898.327207	5964.635258
898.635038	5729.919134
898.942827	5484.755220
899.250576	5282.821720
899.558284	5092.341722
899.865952	4965.922187
900.173579	4814.306964
900.481165	4705.982650
900.788711	4610.152836
901.096216	4540.983164
901.403681	4474.886076
901.711105	4451.182570
902.018489	4434.466104
902.325832	4506.113503
902.633135	4626.639930
902.940397	4970.224812
903.247619	5765.151759
903.554800	7218.032462
903.861941	9148.965784
904.169041	10689.444097
904.476101	11337.799496
904.783121	11003.964206
905.090100	10262.957440
905.397039	9419.700951
905.703938	8658.763984
906.010796	7955.507899
906.317614	7390.026549
906.624391	6854.293047
906.931129	6419.899341
907.237826	6009.433471
907.544483	5629.799298
907.851099	5253.328450
908.157675	4890.922420
908.464211	4563.073501
908.770707	4322.131553
909.077163	4116.936426
909.383578	3971.143737
909.689954	3849.919110
909.996289	3782.927217
910.302584	3714.808625
910.608839	3684.934748
910.915054	3649.833193
911.221229	3639.082933
911.527363	3646.246412
911.833458	3661.284174
912.139513	3686.757125
912.445527	3716.515056
912.751502	3803.608550
913.057436	3904.419024
913.363331	4040.212585
913.669186	4249.181015
913.975000	4510.090974
914.280775	4936.023103
914.586510	5527.960429
914.892205	6330.907852
915.197859	7372.821091
915.503475	8605.587373
915.809050	9669.424589
916.114585	10327.093520
916.420081	10589.465413
916.725536	10555.593901
917.030952	10111.614440
917.336328	9709.269869
917.641665	9287.940313
917.946961	8808.652611
918.252218	8387.459166
918.557435	7872.419601
918.862612	7433.715708
919.167750	7057.771660
919.472848	6630.874150
919.777906	6253.011943
920.082925	5888.229009
920.387904	5518.500704
920.692843	5243.472994
920.997743	4997.414275
921.302603	4759.076083
921.607423	4595.044498
921.912204	4427.242131
922.216946	4303.494407
922.521647	4181.876570
922.826310	4076.413111
923.130932	3981.813339
923.435516	3881.965725
923.740059	3812.286897
924.044564	3730.317735
924.349028	3670.156605
924.653454	3604.525823
924.957840	3534.287427
925.262186	3486.381342
925.566493	3426.076539
925.870761	3367.780636
926.174989	3331.602795
926.479178	3294.676343
926.783328	3249.719333
927.087438	3223.054150
927.391509	3187.665250
927.695541	3154.423881
927.999533	3130.057464
928.303486	3106.958897
928.607400	3095.875921
928.911275	3080.812953
929.215110	3061.346537
929.518906	3052.867317
929.822663	3052.297666
930.126381	3047.057387
930.430060	3056.421330
930.733699	3057.306053
931.037299	3064.855180
931.340861	3065.813000
931.644383	3073.117632
931.947866	3073.455389
932.251309	3063.103379
932.554714	3065.044224
932.858080	3058.684808
933.161407	3051.261709
933.464694	3042.933723
933.767943	3037.428783
934.071153	3031.344110
934.374323	3020.571164
934.677455	3016.835669
934.980548	3010.599762
935.283602	3003.564832
935.586617	2998.213647
935.889593	3012.069258
936.192530	3011.572705
936.495428	3026.590302
936.798287	3051.170968
937.101108	3080.875967
937.403890	3133.674492
937.706632	3194.783359
938.009336	3272.863270
938.312002	3348.599045
938.614628	3412.972059
938.917216	3459.131384
939.219765	3494.414420
939.522275	3530.647713
939.824747	3534.453785
940.127179	3536.233312
940.429573	3528.492620
940.731929	3527.078577
941.034246	3513.235568
941.336524	3505.744413
941.638763	3485.075683
941.940964	3472.414825
942.243126	3427.077208
942.545250	3406.108528
942.847335	3368.163763
943.149381	3332.752178
943.451389	3300.687919
943.753359	3266.100563
944.055290	3244.284969
944.357182	3214.834548
944.659036	3203.113866
944.960851	3192.305632
945.262628	3175.511028
945.564367	3176.181501
945.866067	3171.692354
946.167729	3166.681447
946.469352	3166.754544
946.770937	3161.668019
947.072484	3147.038591
947.373992	3149.274343
947.675462	3141.102632
947.976893	3123.204016
948.278286	3117.252933
948.579641	3112.345370
948.880958	3101.917743
949.182236	3107.465533
949.483476	3099.412290
949.784678	3098.792228
950.085841	3095.202927
950.386967	3110.270935
950.688054	3125.096969
950.989103	3147.809887
951.290114	3167.117507
951.591087	3197.306457
951.892021	3221.758573
952.192917	3251.551792
952.493776	3277.899383
952.794596	3285.811474
953.095378	3287.018830
953.396122	3283.966412
953.696828	3280.120011
953.997496	3268.066612
954.298126	3244.287490
954.598718	3226.126733
954.899272	3199.801828
955.199788	3167.838392
955.500266	3139.179432
955.800706	3105.076026
956.101108	3064.303174
956.401472	3032.929553
956.701798	3000.033504
957.002087	2960.493213
957.302337	2931.657813
957.602550	2903.797877
957.902724	2872.734287
958.202861	2847.238651
958.502960	2826.786690
958.803022	2804.953453
959.103045	2785.373611
959.403031	2767.311157
959.702979	2753.989908
960.002889	2741.502970
960.302762	2728.196844
960.602596	2716.151007
960.902393	2705.844368
961.202153	2696.762729
961.501875	2688.424661
961.801559	2680.734381
962.101205	2675.448731
962.400814	2672.282886
962.700385	2664.396001
962.999918	2657.537511
963.299414	2651.606594
963.598873	2651.014258
963.898293	2643.722229
964.197677	2645.083341
964.497022	2641.143679
964.796331	2638.958339
965.095601	2632.795528
965.394835	2635.845426
965.694030	2635.147227
965.993189	2631.905765
966.292309	2631.242853
966.591393	2631.807462
966.890439	2627.651031
967.189447	2626.436113
967.488419	2628.238325
967.787353	2631.575569
968.086249	2629.783439
968.385108	2632.263687
968.683930	2633.322329
968.982714	2636.543626
969.281462	2642.794657
969.580172	2648.375214
969.878844	2650.197591
970.177480	2662.770229
970.476078	2668.113852
970.774639	2676.867816
971.073162	2684.787468
971.371649	2692.596216
971.670098	2696.510672
971.968510	2703.550643
972.266885	2707.659183
972.565223	2709.905017
972.863524	2709.751262
973.161788	2717.189485
973.460014	2721.971019
973.758204	2722.417161
974.056356	2723.659806
974.354471	2725.073849
974.652550	2727.017214
974.950591	2723.017059
975.248595	2722.961606
975.546563	2722.707028
975.844493	2719.248796
976.142386	2710.749411
976.440243	2707.263453
976.738062	2703.412011
977.035845	2695.436906
977.333590	2690.305011
977.631299	2685.092458
977.928971	2678.100378
978.226606	2671.738442
978.524204	2669.724501
978.821765	2666.664520
979.119290	2666.684685
979.416777	2665.686537
979.714228	2670.175684
980.011642	2672.187104
980.309020	2680.792354
980.606360	2693.813654
980.903664	2720.320041
981.200931	2758.053078
981.498162	2802.208544
981.795356	2879.512118
982.092513	2968.175932
982.389633	3074.345152
982.686717	3175.763086
982.983764	3249.731936
983.280775	3296.029893
983.577749	3310.230823
983.874686	3294.847742
984.171587	3262.307094
984.468451	3221.206567
984.765279	3177.771985
985.062070	3127.720889
985.358824	3082.688262
985.655543	3025.919829
985.952224	2970.807414
986.248869	2910.124525
986.545478	2851.783251
986.842050	2796.441464
987.138586	2748.502612
987.435086	2707.664225
987.731549	2677.079544
988.027975	2652.791265
988.324366	2635.376599
988.620719	2620.232973
988.917037	2609.633947
989.213318	2600.930395
989.509563	2592.375557
989.805772	2586.933631
990.101944	2582.603280
990.398080	2582.000862
990.694180	2578.673701
990.990244	2576.405181
991.286271	2577.708320
991.582262	2578.456931
991.878217	2583.034299
992.174136	2583.281315
992.470019	2588.161152
992.765865	2592.841863
993.061676	2594.046699
993.357450	2602.684716
993.653188	2614.042436
993.948890	2630.128758
994.244556	2646.658701
994.540186	2672.008143
994.835780	2701.451003
995.131337	2740.550192
995.426859	2782.485030
995.722345	2830.507062
996.017795	2882.577140
996.313208	2920.153900
996.608586	2948.396965
996.903928	2964.989923
997.199234	2962.648307
997.494504	2963.666620
997.789738	2942.498815
998.084936	2919.256575
998.380099	2891.061402
998.675225	2860.201978
998.970316	2830.607885
999.265371	2792.337965
999.560390	2755.678694
999.855373	2726.865980
1000.150320	2696.051927
1000.445232	2669.041424
1000.740108	2651.359577
1001.034948	2628.389560
1001.329752	2613.001438
1001.624521	2603.725715
1001.919254	2590.961513
1002.213951	2584.884402
1002.508613	2572.876374
1002.803239	2567.873028
1003.097829	2559.441699
1003.392384	2558.410783
1003.686903	2551.547252
1003.981386	2548.388969
1004.275834	2546.506098
1004.570246	2541.671631
1004.864623	2539.967721
1005.158964	2537.706764
1005.453270	2535.055117
1005.747540	2535.244160
1006.041775	2532.060672
1006.335974	2528.874662
1006.630138	2527.458098
1006.924266	2533.552853
1007.218359	2527.599250
1007.512416	2523.601615
1007.806438	2519.556089
1008.100425	2524.801410
1008.394376	2518.411747
1008.688292	2522.807634
1008.982172	2525.711338
1009.276017	2523.097500
1009.569827	2520.662623
1009.863602	2524.808972
1010.157341	2523.528519
1010.451045	2522.116996
1010.744714	2517.922756
1011.038347	2519.961902
1011.331945	2519.248579
1011.625508	2516.687673
1011.919036	2515.629031
1012.212528	2515.959226
1012.505986	2514.527538
1012.799408	2513.579802
1013.092795	2511.747342
1013.386147	2512.596777
1013.679464	2515.122395
1013.972745	2512.087620
1014.265992	2511.238186
1014.559204	2513.267250
1014.852380	2511.596107
1015.145521	2511.301200
1015.438628	2510.925634
1015.731699	2514.056191
1016.024736	2513.461334
1016.317737	2515.369411
1016.610703	2514.051149
1016.903635	2520.897036
1017.196531	2518.505009
1017.489393	2519.979546
1017.782219	2519.649351
1018.075011	2520.208919
1018.367768	2524.188910
1018.660490	2523.140350
1018.953177	2523.140350
1019.245829	2523.140350
