Dividing Wavelength (nm)	Counts (n)	Blue Motor Position (mm): 6.200000	Red Motor Position (mm): 0.000000	
326.493990	2107.202308
326.888308	2107.202308
327.282561	2107.202308
327.676750	2112.243462
328.070874	2079.475962
328.464933	2157.613846
328.858929	2102.161154
329.252859	2036.626154
329.646726	2064.352500
330.040528	2112.243462
330.434265	2016.461538
330.827938	2165.175577
331.221547	2102.161154
331.615091	2150.052115
332.008571	2200.463654
332.401986	2202.984231
332.795338	2210.545962
333.188625	2276.080962
333.581847	2288.683846
333.975006	2334.054231
334.368100	2336.574808
334.761129	2298.766154
335.154095	2341.615962
335.546996	2334.054231
335.939833	2422.274423
336.332606	2331.533654
336.725315	2283.642692
337.117960	2374.383462
337.510540	2326.492500
337.903056	2323.971923
338.295508	2389.506923
338.687896	2417.233269
339.080220	2397.068654
339.472480	2497.891731
339.864676	2518.056346
340.256807	2434.877308
340.648875	2462.603654
341.040879	2397.068654
341.432818	2487.809423
341.824694	2432.356731
342.216506	2442.439038
342.608253	2460.083077
342.999937	2507.974038
343.391557	2558.385577
343.783113	2470.165385
344.174605	2424.795000
344.566033	2444.959615
344.957397	2467.644808
345.348697	2497.891731
345.739934	2429.836154
346.131106	2462.603654
346.522215	2477.727115
346.913260	2432.356731
347.304241	2467.644808
347.695159	2515.535769
348.086012	2510.494615
348.476802	2457.562500
348.867528	2414.712692
349.258191	2422.274423
349.648789	2457.562500
350.039324	2475.206538
350.429796	2497.891731
350.820203	2492.850577
351.210548	2450.000769
351.600828	2482.768269
351.991045	2452.521346
352.381198	2427.315577
352.771288	2394.548077
353.161314	2505.453462
353.551276	2450.000769
353.941175	2555.865000
354.331010	2452.521346
354.720782	2422.274423
355.110490	2497.891731
355.500135	2374.383462
355.889717	2371.862885
356.279235	2444.959615
356.668689	2434.877308
357.058080	2467.644808
357.447408	2407.150962
357.836672	2404.630385
358.225873	2497.891731
358.615010	2477.727115
359.004084	2412.192115
359.393095	2492.850577
359.782043	2412.192115
360.170927	2462.603654
360.559748	2376.904038
360.948505	2490.330000
361.337199	2409.671538
361.725830	2490.330000
362.114398	2429.836154
362.502903	2437.397885
362.891344	2359.260000
363.279722	2455.041923
363.668037	2364.301154
364.056289	2460.083077
364.444478	2477.727115
364.832603	2485.288846
365.220665	2386.986346
365.608665	2492.850577
365.996601	2465.124231
366.384474	2457.562500
366.772284	2457.562500
367.160031	2397.068654
367.547715	2470.165385
367.935336	2442.439038
368.322893	2482.768269
368.710388	2386.986346
369.097820	2462.603654
369.485189	2414.712692
369.872495	2434.877308
370.259738	2429.836154
370.646918	2538.220962
371.034035	2429.836154
371.421090	2568.467885
371.808081	2482.768269
372.195010	2515.535769
372.581875	2447.480192
372.968678	2505.453462
373.355418	2447.480192
373.742096	2480.247692
374.128710	2452.521346
374.515262	2518.056346
374.901751	2386.986346
375.288177	2452.521346
375.674540	2495.371154
376.060841	2490.330000
376.447079	2513.015192
376.833254	2452.521346
377.219367	2480.247692
377.605417	2477.727115
377.991404	2409.671538
378.377329	2455.041923
378.763191	2565.947308
379.148991	2424.795000
379.534727	2462.603654
379.920402	2520.576923
380.306013	2392.027500
380.691563	2422.274423
381.077049	2437.397885
381.462474	2480.247692
381.847835	2444.959615
382.233134	2460.083077
382.618371	2419.753846
383.003545	2497.891731
383.388657	2439.918462
383.773706	2417.233269
384.158693	2394.548077
384.543618	2409.671538
384.928480	2447.480192
385.313280	2500.412308
385.698017	2447.480192
386.082692	2513.015192
386.467305	2434.877308
386.851856	2412.192115
387.236344	2414.712692
387.620770	2412.192115
388.005133	2490.330000
388.389435	2432.356731
388.773674	2500.412308
389.157851	2467.644808
389.541965	2470.165385
389.926018	2465.124231
390.310008	2560.906154
390.693936	2419.753846
391.077802	2487.809423
391.461606	2394.548077
391.845348	2467.644808
392.229027	2470.165385
392.612645	2555.865000
392.996200	2518.056346
393.379694	2578.550192
393.763125	2482.768269
394.146494	2429.836154
394.529801	2432.356731
394.913047	2513.015192
395.296230	2432.356731
395.679351	2500.412308
396.062410	2480.247692
396.445408	2434.877308
396.828343	2550.823846
397.211217	2535.700385
397.594028	2419.753846
397.976778	2495.371154
398.359466	2492.850577
398.742092	2409.671538
399.124656	2376.904038
399.507158	2485.288846
399.889598	2402.109808
400.271977	2500.412308
400.654294	2439.918462
401.036549	2487.809423
401.418742	2497.891731
401.800874	2500.412308
402.182944	2520.576923
402.564952	2490.330000
402.946898	2533.179808
403.328783	2477.727115
403.710606	2485.288846
404.092367	2455.041923
404.474067	2455.041923
404.855705	2490.330000
405.237282	2417.233269
405.618797	2432.356731
406.000250	2502.932885
406.381642	2482.768269
406.762972	2450.000769
407.144240	2497.891731
407.525447	2545.782692
407.906593	2470.165385
408.287677	2414.712692
408.668700	2439.918462
409.049661	2492.850577
409.430560	2543.262115
409.811399	2439.918462
410.192176	2497.891731
410.572891	2419.753846
410.953545	2520.576923
411.334138	2465.124231
411.714669	2520.576923
412.095139	2533.179808
412.475547	2470.165385
412.855894	2475.206538
413.236180	2462.603654
413.616405	2475.206538
413.996568	2480.247692
414.376670	2465.124231
414.756711	2371.862885
415.136691	2455.041923
415.516609	2472.685962
415.896466	2460.083077
416.276262	2366.821731
416.655997	2455.041923
417.035670	2442.439038
417.415283	2525.618077
417.794834	2409.671538
418.174324	2467.644808
418.553753	2432.356731
418.933121	2414.712692
419.312428	2507.974038
419.691674	2465.124231
420.070859	2538.220962
420.449983	2444.959615
420.829045	2381.945192
421.208047	2502.932885
421.586988	2437.397885
421.965867	2543.262115
422.344686	2472.685962
422.723444	2450.000769
423.102141	2520.576923
423.480777	2381.945192
423.859352	2510.494615
424.237866	2505.453462
424.616319	2515.535769
424.994712	2550.823846
425.373044	2545.782692
425.751314	2485.288846
426.129524	2543.262115
426.507673	2502.932885
426.885762	2490.330000
427.263789	2502.932885
427.641756	2507.974038
428.019662	2450.000769
428.397508	2434.877308
428.775292	2515.535769
429.153016	2450.000769
429.530679	2502.932885
429.908282	2545.782692
430.285824	2568.467885
430.663305	2518.056346
431.040726	2540.741538
431.418086	2505.453462
431.795385	2457.562500
432.172624	2538.220962
432.549802	2553.344423
432.926920	2470.165385
433.303977	2417.233269
433.680974	2518.056346
434.057910	2407.150962
434.434786	2485.288846
434.811601	2560.906154
435.188355	2502.932885
435.565050	2487.809423
435.941683	2482.768269
436.318257	2447.480192
436.694770	2470.165385
437.071222	2455.041923
437.447614	2528.138654
437.823946	2460.083077
438.200218	2568.467885
438.576429	2389.506923
438.952580	2502.932885
439.328670	2432.356731
439.704700	2535.700385
440.080670	2507.974038
440.456580	2520.576923
440.832429	2510.494615
441.208218	2500.412308
441.583947	2477.727115
441.959616	2533.179808
442.335224	2510.494615
442.710773	2606.276538
443.086261	2540.741538
443.461689	2452.521346
443.837057	2475.206538
444.212365	2505.453462
444.587612	2432.356731
444.962800	2550.823846
445.337927	2409.671538
445.712995	2457.562500
446.088002	2507.974038
446.462949	2525.618077
446.837837	2429.836154
447.212664	2485.288846
447.587431	2422.274423
447.962139	2472.685962
448.336786	2502.932885
448.711374	2525.618077
449.085901	2523.097500
449.460369	2570.988462
449.834776	2480.247692
450.209124	2515.535769
450.583412	2467.644808
450.957640	2465.124231
451.331808	2535.700385
451.705917	2535.700385
452.079965	2467.644808
452.453954	2513.015192
452.827883	2497.891731
453.201752	2442.439038
453.575562	2492.850577
453.949311	2553.344423
454.323001	2510.494615
454.696632	2462.603654
455.070202	2500.412308
455.443713	2455.041923
455.817164	2570.988462
456.190556	2465.124231
456.563888	2490.330000
456.937160	2470.165385
457.310373	2548.303269
457.683526	2394.548077
458.056619	2513.015192
458.429653	2470.165385
458.802628	2490.330000
459.175542	2543.262115
459.548398	2538.220962
459.921194	2444.959615
460.293930	2384.465769
460.666607	2470.165385
461.039224	2495.371154
461.411782	2432.356731
461.784280	2507.974038
462.156719	2422.274423
462.529099	2505.453462
462.901419	2437.397885
463.273680	2455.041923
463.645882	2513.015192
464.018024	2495.371154
464.390106	2392.027500
464.762130	2472.685962
465.134094	2427.315577
465.505999	2374.383462
465.877845	2452.521346
466.249631	2444.959615
466.621358	2570.988462
466.993026	2442.439038
467.364634	2457.562500
467.736184	2570.988462
468.107674	2523.097500
468.479105	2460.083077
468.850477	2530.659231
469.221790	2467.644808
469.593043	2480.247692
469.964238	2570.988462
470.335373	2480.247692
470.706449	2429.836154
471.077467	2538.220962
471.448425	2530.659231
471.819324	2470.165385
472.190164	2475.206538
472.560945	2399.589231
472.931667	2487.809423
473.302330	2525.618077
473.672934	2550.823846
474.043479	2386.986346
474.413965	2565.947308
474.784393	2523.097500
475.154761	2528.138654
475.525070	2505.453462
475.895321	2538.220962
476.265513	2477.727115
476.635645	2540.741538
477.005719	2487.809423
477.375734	2563.426731
477.745691	2437.397885
478.115588	2477.727115
478.485427	2470.165385
478.855207	2507.974038
479.224928	2550.823846
479.594591	2518.056346
479.964194	2487.809423
480.333739	2495.371154
480.703226	2487.809423
481.072653	2530.659231
481.442022	2518.056346
481.811333	2477.727115
482.180584	2497.891731
482.549777	2518.056346
482.918912	2535.700385
483.287988	2538.220962
483.657005	2497.891731
484.025964	2543.262115
484.394864	2518.056346
484.763706	2422.274423
485.132489	2447.480192
485.501213	2543.262115
485.869879	2450.000769
486.238487	2467.644808
486.607036	2424.795000
486.975527	2477.727115
487.343959	2480.247692
487.712333	2520.576923
488.080648	2457.562500
488.448905	2482.768269
488.817104	2497.891731
489.185244	2510.494615
489.553326	2434.877308
489.921350	2558.385577
490.289315	2460.083077
490.657222	2548.303269
491.025070	2495.371154
491.392861	2447.480192
491.760593	2427.315577
492.128267	2460.083077
492.495883	2497.891731
492.863440	2523.097500
493.230939	2452.521346
493.598380	2502.932885
493.965763	2545.782692
494.333088	2538.220962
494.700354	2540.741538
495.067563	2560.906154
495.434713	2480.247692
495.801805	2513.015192
496.168839	2487.809423
496.535815	2525.618077
496.902733	2450.000769
497.269593	2490.330000
497.636395	2429.836154
498.003139	2477.727115
498.369825	2497.891731
498.736453	2455.041923
499.103023	2515.535769
499.469535	2510.494615
499.835989	2467.644808
500.202385	2553.344423
500.568723	2487.809423
500.935003	2553.344423
501.301226	2455.041923
501.667390	2513.015192
502.033497	2550.823846
502.399546	2482.768269
502.765537	2565.947308
503.131470	2492.850577
503.497345	2470.165385
503.863163	2434.877308
504.228923	2480.247692
504.594625	2432.356731
504.960269	2545.782692
505.325856	2570.988462
505.691385	2412.192115
506.056856	2480.247692
506.422270	2520.576923
506.787625	2502.932885
507.152924	2364.301154
507.518164	2460.083077
507.883347	2465.124231
508.248472	2560.906154
508.613540	2450.000769
508.978550	2492.850577
509.343503	2601.235385
509.708398	2442.439038
510.073236	2424.795000
510.438016	2560.906154
510.802738	2480.247692
511.167403	2455.041923
511.532010	2465.124231
511.896561	2558.385577
512.261053	2576.029615
512.625488	2485.288846
512.989866	2477.727115
513.354186	2447.480192
513.718449	2497.891731
514.082655	2452.521346
514.446803	2487.809423
514.810894	2447.480192
515.174927	2482.768269
515.538904	2528.138654
515.902822	2490.330000
516.266684	2613.838269
516.630488	2507.974038
516.994235	2490.330000
517.357925	2417.233269
517.721558	2364.301154
518.085133	2510.494615
518.448651	2558.385577
518.812112	2555.865000
519.175516	2538.220962
519.538863	2502.932885
519.902152	2490.330000
520.265385	2447.480192
520.628560	2558.385577
520.991678	2578.550192
521.354739	2505.453462
521.717743	2475.206538
522.080690	2533.179808
522.443580	2528.138654
522.806413	2477.727115
523.169189	2538.220962
523.531908	2497.891731
523.894569	2550.823846
524.257174	2477.727115
524.619722	2497.891731
524.982213	2518.056346
525.344647	2432.356731
525.707025	2525.618077
526.069345	2477.727115
526.431608	2457.562500
526.793815	2507.974038
527.155964	2520.576923
527.518057	2492.850577
527.880093	2553.344423
528.242072	2457.562500
528.603995	2472.685962
528.965860	2490.330000
529.327669	2515.535769
529.689421	2515.535769
530.051117	2492.850577
530.412755	2444.959615
530.774337	2515.535769
531.135862	2452.521346
531.497331	2528.138654
531.858743	2470.165385
532.220098	2487.809423
532.581396	2467.644808
532.942638	2470.165385
533.303824	2482.768269
533.664953	2475.206538
534.026025	2487.809423
534.387040	2523.097500
534.747999	2505.453462
535.108902	2470.165385
535.469748	2533.179808
535.830537	2472.685962
536.191270	2510.494615
536.551947	2568.467885
536.912567	2455.041923
537.273131	2475.206538
537.633638	2560.906154
537.994089	2495.371154
538.354483	2407.150962
538.714821	2477.727115
539.075103	2457.562500
539.435328	2565.947308
539.795497	2513.015192
540.155609	2482.768269
540.515665	2507.974038
540.875665	2538.220962
541.235609	2502.932885
541.595496	2545.782692
541.955328	2500.412308
542.315102	2518.056346
542.674821	2487.809423
543.034483	2611.317692
543.394090	2427.315577
543.753640	2550.823846
544.113134	2497.891731
544.472571	2502.932885
544.831953	2520.576923
545.191278	2543.262115
545.550548	2520.576923
545.909761	2497.891731
546.268918	2495.371154
546.628019	2480.247692
546.987064	2555.865000
547.346053	2586.111923
547.704986	2472.685962
548.063863	2482.768269
548.422684	2535.700385
548.781449	2553.344423
549.140158	2397.068654
549.498811	2535.700385
549.857408	2470.165385
550.215949	2422.274423
550.574434	2525.618077
550.932864	2477.727115
551.291237	2548.303269
551.649555	2480.247692
552.007817	2530.659231
552.366022	2462.603654
552.724173	2397.068654
553.082267	2412.192115
553.440305	2434.877308
553.798288	2490.330000
554.156215	2581.070769
554.514086	2548.303269
554.871902	2475.206538
555.229661	2477.727115
555.587365	2545.782692
555.945014	2530.659231
556.302606	2457.562500
556.660143	2407.150962
557.017625	2502.932885
557.375050	2518.056346
557.732421	2485.288846
558.089735	2573.509038
558.446994	2487.809423
558.804197	2480.247692
559.161345	2452.521346
559.518437	2502.932885
559.875474	2480.247692
560.232455	2422.274423
560.589381	2570.988462
560.946251	2515.535769
561.303065	2409.671538
561.659825	2510.494615
562.016528	2515.535769
562.373177	2525.618077
562.729770	2432.356731
563.086307	2520.576923
563.442789	2505.453462
563.799216	2533.179808
564.155587	2507.974038
564.511904	2505.453462
564.868164	2475.206538
565.224370	2507.974038
565.580520	2596.194231
565.936615	2467.644808
566.292654	2477.727115
566.648638	2482.768269
567.004567	2558.385577
567.360441	2442.439038
567.716260	2437.397885
568.072023	2518.056346
568.427732	2495.371154
568.783385	2523.097500
569.138982	2404.630385
569.494525	2467.644808
569.850013	2528.138654
570.205445	2472.685962
570.560823	2465.124231
570.916145	2502.932885
571.271412	2538.220962
571.626625	2477.727115
571.981782	2591.153077
572.336884	2548.303269
572.691931	2591.153077
573.046923	2497.891731
573.401860	2477.727115
573.756743	2465.124231
574.111570	2548.303269
574.466342	2460.083077
574.821059	2528.138654
575.175722	2452.521346
575.530330	2462.603654
575.884882	2568.467885
576.239380	2450.000769
576.593823	2553.344423
576.948211	2394.548077
577.302544	2455.041923
577.656823	2502.932885
578.011047	2510.494615
578.365216	2455.041923
578.719330	2553.344423
579.073389	2543.262115
579.427394	2606.276538
579.781344	2586.111923
580.135239	2518.056346
580.489080	2540.741538
580.842866	2550.823846
581.196597	2487.809423
581.550273	2533.179808
581.903895	2497.891731
582.257463	2480.247692
582.610975	2434.877308
582.964434	2422.274423
583.317837	2465.124231
583.671186	2528.138654
584.024481	2545.782692
584.377721	2568.467885
584.730906	2475.206538
585.084037	2513.015192
585.437113	2477.727115
585.790135	2442.439038
586.143103	2518.056346
586.496016	2477.727115
586.848874	2525.618077
587.201679	2518.056346
587.554428	2460.083077
587.907124	2502.932885
588.259765	2513.015192
588.612352	2492.850577
588.964884	2528.138654
589.317362	2475.206538
589.669786	2530.659231
590.022155	2470.165385
590.374470	2490.330000
590.726731	2472.685962
591.078937	2462.603654
591.431090	2475.206538
591.783188	2470.165385
592.135232	2465.124231
592.487222	2455.041923
592.839157	2429.836154
593.191038	2507.974038
593.542866	2409.671538
593.894639	2482.768269
594.246358	2487.809423
594.598022	2490.330000
594.949633	2457.562500
595.301190	2409.671538
595.652692	2439.918462
596.004141	2563.426731
596.355535	2424.795000
596.706876	2492.850577
597.058162	2500.412308
597.409395	2485.288846
597.760573	2389.506923
598.111698	2533.179808
598.462768	2515.535769
598.813785	2555.865000
599.164748	2533.179808
599.515657	2485.288846
599.866511	2510.494615
600.217312	2467.644808
600.568060	2417.233269
600.918753	2515.535769
601.269392	2432.356731
601.619978	2515.535769
601.970510	2386.986346
602.320988	2497.891731
602.671412	2432.356731
603.021783	2439.918462
603.372100	2457.562500
603.722363	2472.685962
604.072572	2513.015192
604.422728	2596.194231
604.772830	2515.535769
605.122878	2487.809423
605.472872	2535.700385
605.822813	2515.535769
606.172701	2457.562500
606.522534	2513.015192
606.872314	2437.397885
607.222041	2467.644808
607.571714	2553.344423
607.921333	2513.015192
608.270899	2444.959615
608.620411	2513.015192
608.969870	2452.521346
609.319276	2505.453462
609.668627	2535.700385
610.017926	2513.015192
610.367171	2450.000769
610.716362	2480.247692
611.065500	2578.550192
611.414585	2558.385577
611.763616	2485.288846
612.112594	2545.782692
612.461518	2439.918462
612.810389	2452.521346
613.159207	2518.056346
613.507971	2437.397885
613.856682	2427.315577
614.205340	2581.070769
614.553945	2465.124231
614.902496	2507.974038
615.250994	2518.056346
615.599439	2502.932885
615.947830	2515.535769
616.296169	2518.056346
616.644454	2477.727115
616.992686	2437.397885
617.340864	2490.330000
617.688990	2427.315577
618.037063	2462.603654
618.385082	2523.097500
618.733048	2583.591346
619.080961	2470.165385
619.428821	2502.932885
619.776628	2465.124231
620.124382	2520.576923
620.472083	2490.330000
620.819731	2475.206538
621.167326	2439.918462
621.514868	2543.262115
621.862357	2419.753846
622.209793	2485.288846
622.557176	2477.727115
622.904506	2470.165385
623.251783	2500.412308
623.599007	2586.111923
623.946179	2427.315577
624.293297	2492.850577
624.640363	2525.618077
624.987376	2490.330000
625.334336	2528.138654
625.681243	2452.521346
626.028097	2565.947308
626.374899	2603.755962
626.721647	2495.371154
627.068343	2507.974038
627.414987	2510.494615
627.761577	2528.138654
628.108115	2485.288846
628.454600	2497.891731
628.801032	2518.056346
629.147412	2465.124231
629.493739	2533.179808
629.840014	2513.015192
630.186236	2462.603654
630.532405	2487.809423
630.878521	2603.755962
631.224585	2525.618077
631.570597	2429.836154
631.916556	2555.865000
632.262462	2487.809423
632.608316	2601.235385
632.954117	2482.768269
633.299866	2490.330000
633.645562	2462.603654
633.991206	2442.439038
634.336797	2439.918462
634.682336	2485.288846
635.027823	2434.877308
635.373257	2515.535769
635.718639	2475.206538
636.063968	2581.070769
636.409245	2457.562500
636.754470	2568.467885
637.099642	2523.097500
637.444762	2563.426731
637.789829	2500.412308
638.134845	2482.768269
638.479808	2497.891731
638.824719	2429.836154
639.169577	2490.330000
639.514383	2470.165385
639.859137	2515.535769
640.203839	2447.480192
640.548489	2470.165385
640.893086	2510.494615
641.237632	2444.959615
641.582125	2507.974038
641.926566	2467.644808
642.270955	2470.165385
642.615292	2500.412308
642.959576	2492.850577
643.303809	2507.974038
643.647990	2502.932885
643.992118	2525.618077
644.336195	2455.041923
644.680219	2505.453462
645.024192	2472.685962
645.368112	2540.741538
645.711981	2477.727115
646.055797	2533.179808
646.399562	2407.150962
646.743274	2535.700385
647.086935	2530.659231
647.430544	2563.426731
647.774101	2490.330000
648.117606	2457.562500
648.461059	2563.426731
648.804460	2455.041923
649.147810	2490.330000
649.491108	2450.000769
649.834354	2513.015192
650.177548	2450.000769
650.520690	2553.344423
650.863781	2419.753846
651.206820	2555.865000
651.549807	2460.083077
651.892742	2545.782692
652.235626	2540.741538
652.578458	2510.494615
652.921238	2502.932885
653.263967	2444.959615
653.606644	2518.056346
653.949269	2510.494615
654.291843	2455.041923
654.634365	2535.700385
654.976836	2492.850577
655.319255	2472.685962
655.661622	2439.918462
656.003938	2457.562500
656.346203	2442.439038
656.688416	2520.576923
657.030577	2535.700385
657.372687	2550.823846
657.714746	2437.397885
658.056753	2515.535769
658.398708	2525.618077
658.740612	2553.344423
659.082465	2475.206538
659.424266	2502.932885
659.766016	2553.344423
660.107715	2437.397885
660.449362	2490.330000
660.790958	2432.356731
661.132503	2480.247692
661.473996	2475.206538
661.815438	2467.644808
662.156829	2545.782692
662.498168	2455.041923
662.839456	2439.918462
663.180693	2543.262115
663.521879	2432.356731
663.863013	2437.397885
664.204097	2558.385577
664.545129	2404.630385
664.886110	2515.535769
665.227040	2450.000769
665.567918	2578.550192
665.908746	2462.603654
666.249522	2452.521346
666.590248	2507.974038
666.930922	2500.412308
667.271545	2568.467885
667.612118	2545.782692
667.952639	2495.371154
668.293109	2528.138654
668.633528	2460.083077
668.973896	2553.344423
669.314213	2482.768269
669.654480	2502.932885
669.994695	2497.891731
670.334859	2530.659231
670.674973	2500.412308
671.015035	2540.741538
671.355047	2429.836154
671.695008	2482.768269
672.034918	2550.823846
672.374777	2455.041923
672.714585	2409.671538
673.054342	2555.865000
673.394049	2450.000769
673.733705	2475.206538
674.073310	2437.397885
674.412864	2555.865000
674.752368	2472.685962
675.091820	2485.288846
675.431223	2523.097500
675.770574	2407.150962
676.109875	2462.603654
676.449125	2540.741538
676.788324	2452.521346
677.127473	2394.548077
677.466571	2513.015192
677.805619	2495.371154
678.144616	2555.865000
678.483562	2490.330000
678.822458	2578.550192
679.161303	2495.371154
679.500098	2538.220962
679.838842	2432.356731
680.177535	2485.288846
680.516179	2573.509038
680.854771	2462.603654
681.193314	2533.179808
681.531805	2485.288846
681.870247	2472.685962
682.208638	2429.836154
682.546978	2535.700385
682.885268	2520.576923
683.223508	2502.932885
683.561697	2540.741538
683.899836	2515.535769
684.237925	2492.850577
684.575963	2409.671538
684.913951	2576.029615
685.251889	2480.247692
685.589776	2528.138654
685.927614	2424.795000
686.265401	2535.700385
686.603137	2518.056346
686.940824	2550.823846
687.278460	2472.685962
687.616046	2518.056346
687.953582	2442.439038
688.291068	2548.303269
688.628504	2470.165385
688.965889	2439.918462
689.303224	2538.220962
689.640510	2515.535769
689.977745	2518.056346
690.314930	2495.371154
690.652065	2505.453462
690.989150	2462.603654
691.326185	2452.521346
691.663170	2497.891731
692.000105	2538.220962
692.336990	2518.056346
692.673825	2465.124231
693.010610	2439.918462
693.347345	2397.068654
693.684030	2442.439038
694.020665	2578.550192
694.357251	2482.768269
694.693786	2460.083077
695.030272	2437.397885
695.366707	2515.535769
695.703093	2533.179808
696.039429	2490.330000
696.375716	2455.041923
696.711952	2518.056346
697.048139	2543.262115
697.384276	2530.659231
697.720363	2485.288846
698.056400	2528.138654
698.392388	2462.603654
698.728326	2510.494615
699.064214	2444.959615
699.400053	2513.015192
699.735842	2533.179808
700.071581	2515.535769
700.407270	2520.576923
700.742910	2578.550192
701.078501	2480.247692
701.414042	2439.918462
701.749533	2462.603654
702.084974	2505.453462
702.420366	2528.138654
702.755709	2419.753846
703.091002	2424.795000
703.426246	2470.165385
703.761440	2497.891731
704.096584	2593.673654
704.431679	2525.618077
704.766725	2533.179808
705.101721	2545.782692
705.436668	2583.591346
705.771565	2515.535769
706.106413	2513.015192
706.441212	2465.124231
706.775961	2497.891731
707.110661	2455.041923
707.445311	2507.974038
707.779913	2505.453462
708.114465	2533.179808
708.448967	2533.179808
708.783421	2507.974038
709.117825	2553.344423
709.452180	2513.015192
709.786485	2520.576923
710.120742	2424.795000
710.454949	2497.891731
710.789107	2480.247692
711.123216	2460.083077
711.457275	2490.330000
711.791286	2492.850577
712.125247	2502.932885
712.459159	2530.659231
712.793023	2470.165385
713.126837	2510.494615
713.460602	2570.988462
713.794318	2520.576923
714.127985	2535.700385
714.461602	2510.494615
714.795171	2485.288846
715.128691	2586.111923
715.462162	2500.412308
715.795584	2563.426731
716.128957	2515.535769
716.462281	2507.974038
716.795556	2578.550192
717.128782	2470.165385
717.461960	2480.247692
717.795088	2533.179808
718.128167	2497.891731
718.461198	2432.356731
718.794180	2611.317692
719.127113	2485.288846
719.459997	2475.206538
719.792833	2497.891731
720.125619	2465.124231
720.458357	2475.206538
720.791046	2568.467885
721.123686	2477.727115
721.456278	2462.603654
721.788821	2538.220962
722.121315	2513.015192
722.453761	2538.220962
722.786158	2467.644808
723.118506	2470.165385
723.450805	2548.303269
723.783056	2560.906154
724.115259	2513.015192
724.447412	2502.932885
724.779518	2399.589231
725.111574	2492.850577
725.443582	2490.330000
725.775542	2505.453462
726.107453	2495.371154
726.439315	2444.959615
726.771129	2540.741538
727.102895	2591.153077
727.434612	2477.727115
727.766281	2528.138654
728.097901	2548.303269
728.429473	2455.041923
728.760996	2520.576923
729.092471	2427.315577
729.423897	2502.932885
729.755276	2553.344423
730.086606	2518.056346
730.417887	2485.288846
730.749120	2578.550192
731.080305	2429.836154
731.411442	2505.453462
731.742530	2533.179808
732.073570	2538.220962
732.404562	2518.056346
732.735506	2434.877308
733.066401	2533.179808
733.397249	2581.070769
733.728048	2442.439038
734.058798	2523.097500
734.389501	2543.262115
734.720156	2465.124231
735.050762	2490.330000
735.381320	2480.247692
735.711831	2455.041923
736.042293	2470.165385
736.372707	2386.986346
736.703073	2540.741538
737.033391	2535.700385
737.363661	2447.480192
737.693883	2550.823846
738.024056	2452.521346
738.354182	2530.659231
738.684260	2518.056346
739.014290	2553.344423
739.344272	2510.494615
739.674207	2495.371154
740.004093	2570.988462
740.333931	2482.768269
740.663722	2480.247692
740.993464	2429.836154
741.323159	2497.891731
741.652806	2465.124231
741.982405	2429.836154
742.311956	2495.371154
742.641460	2515.535769
742.970915	2447.480192
743.300323	2507.974038
743.629683	2429.836154
743.958996	2563.426731
744.288260	2492.850577
744.617477	2457.562500
744.946647	2477.727115
745.275768	2480.247692
745.604842	2429.836154
745.933869	2429.836154
746.262847	2507.974038
746.591778	2477.727115
746.920662	2455.041923
747.249498	2505.453462
747.578286	2555.865000
747.907027	2492.850577
748.235720	2447.480192
748.564365	2462.603654
748.892963	2462.603654
749.221514	2487.809423
749.550017	2485.288846
749.878473	2558.385577
750.206881	2490.330000
750.535242	2495.371154
750.863555	2492.850577
751.191821	2573.509038
751.520039	2472.685962
751.848210	2419.753846
752.176334	2432.356731
752.504411	2505.453462
752.832440	2439.918462
753.160421	2480.247692
753.488356	2510.494615
753.816243	2450.000769
754.144082	2502.932885
754.471875	2455.041923
754.799620	2545.782692
755.127318	2460.083077
755.454969	2424.795000
755.782572	2429.836154
756.110129	2518.056346
756.437638	2487.809423
756.765100	2510.494615
757.092515	2603.755962
757.419882	2419.753846
757.747203	2528.138654
758.074477	2422.274423
758.401703	2505.453462
758.728882	2419.753846
759.056014	2444.959615
759.383099	2487.809423
759.710138	2450.000769
760.037129	2497.891731
760.364073	2515.535769
760.690970	2442.439038
761.017820	2538.220962
761.344623	2485.288846
761.671379	2402.109808
761.998088	2492.850577
762.324751	2485.288846
762.651366	2548.303269
762.977935	2513.015192
763.304456	2500.412308
763.630931	2444.959615
763.957359	2507.974038
764.283740	2492.850577
764.610074	2450.000769
764.936362	2480.247692
765.262602	2477.727115
765.588796	2462.603654
765.914943	2429.836154
766.241044	2450.000769
766.567097	2535.700385
766.893104	2467.644808
767.219064	2424.795000
767.544978	2444.959615
767.870845	2525.618077
768.196665	2457.562500
768.522438	2417.233269
768.848165	2507.974038
769.173846	2573.509038
769.499479	2447.480192
769.825066	2452.521346
770.150607	2518.056346
770.476101	2523.097500
770.801548	2495.371154
771.126949	2533.179808
771.452303	2495.371154
771.777611	2462.603654
772.102872	2490.330000
772.428087	2492.850577
772.753256	2515.535769
773.078378	2497.891731
773.403453	2540.741538
773.728482	2520.576923
774.053465	2570.988462
774.378401	2523.097500
774.703291	2528.138654
775.028135	2424.795000
775.352932	2475.206538
775.677683	2505.453462
776.002388	2465.124231
776.327046	2482.768269
776.651658	2467.644808
776.976224	2583.591346
777.300743	2452.521346
777.625216	2553.344423
777.949643	2470.165385
778.274024	2543.262115
778.598359	2439.918462
778.922647	2460.083077
779.246889	2434.877308
779.571086	2530.659231
779.895236	2470.165385
780.219339	2550.823846
780.543397	2505.453462
780.867409	2472.685962
781.191374	2510.494615
781.515294	2475.206538
781.839167	2429.836154
782.162995	2583.591346
782.486776	2480.247692
782.810511	2475.206538
783.134201	2467.644808
783.457844	2570.988462
783.781441	2455.041923
784.104993	2510.494615
784.428498	2507.974038
784.751958	2432.356731
785.075372	2505.453462
785.398739	2578.550192
785.722061	2485.288846
786.045337	2578.550192
786.368568	2359.260000
786.691752	2518.056346
787.014891	2497.891731
787.337983	2442.439038
787.661030	2472.685962
787.984031	2545.782692
788.306987	2578.550192
788.629897	2507.974038
788.952760	2515.535769
789.275579	2414.712692
789.598351	2502.932885
789.921078	2492.850577
790.243759	2523.097500
790.566395	2507.974038
790.888984	2457.562500
791.211529	2560.906154
791.534027	2419.753846
791.856480	2429.836154
792.178888	2553.344423
792.501249	2427.315577
792.823566	2510.494615
793.145836	2444.959615
793.468062	2450.000769
793.790241	2465.124231
794.112375	2487.809423
794.434464	2475.206538
794.756507	2563.426731
795.078505	2535.700385
795.400457	2513.015192
795.722364	2502.932885
796.044226	2568.467885
796.366042	2465.124231
796.687812	2502.932885
797.009538	2419.753846
797.331218	2530.659231
797.652852	2513.015192
797.974442	2533.179808
798.295986	2485.288846
798.617484	2520.576923
798.938938	2550.823846
799.260346	2515.535769
799.581709	2429.836154
799.903026	2518.056346
800.224299	2560.906154
800.545526	2520.576923
800.866708	2533.179808
801.187845	2545.782692
801.508936	2523.097500
801.829983	2520.576923
802.150984	2434.877308
802.471940	2510.494615
802.792851	2477.727115
803.113717	2495.371154
803.434538	2510.494615
803.755314	2568.467885
804.076045	2470.165385
804.396731	2472.685962
804.717372	2528.138654
805.037967	2414.712692
805.358518	2533.179808
805.679024	2455.041923
805.999485	2555.865000
806.319901	2477.727115
806.640272	2538.220962
806.960598	2480.247692
807.280879	2502.932885
807.601115	2437.397885
807.921306	2603.755962
808.241453	2492.850577
808.561554	2565.947308
808.881611	2475.206538
809.201623	2457.562500
809.521590	2505.453462
809.841513	2530.659231
810.161390	2497.891731
810.481223	2397.068654
810.801011	2487.809423
811.120755	2442.439038
811.440453	2495.371154
811.760107	2507.974038
812.079716	2533.179808
812.399281	2518.056346
812.718801	2455.041923
813.038276	2457.562500
813.357707	2583.591346
813.677093	2444.959615
813.996434	2543.262115
814.315731	2502.932885
814.634983	2528.138654
814.954191	2545.782692
815.273354	2518.056346
815.592473	2485.288846
815.911547	2520.576923
816.230577	2603.755962
816.549562	2538.220962
816.868502	2502.932885
817.187399	2487.809423
817.506250	2515.535769
817.825058	2439.918462
818.143821	2553.344423
818.462539	2475.206538
818.781213	2518.056346
819.099843	2467.644808
819.418429	2505.453462
819.736970	2505.453462
820.055466	2482.768269
820.373919	2482.768269
820.692327	2467.644808
821.010691	2573.509038
821.329011	2528.138654
821.647286	2455.041923
821.965517	2480.247692
822.283704	2472.685962
822.601847	2515.535769
822.919945	2523.097500
823.237999	2482.768269
823.556010	2495.371154
823.873976	2394.548077
824.191897	2452.521346
824.509775	2545.782692
824.827609	2495.371154
825.145398	2432.356731
825.463144	2507.974038
825.780845	2550.823846
826.098502	2523.097500
826.416116	2437.397885
826.733685	2475.206538
827.051210	2543.262115
827.368692	2510.494615
827.686129	2525.618077
828.003522	2457.562500
828.320872	2533.179808
828.638177	2444.959615
828.955439	2525.618077
829.272656	2492.850577
829.589830	2457.562500
829.906960	2475.206538
830.224046	2447.480192
830.541088	2548.303269
830.858086	2480.247692
831.175041	2507.974038
831.491952	2528.138654
831.808819	2507.974038
832.125642	2528.138654
832.442421	2444.959615
832.759157	2533.179808
833.075849	2507.974038
833.392497	2518.056346
833.709101	2492.850577
834.025662	2568.467885
834.342179	2429.836154
834.658653	2417.233269
834.975083	2523.097500
835.291469	2525.618077
835.607811	2497.891731
835.924110	2586.111923
836.240366	2437.397885
836.556578	2444.959615
836.872746	2467.644808
837.188871	2472.685962
837.504952	2427.315577
837.820990	2553.344423
838.136984	2487.809423
838.452935	2457.562500
838.768842	2450.000769
839.084706	2538.220962
839.400526	2515.535769
839.716303	2502.932885
840.032037	2437.397885
840.347727	2535.700385
840.663373	2427.315577
840.978977	2487.809423
841.294537	2520.576923
841.610054	2442.439038
841.925527	2472.685962
842.240957	2492.850577
842.556344	2538.220962
842.871687	2460.083077
843.186987	2525.618077
843.502244	2475.206538
843.817458	2505.453462
844.132629	2432.356731
844.447756	2475.206538
844.762840	2442.439038
845.077881	2533.179808
845.392879	2467.644808
845.707833	2535.700385
846.022745	2548.303269
846.337613	2444.959615
846.652438	2475.206538
846.967221	2477.727115
847.281960	2518.056346
847.596656	2402.109808
847.911309	2487.809423
848.225919	2422.274423
848.540485	2472.685962
848.855009	2482.768269
849.169490	2475.206538
849.483928	2492.850577
849.798323	2505.453462
850.112675	2520.576923
850.426984	2465.124231
850.741251	2492.850577
851.055474	2470.165385
851.369654	2538.220962
851.683792	2510.494615
851.997887	2477.727115
852.311938	2485.288846
852.625947	2510.494615
852.939914	2513.015192
853.253837	2455.041923
853.567718	2578.550192
853.881555	2568.467885
854.195350	2525.618077
854.509103	2520.576923
854.822812	2407.150962
855.136479	2573.509038
855.450103	2477.727115
855.763685	2533.179808
856.077224	2540.741538
856.390720	2427.315577
856.704173	2500.412308
857.017584	2573.509038
857.330953	2429.836154
857.644278	2490.330000
857.957561	2507.974038
858.270802	2545.782692
858.584000	2545.782692
858.897155	2520.576923
859.210268	2414.712692
859.523339	2477.727115
859.836367	2492.850577
860.149352	2457.562500
860.462295	2490.330000
860.775195	2543.262115
861.088054	2507.974038
861.400869	2399.589231
861.713642	2507.974038
862.026373	2510.494615
862.339062	2470.165385
862.651708	2563.426731
862.964312	2455.041923
863.276873	2518.056346
863.589392	2515.535769
863.901869	2525.618077
864.214303	2570.988462
864.526696	2457.562500
864.839045	2492.850577
865.151353	2523.097500
865.463619	2452.521346
865.775842	2500.412308
866.088023	2477.727115
866.400162	2465.124231
866.712258	2515.535769
867.024313	2535.700385
867.336325	2530.659231
867.648296	2417.233269
867.960224	2447.480192
868.272110	2487.809423
868.583954	2513.015192
868.895755	2460.083077
869.207515	2467.644808
869.519233	2492.850577
869.830909	2462.603654
870.142542	2581.070769
870.454134	2429.836154
870.765684	2447.480192
871.077191	2530.659231
871.388657	2485.288846
871.700081	2510.494615
872.011463	2515.535769
872.322803	2422.274423
872.634101	2485.288846
872.945357	2543.262115
873.256571	2460.083077
873.567744	2513.015192
873.878874	2475.206538
874.189963	2502.932885
874.501010	2515.535769
874.812015	2505.453462
875.122979	2460.083077
875.433900	2502.932885
875.744780	2570.988462
876.055618	2558.385577
876.366415	2437.397885
876.677169	2475.206538
876.987882	2450.000769
877.298554	2515.535769
877.609183	2482.768269
877.919771	2437.397885
878.230317	2523.097500
878.540822	2470.165385
878.851285	2603.755962
879.161707	2480.247692
879.472087	2472.685962
879.782425	2429.836154
880.092722	2495.371154
880.402977	2460.083077
880.713191	2480.247692
881.023363	2434.877308
881.333494	2490.330000
881.643583	2457.562500
881.953631	2465.124231
882.263637	2460.083077
882.573602	2513.015192
882.883526	2500.412308
883.193408	2442.439038
883.503248	2533.179808
883.813048	2490.330000
884.122806	2465.124231
884.432522	2470.165385
884.742197	2520.576923
885.051831	2510.494615
885.361424	2505.453462
885.670975	2553.344423
885.980485	2444.959615
886.289954	2444.959615
886.599382	2505.453462
886.908768	2482.768269
887.218113	2495.371154
887.527417	2457.562500
887.836680	2497.891731
888.145901	2477.727115
888.455082	2429.836154
888.764221	2447.480192
889.073319	2518.056346
889.382376	2462.603654
889.691392	2472.685962
890.000366	2565.947308
890.309300	2538.220962
890.618193	2477.727115
890.927044	2450.000769
891.235855	2525.618077
891.544625	2487.809423
891.853353	2462.603654
892.162041	2442.439038
892.470687	2545.782692
892.779293	2442.439038
893.087858	2397.068654
893.396381	2500.412308
893.704864	2450.000769
894.013306	2608.797115
894.321707	2465.124231
894.630068	2462.603654
894.938387	2455.041923
895.246665	2530.659231
895.554903	2467.644808
895.863100	2538.220962
896.171256	2414.712692
896.479371	2543.262115
896.787446	2515.535769
897.095480	2472.685962
897.403473	2452.521346
897.711425	2492.850577
898.019336	2555.865000
898.327207	2497.891731
898.635038	2525.618077
898.942827	2490.330000
899.250576	2495.371154
899.558284	2457.562500
899.865952	2482.768269
900.173579	2563.426731
900.481165	2505.453462
900.788711	2528.138654
901.096216	2482.768269
901.403681	2555.865000
901.711105	2444.959615
902.018489	2482.768269
902.325832	2492.850577
902.633135	2505.453462
902.940397	2452.521346
903.247619	2543.262115
903.554800	2475.206538
903.861941	2500.412308
904.169041	2497.891731
904.476101	2399.589231
904.783121	2450.000769
905.090100	2513.015192
905.397039	2530.659231
905.703938	2472.685962
906.010796	2505.453462
906.317614	2384.465769
906.624391	2465.124231
906.931129	2470.165385
907.237826	2495.371154
907.544483	2392.027500
907.851099	2477.727115
908.157675	2548.303269
908.464211	2444.959615
908.770707	2497.891731
909.077163	2510.494615
909.383578	2467.644808
909.689954	2528.138654
909.996289	2467.644808
910.302584	2528.138654
910.608839	2545.782692
910.915054	2563.426731
911.221229	2452.521346
911.527363	2528.138654
911.833458	2462.603654
912.139513	2507.974038
912.445527	2485.288846
912.751502	2460.083077
913.057436	2482.768269
913.363331	2450.000769
913.669186	2543.262115
913.975000	2457.562500
914.280775	2510.494615
914.586510	2439.918462
914.892205	2525.618077
915.197859	2500.412308
915.503475	2417.233269
915.809050	2581.070769
916.114585	2525.618077
916.420081	2538.220962
916.725536	2490.330000
917.030952	2578.550192
917.336328	2455.041923
917.641665	2523.097500
917.946961	2482.768269
918.252218	2404.630385
918.557435	2538.220962
918.862612	2533.179808
919.167750	2444.959615
919.472848	2465.124231
919.777906	2482.768269
920.082925	2442.439038
920.387904	2414.712692
920.692843	2513.015192
920.997743	2417.233269
921.302603	2515.535769
921.607423	2444.959615
921.912204	2538.220962
922.216946	2520.576923
922.521647	2422.274423
922.826310	2422.274423
923.130932	2467.644808
923.435516	2407.150962
923.740059	2505.453462
924.044564	2404.630385
924.349028	2444.959615
924.653454	2482.768269
924.957840	2447.480192
925.262186	2502.932885
925.566493	2356.739423
925.870761	2548.303269
926.174989	2434.877308
926.479178	2407.150962
926.783328	2550.823846
927.087438	2447.480192
927.391509	2477.727115
927.695541	2502.932885
927.999533	2457.562500
928.303486	2530.659231
928.607400	2487.809423
928.911275	2442.439038
929.215110	2470.165385
929.518906	2482.768269
929.822663	2540.741538
930.126381	2543.262115
930.430060	2470.165385
930.733699	2475.206538
931.037299	2505.453462
931.340861	2520.576923
931.644383	2455.041923
931.947866	2570.988462
932.251309	2432.356731
932.554714	2487.809423
932.858080	2510.494615
933.161407	2427.315577
933.464694	2560.906154
933.767943	2485.288846
934.071153	2497.891731
934.374323	2515.535769
934.677455	2538.220962
934.980548	2439.918462
935.283602	2462.603654
935.586617	2412.192115
935.889593	2457.562500
936.192530	2513.015192
936.495428	2485.288846
936.798287	2404.630385
937.101108	2495.371154
937.403890	2513.015192
937.706632	2450.000769
938.009336	2477.727115
938.312002	2507.974038
938.614628	2482.768269
938.917216	2535.700385
939.219765	2555.865000
939.522275	2467.644808
939.824747	2482.768269
940.127179	2419.753846
940.429573	2553.344423
940.731929	2447.480192
941.034246	2472.685962
941.336524	2555.865000
941.638763	2429.836154
941.940964	2530.659231
942.243126	2462.603654
942.545250	2520.576923
942.847335	2558.385577
943.149381	2510.494615
943.451389	2505.453462
943.753359	2510.494615
944.055290	2500.412308
944.357182	2543.262115
944.659036	2465.124231
944.960851	2502.932885
945.262628	2465.124231
945.564367	2485.288846
945.866067	2505.453462
946.167729	2482.768269
946.469352	2530.659231
946.770937	2442.439038
947.072484	2452.521346
947.373992	2462.603654
947.675462	2495.371154
947.976893	2560.906154
948.278286	2470.165385
948.579641	2535.700385
948.880958	2419.753846
949.182236	2548.303269
949.483476	2439.918462
949.784678	2465.124231
950.085841	2462.603654
950.386967	2480.247692
950.688054	2447.480192
950.989103	2429.836154
951.290114	2543.262115
951.591087	2465.124231
951.892021	2540.741538
952.192917	2467.644808
952.493776	2550.823846
952.794596	2581.070769
953.095378	2513.015192
953.396122	2510.494615
953.696828	2518.056346
953.997496	2465.124231
954.298126	2480.247692
954.598718	2444.959615
954.899272	2545.782692
955.199788	2497.891731
955.500266	2507.974038
955.800706	2470.165385
956.101108	2502.932885
956.401472	2442.439038
956.701798	2432.356731
957.002087	2417.233269
957.302337	2535.700385
957.602550	2555.865000
957.902724	2525.618077
958.202861	2414.712692
958.502960	2497.891731
958.803022	2492.850577
959.103045	2492.850577
959.403031	2447.480192
959.702979	2543.262115
960.002889	2497.891731
960.302762	2450.000769
960.602596	2510.494615
960.902393	2487.809423
961.202153	2475.206538
961.501875	2497.891731
961.801559	2429.836154
962.101205	2475.206538
962.400814	2482.768269
962.700385	2462.603654
962.999918	2502.932885
963.299414	2475.206538
963.598873	2432.356731
963.898293	2550.823846
964.197677	2470.165385
964.497022	2444.959615
964.796331	2467.644808
965.095601	2555.865000
965.394835	2500.412308
965.694030	2429.836154
965.993189	2497.891731
966.292309	2417.233269
966.591393	2402.109808
966.890439	2460.083077
967.189447	2505.453462
967.488419	2588.632500
967.787353	2472.685962
968.086249	2510.494615
968.385108	2429.836154
968.683930	2528.138654
968.982714	2523.097500
969.281462	2515.535769
969.580172	2450.000769
969.878844	2409.671538
970.177480	2538.220962
970.476078	2404.630385
970.774639	2472.685962
971.073162	2490.330000
971.371649	2450.000769
971.670098	2523.097500
971.968510	2502.932885
972.266885	2490.330000
972.565223	2515.535769
972.863524	2520.576923
973.161788	2414.712692
973.460014	2460.083077
973.758204	2545.782692
974.056356	2523.097500
974.354471	2485.288846
974.652550	2533.179808
974.950591	2510.494615
975.248595	2392.027500
975.546563	2555.865000
975.844493	2402.109808
976.142386	2439.918462
976.440243	2444.959615
976.738062	2475.206538
977.035845	2492.850577
977.333590	2515.535769
977.631299	2419.753846
977.928971	2472.685962
978.226606	2447.480192
978.524204	2434.877308
978.821765	2447.480192
979.119290	2460.083077
979.416777	2505.453462
979.714228	2432.356731
980.011642	2371.862885
980.309020	2432.356731
980.606360	2510.494615
980.903664	2523.097500
981.200931	2460.083077
981.498162	2576.029615
981.795356	2530.659231
982.092513	2419.753846
982.389633	2465.124231
982.686717	2565.947308
982.983764	2528.138654
983.280775	2510.494615
983.577749	2505.453462
983.874686	2528.138654
984.171587	2482.768269
984.468451	2427.315577
984.765279	2505.453462
985.062070	2533.179808
985.358824	2533.179808
985.655543	2460.083077
985.952224	2336.574808
986.248869	2523.097500
986.545478	2465.124231
986.842050	2450.000769
987.138586	2475.206538
987.435086	2467.644808
987.731549	2465.124231
988.027975	2513.015192
988.324366	2515.535769
988.620719	2457.562500
988.917037	2497.891731
989.213318	2513.015192
989.509563	2581.070769
989.805772	2513.015192
990.101944	2427.315577
990.398080	2467.644808
990.694180	2555.865000
990.990244	2414.712692
991.286271	2495.371154
991.582262	2507.974038
991.878217	2492.850577
992.174136	2553.344423
992.470019	2513.015192
992.765865	2487.809423
993.061676	2482.768269
993.357450	2480.247692
993.653188	2450.000769
993.948890	2525.618077
994.244556	2462.603654
994.540186	2480.247692
994.835780	2414.712692
995.131337	2555.865000
995.426859	2523.097500
995.722345	2490.330000
996.017795	2460.083077
996.313208	2462.603654
996.608586	2472.685962
996.903928	2500.412308
997.199234	2460.083077
997.494504	2545.782692
997.789738	2364.301154
998.084936	2505.453462
998.380099	2500.412308
998.675225	2480.247692
998.970316	2513.015192
999.265371	2422.274423
999.560390	2417.233269
999.855373	2465.124231
1000.150320	2500.412308
1000.445232	2530.659231
1000.740108	2525.618077
1001.034948	2568.467885
1001.329752	2538.220962
1001.624521	2470.165385
1001.919254	2515.535769
1002.213951	2573.509038
1002.508613	2513.015192
1002.803239	2518.056346
1003.097829	2515.535769
1003.392384	2528.138654
1003.686903	2586.111923
1003.981386	2510.494615
1004.275834	2452.521346
1004.570246	2553.344423
1004.864623	2482.768269
1005.158964	2523.097500
1005.453270	2510.494615
1005.747540	2525.618077
1006.041775	2429.836154
1006.335974	2480.247692
1006.630138	2465.124231
1006.924266	2500.412308
1007.218359	2437.397885
1007.512416	2520.576923
1007.806438	2540.741538
1008.100425	2502.932885
1008.394376	2495.371154
1008.688292	2472.685962
1008.982172	2535.700385
1009.276017	2535.700385
1009.569827	2429.836154
1009.863602	2513.015192
1010.157341	2485.288846
1010.451045	2543.262115
1010.744714	2502.932885
1011.038347	2470.165385
1011.331945	2475.206538
1011.625508	2447.480192
1011.919036	2515.535769
1012.212528	2429.836154
1012.505986	2565.947308
1012.799408	2507.974038
1013.092795	2548.303269
1013.386147	2518.056346
1013.679464	2550.823846
1013.972745	2452.521346
1014.265992	2477.727115
1014.559204	2513.015192
1014.852380	2462.603654
1015.145521	2465.124231
1015.438628	2450.000769
1015.731699	2487.809423
1016.024736	2485.288846
1016.317737	2490.330000
1016.610703	2548.303269
1016.903635	2596.194231
1017.196531	2528.138654
1017.489393	2502.932885
1017.782219	2500.412308
1018.075011	2412.192115
1018.367768	2472.685962
1018.660490	2472.685962
1018.953177	2472.685962
1019.245829	2472.685962
