Dividing Wavelength (nm)	Counts (n)	Blue Motor Position (mm): 4.100000	Red Motor Position (mm): 0.000000	
326.493990	2143.904428
326.888308	2143.904428
327.282561	2143.904428
327.676750	2112.372011
328.070874	2111.003338
328.464933	2112.583739
328.858929	2118.877620
329.252859	2127.225771
329.646726	2139.838738
330.040528	2152.499596
330.434265	2168.661535
330.827938	2188.647189
331.221547	2205.590507
331.615091	2223.642879
332.008571	2245.130798
332.401986	2261.862387
332.795338	2285.046654
333.188625	2303.454427
333.581847	2319.465132
333.975006	2339.503718
334.368100	2360.840402
334.761129	2373.534027
335.154095	2390.590771
335.546996	2407.148441
335.939833	2422.821388
336.332606	2440.941816
336.725315	2449.894905
337.117960	2459.402521
337.510540	2469.452061
337.903056	2478.679893
338.295508	2485.654330
338.687896	2494.390649
339.080220	2505.234171
339.472480	2511.054183
339.864676	2514.993845
340.256807	2516.904443
340.648875	2520.282016
341.040879	2526.250742
341.432818	2523.689836
341.824694	2529.708973
342.216506	2527.606812
342.608253	2528.216792
342.999937	2526.185207
343.391557	2527.158149
343.783113	2524.710669
344.174605	2524.871986
344.566033	2525.754188
344.957397	2523.420134
345.348697	2520.201357
345.739934	2519.687159
346.131106	2516.551562
346.522215	2515.858403
346.913260	2512.972342
347.304241	2513.791530
347.695159	2508.052176
348.086012	2510.638288
348.476802	2505.730725
348.867528	2505.619820
349.258191	2503.278204
349.648789	2501.934736
350.039324	2499.152019
350.429796	2499.474653
350.820203	2500.150168
351.210548	2497.765702
351.600828	2496.117245
351.991045	2497.498521
352.381198	2495.887872
352.771288	2494.602378
353.161314	2494.315032
353.551276	2495.214878
353.941175	2494.955259
354.331010	2493.911740
354.720782	2494.360403
355.110490	2495.287975
355.500135	2495.144302
355.889717	2495.867707
356.279235	2492.671616
356.668689	2495.184631
357.058080	2496.691936
357.447408	2494.062974
357.836672	2491.847387
358.225873	2495.114055
358.615010	2492.860659
359.004084	2497.692605
359.393095	2500.356855
359.782043	2497.594303
360.170927	2498.058089
360.559748	2498.365599
360.948505	2497.727893
361.337199	2497.833758
361.725830	2501.024808
362.114398	2499.648573
362.502903	2503.719305
362.891344	2498.698315
363.279722	2502.411125
363.668037	2501.198728
364.056289	2505.340036
364.444478	2501.299551
364.832603	2504.263749
365.220665	2505.261898
365.608665	2504.745179
365.996601	2506.592762
366.384474	2508.210973
366.772284	2506.451610
367.160031	2506.927999
367.547715	2506.222238
367.935336	2503.568070
368.322893	2507.232989
368.710388	2506.701147
369.097820	2506.880108
369.485189	2509.100736
369.872495	2508.021929
370.259738	2508.964625
370.646918	2507.979080
371.034035	2509.604852
371.421090	2510.940758
371.808081	2510.434122
372.195010	2512.168278
372.581875	2510.643329
372.968678	2510.910511
373.355418	2510.837414
373.742096	2508.223576
374.128710	2509.519152
374.515262	2512.344719
374.901751	2509.930006
375.288177	2512.372445
375.674540	2511.374297
376.060841	2512.730367
376.447079	2514.275481
376.833254	2512.745491
377.219367	2508.619306
377.605417	2511.069307
377.991404	2508.974708
378.377329	2509.259533
378.763191	2512.760614
379.148991	2514.923269
379.534727	2512.939575
379.920402	2514.381345
380.306013	2512.536283
380.691563	2518.169772
381.077049	2513.998217
381.462474	2516.793537
381.847835	2517.683301
382.233134	2517.007786
382.618371	2512.465707
383.003545	2517.733712
383.388657	2516.057529
383.773706	2517.562313
384.158693	2517.786644
384.543618	2520.014834
384.928480	2518.457118
385.313280	2517.032992
385.698017	2518.719258
386.082692	2518.878054
386.467305	2519.422499
386.851856	2521.202026
387.236344	2519.046933
387.620770	2518.273116
388.005133	2519.850997
388.389435	2519.203209
388.773674	2519.193126
389.157851	2516.415451
389.541965	2517.703465
389.926018	2521.063394
390.310008	2519.944258
390.693936	2518.676408
391.077802	2521.743950
391.461606	2519.120030
391.845348	2519.848476
392.229027	2520.949968
392.612645	2518.542818
392.996200	2518.565503
393.379694	2519.460307
393.763125	2520.917201
394.146494	2521.978364
394.529801	2522.757222
394.913047	2523.157994
395.296230	2525.434075
395.679351	2522.081708
396.062410	2524.176307
396.445408	2520.546676
396.828343	2524.302336
397.211217	2519.046933
397.594028	2521.496934
397.976778	2519.485513
398.359466	2522.789990
398.742092	2521.433919
399.124656	2524.040196
399.507158	2527.226205
399.889598	2525.136647
400.271977	2523.452901
400.654294	2523.599095
401.036549	2524.995494
401.418742	2523.720083
401.800874	2528.055475
402.182944	2524.110772
402.564952	2526.636390
402.946898	2527.710156
403.328783	2526.371729
403.710606	2524.214116
404.092367	2526.651513
404.474067	2528.985568
404.855705	2526.139836
405.237282	2527.153108
405.618797	2526.810310
406.000250	2527.551359
406.381642	2528.342821
406.762972	2526.986750
407.144240	2528.312574
407.525447	2530.263500
407.906593	2528.662934
408.287677	2529.996319
408.668700	2525.832326
409.049661	2526.790145
409.430560	2530.190403
409.811399	2530.104704
410.192176	2530.024045
410.572891	2527.949611
410.953545	2530.989426
411.334138	2528.090763
411.714669	2529.396422
412.095139	2531.891793
412.475547	2530.916330
412.855894	2527.198479
413.236180	2531.435568
413.616405	2529.426669
413.996568	2529.315763
414.376670	2529.696370
414.756711	2531.082688
415.136691	2533.366330
415.516609	2531.274252
415.896466	2532.539581
416.276262	2532.738707
416.655997	2527.760567
417.035670	2527.417769
417.415283	2531.307019
417.794834	2525.701256
418.174324	2528.332738
418.553753	2530.218130
418.933121	2534.987061
419.312428	2531.039838
419.691674	2532.375744
420.070859	2529.661082
420.449983	2532.963038
420.829045	2531.952287
421.208047	2535.075282
421.586988	2533.283151
421.965867	2533.504962
422.344686	2533.820034
422.723444	2535.458409
423.102141	2533.358769
423.480777	2536.176774
423.859352	2532.630322
424.237866	2535.483615
424.616319	2533.303316
424.994712	2535.801208
425.373044	2537.338760
425.751314	2536.522093
426.129524	2532.562266
426.507673	2536.181815
426.885762	2533.154602
427.263789	2533.295754
427.641756	2533.446989
428.019662	2535.135775
428.397508	2536.620395
428.775292	2533.247863
429.153016	2536.380940
429.530679	2537.580735
429.908282	2536.610313
430.285824	2534.888759
430.663305	2535.796167
431.040726	2536.181815
431.418086	2536.975797
431.795385	2538.198276
432.172624	2534.631660
432.549802	2535.103008
432.926920	2538.765406
433.303977	2536.496887
433.680974	2536.456558
434.057910	2537.689120
434.434786	2533.636032
434.811601	2539.221631
435.188355	2537.036290
435.565050	2539.261960
435.941683	2537.805066
436.318257	2535.055117
436.694770	2533.121834
437.071222	2533.908254
437.447614	2533.870446
437.823946	2536.585107
438.200218	2537.530323
438.576429	2538.609130
438.952580	2538.588966
439.328670	2539.108205
439.704700	2538.205838
440.080670	2540.426466
440.456580	2539.382947
440.832429	2539.892104
441.208218	2538.021836
441.583947	2537.348842
441.959616	2539.226672
442.335224	2538.324305
442.710773	2539.609799
443.086261	2540.829759
443.461689	2540.900335
443.837057	2540.111394
444.212365	2538.735159
444.587612	2540.691127
444.962800	2541.724563
445.337927	2543.050387
445.712995	2537.343801
446.088002	2541.714481
446.462949	2541.434697
446.837837	2543.675490
447.212664	2539.030067
447.587431	2540.796991
447.962139	2538.412525
448.336786	2541.580891
448.711374	2539.372865
449.085901	2542.493339
449.460369	2541.190201
449.834776	2540.421425
450.209124	2539.259439
450.583412	2541.885880
450.957640	2543.582229
451.331808	2542.208514
451.705917	2542.188350
452.079965	2541.293545
452.453954	2541.091899
452.827883	2542.755479
453.201752	2541.044008
453.575562	2542.072403
453.949311	2542.032074
454.323001	2542.516025
454.696632	2542.044677
455.070202	2542.561395
455.443713	2546.556509
455.817164	2541.323792
456.190556	2538.972093
456.563888	2540.192053
456.937160	2538.949408
457.310373	2545.669266
457.683526	2542.831097
458.056619	2543.786395
458.429653	2542.710109
458.802628	2542.001827
459.175542	2544.930737
459.548398	2545.288659
459.921194	2545.722198
460.293930	2544.502239
460.666607	2541.737166
461.039224	2544.323278
461.411782	2542.190870
461.784280	2542.004347
462.156719	2542.543751
462.529099	2543.695655
462.901419	2542.316899
463.273680	2543.635161
463.645882	2544.414019
464.018024	2545.359235
464.390106	2545.747404
464.762130	2544.867723
465.134094	2541.805222
465.505999	2547.181613
465.877845	2541.948895
466.249631	2546.390151
466.621358	2545.812939
466.993026	2546.969884
467.364634	2549.629093
467.736184	2544.802188
468.107674	2546.518701
468.479105	2543.988042
468.850477	2543.572146
469.221790	2545.699513
469.593043	2545.780172
469.964238	2541.971580
470.335373	2546.916952
470.706449	2544.721529
471.077467	2544.008206
471.448425	2544.756817
471.819324	2548.315872
472.190164	2547.499205
472.560945	2545.162630
472.931667	2547.592467
473.302330	2541.432177
473.672934	2548.734288
474.043479	2544.441745
474.413965	2545.119781
474.784393	2542.447969
475.154761	2543.393185
475.525070	2543.814122
475.895321	2544.303114
476.265513	2540.940664
476.635645	2544.088865
477.005719	2545.470141
477.375734	2544.051056
477.745691	2545.487785
478.115588	2545.830583
478.485427	2544.333361
478.855207	2547.602549
479.224928	2544.305634
479.594591	2546.198587
479.964194	2544.764379
480.333739	2547.075748
480.703226	2545.820501
481.072653	2546.949719
481.442022	2547.524411
481.811333	2547.983156
482.180584	2548.696479
482.549777	2549.803013
482.918912	2546.317055
483.287988	2546.286808
483.657005	2547.658002
484.025964	2545.666746
484.394864	2550.624721
484.763706	2545.850748
485.132489	2545.684390
485.501213	2547.194215
485.869879	2548.930893
486.238487	2547.317724
486.607036	2548.741850
486.975527	2546.007024
487.343959	2548.033568
487.712333	2548.152035
488.080648	2549.447611
488.448905	2550.634803
488.817104	2548.015923
489.185244	2549.061963
489.553326	2547.204298
489.921350	2548.741850
490.289315	2546.521221
490.657222	2546.226314
491.025070	2549.823177
491.392861	2546.987528
491.760593	2548.467107
492.128267	2548.837632
492.495883	2551.093548
492.863440	2549.853424
493.230939	2546.475851
493.598380	2547.448794
493.965763	2543.383103
494.333088	2548.701520
494.700354	2545.767569
495.067563	2545.828063
495.434713	2541.074255
495.801805	2548.857796
496.168839	2546.223793
496.535815	2548.308310
496.902733	2547.547096
497.269593	2547.363094
497.636395	2548.436860
498.003139	2547.980635
498.369825	2547.017775
498.736453	2546.271684
499.103023	2548.885522
499.469535	2547.650440
499.835989	2546.753114
500.202385	2546.299411
500.568723	2546.828732
500.935003	2547.385779
501.301226	2547.630275
501.667390	2549.225800
502.033497	2548.386448
502.399546	2549.193033
502.765537	2549.228321
503.131470	2549.891233
503.497345	2548.267981
503.863163	2549.276212
504.228923	2548.457024
504.594625	2549.064483
504.960269	2549.119936
505.325856	2549.684545
505.691385	2549.682025
506.056856	2549.482899
506.422270	2546.662374
506.787625	2550.231511
507.152924	2550.554144
507.518164	2553.014227
507.883347	2549.208156
508.248472	2551.045657
508.613540	2547.219421
508.978550	2551.577499
509.343503	2550.470965
509.708398	2552.696635
510.073236	2550.407951
510.438016	2549.987015
510.802738	2549.530790
511.167403	2551.517005
511.532010	2550.891902
511.896561	2549.752601
512.261053	2549.530790
512.625488	2546.700182
512.989866	2545.097095
513.354186	2547.358053
513.718449	2547.574822
514.082655	2548.575492
514.446803	2549.797971
514.810894	2547.829401
515.174927	2553.488096
515.538904	2547.582384
515.902822	2548.908208
516.266684	2551.340564
516.630488	2549.218239
516.994235	2551.131357
517.357925	2548.444422
517.721558	2547.786551
518.085133	2549.639175
518.448651	2551.358208
518.812112	2552.023641
519.175516	2552.522715
519.538863	2551.038095
519.902152	2551.222097
520.265385	2550.788558
520.628560	2549.419885
520.991678	2550.574309
521.354739	2550.425595
521.717743	2550.594474
522.080690	2550.738147
522.443580	2550.168496
522.806413	2551.471634
523.169189	2551.184289
523.531908	2550.755791
523.894569	2549.992056
524.257174	2549.805533
524.619722	2551.048178
524.982213	2550.919628
525.344647	2547.847045
525.707025	2552.013558
526.069345	2549.266130
526.431608	2551.761501
526.793815	2551.143959
527.155964	2553.616645
527.518057	2549.687066
527.880093	2549.321582
528.242072	2548.187323
528.603995	2551.201933
528.965860	2551.421223
529.327669	2551.821995
529.689421	2551.085986
530.051117	2550.770914
530.412755	2548.499874
530.774337	2551.857283
531.135862	2551.174206
531.497331	2549.349309
531.858743	2546.959802
532.220098	2550.816284
532.581396	2547.163968
532.942638	2548.772097
533.303824	2551.532128
533.664953	2551.123795
534.026025	2552.290822
534.387040	2550.523897
534.747999	2551.053219
535.108902	2550.244113
535.469748	2550.508774
535.830537	2552.711758
536.191270	2551.307797
536.551947	2551.547252
536.912567	2551.885009
537.273131	2553.238559
537.633638	2550.284443
537.994089	2552.815102
538.354483	2550.239072
538.714821	2554.574465
539.075103	2552.109340
539.435328	2551.310318
539.795497	2549.893753
540.155609	2551.640513
540.515665	2550.760832
540.875665	2553.341902
541.235609	2552.749567
541.595496	2553.704866
541.955328	2552.048847
542.315102	2551.569937
542.674821	2552.124464
543.034483	2554.211502
543.394090	2552.164793
543.753640	2551.091027
544.113134	2552.295863
544.472571	2552.946172
544.831953	2551.857283
545.191278	2550.738147
545.550548	2552.358878
545.909761	2549.162786
546.268918	2553.057077
546.628019	2554.362736
546.987064	2551.196892
547.346053	2553.709907
547.704986	2547.468958
548.063863	2552.593291
548.422684	2551.171686
548.781449	2551.504402
549.140158	2551.035575
549.498811	2555.118909
549.857408	2551.869886
550.215949	2549.533311
550.574434	2546.102806
550.932864	2550.390307
551.291237	2546.624565
551.649555	2551.600184
552.007817	2551.801830
552.366022	2553.283929
552.724173	2551.847200
553.082267	2553.783003
553.440305	2552.762170
553.798288	2553.578837
554.156215	2551.801830
554.514086	2553.412479
554.871902	2548.935934
555.229661	2553.392314
555.587365	2551.517005
555.945014	2551.968188
556.302606	2552.147149
556.660143	2550.266799
557.017625	2550.415513
557.375050	2547.557178
557.732421	2551.784186
558.089735	2554.392983
558.446994	2552.626059
558.804197	2553.573796
559.161345	2550.042467
559.518437	2551.592622
559.875474	2550.612118
560.232455	2551.005328
560.589381	2549.961809
560.946251	2555.854918
561.303065	2553.346944
561.659825	2553.054557
562.016528	2554.201419
562.373177	2554.115720
562.729770	2552.936090
563.086307	2552.812581
563.442789	2552.502550
563.799216	2552.303425
564.155587	2552.537838
564.511904	2553.193188
564.868164	2550.768393
565.224370	2553.321738
565.580520	2550.768393
565.936615	2551.237221
566.292654	2550.730585
566.648638	2553.309135
567.004567	2554.403065
567.360441	2553.440205
567.716260	2555.696121
568.072023	2551.706048
568.427732	2548.346119
568.783385	2547.436191
569.138982	2548.386448
569.494525	2548.946016
569.850013	2547.990718
570.205445	2552.787376
570.560823	2550.609597
570.916145	2552.348795
571.271412	2553.162942
571.626625	2552.716799
571.981782	2552.147149
572.336884	2552.598332
572.691931	2554.894578
573.046923	2550.685214
573.401860	2552.225287
573.756743	2553.052036
574.111570	2553.828374
574.466342	2554.957592
574.821059	2550.808723
575.175722	2552.056408
575.530330	2551.809392
575.884882	2554.382901
576.239380	2554.834084
576.593823	2555.454146
576.948211	2554.713096
577.302544	2553.409958
577.656823	2550.223949
578.011047	2553.142777
578.365216	2554.876934
578.719330	2554.521532
579.073389	2551.234700
579.427394	2552.048847
579.781344	2553.858621
580.135239	2554.831563
580.489080	2553.672098
580.842866	2552.104299
581.196597	2553.435164
581.550273	2554.178734
581.903895	2553.825853
582.257463	2552.391645
582.610975	2556.601008
582.964434	2552.121943
583.317837	2553.135215
583.671186	2553.258723
584.024481	2556.505227
584.377721	2555.587737
584.730906	2556.119578
585.084037	2554.718137
585.437113	2553.987170
585.790135	2553.866182
586.143103	2549.931562
586.496016	2555.464228
586.848874	2548.451983
587.201679	2552.946172
587.554428	2548.210008
587.907124	2552.671429
588.259765	2547.416026
588.612352	2554.282078
588.964884	2552.593291
589.317362	2555.796944
589.669786	2551.612787
590.022155	2554.660164
590.374470	2552.126984
590.726731	2554.655123
591.078937	2554.324928
591.431090	2553.062118
591.783188	2554.723179
592.135232	2555.882644
592.487222	2554.103117
592.839157	2555.751574
593.191038	2552.192519
593.542866	2554.705535
593.894639	2553.699824
594.246358	2555.733930
594.598022	2553.147818
594.949633	2553.788045
595.301190	2554.332489
595.652692	2553.162942
596.004141	2554.075390
596.355535	2552.419371
596.706876	2553.286450
597.058162	2555.338199
597.409395	2553.896429
597.760573	2552.472303
598.111698	2552.285781
598.462768	2552.439536
598.813785	2551.043136
599.164748	2554.198899
599.515657	2552.963816
599.866511	2553.263765
600.217312	2554.158569
600.568060	2553.707386
600.918753	2554.594629
601.269392	2550.987684
601.619978	2552.104299
601.970510	2553.115051
602.320988	2552.018600
602.671412	2552.071532
603.021783	2550.914587
603.372100	2554.428271
603.722363	2554.801317
604.072572	2553.800647
604.422728	2553.689742
604.772830	2547.121119
605.122878	2548.303269
605.472872	2550.912066
605.822813	2547.852086
606.172701	2552.255534
606.522534	2551.673281
606.872314	2552.343754
607.222041	2550.657488
607.571714	2552.394166
607.921333	2554.110678
608.270899	2553.624207
608.620411	2553.520863
608.969870	2552.240410
609.319276	2556.797613
609.668627	2557.747871
610.017926	2560.949004
610.367171	2558.836760
610.716362	2560.883469
611.065500	2559.746688
611.414585	2559.214847
611.763616	2558.614949
612.112594	2553.422561
612.461518	2556.840463
612.810389	2553.770401
613.159207	2556.767367
613.507971	2556.434650
613.856682	2554.539177
614.205340	2552.815102
614.553945	2555.174362
614.902496	2555.633107
615.250994	2554.433312
615.599439	2552.278219
615.947830	2553.583878
616.296169	2553.241079
616.644454	2554.614794
616.992686	2553.735112
617.340864	2551.259906
617.688990	2552.671429
618.037063	2553.946841
618.385082	2552.300904
618.733048	2553.180586
619.080961	2556.328786
619.428821	2553.299053
619.776628	2554.113199
620.124382	2553.893909
620.472083	2555.043292
620.819731	2551.557334
621.167326	2554.365257
621.514868	2554.118240
621.862357	2551.635472
622.209793	2553.651933
622.557176	2554.544218
622.904506	2551.882488
623.251783	2551.108671
623.599007	2549.142621
623.946179	2548.361243
624.293297	2550.423074
624.640363	2552.235369
624.987376	2555.295350
625.334336	2555.701163
625.681243	2550.859134
626.028097	2551.910215
626.374899	2552.628579
626.721647	2553.210832
627.068343	2554.851728
627.414987	2555.350802
627.761577	2552.487427
628.108115	2554.095555
628.454600	2555.572613
628.801032	2554.002294
629.147412	2554.546738
629.493739	2554.405586
629.840014	2551.915256
630.186236	2554.748384
630.532405	2551.464073
630.878521	2552.419371
631.224585	2553.311656
631.570597	2554.677808
631.916556	2550.813764
632.262462	2552.489948
632.608316	2551.895091
632.954117	2553.541028
633.299866	2552.310987
633.645562	2554.329969
633.991206	2551.708569
634.336797	2551.547252
634.682336	2554.309804
635.027823	2553.349464
635.373257	2551.290153
635.718639	2554.004814
636.063968	2552.316028
636.409245	2552.404248
636.754470	2550.786037
637.099642	2550.770914
637.444762	2550.481048
637.789829	2553.551110
638.134845	2551.108671
638.479808	2555.754095
638.824719	2553.929197
639.169577	2551.506922
639.514383	2553.472972
639.859137	2550.738147
640.203839	2555.305432
640.548489	2552.759649
640.893086	2549.747560
641.237632	2548.701520
641.582125	2551.209494
641.926566	2549.838301
642.270955	2552.381563
642.615292	2550.750749
642.959576	2550.420554
643.303809	2551.738816
643.647990	2550.057591
643.992118	2548.993907
644.336195	2550.614638
644.680219	2551.133877
645.024192	2552.253013
645.368112	2552.545400
645.711981	2552.386604
646.055797	2552.275698
646.399562	2554.972716
646.743274	2551.953065
647.086935	2552.328631
647.430544	2551.267468
647.774101	2551.385935
648.117606	2549.858465
648.461059	2550.730585
648.804460	2555.779300
649.147810	2557.596636
649.491108	2552.815102
649.834354	2550.445760
650.177548	2551.665719
650.520690	2553.951882
650.863781	2551.436346
651.206820	2553.810730
651.549807	2555.033210
651.892742	2552.366439
652.235626	2551.224618
652.578458	2552.066491
652.921238	2554.811399
653.263967	2553.135215
653.606644	2549.722354
653.949269	2553.906512
654.291843	2551.554813
654.634365	2553.110009
654.976836	2554.498847
655.319255	2554.531615
655.661622	2552.366439
656.003938	2553.301573
656.346203	2550.917107
656.688416	2551.932900
657.030577	2554.380380
657.372687	2552.164793
657.714746	2551.219577
658.056753	2552.686552
658.398708	2547.620193
658.740612	2553.064639
659.082465	2547.479041
659.424266	2550.488609
659.766016	2548.388969
660.107715	2554.440874
660.449362	2552.154711
660.790958	2551.670760
661.132503	2553.213353
661.473996	2554.193857
661.815438	2553.412479
662.156829	2551.141439
662.498168	2551.743857
662.839456	2550.937272
663.180693	2549.883671
663.521879	2551.335523
663.863013	2550.435677
664.204097	2553.490617
664.545129	2553.263765
664.886110	2550.443239
665.227040	2549.132539
665.567918	2552.326110
665.908746	2549.056922
666.249522	2551.610266
666.590248	2548.041129
666.930922	2550.360060
667.271545	2550.044988
667.612118	2550.440718
667.952639	2550.478527
668.293109	2551.892571
668.633528	2550.221428
668.973896	2550.206305
669.314213	2552.192519
669.654480	2551.227138
669.994695	2554.166131
670.334859	2551.942982
670.674973	2549.142621
671.015035	2553.233518
671.355047	2555.015566
671.695008	2552.379042
672.034918	2551.527087
672.374777	2550.594474
672.714585	2553.336861
673.054342	2549.911397
673.394049	2550.012220
673.733705	2550.912066
674.073310	2552.210163
674.412864	2552.484906
674.752368	2550.165976
675.091820	2549.654298
675.431223	2552.429454
675.770574	2550.907025
676.109875	2546.823691
676.449125	2552.260575
676.788324	2546.264123
677.127473	2550.090358
677.466571	2548.330996
677.805619	2555.328117
678.144616	2550.725544
678.483562	2553.057077
678.822458	2551.683363
679.161303	2551.756460
679.500098	2549.959288
679.838842	2549.810574
680.177535	2552.815102
680.516179	2554.067829
680.854771	2551.421223
681.193314	2550.657488
681.531805	2549.316541
681.870247	2549.863506
682.208638	2551.781665
682.546978	2552.437015
682.885268	2550.758311
683.223508	2553.737633
683.561697	2551.607746
683.899836	2552.505071
684.237925	2551.973229
684.575963	2552.840308
684.913951	2550.231511
685.251889	2554.685370
685.589776	2551.176727
685.927614	2552.701676
686.265401	2553.062118
686.603137	2550.080276
686.940824	2551.118754
687.278460	2554.723179
687.616046	2552.452139
687.953582	2552.744526
688.291068	2547.015254
688.628504	2554.634958
688.965889	2550.050029
689.303224	2550.218908
689.640510	2549.987015
689.977745	2549.719833
690.314930	2551.169165
690.652065	2550.561706
690.989150	2552.368960
691.326185	2551.360729
691.663170	2549.508105
692.000105	2553.387273
692.336990	2553.924156
692.673825	2551.635472
693.010610	2551.872406
693.347345	2548.222611
693.684030	2547.849565
694.020665	2548.310831
694.357251	2546.377548
694.693786	2549.072045
695.030272	2551.557334
695.366707	2550.836449
695.703093	2551.716130
696.039429	2550.183620
696.375716	2551.627910
696.711952	2549.480379
697.048139	2551.534649
697.384276	2551.249824
697.720363	2553.805689
698.056400	2553.102448
698.392388	2551.572457
698.728326	2553.349464
699.064214	2552.079093
699.400053	2551.045657
699.735842	2549.026675
700.071581	2552.003476
700.407270	2548.719164
700.742910	2552.401727
701.078501	2551.176727
701.414042	2551.688404
701.749533	2550.168496
702.084974	2549.651778
702.420366	2549.089689
702.755709	2550.710420
703.091002	2551.910215
703.426246	2551.708569
703.761440	2551.998435
704.096584	2552.212684
704.431679	2549.321582
704.766725	2552.492468
705.101721	2550.360060
705.436668	2552.568085
705.771565	2550.617159
706.106413	2550.024823
706.441212	2551.695966
706.775961	2553.775442
707.110661	2550.700338
707.445311	2551.448949
707.779913	2552.510112
708.114465	2554.960113
708.448967	2552.623538
708.783421	2554.589588
709.117825	2550.536500
709.452180	2552.762170
709.786485	2547.650440
710.120742	2549.414844
710.454949	2550.591953
710.789107	2549.293856
711.123216	2547.710934
711.457275	2551.574978
711.791286	2545.155069
712.125247	2547.718495
712.459159	2549.545914
712.793023	2550.481048
713.126837	2551.595143
713.460602	2550.851573
713.794318	2549.936603
714.127985	2551.713610
714.461602	2550.894422
714.795171	2551.025492
715.128691	2550.017262
715.462162	2550.985163
715.795584	2550.052550
716.128957	2549.969371
716.462281	2551.824515
716.795556	2551.275029
717.128782	2550.241593
717.461960	2550.090358
717.795088	2550.876778
718.128167	2550.324772
718.461198	2550.234031
718.794180	2550.667570
719.127113	2552.547921
719.459997	2549.737477
719.792833	2552.621017
720.125619	2552.812581
720.458357	2550.007179
720.791046	2552.638662
721.123686	2550.899463
721.456278	2552.157231
721.788821	2549.616490
722.121315	2548.711603
722.453761	2550.171017
722.786158	2548.656150
723.118506	2551.701007
723.450805	2549.303938
723.783056	2549.510626
724.115259	2552.000956
724.447412	2550.435677
724.779518	2549.795451
725.111574	2550.521377
725.443582	2548.759494
725.775542	2548.678835
726.107453	2550.216387
726.439315	2550.899463
726.771129	2555.917932
727.102895	2550.665050
727.434612	2550.246634
727.766281	2551.123795
728.097901	2548.951058
728.429473	2547.710934
728.760996	2548.230172
729.092471	2545.402085
729.423897	2552.018600
729.755276	2552.310987
730.086606	2548.129349
730.417887	2549.709751
730.749120	2549.805533
731.080305	2552.187478
731.411442	2549.187992
731.742530	2551.653116
732.073570	2549.485420
732.404562	2552.978939
732.735506	2550.780996
733.066401	2550.332334
733.397249	2550.987684
733.728048	2549.994576
734.058798	2551.196892
734.389501	2549.180430
734.720156	2549.021634
735.050762	2550.702858
735.381320	2549.634134
735.711831	2551.121274
736.042293	2548.061294
736.372707	2549.649257
736.703073	2551.627910
737.033391	2549.772766
737.363661	2551.650595
737.693883	2547.995759
738.024056	2552.225287
738.354182	2550.108002
738.684260	2551.138918
739.014290	2550.110523
739.344272	2550.849052
739.674207	2551.005328
740.004093	2553.354505
740.333931	2548.812426
740.663722	2549.457693
740.993464	2548.373845
741.323159	2549.918959
741.652806	2547.262271
741.982405	2550.773435
742.311956	2548.444422
742.641460	2549.724875
742.970915	2549.369473
743.300323	2550.440718
743.629683	2546.785882
743.958996	2551.063301
744.288260	2551.723692
744.617477	2549.987015
744.946647	2546.395192
745.275768	2545.901159
745.604842	2545.550799
745.933869	2546.375028
746.262847	2545.029040
746.591778	2548.590615
746.920662	2549.364432
747.249498	2549.389638
747.578286	2550.143290
747.907027	2550.859134
748.235720	2547.723537
748.564365	2553.432643
748.892963	2549.117416
749.221514	2549.326623
749.550017	2548.376366
749.878473	2552.585729
750.206881	2548.502395
750.535242	2549.135060
750.863555	2549.896274
751.191821	2548.081458
751.520039	2548.754452
751.848210	2551.181768
752.176334	2551.781665
752.504411	2548.222611
752.832440	2548.691438
753.160421	2548.726726
753.488356	2548.399051
753.816243	2552.411810
754.144082	2550.183620
754.471875	2549.573640
754.799620	2549.891233
755.127318	2548.578012
755.454969	2548.638506
755.782572	2549.545914
756.110129	2550.266799
756.437638	2551.887530
756.765100	2549.155224
757.092515	2549.603887
757.419882	2548.225131
757.747203	2548.663712
758.074477	2549.505584
758.401703	2551.597663
758.728882	2549.031716
759.056014	2549.553475
759.383099	2549.482899
759.710138	2549.737478
760.037129	2547.990718
760.364073	2550.838970
760.690970	2548.535162
761.017820	2550.445760
761.344623	2549.961809
761.671379	2549.704710
761.998088	2542.929399
762.324751	2544.343443
762.651366	2548.774617
762.977935	2545.734801
763.304456	2543.070552
763.630931	2550.755791
763.957359	2549.913918
764.283740	2549.384597
764.610074	2548.527601
764.936362	2553.311656
765.262602	2547.287477
765.588796	2550.531459
765.914943	2548.943496
766.241044	2549.006510
766.567097	2551.446429
766.893104	2550.491130
767.219064	2547.884853
767.544978	2551.922818
767.870845	2547.957950
768.196665	2549.019113
768.522438	2546.044832
768.848165	2549.104813
769.173846	2546.175902
769.499479	2549.873589
769.825066	2551.532128
770.150607	2550.629762
770.476101	2547.897456
770.801548	2552.961295
771.126949	2548.504915
771.452303	2548.507436
771.777611	2546.443083
772.102872	2550.188661
772.428087	2548.756973
772.753256	2549.601366
773.078378	2547.433670
773.403453	2547.864689
773.728482	2549.561037
774.053465	2547.400903
774.378401	2549.213197
774.703291	2548.880481
775.028135	2549.702189
775.352932	2548.943496
775.677683	2549.815615
776.002388	2546.354863
776.327046	2547.441232
776.651658	2551.607746
776.976224	2549.737477
777.300743	2550.533980
777.625216	2548.792261
777.949643	2549.742519
778.274024	2550.196222
778.598359	2546.579195
778.922647	2543.665408
779.246889	2547.718495
779.571086	2542.765562
779.895236	2547.206818
780.219339	2545.976777
780.543397	2552.235369
780.867409	2548.237734
781.191374	2549.429967
781.515294	2547.756304
781.839167	2548.646068
782.162995	2547.665563
782.486776	2548.633465
782.810511	2546.692621
783.134201	2547.612631
783.457844	2549.175389
783.781441	2549.001469
784.104993	2546.997610
784.428498	2549.777807
784.751958	2547.267312
785.075372	2548.842673
785.398739	2550.849052
785.722061	2550.092879
786.045337	2549.762683
786.368568	2548.280584
786.691752	2548.794782
787.014891	2550.216387
787.337983	2547.932744
787.661030	2548.482230
787.984031	2548.890564
788.306987	2549.114895
788.629897	2548.890564
788.952760	2549.936603
789.275579	2549.477858
789.598351	2550.228990
789.921078	2548.759494
790.243759	2548.068856
790.566395	2550.917108
790.888984	2547.794113
791.211529	2547.431150
791.534027	2549.777807
791.856480	2547.572302
792.178888	2546.841335
792.501249	2548.451983
792.823566	2548.351160
793.145836	2547.947868
793.468062	2547.327806
793.790241	2548.174720
794.112375	2549.306459
794.434464	2549.397200
794.756507	2545.631458
795.078505	2547.642878
795.400457	2548.240255
795.722364	2544.078782
796.044226	2545.618855
796.366042	2544.290511
796.687812	2546.339740
797.009538	2546.128011
797.331218	2549.147663
797.652852	2549.666901
797.974442	2549.359391
798.295986	2547.897456
798.617484	2549.059442
798.938938	2547.416026
799.260346	2552.709238
799.581709	2544.824873
799.903026	2546.864020
800.224299	2548.255378
800.545526	2548.449463
800.866708	2547.728578
801.187845	2547.257230
801.508936	2548.976263
801.829983	2547.675646
802.150984	2546.836293
802.471940	2548.613300
802.792851	2548.343598
803.113717	2547.847045
803.434538	2548.693959
803.755314	2548.502395
804.076045	2549.351829
804.396731	2546.284287
804.717372	2547.325285
805.037967	2546.241437
805.358518	2547.824360
805.679024	2547.499205
805.999485	2546.954761
806.319901	2545.704554
806.640272	2548.489792
806.960598	2549.450132
807.280879	2545.109698
807.601115	2547.073228
807.921306	2546.828732
808.241453	2547.194215
808.561554	2547.282436
808.881611	2549.077086
809.201623	2549.006510
809.521590	2548.822508
809.841513	2548.295707
810.161390	2548.386448
810.481223	2546.145655
810.801011	2548.462066
811.120755	2548.794782
811.440453	2547.542055
811.760107	2546.581715
812.079716	2545.586087
812.399281	2539.786240
812.718801	2544.429143
813.038276	2542.221117
813.357707	2549.389638
813.677093	2546.102806
813.996434	2548.086500
814.315731	2547.496685
814.634983	2546.795964
814.954191	2546.548948
815.273354	2547.937786
815.592473	2548.895605
815.911547	2546.312013
816.230577	2546.934596
816.549562	2549.137580
816.868502	2547.416026
817.187399	2550.218908
817.506250	2547.330327
817.825058	2546.458207
818.143821	2546.690100
818.462539	2548.152035
818.781213	2548.066335
819.099843	2547.136242
819.418429	2549.656819
819.736970	2547.274874
820.055466	2545.644061
820.373919	2548.358722
820.692327	2548.585574
821.010691	2549.631613
821.329011	2546.450645
821.647286	2551.350647
821.965517	2547.864689
822.283704	2549.883671
822.601847	2548.603218
822.919945	2548.439380
823.237999	2547.481561
823.556010	2548.968702
823.873976	2546.367466
824.191897	2550.871737
824.509775	2546.929555
824.827609	2548.434339
825.145398	2547.138763
825.463144	2548.242775
825.780845	2546.453166
826.098502	2547.312683
826.416116	2548.547765
826.733685	2548.020965
827.051210	2547.552137
827.368692	2548.315872
827.686129	2545.782692
828.003522	2547.849565
828.320872	2543.955274
828.638177	2545.109698
828.955439	2544.434184
829.272656	2544.315717
829.589830	2544.043494
829.906960	2548.076417
830.224046	2547.584905
830.541088	2545.573484
830.858086	2545.913762
831.175041	2546.581715
831.491952	2547.438711
831.808819	2547.012734
832.125642	2548.406613
832.442421	2548.366284
832.759157	2545.021478
833.075849	2548.149514
833.392497	2546.551468
833.709101	2548.217570
834.025662	2548.018444
834.342179	2546.286808
834.658653	2546.422919
834.975083	2546.916952
835.291469	2551.348126
835.607811	2547.892415
835.924110	2545.054246
836.240366	2545.714637
836.556578	2546.042312
836.872746	2546.274205
837.188871	2548.058773
837.504952	2546.294369
837.820990	2545.208001
838.136984	2545.404606
838.452935	2547.315203
838.768842	2547.491643
839.084706	2548.101623
839.400526	2544.194729
839.716303	2545.817980
840.032037	2547.597508
840.347727	2547.526932
840.663373	2548.192364
840.978977	2547.668084
841.294537	2545.059287
841.610054	2544.895449
841.925527	2549.056922
842.240957	2547.552137
842.556344	2546.627086
842.871687	2548.472148
843.186987	2546.077600
843.502244	2545.570964
843.817458	2549.392158
844.132629	2548.429298
844.447756	2546.901828
844.762840	2541.515356
845.077881	2542.493339
845.392879	2544.837476
845.707833	2545.182795
846.022745	2544.230017
846.337613	2548.625903
846.652438	2547.320244
846.967221	2545.676828
847.281960	2547.612631
847.596656	2550.355019
847.911309	2546.175902
848.225919	2546.087682
848.540485	2548.993907
848.855009	2546.959802
849.169490	2548.073897
849.483928	2545.568443
849.798323	2547.486602
850.112675	2546.576674
850.426984	2546.813608
850.741251	2548.789741
851.055474	2543.879657
851.369654	2545.349153
851.683792	2547.398382
851.997887	2545.911242
852.311938	2546.077600
852.625947	2547.418547
852.939914	2543.582229
853.253837	2548.451983
853.567718	2545.535676
853.881555	2546.417878
854.195350	2547.330327
854.509103	2547.925183
854.822812	2546.932075
855.136479	2543.904863
855.450103	2548.015923
855.763685	2547.705893
856.077224	2547.844524
856.390720	2546.128011
856.704173	2548.789741
857.017584	2546.029709
857.330953	2544.073741
857.644278	2546.864020
857.957561	2551.932900
858.270802	2547.287477
858.584000	2544.265305
858.897155	2545.293700
859.210268	2547.761345
859.523339	2548.545245
859.836367	2547.567261
860.149352	2545.187836
860.462295	2545.860830
860.775195	2544.287990
861.088054	2542.755479
861.400869	2543.660367
861.713642	2542.576518
862.026373	2546.712785
862.339062	2544.577857
862.651708	2547.040460
862.964312	2544.726571
863.276873	2549.712272
863.589392	2545.500388
863.901869	2543.468803
864.214303	2547.398382
864.526696	2547.602549
864.839045	2548.242775
865.151353	2549.031716
865.463619	2546.611962
865.775842	2544.451828
866.088023	2545.817980
866.400162	2546.674977
866.712258	2544.885367
867.024313	2546.818649
867.336325	2546.001983
867.648296	2542.876467
867.960224	2544.716488
868.272110	2547.418547
868.583954	2546.259081
868.895755	2546.306972
869.207515	2546.049873
869.519233	2546.879143
869.830909	2544.260264
870.142542	2546.894267
870.454134	2545.230686
870.765684	2547.453835
871.077191	2542.153062
871.388657	2544.305634
871.700081	2547.688248
872.011463	2544.507280
872.322803	2545.649102
872.634101	2546.009544
872.945357	2546.057435
873.256571	2546.102806
873.567744	2543.720860
873.878874	2544.242620
874.189963	2546.566592
874.501010	2548.467107
874.812015	2545.490305
875.122979	2545.323947
875.433900	2548.086500
875.744780	2546.238917
876.055618	2544.998793
876.366415	2547.083310
876.677169	2545.964174
876.987882	2544.812270
877.298554	2543.367980
877.609183	2542.392516
877.919771	2544.076262
878.230317	2543.113401
878.540822	2547.600028
878.851285	2546.962322
879.161707	2544.771941
879.472087	2545.429812
879.782425	2544.182126
880.092722	2546.402754
880.402977	2545.737322
880.713191	2545.984338
881.023363	2544.345963
881.333494	2544.948381
881.643583	2546.516180
881.953631	2546.843855
882.263637	2546.173382
882.573602	2545.830583
882.883526	2546.254040
883.193408	2547.118598
883.503248	2545.155069
883.813048	2544.285470
884.122806	2545.565923
884.432522	2545.008875
884.742197	2544.532486
885.051831	2545.770089
885.361424	2546.397713
885.670975	2545.281097
885.980485	2544.376210
886.289954	2545.553320
886.599382	2545.084492
886.908768	2545.180274
887.218113	2546.110367
887.527417	2546.420398
887.836680	2544.744215
888.145901	2544.464431
888.455082	2542.301776
888.764221	2548.164638
889.073319	2544.008206
889.382376	2544.456869
889.691392	2545.550799
890.000366	2548.083979
890.309300	2543.287321
890.618193	2547.020296
890.927044	2548.318393
891.235855	2547.073228
891.544625	2547.834442
891.853353	2547.010213
892.162041	2544.222455
892.470687	2545.754966
892.779293	2545.664225
893.087858	2543.274718
893.396381	2541.543082
893.704864	2541.757331
894.013306	2539.004861
894.321707	2543.735984
894.630068	2546.702703
894.938387	2544.419060
895.246665	2545.823022
895.554903	2545.235727
895.863100	2541.888401
896.171256	2544.993752
896.479371	2546.899308
896.787446	2545.386962
897.095480	2543.579708
897.403473	2545.049204
897.711425	2543.254554
898.019336	2545.933927
898.327207	2542.826056
898.635038	2546.238917
898.942827	2549.041798
899.250576	2542.735315
899.558284	2544.053577
899.865952	2545.555840
900.173579	2543.284801
900.481165	2547.259750
900.788711	2545.520552
901.096216	2543.443597
901.403681	2543.756148
901.711105	2543.660367
902.018489	2543.771272
902.325832	2546.730429
902.633135	2544.194729
902.940397	2544.877805
903.247619	2546.795964
903.554800	2545.192877
903.861941	2546.238917
904.169041	2547.315203
904.476101	2545.288659
904.783121	2543.302445
905.090100	2546.322096
905.397039	2544.562733
905.703938	2546.304452
906.010796	2546.070038
906.317614	2545.381921
906.624391	2544.751776
906.931129	2542.586601
907.237826	2546.296890
907.544483	2543.161292
907.851099	2544.756817
908.157675	2545.021478
908.464211	2546.685059
908.770707	2538.815818
909.077163	2543.418391
909.383578	2536.965714
909.689954	2543.108360
909.996289	2539.335057
910.302584	2543.231868
910.608839	2544.124153
910.915054	2547.224462
911.221229	2544.890408
911.527363	2545.986859
911.833458	2546.871582
912.139513	2544.361087
912.445527	2545.981818
912.751502	2544.194729
913.057436	2543.183977
913.363331	2544.497198
913.669186	2542.964687
913.975000	2544.666077
914.280775	2544.444266
914.586510	2543.612476
914.892205	2543.297403
915.197859	2546.100285
915.503475	2542.216076
915.809050	2543.448638
916.114585	2545.273536
916.420081	2542.437887
916.725536	2542.667259
917.030952	2544.522404
917.336328	2546.743032
917.641665	2543.741025
917.946961	2543.640202
918.252218	2545.013916
918.557435	2543.902342
918.862612	2546.004503
919.167750	2545.495347
919.472848	2542.621889
919.777906	2543.491488
920.082925	2546.581715
920.387904	2543.957795
920.692843	2543.932589
920.997743	2541.565767
921.302603	2543.360418
921.607423	2545.588608
921.912204	2546.470810
922.216946	2545.076931
922.521647	2543.972918
922.826310	2546.483413
923.130932	2544.230017
923.435516	2546.463248
923.740059	2544.209852
924.044564	2544.991231
924.349028	2545.303783
924.653454	2539.813966
924.957840	2539.360262
925.262186	2542.294214
925.566493	2542.470654
925.870761	2540.678524
926.174989	2544.829914
926.479178	2546.889226
926.783328	2545.240768
927.087438	2543.241951
927.391509	2547.045501
927.695541	2545.152548
927.999533	2545.054246
928.303486	2544.776982
928.607400	2541.527958
928.911275	2545.286139
929.215110	2543.491488
929.518906	2545.044163
929.822663	2545.056766
930.126381	2544.164482
930.430060	2546.029709
930.733699	2542.319420
931.037299	2545.001313
931.340861	2544.134235
931.644383	2543.801519
931.947866	2544.391334
932.251309	2544.487116
932.554714	2546.344781
932.858080	2547.007693
933.161407	2545.361756
933.464694	2545.117260
933.767943	2541.628782
934.071153	2546.770758
934.374323	2542.881508
934.677455	2543.486447
934.980548	2542.551313
935.283602	2545.066848
935.586617	2541.643905
935.889593	2546.478372
936.192530	2542.301776
936.495428	2544.620706
936.798287	2544.635830
937.101108	2543.405788
937.403890	2544.471992
937.706632	2543.811601
938.009336	2543.741025
938.312002	2544.114070
938.614628	2542.909235
938.917216	2544.910573
939.219765	2545.971736
939.522275	2542.500901
939.824747	2545.175233
940.127179	2541.112063
940.429573	2543.262115
940.731929	2539.942516
941.034246	2536.912782
941.336524	2541.696837
941.638763	2543.902342
941.940964	2544.746735
942.243126	2542.967208
942.545250	2545.107178
942.847335	2544.822353
943.149381	2540.980993
943.451389	2543.153731
943.753359	2542.364790
944.055290	2544.076262
944.357182	2545.981818
944.659036	2542.251364
944.960851	2543.988042
945.262628	2543.236910
945.564367	2543.993083
945.866067	2544.862682
946.167729	2546.301931
946.469352	2541.016281
946.770937	2544.885367
947.072484	2545.384441
947.373992	2544.376210
947.675462	2543.957795
947.976893	2545.437373
948.278286	2542.110212
948.579641	2544.487116
948.880958	2544.542568
949.182236	2545.419729
949.483476	2543.272198
949.784678	2544.325799
950.085841	2544.681200
950.386967	2544.227496
950.688054	2546.009544
950.989103	2544.613145
951.290114	2543.824204
951.591087	2544.756817
951.892021	2545.180274
952.192917	2546.470810
952.493776	2542.271529
952.794596	2545.081972
953.095378	2541.601055
953.396122	2546.022147
953.696828	2544.839997
953.997496	2544.817311
954.298126	2544.804708
954.598718	2542.755479
954.899272	2544.096426
955.199788	2542.274049
955.500266	2545.916283
955.800706	2541.560726
956.101108	2540.055942
956.401472	2539.889583
956.701798	2539.720705
957.002087	2541.222969
957.302337	2544.023330
957.602550	2540.013092
957.902724	2544.149358
958.202861	2544.827394
958.502960	2542.528627
958.803022	2543.625078
959.103045	2543.725902
959.403031	2545.971736
959.702979	2542.606765
960.002889	2541.578370
960.302762	2544.557692
960.602596	2543.741025
960.902393	2545.104657
961.202153	2542.936961
961.501875	2542.450490
961.801559	2544.421581
962.101205	2544.633309
962.400814	2544.522404
962.700385	2543.478885
962.999918	2543.562064
963.299414	2543.519214
963.598873	2542.674821
963.898293	2542.329502
964.197677	2542.838658
964.497022	2542.659698
964.796331	2543.698175
965.095601	2543.342774
965.394835	2542.006868
965.694030	2545.114739
965.993189	2544.562733
966.292309	2542.430325
966.591393	2543.811601
966.890439	2542.085006
967.189447	2542.430325
967.488419	2543.451159
967.787353	2540.250026
968.086249	2542.279090
968.385108	2543.138607
968.683930	2543.829245
968.982714	2545.727240
969.281462	2543.504091
969.580172	2543.294883
969.878844	2545.833104
970.177480	2544.948381
970.476078	2541.913607
970.774639	2542.697506
971.073162	2542.490819
971.371649	2541.273380
971.670098	2537.636188
971.968510	2543.819163
972.266885	2538.553678
972.565223	2541.734646
972.863524	2541.316230
973.161788	2541.999306
973.460014	2541.167516
973.758204	2544.325799
974.056356	2545.371838
974.354471	2543.796478
974.652550	2543.005017
974.950591	2542.405119
975.248595	2542.737835
975.546563	2542.016950
975.844493	2544.650953
976.142386	2545.394523
976.440243	2544.103988
976.738062	2542.765562
977.035845	2542.158103
977.333590	2542.833617
977.631299	2543.153731
977.928971	2544.411498
978.226606	2541.054090
978.524204	2543.471323
978.821765	2545.165151
979.119290	2543.710778
979.416777	2541.953936
979.714228	2542.205994
980.011642	2544.630789
980.309020	2543.156251
980.606360	2542.339584
980.903664	2540.920499
981.200931	2541.880839
981.498162	2542.558874
981.795356	2543.594832
982.092513	2542.732794
982.389633	2539.690458
982.686717	2541.795140
982.983764	2542.032074
983.280775	2544.930737
983.577749	2543.055428
983.874686	2542.183308
984.171587	2541.119625
984.468451	2544.003165
984.765279	2541.195242
985.062070	2540.328164
985.358824	2541.475026
985.655543	2542.072403
985.952224	2542.148020
986.248869	2543.771272
986.545478	2539.025026
986.842050	2540.350849
987.138586	2537.648791
987.435086	2543.569626
987.731549	2536.839685
988.027975	2540.592824
988.324366	2543.854451
988.620719	2544.088865
988.917037	2542.853782
989.213318	2542.480737
989.509563	2545.752445
989.805772	2542.896632
990.101944	2542.188350
990.398080	2542.808412
990.694180	2541.094419
990.990244	2543.433515
991.286271	2542.349667
991.582262	2542.309337
991.878217	2543.395706
992.174136	2542.697506
992.470019	2541.195242
992.765865	2542.135417
993.061676	2544.252702
993.357450	2542.221117
993.653188	2543.012578
993.948890	2543.451159
994.244556	2541.490150
994.540186	2544.330840
994.835780	2543.083154
995.131337	2540.686086
995.426859	2545.301262
995.722345	2541.918648
996.017795	2544.093906
996.313208	2540.244985
996.608586	2543.907383
996.903928	2542.309337
997.199234	2541.021323
997.494504	2544.698844
997.789738	2542.964687
998.084936	2538.694830
998.380099	2544.630789
998.675225	2538.992258
998.970316	2540.549975
999.265371	2540.993596
999.560390	2542.236241
999.855373	2542.866385
1000.150320	2541.991745
1000.445232	2542.677342
1000.740108	2542.889070
1001.034948	2540.587783
1001.329752	2542.516025
1001.624521	2539.977804
1001.919254	2534.699716
1002.213951	2538.039480
1002.508613	2537.394212
1002.803239	2541.220448
1003.097829	2538.137783
1003.392384	2540.353370
1003.686903	2542.339584
1003.981386	2545.797816
1004.275834	2543.998124
1004.570246	2542.064841
1004.864623	2541.031405
1005.158964	2541.613658
1005.453270	2542.516025
1005.747540	2544.323278
1006.041775	2541.112063
1006.335974	2542.604245
1006.630138	2544.386293
1006.924266	2543.667928
1007.218359	2542.846220
1007.512416	2544.736653
1007.806438	2544.300593
1008.100425	2542.573998
1008.394376	2537.893287
1008.688292	2541.270860
1008.982172	2543.178936
1009.276017	2542.306817
1009.569827	2541.737166
1009.863602	2542.894111
1010.157341	2543.988042
1010.451045	2544.378731
1010.744714	2540.413863
1011.038347	2542.140459
1011.331945	2541.843031
1011.625508	2540.106353
1011.919036	2540.098791
1012.212528	2544.769420
1012.505986	2540.875129
1012.799408	2545.276056
1013.092795	2540.935623
1013.386147	2543.962836
1013.679464	2541.497712
1013.972745	2542.221117
1014.265992	2543.541899
1014.559204	2544.673638
1014.852380	2539.166178
1015.145521	2539.939995
1015.438628	2542.364790
1015.731699	2542.654656
1016.024736	2540.854964
1016.317737	2541.621220
1016.610703	2541.706919
1016.903635	2540.393699
1017.196531	2536.874973
1017.489393	2540.048380
1017.782219	2538.790612
1018.075011	2538.246167
1018.367768	2540.464275
1018.660490	2545.437373
1018.953177	2545.437373
1019.245829	2545.437373
