Dividing Wavelength (nm)	Counts (n)	Blue Motor Position (mm): 6.800000	Red Motor Position (mm): 0.000000	
326.493990	2157.956645
326.888308	2157.956645
327.282561	2157.956645
327.676750	2118.524739
328.070874	2113.413009
328.464933	2114.786724
328.858929	2117.508947
329.252859	2124.059926
329.646726	2129.466564
330.040528	2141.504839
330.434265	2156.734165
330.827938	2174.816784
331.221547	2193.209433
331.615091	2208.894984
332.008571	2226.831409
332.401986	2245.181209
332.795338	2264.622419
333.188625	2282.785696
333.581847	2303.595579
333.975006	2318.272899
334.368100	2336.161433
334.761129	2354.085256
335.154095	2372.752648
335.546996	2391.495658
335.939833	2406.485529
336.332606	2425.465473
336.725315	2433.841351
337.117960	2448.102775
337.510540	2459.762964
337.903056	2471.773513
338.295508	2481.175265
338.687896	2490.486276
339.080220	2498.146309
339.472480	2501.082781
339.864676	2508.016888
340.256807	2513.514267
340.648875	2518.318486
341.040879	2520.927283
341.432818	2522.827798
341.824694	2523.951976
342.216506	2527.168232
342.608253	2526.775022
342.999937	2525.265196
343.391557	2527.687471
343.783113	2527.175793
344.174605	2525.897861
344.566033	2525.161852
344.957397	2525.887779
345.348697	2523.989784
345.739934	2518.683970
346.131106	2520.513909
346.522215	2515.669360
346.913260	2518.628517
347.304241	2513.904956
347.695159	2512.054853
348.086012	2511.467558
348.476802	2510.103926
348.867528	2502.728718
349.258191	2502.151506
349.648789	2500.966835
350.039324	2497.722852
350.429796	2500.550939
350.820203	2498.017760
351.210548	2499.005826
351.600828	2495.534991
351.991045	2494.241935
352.381198	2495.958448
352.771288	2491.461739
353.161314	2494.882162
353.551276	2494.259579
353.941175	2493.432830
354.331010	2492.926194
354.720782	2490.309835
355.110490	2491.900319
355.500135	2491.393683
355.889717	2491.166832
356.279235	2494.171359
356.668689	2493.649600
357.058080	2491.696153
357.447408	2492.911071
357.836672	2494.468787
358.225873	2491.794455
358.615010	2494.746051
359.004084	2494.758654
359.393095	2492.966523
359.782043	2495.177069
360.170927	2495.033397
360.559748	2496.303767
360.948505	2498.640342
361.337199	2497.412821
361.725830	2497.987513
362.114398	2498.647904
362.502903	2500.805518
362.891344	2497.760661
363.279722	2497.627070
363.668037	2501.052534
364.056289	2498.496669
364.444478	2497.841319
364.832603	2501.165960
365.220665	2498.816782
365.608665	2501.864160
365.996601	2502.514469
366.384474	2502.426249
366.772284	2502.743841
367.160031	2500.165291
367.547715	2506.091168
367.935336	2504.518327
368.322893	2503.817607
368.710388	2503.011022
369.097820	2503.643687
369.485189	2500.528254
369.872495	2505.211486
370.259738	2503.749552
370.646918	2507.553102
371.034035	2507.031343
371.421090	2507.812722
371.808081	2506.882629
372.195010	2507.303565
372.581875	2510.086282
372.968678	2508.122752
373.355418	2510.466889
373.742096	2510.124091
374.128710	2508.901611
374.515262	2508.072341
374.901751	2507.540499
375.288177	2510.129132
375.674540	2510.197187
376.060841	2508.997393
376.447079	2510.343381
376.833254	2511.888494
377.219367	2511.961591
377.605417	2509.614934
377.991404	2510.925634
378.377329	2510.764317
378.763191	2512.087620
379.148991	2509.892197
379.534727	2510.978566
379.920402	2514.492250
380.306013	2511.598628
380.691563	2512.516118
381.077049	2510.383710
381.462474	2512.269102
381.847835	2511.807836
382.233134	2515.961747
382.618371	2513.647857
383.003545	2517.159021
383.388657	2512.100223
383.773706	2515.220697
384.158693	2513.073166
384.543618	2516.181037
384.928480	2516.859072
385.313280	2516.919566
385.698017	2516.841428
386.082692	2513.486540
386.467305	2513.922600
386.851856	2516.097858
387.236344	2512.064935
387.620770	2514.482168
388.005133	2513.098371
388.389435	2514.910666
388.773674	2511.495284
389.157851	2516.266737
389.541965	2515.848321
389.926018	2517.380832
390.310008	2518.744464
390.693936	2517.826974
391.077802	2517.741274
391.461606	2517.806809
391.845348	2517.143897
392.229027	2522.129598
392.612645	2518.986439
392.996200	2519.737571
393.379694	2519.498116
393.763125	2517.834535
394.146494	2519.936697
394.529801	2521.665812
394.913047	2517.403517
395.296230	2520.287057
395.679351	2520.960051
396.062410	2520.022396
396.445408	2520.143384
396.828343	2519.677077
397.211217	2520.831501
397.594028	2521.108765
397.976778	2519.387211
398.359466	2523.074815
398.742092	2524.350227
399.124656	2521.295288
399.507158	2521.996008
399.889598	2522.260668
400.271977	2524.703108
400.654294	2521.859897
401.036549	2523.394928
401.418742	2522.812675
401.800874	2521.363343
402.182944	2522.721934
402.564952	2523.951976
402.946898	2524.332583
403.328783	2525.101359
403.710606	2523.684794
404.092367	2522.855525
404.474067	2523.861235
404.855705	2524.924918
405.237282	2522.913498
405.618797	2525.524816
406.000250	2528.972965
406.381642	2524.446009
406.762972	2524.695546
407.144240	2521.484331
407.525447	2522.086749
407.906593	2518.066428
408.287677	2526.643952
408.668700	2527.846267
409.049661	2523.707480
409.430560	2526.853160
409.811399	2525.048427
410.192176	2527.334590
410.572891	2527.354754
410.953545	2528.219312
411.334138	2528.153777
411.714669	2528.073119
412.095139	2527.231246
412.475547	2527.957172
412.855894	2526.767460
413.236180	2529.494724
413.616405	2526.437264
413.996568	2526.959024
414.376670	2527.100176
414.756711	2528.773839
415.136691	2527.011956
415.516609	2529.063706
415.896466	2529.172090
416.276262	2529.136802
416.655997	2527.011956
417.035670	2529.340969
417.415283	2529.640918
417.794834	2529.678726
418.174324	2528.219312
418.553753	2530.666793
418.933121	2531.513706
419.312428	2528.894827
419.691674	2531.816176
420.070859	2528.020187
420.449983	2529.686288
420.829045	2531.112935
421.208047	2532.983203
421.586988	2528.557070
421.965867	2529.456916
422.344686	2533.028573
422.723444	2530.311391
423.102141	2528.247039
423.480777	2528.730989
423.859352	2531.468336
424.237866	2530.800383
424.616319	2531.760723
424.994712	2531.964890
425.373044	2532.784077
425.751314	2529.620753
426.129524	2527.785773
426.507673	2526.724610
426.885762	2526.149919
427.263789	2532.766433
427.641756	2533.129396
428.019662	2534.127545
428.397508	2534.989582
428.775292	2532.101001
429.153016	2533.837678
429.530679	2530.565969
429.908282	2533.507483
430.285824	2530.117307
430.663305	2530.240815
431.040726	2532.600075
431.418086	2533.018491
431.795385	2534.568646
432.172624	2534.004036
432.549802	2537.043852
432.926920	2535.715508
433.303977	2535.344983
433.680974	2534.513193
434.057910	2533.963707
434.434786	2536.219623
434.811601	2532.852133
435.188355	2534.649304
435.565050	2534.919006
435.941683	2535.143337
436.318257	2533.333563
436.694770	2535.312216
437.071222	2534.132586
437.447614	2534.316588
437.823946	2536.786753
438.200218	2534.934129
438.576429	2534.687113
438.952580	2539.085519
439.328670	2533.804911
439.704700	2534.074612
440.080670	2538.299099
440.456580	2536.519572
440.832429	2535.818852
441.208218	2537.704243
441.583947	2533.709129
441.959616	2534.203162
442.335224	2536.151568
442.710773	2535.864222
443.086261	2538.102494
443.461689	2536.224665
443.837057	2538.825900
444.212365	2535.556712
444.587612	2533.941022
444.962800	2531.980013
445.337927	2534.321629
445.712995	2535.312216
446.088002	2538.147865
446.462949	2535.443286
446.837837	2537.457227
447.212664	2537.570653
447.587431	2538.714995
447.962139	2536.847247
448.336786	2541.860675
448.711374	2537.421939
449.085901	2539.032587
449.460369	2537.878163
449.834776	2536.817000
450.209124	2538.294058
450.583412	2538.089892
450.957640	2536.353214
451.331808	2542.367311
451.705917	2537.069058
452.079965	2537.855478
452.453954	2540.489481
452.827883	2538.493184
453.201752	2541.154913
453.575562	2537.989068
453.949311	2539.209028
454.323001	2538.566281
454.696632	2539.035108
455.070202	2538.460416
455.443713	2538.369676
455.817164	2538.205838
456.190556	2541.825387
456.563888	2540.232382
456.937160	2539.080478
457.310373	2538.798174
457.683526	2539.002340
458.056619	2538.573842
458.429653	2540.461754
458.802628	2540.681045
459.175542	2542.556354
459.548398	2539.612320
459.921194	2542.432846
460.293930	2540.267670
460.666607	2541.303627
461.039224	2542.009389
461.411782	2542.150541
461.784280	2538.110056
462.156719	2541.205325
462.529099	2540.769265
462.901419	2543.375541
463.273680	2538.515869
463.645882	2537.248019
464.018024	2536.383461
464.390106	2536.998482
464.762130	2540.411343
465.134094	2539.957639
465.505999	2542.649615
465.877845	2542.727753
466.249631	2541.454862
466.621358	2542.203473
466.993026	2544.199770
467.364634	2546.876623
467.736184	2540.592824
468.107674	2541.570808
468.479105	2539.375386
468.850477	2542.367311
469.221790	2545.293700
469.593043	2543.103319
469.964238	2539.050231
470.335373	2543.859492
470.706449	2542.521066
471.077467	2538.273894
471.448425	2545.326468
471.819324	2542.523586
472.190164	2543.322609
472.560945	2543.655325
472.931667	2544.146838
473.302330	2544.003165
473.672934	2544.386293
474.043479	2541.979142
474.413965	2543.428473
474.784393	2544.388813
475.154761	2544.376210
475.525070	2545.613814
475.895321	2542.054759
476.265513	2544.358566
476.635645	2545.651622
477.005719	2542.243802
477.375734	2543.486447
477.745691	2545.351674
478.115588	2544.003165
478.485427	2542.921838
478.855207	2541.898483
479.224928	2543.322609
479.594591	2544.199770
479.964194	2543.950233
480.333739	2543.269677
480.703226	2539.584594
481.072653	2544.053577
481.442022	2544.587939
481.811333	2542.072403
482.180584	2541.023843
482.549777	2544.567774
482.918912	2540.113915
483.287988	2542.866385
483.657005	2545.533155
484.025964	2541.764893
484.394864	2547.806716
484.763706	2546.279246
485.132489	2547.332847
485.501213	2544.497198
485.869879	2545.679349
486.238487	2545.223124
486.607036	2542.395037
486.975527	2545.404606
487.343959	2546.296890
487.712333	2546.289328
488.080648	2543.589790
488.448905	2542.316899
488.817104	2543.158772
489.185244	2545.432332
489.553326	2546.259081
489.921350	2546.571633
490.289315	2544.285470
490.657222	2546.876623
491.025070	2544.398896
491.392861	2545.291180
491.760593	2544.046015
492.128267	2546.248999
492.495883	2546.453166
492.863440	2547.042981
493.230939	2546.778320
493.598380	2545.926365
493.965763	2542.732794
494.333088	2544.227496
494.700354	2545.893598
495.067563	2543.667928
495.434713	2547.340409
495.801805	2546.606921
496.168839	2546.987528
496.535815	2547.327806
496.902733	2549.387117
497.269593	2546.299411
497.636395	2544.819832
498.003139	2545.828063
498.369825	2543.466282
498.736453	2547.383259
499.103023	2545.722198
499.469535	2546.516180
499.835989	2545.820501
500.202385	2543.811601
500.568723	2544.076262
500.935003	2549.339226
501.301226	2542.510983
501.667390	2545.961653
502.033497	2549.382076
502.399546	2547.587425
502.765537	2548.094061
503.131470	2548.204967
503.497345	2546.717826
503.863163	2548.320913
504.228923	2547.826880
504.594625	2544.837476
504.960269	2544.424101
505.325856	2547.000131
505.691385	2546.974925
506.056856	2544.804708
506.422270	2548.212528
506.787625	2544.323278
507.152924	2544.915614
507.518164	2547.612631
507.883347	2547.607590
508.248472	2548.096582
508.613540	2546.619524
508.978550	2549.860986
509.343503	2547.002652
509.708398	2548.978784
510.073236	2547.872251
510.438016	2547.360573
510.802738	2547.194215
511.167403	2546.092723
511.532010	2546.864020
511.896561	2546.745553
512.261053	2549.528270
512.625488	2545.334030
512.989866	2544.895449
513.354186	2548.635985
513.718449	2545.702034
514.082655	2547.640357
514.446803	2547.786551
514.810894	2549.104813
515.174927	2546.750594
515.538904	2549.356870
515.902822	2548.341078
516.266684	2545.807898
516.630488	2547.295038
516.994235	2547.431150
517.357925	2550.677653
517.721558	2550.591953
518.085133	2546.218752
518.448651	2545.253371
518.812112	2544.204811
519.175516	2544.880326
519.538863	2541.772454
519.902152	2549.649257
520.265385	2548.386448
520.628560	2548.855276
520.991678	2548.610780
521.354739	2549.860986
521.717743	2546.680018
522.080690	2548.809905
522.443580	2548.063814
522.806413	2550.546583
523.169189	2548.204967
523.531908	2549.061963
523.894569	2549.218239
524.257174	2549.044319
524.619722	2547.355532
524.982213	2549.964329
525.344647	2548.106664
525.707025	2548.066335
526.069345	2547.332847
526.431608	2551.373332
526.793815	2546.821170
527.155964	2549.475338
527.518057	2548.285625
527.880093	2549.341747
528.242072	2549.848383
528.603995	2549.064483
528.965860	2544.870243
529.327669	2547.600028
529.689421	2549.893753
530.051117	2548.336037
530.412755	2548.290666
530.774337	2549.911397
531.135862	2549.261088
531.497331	2547.884853
531.858743	2546.833773
532.220098	2549.853424
532.581396	2550.322251
532.942638	2551.121274
533.303824	2550.667570
533.664953	2553.233518
534.026025	2551.756460
534.387040	2550.057591
534.747999	2546.367466
535.108902	2550.380225
535.469748	2551.264947
535.830537	2548.681356
536.191270	2549.755122
536.551947	2547.151366
536.912567	2547.784030
537.273131	2545.470141
537.633638	2543.572146
537.994089	2548.598177
538.354483	2550.334854
538.714821	2551.466593
539.075103	2551.073383
539.435328	2548.255378
539.795497	2550.382745
540.155609	2550.251675
540.515665	2552.167314
540.875665	2552.454659
541.235609	2553.225956
541.595496	2551.264947
541.955328	2552.341233
542.315102	2551.101110
542.674821	2553.278888
543.034483	2552.618497
543.394090	2552.348795
543.753640	2552.542880
544.113134	2553.208312
544.472571	2551.408620
544.831953	2552.416851
545.191278	2554.624876
545.550548	2556.192675
545.909761	2554.869372
546.268918	2553.571275
546.628019	2557.584033
546.987064	2554.055226
547.346053	2557.833571
547.704986	2555.965823
548.063863	2559.575289
548.422684	2554.972716
548.781449	2556.071687
549.140158	2556.863148
549.498811	2559.943293
549.857408	2554.849207
550.215949	2557.142933
550.574434	2555.539846
550.932864	2558.556976
551.291237	2558.347768
551.649555	2558.612429
552.007817	2559.529919
552.366022	2560.646534
552.724173	2557.876420
553.082267	2559.988664
553.440305	2559.257697
553.798288	2559.754250
554.156215	2559.459343
554.514086	2556.827860
554.871902	2554.279557
555.229661	2557.732747
555.587365	2553.132695
555.945014	2558.763663
556.302606	2558.861966
556.660143	2561.148129
557.017625	2559.303067
557.375050	2559.852553
557.732421	2561.619477
558.089735	2560.732234
558.446994	2560.036555
558.804197	2561.679971
559.161345	2561.516133
559.518437	2562.199210
559.875474	2561.642162
560.232455	2562.967986
560.589381	2559.005639
560.946251	2562.121072
561.303065	2563.172152
561.659825	2563.323387
562.016528	2561.717780
562.373177	2561.334652
562.729770	2564.687019
563.086307	2560.021431
563.442789	2562.877245
563.799216	2562.950342
564.155587	2563.472101
564.511904	2564.046793
564.868164	2563.330949
565.224370	2560.752399
565.580520	2560.757440
565.936615	2562.728531
566.292654	2562.567214
566.648638	2562.428582
567.004567	2562.214333
567.360441	2564.087122
567.716260	2562.814231
568.072023	2564.152657
568.427732	2562.078222
568.783385	2564.303892
569.138982	2561.120403
569.494525	2565.934705
569.850013	2560.810372
570.205445	2562.174004
570.560823	2559.658468
570.916145	2563.444375
571.271412	2563.290620
571.626625	2561.881617
571.981782	2562.688202
572.336884	2560.281051
572.691931	2556.583364
573.046923	2557.793241
573.401860	2557.087480
573.756743	2560.328942
574.111570	2561.032183
574.466342	2562.516802
574.821059	2562.569735
575.175722	2561.725341
575.530330	2561.720300
575.884882	2562.305074
576.239380	2562.642831
576.593823	2562.703325
576.948211	2560.520506
577.302544	2559.071174
577.656823	2562.836916
578.011047	2559.807182
578.365216	2559.741647
578.719330	2562.617626
579.073389	2560.792728
579.427394	2561.072512
579.781344	2559.605536
580.135239	2562.030331
580.489080	2559.847512
580.842866	2561.949673
581.196597	2565.112997
581.550273	2563.976217
581.903895	2560.616288
582.257463	2560.175187
582.610975	2558.332645
582.964434	2560.318859
583.317837	2560.094528
583.671186	2563.454457
584.024481	2558.793910
584.377721	2560.200392
584.730906	2561.213664
585.084037	2559.189641
585.437113	2559.058571
585.790135	2560.656617
586.143103	2560.790207
586.496016	2560.959086
586.848874	2559.209806
587.201679	2561.143088
587.554428	2557.868859
587.907124	2557.722665
588.259765	2557.619322
588.612352	2559.529919
588.964884	2556.336348
589.317362	2556.903478
589.669786	2560.192831
590.022155	2557.546225
590.374470	2556.099414
590.726731	2553.651933
591.078937	2553.082283
591.431090	2557.836091
591.783188	2559.028324
592.135232	2557.160577
592.487222	2556.260731
592.839157	2559.013201
593.191038	2557.117727
593.542866	2557.868859
593.894639	2557.636966
594.246358	2557.377346
594.598022	2557.815927
594.949633	2556.631255
595.301190	2557.392470
595.652692	2558.466235
596.004141	2553.036913
596.355535	2556.296019
596.706876	2557.558828
597.058162	2556.369115
597.409395	2555.822150
597.760573	2556.636297
598.111698	2555.590257
598.462768	2555.141594
598.813785	2554.899619
599.164748	2555.635627
599.515657	2557.213509
599.866511	2555.446584
600.217312	2555.212171
600.568060	2557.110165
600.918753	2558.972871
601.269392	2559.207285
601.619978	2553.626728
601.970510	2556.704352
602.320988	2557.284085
602.671412	2555.635628
603.021783	2553.425082
603.372100	2555.401214
603.722363	2556.258210
604.072572	2554.924825
604.422728	2555.890206
604.772830	2553.399876
605.122878	2555.955741
605.472872	2556.253169
605.822813	2554.082952
606.172701	2555.320555
606.522534	2557.047151
606.872314	2555.749053
607.222041	2553.959444
607.571714	2554.128322
607.921333	2552.820143
608.270899	2553.599001
608.620411	2553.634289
608.969870	2556.568241
609.319276	2557.120247
609.668627	2564.137533
610.017926	2565.914540
610.367171	2568.873697
610.716362	2570.234809
611.065500	2567.356310
611.414585	2564.931515
611.763616	2565.728018
612.112594	2561.964796
612.461518	2562.655434
612.810389	2559.683674
613.159207	2558.945145
613.507971	2558.544373
613.856682	2562.030331
614.205340	2559.214847
614.553945	2559.229970
614.902496	2557.236194
615.250994	2559.020762
615.599439	2557.402552
615.947830	2556.124619
616.296169	2557.054712
616.644454	2555.509599
616.992686	2559.779456
617.340864	2556.739640
617.688990	2557.669733
618.037063	2558.630073
618.385082	2556.422047
618.733048	2559.882800
619.080961	2555.895247
619.428821	2557.770556
619.776628	2560.485217
620.124382	2560.006308
620.472083	2556.651420
620.819731	2558.350289
621.167326	2555.000442
621.514868	2558.186451
621.862357	2557.581513
622.209793	2558.889692
622.557176	2557.216029
622.904506	2558.882131
623.251783	2556.043961
623.599007	2558.715773
623.946179	2559.429096
624.293297	2560.243242
624.640363	2558.118396
624.987376	2554.355174
625.334336	2556.840463
625.681243	2554.564382
626.028097	2551.418702
626.374899	2555.517160
626.721647	2559.144271
627.068343	2560.157542
627.414987	2560.323901
627.761577	2558.877089
628.108115	2558.410783
628.454600	2556.522871
628.801032	2555.965823
629.147412	2560.132337
629.493739	2559.839950
629.840014	2560.162584
630.186236	2559.144271
630.532405	2560.795248
630.878521	2560.076884
631.224585	2559.910526
631.570597	2560.712069
631.916556	2557.649568
632.262462	2557.218550
632.608316	2558.977912
632.954117	2558.612429
633.299866	2558.738458
633.645562	2560.142419
633.991206	2557.279044
634.336797	2556.371636
634.682336	2560.051678
635.027823	2558.413303
635.373257	2557.987326
635.718639	2557.531101
636.063968	2559.595454
636.409245	2555.620504
636.754470	2559.229970
637.099642	2556.842984
637.444762	2558.100752
637.789829	2558.733417
638.134845	2560.238201
638.479808	2557.755433
638.824719	2557.881462
639.169577	2559.799621
639.514383	2557.722665
639.859137	2559.393808
640.203839	2558.360371
640.548489	2558.481359
640.893086	2557.521019
641.237632	2559.867676
641.582125	2560.465053
641.926566	2558.882131
642.270955	2558.803993
642.615292	2554.811399
642.959576	2554.788714
643.303809	2552.971378
643.647990	2557.289126
643.992118	2559.083777
644.336195	2558.683005
644.680219	2559.116544
645.024192	2560.638973
645.368112	2558.977912
645.711981	2562.047975
646.055797	2561.347255
646.399562	2562.468912
646.743274	2559.958417
647.086935	2562.542008
647.430544	2561.153170
647.774101	2562.128634
648.117606	2563.802297
648.461059	2562.244580
648.804460	2567.409242
649.147810	2562.526885
649.491108	2560.830537
649.834354	2563.341031
650.177548	2562.053016
650.520690	2562.216854
650.863781	2565.478480
651.206820	2563.484704
651.549807	2563.371278
651.892742	2562.277348
652.235626	2561.014539
652.578458	2564.160219
652.921238	2561.594271
653.263967	2562.572255
653.606644	2563.025959
653.949269	2563.540157
654.291843	2561.458160
654.634365	2566.521999
654.976836	2561.990002
655.319255	2564.220713
655.661622	2565.256670
656.003938	2565.833882
656.346203	2563.076371
656.688416	2564.974365
657.030577	2560.883469
657.372687	2563.658624
657.714746	2564.666855
658.056753	2563.512430
658.398708	2566.058213
658.740612	2564.858418
659.082465	2565.730538
659.424266	2563.633418
659.766016	2563.371278
660.107715	2562.758778
660.449362	2559.083777
660.790958	2565.004612
661.132503	2567.212637
661.473996	2567.918399
661.815438	2568.876218
662.156829	2568.172977
662.498168	2567.104253
662.839456	2569.062741
663.180693	2568.059551
663.521879	2568.354459
663.863013	2568.972000
664.204097	2568.891342
664.545129	2572.868812
664.886110	2569.574418
665.227040	2568.830848
665.567918	2574.106415
665.908746	2574.038360
666.249522	2575.434759
666.590248	2571.845458
666.930922	2575.349060
667.271545	2576.311920
667.612118	2576.823597
667.952639	2577.725964
668.293109	2575.273442
668.633528	2577.226889
668.973896	2577.710840
669.314213	2578.378793
669.654480	2578.093968
669.994695	2575.830490
670.334859	2577.083217
670.674973	2578.305696
671.015035	2578.202353
671.355047	2579.084555
671.695008	2581.257292
672.034918	2580.710327
672.374777	2582.308372
672.714585	2581.252251
673.054342	2582.646130
673.394049	2583.004052
673.733705	2580.778382
674.073310	2586.038826
674.412864	2586.560586
674.752368	2588.193920
675.091820	2583.266192
675.431223	2588.398086
675.770574	2583.808116
676.109875	2587.775504
676.449125	2585.880030
676.788324	2584.725606
677.127473	2583.934145
677.466571	2582.013465
677.805619	2588.244331
678.144616	2588.022520
678.483562	2587.762901
678.822458	2589.741554
679.161303	2588.282140
679.500098	2591.710124
679.838842	2593.419076
680.177535	2592.337748
680.516179	2594.379415
680.854771	2593.245156
681.193314	2595.095259
681.531805	2596.647935
681.870247	2602.881321
682.208638	2604.340735
682.546978	2608.434152
682.885268	2610.362394
683.223508	2607.224275
683.561697	2606.717639
683.899836	2608.456837
684.237925	2610.193515
684.575963	2610.153186
684.913951	2616.414299
685.251889	2610.163268
685.589776	2618.430760
685.927614	2616.673918
686.265401	2618.980246
686.603137	2620.031327
686.940824	2623.608025
687.278460	2629.488531
687.616046	2633.425672
687.953582	2638.113946
688.291068	2635.366517
688.628504	2641.962867
688.965889	2644.866571
689.303224	2649.925369
689.640510	2649.262457
689.977745	2645.859678
690.314930	2643.152579
690.652065	2647.150214
690.989150	2636.319295
691.326185	2636.160498
691.663170	2638.449182
692.000105	2636.233595
692.336990	2639.858185
692.673825	2633.599592
693.010610	2634.033132
693.347345	2628.535753
693.684030	2625.679940
694.020665	2629.165897
694.357251	2628.767646
694.693786	2634.786784
695.030272	2626.567183
695.366707	2630.784108
695.703093	2631.119345
696.039429	2630.254787
696.375716	2633.415590
696.711952	2630.680764
697.048139	2633.004736
697.384276	2637.491363
697.720363	2634.968266
698.056400	2634.602782
698.392388	2640.105201
698.728326	2637.632515
699.064214	2639.099491
699.400053	2646.449493
699.735842	2641.279790
700.071581	2639.638895
700.407270	2638.310551
700.742910	2640.430356
701.078501	2642.885398
701.414042	2638.870119
701.749533	2639.533030
702.084974	2638.497073
702.420366	2639.510345
702.755709	2638.918010
703.091002	2636.641929
703.426246	2642.550161
703.761440	2642.598052
704.096584	2641.539410
704.431679	2643.260964
704.766725	2642.867754
705.101721	2640.054790
705.436668	2641.609986
705.771565	2645.307672
706.106413	2648.438229
706.441212	2653.804537
706.775961	2650.011069
707.110661	2651.231028
707.445311	2660.564724
707.779913	2657.683705
708.114465	2659.246462
708.448967	2663.896927
708.783421	2666.064623
709.117825	2676.368742
709.452180	2676.421674
709.786485	2677.553413
710.120742	2690.483972
710.454949	2693.695187
710.789107	2694.456402
711.123216	2702.784388
711.457275	2720.088148
711.791286	2726.326576
712.125247	2722.568396
712.459159	2736.986096
712.793023	2742.279307
713.126837	2732.411249
713.460602	2741.359297
713.794318	2729.381515
714.127985	2735.844275
714.461602	2730.435117
714.795171	2723.881617
715.128691	2722.943962
715.462162	2712.453321
715.795584	2717.096223
716.128957	2709.113556
716.462281	2697.433203
716.795556	2712.632282
717.128782	2702.290355
717.461960	2691.855166
717.795088	2698.118800
718.128167	2699.437062
718.461198	2695.071422
718.794180	2694.252235
719.127113	2699.628625
719.459997	2700.614171
719.792833	2684.232942
720.125619	2692.709642
720.458357	2686.201512
720.791046	2685.163034
721.123686	2695.754499
721.456278	2688.316276
721.788821	2686.289732
722.121315	2683.935513
722.453761	2692.122347
722.786158	2697.319777
723.118506	2695.535208
723.450805	2695.875486
723.783056	2698.496886
724.115259	2693.813654
724.447412	2698.764067
724.779518	2700.241126
725.111574	2704.019470
725.443582	2710.572970
725.775542	2706.741693
726.107453	2721.875237
726.439315	2718.381718
726.771129	2722.376832
727.102895	2726.470249
727.434612	2735.050293
727.766281	2733.479973
728.097901	2742.354925
728.429473	2738.813514
728.760996	2745.848444
729.092471	2741.997003
729.423897	2743.726119
729.755276	2749.374732
730.086606	2743.537075
730.417887	2744.066397
730.749120	2750.839187
731.080305	2776.236520
731.411442	2785.497119
731.742530	2774.706530
732.073570	2790.737399
732.404562	2796.295271
732.735506	2781.615431
733.066401	2802.490849
733.397249	2802.513534
733.728048	2787.546348
734.058798	2768.710077
734.389501	2766.355858
734.720156	2758.784045
735.050762	2740.051117
735.381320	2736.912999
735.711831	2743.065727
736.042293	2736.537433
736.372707	2742.715367
736.703073	2735.181363
737.033391	2736.976014
737.363661	2741.523134
737.693883	2741.729822
738.024056	2751.978487
738.354182	2755.708941
738.684260	2753.258941
739.014290	2763.855446
739.344272	2776.140738
739.674207	2774.807353
740.004093	2781.706172
740.333931	2784.821605
740.663722	2785.270267
740.993464	2795.569345
741.323159	2809.687096
741.652806	2778.741973
741.982405	2776.896911
742.311956	2801.021353
742.641460	2785.829836
742.970915	2767.104470
743.300323	2775.553443
743.629683	2770.386261
743.958996	2763.358892
744.288260	2757.889240
744.617477	2764.944335
744.946647	2770.971035
745.275768	2754.854466
745.604842	2754.511667
745.933869	2756.114754
746.262847	2747.943044
746.591778	2752.832963
746.920662	2753.682397
747.249498	2753.574013
747.578286	2756.825557
747.907027	2765.362751
748.235720	2775.941612
748.564365	2766.290323
748.892963	2773.194183
749.221514	2797.825261
749.550017	2779.636778
749.878473	2763.600868
750.206881	2779.649381
750.535242	2772.443052
750.863555	2762.706063
751.191821	2773.789040
751.520039	2774.449431
751.848210	2763.512647
752.176334	2763.192534
752.504411	2778.870523
752.832440	2775.752569
753.160421	2760.031731
753.488356	2773.239554
753.816243	2788.781431
754.144082	2770.368617
754.471875	2761.281937
754.799620	2774.721653
755.127318	2777.988321
755.454969	2775.407250
755.782572	2771.966662
756.110129	2779.609052
756.437638	2786.165072
756.765100	2777.290121
757.092515	2776.158382
757.419882	2779.861109
757.747203	2776.980090
758.074477	2794.349386
758.401703	2800.423976
758.728882	2780.347581
759.056014	2782.232972
759.383099	2811.239772
759.710138	2808.749442
760.037129	2799.574542
760.364073	2801.591003
760.690970	2815.282777
761.017820	2821.087666
761.344623	2807.884884
761.671379	2822.325269
761.998088	2831.762309
762.324751	2855.054960
762.651366	2908.700399
762.977935	3011.381141
763.304456	3132.383957
763.630931	3218.484344
763.957359	3184.098633
764.283740	3129.318935
764.610074	3085.087851
764.936362	3000.870335
765.262602	2945.074844
765.588796	2886.378170
765.914943	2854.306349
766.241044	2854.203005
766.567097	2842.184894
766.893104	2813.513332
767.219064	2787.647172
767.544978	2790.838222
767.870845	2790.445012
768.196665	2775.792898
768.522438	2771.114707
768.848165	2770.058586
769.173846	2764.853594
769.499479	2763.540374
769.825066	2753.947058
770.150607	2747.582601
770.476101	2745.558578
770.801548	2751.597880
771.126949	2750.501429
771.452303	2741.031622
771.777611	2737.712022
772.102872	2740.923237
772.428087	2734.760427
772.753256	2737.631364
773.078378	2734.803276
773.403453	2728.025445
773.728482	2729.797411
774.053465	2720.372973
774.378401	2721.787017
774.703291	2727.483521
775.028135	2720.725854
775.352932	2713.030533
775.677683	2709.652960
776.002388	2713.925338
776.327046	2721.779455
776.651658	2708.044832
776.976224	2697.344983
777.300743	2700.112576
777.625216	2711.061962
777.949643	2716.874413
778.274024	2703.727083
778.598359	2696.755168
778.922647	2701.682896
779.246889	2700.011753
779.571086	2706.035932
779.895236	2704.442927
780.219339	2700.682227
780.543397	2696.619057
780.867409	2704.105170
781.191374	2714.764690
781.515294	2703.729604
781.839167	2704.684903
782.162995	2709.680686
782.486776	2704.906713
782.810511	2710.557847
783.134201	2715.699824
783.457844	2710.116746
783.781441	2695.998995
784.104993	2698.887576
784.428498	2701.287165
784.751958	2706.653473
785.075372	2702.986034
785.398739	2696.830785
785.722061	2696.200641
786.045337	2705.236909
786.368568	2714.323589
786.691752	2696.316587
787.014891	2697.801207
787.337983	2718.966492
787.661030	2734.967114
787.984031	2750.297263
788.306987	2775.319030
788.629897	2781.529731
788.952760	2779.041922
789.275579	2768.241250
789.598351	2775.697116
789.921078	2763.343769
790.243759	2729.961248
790.566395	2728.406052
790.888984	2738.440469
791.211529	2720.670402
791.534027	2711.810574
791.856480	2721.671071
792.178888	2706.862681
792.501249	2692.480269
792.823566	2699.600899
793.145836	2709.889894
793.468062	2699.240457
793.790241	2691.164528
794.112375	2696.351875
794.434464	2704.775643
794.756507	2715.281408
795.078505	2711.029195
795.400457	2708.574153
795.722364	2724.589899
796.044226	2739.166395
796.366042	2744.187384
796.687812	2749.662077
797.009538	2753.377408
797.331218	2741.482805
797.652852	2745.795512
797.974442	2742.977507
798.295986	2752.278436
798.617484	2738.858885
798.938938	2724.100907
799.260346	2733.343862
799.581709	2737.873339
799.903026	2724.612584
800.224299	2718.454814
800.545526	2722.092007
800.866708	2716.181254
801.187845	2701.153574
801.508936	2713.985832
801.829983	2717.907849
802.150984	2699.792463
802.471940	2698.017977
802.792851	2702.096270
803.113717	2702.166846
803.434538	2713.610266
803.755314	2698.128882
804.076045	2686.909794
804.396731	2690.935156
804.717372	2700.107535
805.037967	2701.750951
805.358518	2695.653676
805.679024	2699.033769
805.999485	2700.664582
806.319901	2697.213913
806.640272	2708.957281
806.960598	2706.477033
807.280879	2701.955118
807.601115	2699.041331
807.921306	2705.730942
808.241453	2718.301059
808.561554	2713.254864
808.881611	2698.451516
809.201623	2706.575335
809.521590	2715.238558
809.841513	2712.062631
810.161390	2717.585215
810.481223	2721.103941
810.801011	2701.791280
811.120755	2701.577031
811.440453	2713.174206
811.760107	2718.233004
812.079716	2712.201263
812.399281	2700.248687
812.718801	2706.716488
813.038276	2701.017463
813.357707	2701.889583
813.677093	2710.610779
813.996434	2701.171218
814.315731	2702.171887
814.634983	2701.922350
814.954191	2704.150540
815.273354	2715.147817
815.592473	2711.926520
815.911547	2708.929554
816.230577	2719.687377
816.549562	2728.779097
816.868502	2739.988103
817.187399	2746.768455
817.506250	2743.857189
817.825058	2736.234964
818.143821	2754.025196
818.462539	2779.863630
818.781213	2787.881585
819.099843	2791.465846
819.418429	2828.515806
819.736970	2875.325440
820.055466	2902.194790
820.373919	2978.744711
820.692327	3057.391752
821.010691	3114.160186
821.329011	3309.003302
821.647286	3650.947288
821.965517	4113.546250
822.283704	4491.990711
822.601847	4729.224890
822.919945	4676.340666
823.237999	4503.532432
823.556010	4289.411943
823.873976	4106.382771
824.191897	3777.790281
824.509775	3554.648647
824.827609	3374.888663
825.145398	3266.433279
825.463144	3270.425872
825.780845	3284.790640
826.098502	3287.371711
826.416116	3389.525653
826.733685	3562.724575
827.051210	3740.163108
827.368692	3812.249088
827.686129	3667.938497
828.003522	3415.719488
828.320872	3261.714759
828.638177	3153.352636
828.955439	3064.272927
829.272656	2962.736527
829.589830	2904.445665
829.906960	2884.286091
830.224046	2835.228102
830.541088	2814.982828
830.858086	2810.276911
831.175041	2795.448357
831.491952	2793.444498
831.808819	2798.538584
832.125642	2811.948054
832.442421	2841.111129
832.759157	2890.685836
833.075849	2977.292859
833.392497	3114.744959
833.709101	3213.211297
834.025662	3285.214097
834.342179	3267.128958
834.658653	3176.022705
834.975083	3078.708271
835.291469	2971.225830
835.607811	2875.751417
835.924110	2857.545290
836.240366	2817.311841
836.556578	2769.635129
836.872746	2743.645460
837.188871	2740.550192
837.504952	2728.597616
837.820990	2711.495502
838.136984	2697.692822
838.452935	2708.659852
838.768842	2703.205324
839.084706	2710.406612
839.400526	2740.973649
839.716303	2785.600463
840.032037	2867.025180
840.347727	2928.950714
840.663373	2898.721435
840.978977	2840.319667
841.294537	2784.430915
841.610054	2733.989130
841.925527	2709.378217
842.240957	2696.908923
842.556344	2686.304856
842.871687	2671.728359
843.186987	2663.813748
843.502244	2654.742192
843.817458	2646.918321
844.132629	2636.861219
844.447756	2640.558905
844.762840	2638.502114
845.077881	2633.546660
845.392879	2627.550208
845.707833	2627.643469
846.022745	2623.910495
846.337613	2624.041565
846.652438	2623.580299
846.967221	2625.563993
847.281960	2621.004269
847.596656	2621.095010
847.911309	2620.555607
848.225919	2617.099896
848.540485	2614.097889
848.855009	2618.569392
849.169490	2616.583177
849.483928	2614.382714
849.798323	2610.856427
850.112675	2611.539503
850.426984	2614.004627
850.741251	2614.591922
851.055474	2612.862806
851.369654	2612.227621
851.683792	2611.431118
851.997887	2615.090996
852.311938	2613.145111
852.625947	2610.480861
852.939914	2613.926489
853.253837	2617.427571
853.567718	2607.153699
853.881555	2606.609255
854.195350	2613.271139
854.509103	2612.008330
854.822812	2612.267950
855.136479	2612.792230
855.450103	2613.989504
855.763685	2607.335181
856.077224	2601.948708
856.390720	2610.105295
856.704173	2612.996397
857.017584	2612.152003
857.330953	2611.705861
857.644278	2613.989504
857.957561	2617.304062
858.270802	2616.900770
858.584000	2618.556789
858.897155	2614.624689
859.210268	2617.346912
859.523339	2616.114350
859.836367	2615.905142
860.149352	2616.462190
860.462295	2614.750718
860.775195	2616.139556
861.088054	2617.934207
861.400869	2612.255347
861.713642	2608.003134
862.026373	2614.110492
862.339062	2616.237858
862.651708	2617.803137
862.964312	2617.851028
863.276873	2615.615276
863.589392	2618.425719
863.901869	2617.437653
864.214303	2623.439147
864.526696	2632.702267
864.839045	2629.672533
865.151353	2628.535753
865.463619	2628.079529
865.775842	2626.534415
866.088023	2633.652524
866.400162	2638.638226
866.712258	2628.573562
867.024313	2626.907461
867.336325	2627.386370
867.648296	2636.778040
867.960224	2635.963893
868.272110	2630.090949
868.583954	2632.006588
868.895755	2640.679893
869.207515	2633.166053
869.519233	2631.820065
869.830909	2638.348359
870.142542	2639.626292
870.454134	2640.281642
870.765684	2643.450007
871.077191	2642.340953
871.388657	2641.115953
871.700081	2643.192908
872.011463	2649.408651
872.322803	2647.926552
872.634101	2649.375883
872.945357	2652.645072
873.256571	2658.817964
873.567744	2656.393169
873.878874	2655.417706
874.189963	2661.804848
874.501010	2661.025990
874.812015	2662.508089
875.122979	2664.010353
875.433900	2659.619508
875.744780	2666.833399
876.055618	2668.287772
876.366415	2667.410611
876.677169	2672.645849
876.987882	2675.741118
877.298554	2668.159222
877.609183	2676.908145
877.919771	2684.059022
878.230317	2693.657379
878.540822	2711.228320
878.851285	2726.140053
879.161707	2735.491394
879.472087	2761.677667
879.782425	2815.025678
880.092722	2934.518668
880.402977	3050.094682
880.713191	3120.186885
881.023363	3249.348808
881.333494	3404.578538
881.643583	3458.324800
881.953631	3453.056794
882.263637	3431.367230
882.573602	3403.746748
882.883526	3345.594518
883.193408	3233.035634
883.503248	3140.129690
883.813048	3090.597833
884.122806	3034.459543
884.432522	2963.263328
884.742197	2903.316447
885.051831	2852.108406
885.361424	2812.742035
885.670975	2795.760909
885.980485	2766.653286
886.289954	2748.868096
886.599382	2736.035838
886.908768	2723.969837
887.218113	2712.798640
887.527417	2693.548994
887.836680	2678.168433
888.145901	2685.997345
888.455082	2683.489371
888.764221	2669.669048
889.073319	2656.027686
889.382376	2660.123623
889.691392	2659.788387
890.000366	2661.096566
890.309300	2654.485093
890.618193	2659.627070
890.927044	2664.350631
891.235855	2665.391629
891.544625	2658.223108
891.853353	2658.933911
892.162041	2663.758295
892.470687	2676.144410
892.779293	2689.362316
893.087858	2702.534851
893.396381	2719.442881
893.704864	2744.666294
894.013306	2800.794501
894.321707	2870.438041
894.630068	2919.682553
894.938387	2919.354878
895.246665	2919.924528
895.554903	2906.053793
895.863100	2861.963862
896.171256	2821.705207
896.479371	2788.418468
896.787446	2755.845052
897.095480	2724.126112
897.403473	2705.219265
897.711425	2690.098324
898.019336	2690.420958
898.327207	2681.866120
898.635038	2670.216013
898.942827	2667.087977
899.250576	2663.286947
899.558284	2651.848569
899.865952	2643.268525
900.173579	2638.580252
900.481165	2638.461785
900.788711	2637.347690
901.096216	2629.705301
901.403681	2622.627521
901.711105	2626.161370
902.018489	2626.912502
902.325832	2627.461987
902.633135	2628.097173
902.940397	2638.270221
903.247619	2659.904333
903.554800	2705.746066
903.861941	2778.716767
904.169041	2868.582897
904.476101	2937.470264
904.783121	2944.527879
905.090100	2908.425656
905.397039	2859.337420
905.703938	2791.420475
906.010796	2739.622619
906.317614	2713.353167
906.624391	2687.227387
906.931129	2668.136537
907.237826	2645.151396
907.544483	2634.136475
907.851099	2621.664661
908.157675	2615.774072
908.464211	2608.529934
908.770707	2602.818307
909.077163	2600.338059
909.383578	2594.812955
909.689954	2592.383118
909.996289	2586.729464
910.302584	2590.724579
910.608839	2590.275916
910.915054	2585.980853
911.221229	2586.391707
911.527363	2586.230390
911.833458	2588.766091
912.139513	2590.880855
912.445527	2592.602409
912.751502	2595.644745
913.057436	2596.287492
913.363331	2601.868049
913.669186	2605.170005
913.975000	2618.269443
914.280775	2635.220323
914.586510	2654.492654
914.892205	2672.595438
915.197859	2702.136599
915.503475	2742.123032
915.809050	2787.435443
916.114585	2821.085145
916.420081	2834.388750
916.725536	2828.931701
917.030952	2812.116932
917.336328	2783.276491
917.641665	2742.823752
917.946961	2719.195864
918.252218	2703.200283
918.557435	2683.580112
918.862612	2667.150992
919.167750	2652.624907
919.472848	2642.933289
919.777906	2635.447175
920.082925	2627.252780
920.387904	2617.818260
920.692843	2610.831221
920.997743	2606.170674
921.302603	2603.171188
921.607423	2600.789242
921.912204	2595.654827
922.216946	2591.253900
922.521647	2590.681729
922.826310	2586.492530
923.130932	2586.381625
923.435516	2583.059504
923.740059	2579.311407
924.044564	2577.506673
924.349028	2576.372414
924.653454	2573.592217
924.957840	2570.315467
925.262186	2567.615930
925.566493	2567.903275
925.870761	2567.305899
926.174989	2563.310784
926.479178	2563.411607
926.783328	2562.287430
927.087438	2561.808520
927.391509	2559.716442
927.695541	2557.185782
927.999533	2557.299208
928.303486	2555.799465
928.607400	2557.286605
928.911275	2558.824157
929.215110	2556.409445
929.518906	2557.011863
929.822663	2558.675443
930.126381	2556.056564
930.430060	2558.428427
930.733699	2555.761656
931.037299	2558.277192
931.340861	2558.120916
931.644383	2557.440361
931.947866	2557.866338
932.251309	2556.996739
932.554714	2553.495658
932.858080	2552.608415
933.161407	2553.742674
933.464694	2554.561862
933.767943	2548.681356
934.071153	2553.409958
934.374323	2555.144115
934.677455	2554.052705
934.980548	2552.477345
935.283602	2555.073539
935.586617	2554.022458
935.889593	2557.120247
936.192530	2553.457849
936.495428	2555.852397
936.798287	2553.334341
937.101108	2557.190823
937.403890	2556.716955
937.706632	2561.811041
938.009336	2560.840619
938.312002	2563.996381
938.614628	2565.980075
938.917216	2567.464695
939.219765	2571.893349
939.522275	2568.825807
939.824747	2567.719273
940.127179	2569.917216
940.429573	2568.679613
940.731929	2565.387740
941.034246	2564.760116
941.336524	2566.756413
941.638763	2564.581155
941.940964	2562.942780
942.243126	2562.720969
942.545250	2561.652245
942.847335	2558.499003
943.149381	2560.835578
943.451389	2558.924980
943.753359	2557.107644
944.055290	2555.902809
944.357182	2556.724517
944.659036	2555.819630
944.960851	2556.469938
945.262628	2555.628066
945.564367	2554.503888
945.866067	2553.291491
946.167729	2551.869886
946.469352	2554.178734
946.770937	2556.943807
947.072484	2553.228477
947.373992	2557.828529
947.675462	2552.663867
947.976893	2551.264947
948.278286	2546.795964
948.579641	2548.109185
948.880958	2548.215049
949.182236	2551.005328
949.483476	2551.199412
949.784678	2550.833928
950.085841	2549.498023
950.386967	2553.717468
950.688054	2551.688404
950.989103	2554.697973
951.290114	2554.531615
951.591087	2552.449618
951.892021	2554.975236
952.192917	2553.011707
952.493776	2558.821637
952.794596	2555.756615
953.095378	2555.801986
953.396122	2555.882644
953.696828	2555.146636
953.997496	2554.110678
954.298126	2552.926007
954.598718	2553.916594
954.899272	2550.675132
955.199788	2551.501881
955.500266	2550.692776
955.800706	2549.558517
956.101108	2548.807385
956.401472	2543.899821
956.701798	2545.964174
957.002087	2546.450645
957.302337	2545.306303
957.602550	2548.134391
957.902724	2543.950233
958.202861	2543.488967
958.502960	2543.841848
958.803022	2545.633978
959.103045	2541.568288
959.403031	2545.157589
959.702979	2543.501570
960.002889	2541.850592
960.302762	2540.817156
960.602596	2540.169367
960.902393	2543.365459
961.202153	2541.291024
961.501875	2540.214738
961.801559	2542.120294
962.101205	2542.498381
962.400814	2542.538710
962.700385	2541.026364
962.999918	2537.396733
963.299414	2538.120138
963.598873	2537.457227
963.898293	2536.123842
964.197677	2543.073072
964.497022	2542.420243
964.796331	2542.337064
965.095601	2540.396219
965.394835	2541.028884
965.694030	2538.523431
965.993189	2541.225489
966.292309	2541.623740
966.591393	2544.048535
966.890439	2539.698020
967.189447	2541.790098
967.488419	2540.265149
967.787353	2542.717671
968.086249	2538.720036
968.385108	2540.978473
968.683930	2538.273894
968.982714	2540.197094
969.281462	2541.563247
969.580172	2541.114584
969.878844	2541.979142
970.177480	2541.653987
970.476078	2541.041487
970.774639	2540.285314
971.073162	2539.690458
971.371649	2541.253216
971.670098	2542.878988
971.968510	2540.076106
972.266885	2542.251364
972.565223	2542.170706
972.863524	2540.504604
973.161788	2542.274049
973.460014	2540.368493
973.758204	2540.156765
974.056356	2541.873277
974.354471	2542.213555
974.652550	2541.754810
974.950591	2542.276570
975.248595	2540.411343
975.546563	2542.556354
975.844493	2541.028884
976.142386	2540.688606
976.440243	2540.234903
976.738062	2542.924358
977.035845	2540.088709
977.333590	2544.280428
977.631299	2539.216589
977.928971	2538.286497
978.226606	2536.443955
978.524204	2539.695499
978.821765	2533.784746
979.119290	2540.209697
979.416777	2540.489481
979.714228	2541.464944
980.011642	2538.888914
980.309020	2541.003678
980.606360	2542.730274
980.903664	2541.255736
981.200931	2540.333205
981.498162	2541.699358
981.795356	2541.888401
982.092513	2543.095757
982.389633	2542.765562
982.686717	2544.477033
982.983764	2542.387475
983.280775	2547.975594
983.577749	2546.669935
983.874686	2545.402085
984.171587	2546.601880
984.468451	2545.825542
984.765279	2543.788916
985.062070	2544.734132
985.358824	2540.111394
985.655543	2542.974770
985.952224	2540.663401
986.248869	2542.437887
986.545478	2540.050900
986.842050	2541.291024
987.138586	2542.389996
987.435086	2540.068544
987.731549	2538.412525
988.027975	2541.091899
988.324366	2541.318751
988.620719	2540.514687
988.917037	2537.638708
989.213318	2538.233564
989.509563	2540.048380
989.805772	2539.448482
990.101944	2539.612320
990.398080	2537.590817
990.694180	2542.377393
990.990244	2536.696012
991.286271	2539.047711
991.582262	2539.448482
991.878217	2538.072247
992.174136	2538.490663
992.470019	2539.604758
992.765865	2536.655683
993.061676	2534.883718
993.357450	2536.494366
993.653188	2537.976466
993.948890	2537.079140
994.244556	2537.978986
994.540186	2540.945705
994.835780	2539.440921
995.131337	2538.886394
995.426859	2540.555016
995.722345	2541.553164
996.017795	2540.381096
996.313208	2539.425797
996.608586	2539.972763
996.903928	2539.524100
997.199234	2537.303472
997.494504	2545.054246
997.789738	2537.515200
998.084936	2541.210366
998.380099	2538.478060
998.675225	2540.668442
998.970316	2539.118287
999.265371	2541.785057
999.560390	2536.998482
999.855373	2541.709440
1000.150320	2538.034439
1000.445232	2540.129038
1000.740108	2539.831610
1001.034948	2538.800694
1001.329752	2538.722556
1001.624521	2537.595858
1001.919254	2537.311033
1002.213951	2540.378575
1002.508613	2537.386651
1002.803239	2539.834131
1003.097829	2540.764224
1003.392384	2536.718698
1003.686903	2537.857998
1003.981386	2539.864378
1004.275834	2539.483771
1004.570246	2539.365303
1004.864623	2540.411343
1005.158964	2538.157947
1005.453270	2538.755324
1005.747540	2535.407998
1006.041775	2537.232895
1006.335974	2539.274563
1006.630138	2540.035777
1006.924266	2540.696168
1007.218359	2537.699202
1007.512416	2535.387833
1007.806438	2534.268697
1008.100425	2535.702905
1008.394376	2533.797349
1008.688292	2539.176260
1008.982172	2540.451672
1009.276017	2539.009902
1009.569827	2536.786753
1009.863602	2539.246836
1010.157341	2536.693492
1010.451045	2538.808256
1010.744714	2538.203318
1011.038347	2540.413863
1011.331945	2538.530993
1011.625508	2538.140303
1011.919036	2536.718698
1012.212528	2538.868750
1012.505986	2537.870601
1012.799408	2538.069727
1013.092795	2537.610982
1013.386147	2539.118287
1013.679464	2538.591486
1013.972745	2539.062834
1014.265992	2537.318595
1014.559204	2538.029398
1014.852380	2535.728111
1015.145521	2539.791281
1015.438628	2535.206352
1015.731699	2539.445962
1016.024736	2537.399253
1016.317737	2539.148534
1016.610703	2539.161137
1016.903635	2538.336908
1017.196531	2535.735673
1017.489393	2539.148534
1017.782219	2539.335057
1018.075011	2539.004861
1018.367768	2536.123842
1018.660490	2538.795653
1018.953177	2538.795653
1019.245829	2538.795653
