Dividing Wavelength (nm)	Counts (n)	Blue Motor Position (mm): 31.800000	Red Motor Position (mm): 0.000000	
326.493990	2052.946889
326.888308	2052.946889
327.282561	2052.946889
327.676750	2026.445544
328.070874	2028.272962
328.464933	2035.053314
328.858929	2043.517411
329.252859	2053.171221
329.646726	2066.774774
330.040528	2085.666498
330.434265	2100.936153
330.827938	2125.849536
331.221547	2143.639768
331.615091	2167.504590
332.008571	2186.686180
332.401986	2204.841896
332.795338	2225.266131
333.188625	2244.553585
333.581847	2262.948756
333.975006	2281.127157
334.368100	2299.396298
334.761129	2315.825418
335.154095	2330.931236
335.546996	2381.340254
335.939833	2490.755977
336.332606	2497.740496
336.725315	2512.551406
337.117960	2521.834691
337.510540	2531.417924
337.903056	2541.487629
338.295508	2547.262271
338.687896	2554.584547
339.080220	2558.173848
339.472480	2563.091494
339.864676	2569.687844
340.256807	2571.694223
340.648875	2569.133317
341.040879	2574.897876
341.432818	2575.313772
341.824694	2573.539285
342.216506	2575.069276
342.608253	2574.320664
342.999937	2572.062227
343.391557	2571.638770
343.783113	2569.932340
344.174605	2570.393605
344.566033	2567.401681
344.957397	2563.661144
345.348697	2564.419838
345.739934	2561.606874
346.131106	2561.337173
346.522215	2559.045968
346.913260	2563.966134
347.304241	2555.938097
347.695159	2557.568910
348.086012	2551.827036
348.476802	2553.072201
348.867528	2548.283105
349.258191	2546.359904
349.648789	2543.733463
350.039324	2541.921168
350.429796	2546.473330
350.820203	2545.505429
351.210548	2545.611293
351.600828	2545.787733
351.991045	2543.980480
352.381198	2544.187167
352.771288	2542.042156
353.161314	2541.601055
353.551276	2538.977135
353.941175	2539.934954
354.331010	2543.264636
354.720782	2547.683207
355.110490	2546.004503
355.500135	2544.345963
355.889717	2541.038967
356.279235	2543.292362
356.668689	2544.260264
357.058080	2544.172044
357.447408	2544.789585
357.836672	2544.252702
358.225873	2544.726571
358.615010	2545.066848
359.004084	2547.121119
359.393095	2548.850234
359.782043	2546.105326
360.170927	2546.841335
360.559748	2546.385110
360.948505	2548.169679
361.337199	2548.318393
361.725830	2547.930224
362.114398	2550.871737
362.502903	2550.788558
362.891344	2550.516336
363.279722	2549.684545
363.668037	2551.111192
364.056289	2550.584391
364.444478	2553.853580
364.832603	2553.490617
365.220665	2552.885678
365.608665	2554.662685
365.996601	2555.194527
366.384474	2554.738302
366.772284	2556.681667
367.160031	2554.100596
367.547715	2558.405742
367.935336	2555.325597
368.322893	2555.249979
368.710388	2553.689742
369.097820	2553.677139
369.485189	2554.259393
369.872495	2556.091852
370.259738	2557.531101
370.646918	2560.583520
371.034035	2559.645865
371.421090	2558.965310
371.808081	2558.781307
372.195010	2559.056050
372.581875	2560.858263
372.968678	2560.296174
373.355418	2560.649055
373.742096	2562.879766
374.128710	2563.378840
374.515262	2562.216854
374.901751	2564.119889
375.288177	2565.682647
375.674540	2563.315825
376.060841	2564.266083
376.447079	2563.673747
376.833254	2566.607699
377.219367	2564.679457
377.605417	2564.636608
377.991404	2562.713407
378.377329	2566.196845
378.763191	2563.192317
379.148991	2566.025446
379.534727	2567.091650
379.920402	2570.118862
380.306013	2567.089129
380.691563	2567.661300
381.077049	2567.915878
381.462474	2566.806824
381.847835	2568.326732
382.233134	2568.160374
382.618371	2567.184911
383.003545	2571.759758
383.388657	2569.617268
383.773706	2567.908317
384.158693	2571.744635
384.543618	2570.721280
384.928480	2570.592731
385.313280	2569.919737
385.698017	2569.839078
386.082692	2570.812021
386.467305	2573.687999
386.851856	2573.030129
387.236344	2571.318657
387.620770	2569.909655
388.005133	2568.137689
388.389435	2570.872515
388.773674	2571.618606
389.157851	2574.769327
389.541965	2575.651529
389.926018	2574.265212
390.310008	2577.259657
390.693936	2574.832341
391.077802	2578.146900
391.461606	2578.565316
391.845348	2577.350398
392.229027	2579.313927
392.612645	2578.792168
392.996200	2576.034657
393.379694	2579.313927
393.763125	2579.331571
394.146494	2579.704617
394.529801	2576.984914
394.913047	2582.726788
395.296230	2578.444328
395.679351	2581.693352
396.062410	2580.493557
396.445408	2580.044894
396.828343	2583.210739
397.211217	2581.307703
397.594028	2583.079669
397.976778	2579.145048
398.359466	2582.618403
398.742092	2584.090420
399.124656	2582.399113
399.507158	2580.027250
399.889598	2586.994125
400.271977	2584.571851
400.654294	2584.652509
401.036549	2584.725606
401.418742	2587.190730
401.800874	2583.576223
402.182944	2586.464804
402.564952	2586.182499
402.946898	2585.557396
403.328783	2588.539239
403.710606	2588.834146
404.092367	2588.153590
404.474067	2587.054619
404.855705	2589.955803
405.237282	2589.474373
405.618797	2589.618046
406.000250	2590.845567
406.381642	2591.246338
406.762972	2590.195258
407.144240	2589.658375
407.525447	2593.585434
407.906593	2590.165011
408.287677	2595.881679
408.668700	2594.283633
409.049661	2595.107862
409.430560	2594.989395
409.811399	2598.949221
410.192176	2596.877307
410.572891	2598.840837
410.953545	2598.447627
411.334138	2598.472832
411.714669	2598.964345
412.095139	2598.069540
412.475547	2599.642380
412.855894	2602.533482
413.236180	2602.604058
413.616405	2603.453492
413.996568	2601.787391
414.376670	2605.084306
414.756711	2603.718153
415.136691	2605.417022
415.516609	2607.151179
415.896466	2610.092692
416.276262	2610.894235
416.655997	2608.335850
417.035670	2610.352311
417.415283	2616.598301
417.794834	2616.893208
418.174324	2613.054370
418.553753	2617.069649
418.933121	2619.544855
419.312428	2622.012500
419.691674	2625.248921
420.070859	2629.286885
420.449983	2633.125724
420.829045	2637.083030
421.208047	2640.914307
421.586988	2647.309010
421.965867	2655.281595
422.344686	2660.831905
422.723444	2671.710715
423.102141	2670.034532
423.480777	2686.158662
423.859352	2692.364323
424.237866	2711.533310
424.616319	2720.078066
424.994712	2737.205386
425.373044	2746.549165
425.751314	2770.872732
426.129524	2772.944646
426.507673	2800.290385
426.885762	2817.936944
427.263789	2843.664473
427.641756	2867.927547
428.019662	2890.670712
428.397508	2915.563930
428.775292	2943.663321
429.153016	2978.880822
429.530679	3001.283710
429.908282	3033.395860
430.285824	3055.629869
430.663305	3106.616099
431.040726	3127.418420
431.418086	3161.683143
431.795385	3205.906665
432.172624	3261.419851
432.549802	3279.391565
432.926920	3334.226716
433.303977	3364.516488
433.680974	3409.942326
434.057910	3477.715598
434.434786	3524.580685
434.811601	3559.657033
435.188355	3661.011952
435.565050	3688.705531
435.941683	3733.770925
436.318257	3845.316537
436.694770	3880.723081
437.071222	3975.567349
437.447614	3977.586331
437.823946	4019.437990
438.200218	4104.184828
438.576429	4134.086432
438.952580	4226.727716
439.328670	4283.392806
439.704700	4364.346175
440.080670	4386.731418
440.456580	4516.760420
440.832429	4568.880910
441.208218	4547.203948
441.583947	4644.793125
441.959616	4741.779884
442.335224	4815.625226
442.710773	4907.706942
443.086261	5035.263258
443.461689	4997.290767
443.837057	5120.662925
444.212365	5263.597280
444.587612	5331.851983
444.962800	5351.981310
445.337927	5473.566379
445.712995	5344.439744
446.088002	5701.013158
446.462949	5804.497964
446.837837	5879.520416
447.212664	5982.727959
447.587431	6507.202043
447.962139	7075.980308
448.336786	7546.151083
448.711374	7424.931498
449.085901	6907.131901
449.460369	6978.370967
449.834776	7028.525406
450.209124	7650.175293
450.583412	7592.920388
450.957640	7802.241699
451.331808	7646.545662
451.705917	7434.403826
452.079965	7469.253323
452.453954	7670.211359
452.827883	7736.482367
453.201752	7788.799462
453.575562	7876.807926
453.949311	8203.953605
454.323001	8330.317688
454.696632	8361.963531
455.070202	8842.589659
455.443713	8962.390160
455.817164	9153.684304
456.190556	9467.027304
456.563888	9419.864789
456.937160	9659.140636
457.310373	9365.042241
457.683526	9477.757400
458.056619	9579.734901
458.429653	9723.964833
458.802628	9935.355537
459.175542	10056.083610
459.548398	10562.528008
459.921194	11089.164747
460.293930	11411.982595
460.666607	12164.755414
461.039224	12854.385260
461.411782	13168.988548
461.784280	12897.408988
462.156719	12906.593970
462.529099	12902.487950
462.901419	12461.147534
463.273680	12228.808315
463.645882	12496.438131
464.018024	12534.977753
464.390106	12985.220847
464.762130	14083.612652
465.134094	15632.441637
465.505999	17717.258701
465.877845	19624.904413
466.249631	20507.507107
466.621358	19989.936883
466.993026	19303.044384
467.364634	18715.646617
467.736184	18122.799363
468.107674	17676.574068
468.479105	17587.159123
468.850477	17390.581849
469.221790	17037.774177
469.593043	16495.000704
469.964238	16221.578601
470.335373	16351.610124
470.706449	17206.244497
471.077467	18363.204428
471.448425	20634.584514
471.819324	22087.775248
472.190164	21612.553236
472.560945	20026.520537
472.931667	18703.368887
473.302330	18488.096494
473.672934	18076.496365
474.043479	18528.947484
474.413965	18356.597996
474.784393	18224.673520
475.154761	18866.888794
475.525070	19013.727523
475.895321	18883.486793
476.265513	19397.928981
476.635645	19978.788372
477.005719	20054.521626
477.375734	20447.913107
477.745691	21050.615817
478.115588	21712.370603
478.485427	22974.506648
478.855207	24836.028322
479.224928	26533.263835
479.594591	27697.520836
479.964194	27161.323548
480.333739	27527.107151
480.703226	27824.421802
481.072653	28342.937242
481.442022	28844.297637
481.811333	29142.441557
482.180584	28653.220262
482.549777	28447.251318
482.918912	28264.133926
483.287988	28231.769718
483.657005	28059.566423
484.025964	27708.394605
484.394864	27912.082426
484.763706	27855.689559
485.132489	27383.729174
485.501213	27453.299618
485.869879	27652.742787
486.238487	27618.127704
486.607036	27893.982163
486.975527	27635.691084
487.343959	27959.189488
487.712333	28286.007492
488.080648	28261.598225
488.448905	28670.907150
488.817104	28615.540157
489.185244	29514.471149
489.553326	30680.535404
489.921350	32605.114352
490.289315	34985.612733
490.657222	35638.492568
491.025070	36029.245006
491.392861	35640.751005
491.760593	34825.727498
492.128267	33830.601208
492.495883	32903.502769
492.863440	32075.200863
493.230939	31205.412781
493.598380	30704.702696
493.965763	30597.928537
494.333088	30147.934980
494.700354	29980.210750
495.067563	29981.392901
495.434713	29888.197090
495.801805	30167.993731
496.168839	30050.436544
496.535815	29933.527145
496.902733	30076.201881
497.269593	29903.171837
497.636395	30055.568439
498.003139	30348.799755
498.369825	30129.733894
498.736453	30531.004699
499.103023	30387.402391
499.469535	30491.177063
499.835989	30634.048404
500.202385	30494.468937
500.568723	30582.479921
500.935003	30921.467270
501.301226	30826.139051
501.667390	31504.776661
502.033497	31697.426876
502.399546	31504.549809
502.765537	31113.575561
503.131470	31580.265419
503.497345	32006.232837
503.863163	31024.894103
504.228923	31788.170166
504.594625	32179.409075
504.960269	31686.593436
505.325856	32360.086549
505.691385	32046.524259
506.056856	32361.704759
506.422270	32851.594008
506.787625	32391.692063
507.152924	32851.866230
507.518164	33071.600044
507.883347	32643.152379
508.248472	32816.860458
508.613540	33484.374762
508.978550	33709.426993
509.343503	33576.864812
509.708398	33950.530258
510.073236	34546.008995
510.438016	34653.332639
510.802738	34349.764437
511.167403	34922.220224
511.532010	35167.459756
511.896561	35640.057846
512.261053	36394.355614
512.625488	36188.258121
512.989866	36115.736082
513.354186	36177.838056
513.718449	36156.183780
514.082655	37026.498662
514.446803	36735.891267
514.810894	37351.259875
515.174927	37383.059474
515.538904	37377.620069
515.902822	38021.216619
516.266684	37733.031497
516.630488	38103.410112
516.994235	38112.847152
517.357925	38690.023979
517.721558	38969.939087
518.085133	39330.908388
518.448651	39521.970639
518.812112	39419.307541
519.175516	39558.403058
519.538863	40020.071927
519.902152	40087.976270
520.265385	40636.683181
520.628560	40657.919041
520.991678	40620.594338
521.354739	40837.167348
521.717743	41208.198792
522.080690	41124.288786
522.443580	41797.943216
522.806413	41823.685868
523.169189	41968.150214
523.531908	42195.138248
523.894569	42054.815210
524.257174	42266.541151
524.619722	42596.167078
524.982213	42733.283942
525.344647	42767.087399
525.707025	42900.965322
526.069345	43347.861089
526.431608	43257.803397
526.793815	43650.418540
527.155964	43204.435221
527.518057	43468.533710
527.880093	43321.115248
528.242072	43943.871667
528.603995	43692.981002
528.965860	43607.442704
529.327669	43855.394376
529.689421	43889.119696
530.051117	43846.920197
530.412755	44126.890758
530.774337	44210.115167
531.135862	44147.922452
531.497331	44302.927850
531.858743	44285.782886
532.220098	44687.096541
532.581396	44435.064054
532.942638	44188.849059
533.303824	44434.958190
533.664953	44506.008212
534.026025	44187.845870
534.387040	44761.055309
534.747999	44834.197410
535.108902	45147.157282
535.469748	44471.884642
535.830537	44727.798817
536.191270	44994.586761
536.551947	44716.587291
536.912567	44998.176062
537.273131	45151.502757
537.633638	44769.315239
537.994089	44986.866234
538.354483	44728.953241
538.714821	45373.565583
539.075103	45654.680487
539.435328	45517.813160
539.795497	45271.467095
540.155609	45395.224901
540.515665	45975.113869
540.875665	45290.515094
541.235609	45568.078505
541.595496	45694.409820
541.955328	46269.061029
542.315102	45712.699126
542.674821	45596.767711
543.034483	45486.442059
543.394090	45505.432086
543.753640	45473.637528
544.113134	46540.607822
544.472571	45649.619168
544.831953	46782.547919
545.191278	46043.716411
545.550548	45732.906591
545.909761	46383.129738
546.268918	46513.148657
546.628019	46932.267667
546.987064	46367.285391
547.346053	45657.932031
547.704986	46565.490958
548.063863	46219.181333
548.422684	46425.334278
548.781449	46028.469441
549.140158	46545.651497
549.498811	46300.419527
549.857408	45714.541668
550.215949	46541.353913
550.574434	46380.450365
550.932864	46306.899930
551.291237	47044.919812
551.649555	46795.483520
552.007817	46954.683158
552.366022	46637.725651
552.724173	46703.084211
553.082267	47099.817977
553.440305	47441.499823
553.798288	46701.433233
554.156215	47100.291846
554.514086	47298.595715
554.871902	46916.728311
555.229661	47103.810571
555.587365	46775.099614
555.945014	46901.836742
556.302606	46913.938032
556.660143	47030.544962
557.017625	47244.418434
557.375050	46951.003116
557.732421	47353.292234
558.089735	47409.150739
558.446994	47283.802449
558.804197	47756.667721
559.161345	47622.031104
559.518437	46982.404463
559.875474	47217.619660
560.232455	47443.246583
560.589381	47501.053494
560.946251	47312.867221
561.303065	47972.187130
561.659825	47656.016043
562.016528	47457.790312
562.373177	47035.293729
562.729770	47672.818209
563.086307	47185.694033
563.442789	47715.421000
563.799216	47586.032225
564.155587	47475.895616
564.511904	47437.928166
564.868164	47504.315121
565.224370	47806.076069
565.580520	47537.206129
565.936615	47734.602590
566.292654	47391.809170
566.648638	47749.373171
567.004567	47687.709777
567.360441	47792.439748
567.716260	47510.361985
568.072023	47875.822953
568.427732	47806.461718
568.783385	47353.191411
569.138982	47755.972041
569.494525	47885.035662
569.850013	47482.038262
570.205445	47602.899925
570.560823	47394.055004
570.916145	47259.163809
571.271412	47492.004623
571.626625	47142.861869
571.981782	47227.346567
572.336884	46826.388313
572.691931	47132.726630
573.046923	46805.122206
573.401860	46644.301836
573.756743	46649.826941
574.111570	46813.823237
574.466342	46728.899960
574.821059	46857.414095
575.175722	46370.907460
575.530330	46474.740106
575.884882	46114.940353
576.239380	46006.913467
576.593823	46105.402490
576.948211	46021.053904
577.302544	45576.167036
577.656823	45591.908039
578.011047	45851.842534
578.365216	45657.551424
578.719330	45391.396145
579.073389	45360.882040
579.427394	45407.096818
579.781344	45340.533423
580.135239	45113.318537
580.489080	45179.826479
580.842866	44664.076112
581.196597	45143.048742
581.550273	45145.889432
581.903895	45081.511377
582.257463	45519.690989
582.610975	44956.110154
582.964434	45297.519778
583.317837	44790.934228
583.671186	44760.130257
584.024481	45027.210588
584.377721	44554.415892
584.730906	44781.114060
585.084037	44902.500003
585.437113	44607.489160
585.790135	44738.057565
586.143103	44293.478207
586.496016	44455.611797
586.848874	44545.210745
587.201679	44577.814408
587.554428	44084.045991
587.907124	44361.319535
588.259765	44128.844205
588.612352	44290.574503
588.964884	43757.742185
589.317362	44062.114452
589.669786	44049.841762
590.022155	43900.608485
590.374470	44361.730389
590.726731	43923.391980
591.078937	43271.764872
591.431090	43602.981283
591.783188	43152.460925
592.135232	42935.484622
592.487222	43190.728324
592.839157	43340.677445
593.191038	42977.207732
593.542866	42793.513127
593.894639	42205.467572
594.246358	42489.488701
594.598022	42477.052174
594.949633	42065.373907
595.301190	42050.217678
595.652692	41984.700322
596.004141	42463.942653
596.355535	41385.072716
596.706876	41402.971333
597.058162	41112.026180
597.409395	41607.216201
597.760573	41835.381345
598.111698	41414.606316
598.462768	41336.092865
598.813785	41369.593853
599.164748	40967.788686
599.515657	41234.841290
599.866511	40739.278223
600.217312	41440.510285
600.568060	40386.629347
600.918753	41207.866076
601.269392	41115.638166
601.619978	40829.562768
601.970510	41038.412731
602.320988	41179.252487
602.671412	41454.209620
603.021783	41309.770480
603.372100	40878.270396
603.722363	40993.554023
604.072572	41011.434996
604.422728	41005.456187
604.772830	40806.204582
605.122878	40959.218724
605.472872	40815.434934
605.822813	41067.956413
606.172701	40824.902221
606.522534	41151.180822
606.872314	41365.076979
607.222041	41181.437827
607.571714	41514.915195
607.921333	41014.810048
608.270899	41232.350960
608.620411	41608.098403
608.969870	41351.037366
609.319276	41382.516851
609.668627	41407.861252
610.017926	41799.458083
610.367171	41927.122783
610.716362	41971.721871
611.065500	41858.545447
611.414585	42093.604368
611.763616	42277.455249
612.112594	42171.487675
612.461518	42299.147334
612.810389	42669.410002
613.159207	42453.068885
613.507971	42460.156747
613.856682	42942.907722
614.205340	42770.051597
614.553945	43453.390083
614.902496	42795.363231
615.250994	43198.801732
615.599439	43261.722894
615.947830	43385.987336
616.296169	43385.931883
616.644454	43432.118935
616.992686	43589.304632
617.340864	44037.556471
617.688990	43560.691043
618.037063	44255.856076
618.385082	44055.059357
618.733048	44393.635852
619.080961	44272.323005
619.428821	44303.053879
619.776628	44315.455118
620.124382	44128.642559
620.472083	44228.785080
620.819731	44329.887941
621.167326	43887.332607
621.514868	43875.576636
621.862357	43332.276362
622.209793	43422.235753
622.557176	42982.153104
622.904506	42749.014862
623.251783	42381.507185
623.599007	42055.818400
623.946179	41985.252328
624.293297	41712.730072
624.640363	41184.560822
624.987376	41031.478623
625.334336	40835.597029
625.681243	40408.901165
626.028097	40336.626142
626.374899	40141.508282
626.721647	40122.349377
627.068343	39905.824258
627.414987	39623.784303
627.761577	39362.108089
628.108115	39691.164365
628.454600	38938.104201
628.801032	39188.261378
629.147412	39067.354344
629.493739	38966.896751
629.840014	38549.869820
630.186236	38976.850509
630.532405	38421.622866
630.878521	38656.649020
631.224585	38438.054507
631.570597	38095.432486
631.916556	38246.833459
632.262462	38150.741505
632.608316	38085.451001
632.954117	37944.928837
633.299866	37902.719256
633.645562	37805.805594
633.991206	37280.968547
634.336797	36879.480972
634.682336	36777.934490
635.027823	36537.393313
635.373257	36407.727275
635.718639	36080.080001
636.063968	35974.886244
636.409245	35322.933981
636.754470	35270.243841
637.099642	35034.821957
637.444762	34499.887478
637.789829	34643.787215
638.134845	34270.613281
638.479808	34181.813356
638.824719	34134.194616
639.169577	33608.543422
639.514383	33696.861917
639.859137	33335.005374
640.203839	33495.729961
640.548489	33204.300857
640.893086	33199.398335
641.237632	32935.493931
641.582125	33026.837118
641.926566	32821.092507
642.270955	32864.597664
642.615292	32794.984371
642.959576	32672.481812
643.303809	32699.547767
643.647990	32776.100208
643.992118	32740.663417
644.336195	32588.745726
644.680219	32679.501618
645.024192	32870.432800
645.368112	33410.794081
645.711981	33428.506175
646.055797	34150.260774
646.399562	33959.105261
646.743274	34843.442113
647.086935	35242.759471
647.430544	35192.940268
647.774101	35234.466772
648.117606	35513.058578
648.461059	35653.026215
648.804460	35242.905664
649.147810	34735.299280
649.491108	34380.858274
649.834354	34218.649067
650.177548	33394.911925
650.520690	32918.716971
650.863781	32893.092786
651.206820	32713.015209
651.549807	32313.115598
651.892742	31739.419687
652.235626	31648.086583
652.578458	31516.371315
652.921238	30825.997899
653.263967	31137.528603
653.606644	30836.692707
653.949269	30745.296587
654.291843	30364.563443
654.634365	30723.891848
654.976836	30268.748753
655.319255	30347.693222
655.661622	30233.248947
656.003938	30082.042058
656.346203	29919.560628
656.688416	30155.310188
657.030577	29927.815518
657.372687	29737.610263
657.714746	29913.254145
658.056753	30098.728277
658.398708	29488.360493
658.740612	29558.770289
659.082465	29768.807443
659.424266	29652.818055
659.766016	29663.550672
660.107715	29521.783343
660.449362	29627.067841
660.790958	29603.500447
661.132503	29535.223059
661.473996	29595.386710
661.815438	29685.888024
662.156829	29800.438163
662.498168	29600.085065
662.839456	29590.285062
663.180693	29707.789317
663.521879	29799.034202
663.863013	29760.020712
664.204097	29750.765154
664.545129	30157.495528
664.886110	30088.913151
665.227040	30194.273266
665.567918	30179.716934
665.908746	30260.508987
666.249522	30358.967762
666.590248	30382.648583
666.930922	30477.268520
667.271545	30466.798043
667.612118	30533.580729
667.952639	30334.553454
668.293109	30375.664064
668.633528	30244.125237
668.973896	30186.477122
669.314213	30162.534162
669.654480	29980.533384
669.994695	29966.413112
670.334859	29896.832586
670.674973	29715.814834
671.015035	29907.416489
671.355047	29848.813075
671.695008	29793.980445
672.034918	29698.526197
672.374777	29795.394489
672.714585	29664.843728
673.054342	29783.197417
673.394049	29644.656427
673.733705	29855.104435
674.073310	29589.985113
674.412864	29639.312804
674.752368	29333.471041
675.091820	29548.158660
675.431223	29149.857095
675.770574	28940.855897
676.109875	28788.242526
676.449125	28588.295241
676.788324	28486.370672
677.127473	28001.714142
677.466571	27913.304906
677.805619	27632.966341
678.144616	27562.319611
678.483562	27519.099278
678.822458	27198.892747
679.161303	27151.591601
679.500098	27065.178662
679.838842	27005.206576
680.177535	27081.711126
680.516179	27322.206932
680.854771	27463.901164
681.193314	28238.857580
681.531805	29268.339333
681.870247	30017.767347
682.208638	30725.333618
682.546978	30996.436790
682.885268	31136.843007
683.223508	30682.448522
683.561697	30408.136656
683.899836	30250.020866
684.237925	29839.320583
684.575963	29688.567398
684.913951	29332.039353
685.251889	29504.192237
685.589776	29529.035043
685.927614	29538.971157
686.265401	29720.293899
686.603137	29842.824185
686.940824	30354.728152
687.278460	30684.384325
687.616046	30867.468951
687.953582	31525.324404
688.291068	31452.293208
688.628504	31780.860493
688.965889	31758.568510
689.303224	31487.341831
689.640510	31186.621880
689.977745	30546.312163
690.314930	29794.862647
690.652065	29356.327633
690.989150	28692.445480
691.326185	27836.059306
691.663170	27195.926028
692.000105	26467.514586
692.336990	25862.649221
692.673825	25450.539935
693.010610	24957.678927
693.347345	24452.850219
693.684030	23841.423792
694.020665	23644.002125
694.357251	22968.346357
694.693786	22976.994457
695.030272	22741.854877
695.366707	22253.674580
695.703093	21978.185604
696.039429	22054.755690
696.375716	21819.288435
696.711952	21828.516267
697.048139	21686.401099
697.384276	21521.416737
697.720363	21642.921147
698.056400	21539.028007
698.392388	21386.170141
698.728326	21382.601004
699.064214	21211.703368
699.400053	21208.968542
699.735842	20831.202117
700.071581	20629.961776
700.407270	20382.186543
700.742910	20204.465706
701.078501	19958.825402
701.414042	19755.351830
701.749533	19452.254976
702.084974	19138.612027
702.420366	19367.303972
702.755709	18970.035843
703.091002	18666.570984
703.426246	18733.174709
703.761440	18662.946395
704.096584	18424.658614
704.431679	18363.947998
704.766725	18304.117064
705.101721	18243.224967
705.436668	18360.754427
705.771565	18092.113859
706.106413	18408.710924
706.441212	18486.468201
706.775961	18595.636908
707.110661	18674.064659
707.445311	19034.507159
707.779913	18914.941073
708.114465	19216.535663
708.448967	19531.201966
708.783421	20149.444032
709.117825	20529.882269
709.452180	20754.095148
709.786485	21204.106349
710.120742	21981.696768
710.454949	22083.931368
710.789107	22595.427002
711.123216	23306.239776
711.457275	23526.714640
711.791286	24086.716256
712.125247	24226.641043
712.459159	23945.120327
712.793023	24685.872514
713.126837	23656.206759
713.460602	23900.075097
713.794318	23558.841913
714.127985	23285.853350
714.461602	22387.867574
714.795171	22360.557123
715.128691	21383.468082
715.462162	20859.944255
715.795584	20432.613205
716.128957	20162.598923
716.462281	19793.198293
716.795556	19517.069091
717.128782	19038.212408
717.461960	18444.666954
717.795088	18398.966373
718.128167	18054.925268
718.461198	17611.623842
718.794180	17483.003843
719.127113	17157.869585
719.459997	16958.277701
719.792833	16602.349554
720.125619	16642.608209
720.458357	16307.605892
720.791046	16171.519944
721.123686	16021.311203
721.456278	15814.054245
721.788821	15804.967565
722.121315	15535.396904
722.453761	15642.387833
722.786158	15532.828437
723.118506	15608.843995
723.450805	15496.287633
723.783056	15677.476784
724.115259	15569.059209
724.447412	15567.756071
724.779518	15782.095850
725.111574	15829.893550
725.443582	16098.077894
725.775542	16057.065587
726.107453	16579.543374
726.439315	16498.332906
726.771129	16913.809683
727.102895	17334.713262
727.434612	17616.821272
727.766281	17765.560516
728.097901	18084.915092
728.429473	18176.222991
728.760996	18180.596192
729.092471	18307.111509
729.423897	18199.419860
729.755276	18064.818532
730.086606	18180.964196
730.417887	18771.863044
730.749120	19322.054575
731.080305	19541.632113
731.411442	19931.351114
731.742530	20042.569050
732.073570	20203.780109
732.404562	20523.268275
732.735506	20352.375680
733.066401	20145.469082
733.397249	19638.268512
733.728048	19018.047792
734.058798	18154.445206
734.389501	17400.137356
734.720156	16890.096095
735.050762	16320.395299
735.381320	15939.647031
735.711831	15667.059240
736.042293	15302.414938
736.372707	15352.418143
736.703073	15143.714374
737.033391	15338.287789
737.363661	15338.282748
737.693883	15473.937677
738.024056	15679.740263
738.354182	15897.686987
738.684260	16257.637975
739.014290	16536.257507
739.344272	16772.748116
739.674207	17122.500849
740.004093	17287.046631
740.333931	17330.902149
740.663722	17416.909275
740.993464	17445.154860
741.323159	17287.880942
741.652806	16976.705639
741.982405	16816.764951
742.311956	16447.351717
742.641460	16334.888616
742.970915	16011.352404
743.300323	15664.029507
743.629683	15444.265446
743.958996	15137.488549
744.288260	14830.777187
744.617477	14515.261450
744.946647	14493.082894
745.275768	14174.348380
745.604842	13963.151761
745.933869	13798.028766
746.262847	13769.362245
746.591778	13696.086553
746.920662	13576.157503
747.249498	13586.887599
747.578286	13741.935847
747.907027	13916.432867
748.235720	14187.533518
748.564365	14258.328962
748.892963	14179.172765
749.221514	14287.855000
749.550017	14148.504905
749.878473	14113.942754
750.206881	13897.626843
750.535242	13823.864680
750.863555	13748.212084
751.191821	13639.986073
751.520039	13664.208817
751.848210	13592.548815
752.176334	13643.494716
752.504411	13566.228951
752.832440	13384.457546
753.160421	13503.476668
753.488356	13390.630439
753.816243	13302.702633
754.144082	13134.302889
754.471875	13087.727669
754.799620	13056.674161
755.127318	13025.809697
755.454969	13015.182944
755.782572	12985.747647
756.110129	13007.275895
756.437638	12905.215214
756.765100	12915.836926
757.092515	12933.833845
757.419882	12971.909680
757.747203	12989.611692
758.074477	13085.252462
758.401703	13065.402919
758.728882	13269.085699
759.056014	13307.645485
759.383099	13476.803923
759.710138	13596.450668
760.037129	13726.767016
760.364073	13781.975212
760.690970	13816.859997
761.017820	13837.410260
761.344623	14057.534763
761.671379	14437.219348
761.998088	15133.014525
762.324751	16915.478305
762.651366	20346.432160
762.977935	24820.219264
763.304456	27769.304346
763.630931	28779.841443
763.957359	27560.159476
764.283740	25284.801920
764.610074	23011.334797
764.936362	20382.531862
765.262602	18518.792080
765.588796	16598.946775
765.914943	15317.588811
766.241044	14219.726327
766.567097	13431.123507
766.893104	12726.264335
767.219064	12267.733584
767.544978	11784.297013
767.870845	11411.665003
768.196665	11193.685510
768.522438	10956.882350
768.848165	10753.965825
769.173846	10557.907790
769.499479	10422.391492
769.825066	10251.345142
770.150607	10026.812150
770.476101	9942.632443
770.801548	9823.885543
771.126949	9664.958127
771.452303	9553.289008
771.777611	9353.523204
772.102872	9343.841668
772.428087	9210.752686
772.753256	9047.358808
773.078378	8957.611146
773.403453	8783.126729
773.728482	8666.441661
774.053465	8594.259900
774.378401	8490.248293
774.703291	8368.403605
775.028135	8250.732992
775.352932	8213.814102
775.677683	8107.773430
776.002388	8005.876588
776.327046	8013.037547
776.651658	7918.601612
776.976224	7816.498082
777.300743	7814.479100
777.625216	7725.031386
777.949643	7686.479162
778.274024	7704.783592
778.598359	7617.143132
778.922647	7634.295658
779.246889	7583.992505
779.571086	7594.180677
779.895236	7598.712674
780.219339	7617.780838
780.543397	7616.553317
780.867409	7700.188580
781.191374	7704.370217
781.515294	7673.566247
781.839167	7763.664269
782.162995	7735.174188
782.486776	7676.797626
782.810511	7628.427755
783.134201	7546.987915
783.457844	7542.602111
783.781441	7492.775346
784.104993	7420.752381
784.428498	7399.115749
784.751958	7385.532360
785.075372	7352.913574
785.398739	7298.632950
785.722061	7343.683221
786.045337	7346.541556
786.368568	7504.034763
786.691752	7534.004423
787.014891	7875.298100
787.337983	8236.204386
787.661030	8835.579935
787.984031	9457.504564
788.306987	9859.561789
788.629897	10059.468745
788.952760	10001.959262
789.275579	9779.835941
789.598351	9384.440601
789.921078	9024.862659
790.243759	8615.946944
790.566395	8323.363416
790.888984	8076.034326
791.211529	7864.225206
791.534027	7646.250755
791.856480	7447.596526
792.178888	7373.085751
792.501249	7271.725791
792.823566	7114.552697
793.145836	7125.050900
793.468062	7098.700788
793.790241	7048.659775
794.112375	7120.085363
794.434464	7273.797706
794.756507	7316.730692
795.078505	7480.038871
795.400457	7787.433309
795.722364	8137.483471
796.044226	8430.619005
796.366042	8701.031538
796.687812	8652.507912
797.009538	8724.845949
797.331218	8623.511195
797.652852	8530.524592
797.974442	8378.475830
798.295986	8286.880585
798.617484	8099.687420
798.938938	7952.221067
799.260346	7852.847322
799.581709	7653.457084
799.903026	7572.080258
800.224299	7469.296172
800.545526	7299.371479
800.866708	7206.208435
801.187845	7137.971377
801.508936	7032.094543
801.829983	6989.708522
802.150984	6840.840728
802.471940	6795.069572
802.792851	6783.676564
803.113717	6753.003663
803.434538	6716.359516
803.755314	6660.816083
804.076045	6660.513614
804.396731	6609.015707
804.717372	6646.204299
805.037967	6646.209340
805.358518	6690.168201
805.679024	6774.287415
805.999485	6786.744106
806.319901	6829.306568
806.640272	6852.735331
806.960598	6929.476816
807.280879	6930.714419
807.601115	7011.967737
807.921306	6954.226360
808.241453	6971.925852
808.561554	6989.317832
808.881611	6951.375588
809.201623	6959.156609
809.521590	6905.916983
809.841513	6884.613067
810.161390	6921.796618
810.481223	6794.812473
810.801011	6776.059381
811.120755	6749.404280
811.440453	6670.169944
811.760107	6641.541231
812.079716	6607.402538
812.399281	6542.071704
812.718801	6531.810436
813.038276	6487.816286
813.357707	6424.131389
813.677093	6474.089224
813.996434	6371.950406
814.315731	6415.478249
814.634983	6407.596405
814.954191	6420.930257
815.273354	6526.600403
815.592473	6587.386636
815.911547	6714.411110
816.230577	6802.079296
816.549562	6944.532222
816.868502	7044.707510
817.187399	7140.880123
817.506250	7291.199769
817.825058	7329.033628
818.143821	7591.413083
818.462539	7866.135803
818.781213	8236.695899
819.099843	8785.675032
819.418429	9790.487899
819.736970	10763.896898
820.055466	11947.706015
820.373919	13470.746976
820.692327	15821.479865
821.010691	19963.916968
821.329011	28978.541043
821.647286	42060.579770
821.965517	55528.748196
822.283704	60902.603072
822.601847	62852.594477
822.919945	60124.445523
823.237999	55886.468473
823.556010	49666.521458
823.873976	42904.287442
824.191897	36378.876751
824.509775	31529.904293
824.827609	27015.246033
825.145398	24433.252733
825.463144	23076.489190
825.780845	23396.662953
826.098502	25174.123388
826.416116	28991.214504
826.733685	32669.268076
827.051210	33849.641646
827.368692	32046.216749
827.686129	28074.745337
828.003522	23921.031173
828.320872	20214.255627
828.638177	17357.821911
828.955439	15214.151896
829.272656	13395.245615
829.589830	11931.339909
829.906960	10659.373614
830.224046	9716.450993
830.541088	8963.017783
830.858086	8507.904935
831.175041	8134.552040
831.491952	8021.678084
831.808819	8066.279693
832.125642	8471.467475
832.442421	9357.974543
832.759157	11160.683597
833.075849	14110.156848
833.392497	17323.718505
833.709101	19528.469660
834.025662	19356.231077
834.342179	17650.574318
834.658653	15436.013077
834.975083	13497.318898
835.291469	11881.742517
835.607811	10557.738912
835.924110	9655.851283
836.240366	8792.213409
836.556578	7985.709452
836.872746	7342.178437
837.188871	6843.036151
837.504952	6424.572490
837.820990	6114.677640
838.136984	5895.246295
838.452935	5802.423530
838.768842	5840.433830
839.084706	6262.610300
839.400526	7476.159703
839.716303	9059.439933
840.032037	10162.489765
840.347727	10073.163039
840.663373	9095.940407
840.978977	8048.391159
841.294537	7237.602221
841.610054	6640.895964
841.925527	6208.183482
842.240957	5851.385736
842.556344	5517.653790
842.871687	5236.112909
843.186987	4952.139672
843.502244	4733.913163
843.817458	4567.421496
844.132629	4436.623718
844.447756	4346.056869
844.762840	4267.074591
845.077881	4186.055687
845.392879	4126.980925
845.707833	4082.281014
846.022745	4034.500958
846.337613	4004.624560
846.652438	3961.003456
846.967221	3948.919810
847.281960	3915.990993
847.596656	3896.219587
847.911309	3878.336094
848.225919	3853.072352
848.540485	3840.338397
848.855009	3826.634020
849.169490	3803.565700
849.483928	3793.138074
849.798323	3784.399233
850.112675	3768.267541
850.426984	3770.770474
850.741251	3754.729522
851.055474	3752.924789
851.369654	3758.659102
851.683792	3756.854369
851.997887	3761.081376
852.311938	3761.167076
852.625947	3763.367540
852.939914	3755.500819
853.253837	3766.888786
853.567718	3763.632200
853.881555	3750.666353
854.195350	3767.476080
854.509103	3762.858383
854.822812	3763.385184
855.136479	3752.135849
855.450103	3764.421141
855.763685	3750.537803
856.077224	3756.342692
856.390720	3771.020011
856.704173	3789.263947
857.017584	3801.544198
857.330953	3812.145744
857.644278	3837.333869
857.957561	3842.349817
858.270802	3840.615661
858.584000	3847.335519
858.897155	3835.571986
859.210268	3819.815860
859.523339	3800.364568
859.836367	3793.125471
860.149352	3788.245634
860.462295	3782.123153
860.775195	3772.779374
861.088054	3764.433744
861.400869	3765.588168
861.713642	3767.208899
862.026373	3774.528654
862.339062	3778.672483
862.651708	3801.319866
862.964312	3838.352182
863.276873	3847.015405
863.589392	3902.901637
863.901869	3955.412816
864.214303	4000.296729
864.526696	4031.302346
864.839045	4077.539809
865.151353	4102.584261
865.463619	4111.796970
865.775842	4117.052373
866.088023	4140.692864
866.400162	4124.175523
866.712258	4132.753047
867.024313	4136.410404
867.336325	4133.647851
867.648296	4136.937204
867.960224	4138.482318
868.272110	4151.344822
868.583954	4155.261798
868.895755	4170.004653
869.207515	4162.639527
869.519233	4209.083678
869.830909	4219.337384
870.142542	4245.589193
870.454134	4258.416409
870.765684	4286.306593
871.077191	4325.264630
871.388657	4351.173640
871.700081	4384.735122
872.011463	4428.777162
872.322803	4465.340651
872.634101	4496.810054
872.945357	4536.002504
873.256571	4591.238427
873.567744	4619.544506
873.878874	4636.800376
874.189963	4676.078526
874.501010	4685.913817
874.812015	4684.784598
875.122979	4724.849169
875.433900	4723.394796
875.744780	4735.246548
876.055618	4762.194036
876.366415	4760.807719
876.677169	4784.720432
876.987882	4828.651567
877.298554	4881.404722
877.609183	4959.409016
877.919771	5070.846242
878.230317	5216.107090
878.540822	5428.112815
878.851285	5755.296303
879.161707	6211.674481
879.472087	6972.782848
879.782425	8204.649284
880.092722	10400.046578
880.402977	13732.524013
880.713191	17521.856016
881.023363	21278.591917
881.333494	23526.805381
881.643583	24741.668005
881.953631	24720.091866
882.263637	23851.251522
882.573602	22347.172860
882.883526	20776.172881
883.193408	19079.917873
883.503248	17370.329013
883.813048	15813.741693
884.122806	14370.229975
884.432522	12907.080441
884.742197	11635.842594
885.051831	10541.602178
885.361424	9536.842243
885.670975	8720.598777
885.980485	8031.026904
886.289954	7456.279913
886.599382	6985.196689
886.908768	6610.717096
887.218113	6242.286888
887.527417	5961.371110
887.836680	5689.695768
888.145901	5469.576306
888.455082	5308.186286
888.764221	5157.629706
889.073319	5024.545765
889.382376	4953.657059
889.691392	4895.764449
890.000366	4871.461046
890.309300	4854.288355
890.618193	4855.972101
890.927044	4841.004915
891.235855	4867.171024
891.544625	4894.231938
891.853353	4960.654181
892.162041	5075.902520
892.470687	5263.372949
892.779293	5511.140619
893.087858	5886.668772
893.396381	6464.458100
893.704864	7272.146728
894.013306	8434.956918
894.321707	9619.164286
894.630068	10442.934194
894.938387	10651.607717
895.246665	10405.014635
895.554903	9798.573910
895.863100	9094.123071
896.171256	8529.218933
896.479371	8017.468721
896.787446	7520.504213
897.095480	7091.318019
897.403473	6775.106603
897.711425	6453.304547
898.019336	6192.944074
898.327207	5909.590899
898.635038	5685.264594
898.942827	5433.574906
899.250576	5246.825361
899.558284	5051.369744
899.865952	4925.597997
900.173579	4773.503865
900.481165	4669.398997
900.788711	4570.935180
901.096216	4500.487576
901.403681	4437.795786
901.711105	4410.460130
902.018489	4403.059716
902.325832	4470.248214
902.633135	4589.859672
902.940397	4939.309936
903.247619	5739.106637
903.554800	7189.766712
903.861941	9118.658367
904.169041	10645.626388
904.476101	11272.677871
904.783121	10909.182952
905.090100	10148.921499
905.397039	9312.921751
905.703938	8556.829333
906.010796	7859.179011
906.317614	7310.625855
906.624391	6770.309945
906.931129	6343.977043
907.237826	5945.932577
907.544483	5571.213529
907.851099	5199.655285
908.157675	4838.350747
908.464211	4519.706975
908.770707	4280.814256
909.077163	4081.229934
909.383578	3941.627781
909.689954	3824.231911
909.996289	3751.571240
910.302584	3690.303576
910.608839	3658.410717
910.915054	3624.287146
911.221229	3613.090743
911.527363	3624.037609
911.833458	3640.675937
912.139513	3664.553362
912.445527	3695.140563
912.751502	3775.461268
913.057436	3878.134448
913.363331	4012.042618
913.669186	4216.055593
913.975000	4474.349193
914.280775	4899.600767
914.586510	5478.766329
914.892205	6278.494975
915.197859	7326.956673
915.503475	8556.385711
915.809050	9624.172672
916.114585	10279.845306
916.420081	10544.616788
916.725536	10505.681436
917.030952	10056.166789
917.336328	9642.877873
917.641665	9218.319458
917.946961	8737.481601
918.252218	8311.534348
918.557435	7803.000392
918.862612	7373.194136
919.167750	6992.324881
919.472848	6569.435087
919.777906	6192.389547
920.082925	5830.351522
920.387904	5466.670081
920.692843	5196.902815
920.997743	4947.123724
921.302603	4716.657294
921.607423	4555.345412
921.912204	4388.389958
922.216946	4268.949900
922.521647	4149.580418
922.826310	4042.796177
923.130932	3950.293524
923.435516	3852.043956
923.740059	3784.482413
924.044564	3706.919219
924.349028	3647.715909
924.653454	3583.559664
924.957840	3514.647091
925.262186	3467.784525
925.566493	3407.341090
925.870761	3349.604755
926.174989	3310.520690
926.479178	3278.146400
926.783328	3234.941191
927.087438	3208.207952
927.391509	3173.794515
927.695541	3143.776964
927.999533	3115.422995
928.303486	3097.557145
928.607400	3077.032088
928.911275	3067.413566
929.215110	3049.472099
929.518906	3042.238044
929.822663	3040.965152
930.126381	3039.616644
930.430060	3046.777603
930.733699	3048.363046
931.037299	3058.951989
931.340861	3055.486196
931.644383	3066.843916
931.947866	3065.734862
932.251309	3057.343861
932.554714	3060.681105
932.858080	3052.464024
933.161407	3042.406922
933.464694	3034.373844
933.767943	3028.873945
934.071153	3022.373377
934.374323	3015.058663
934.677455	3009.168074
934.980548	3001.235819
935.283602	2993.709376
935.586617	2990.667040
935.889593	3003.884945
936.192530	3006.811335
936.495428	3021.196268
936.798287	3043.274001
937.101108	3076.139803
937.403890	3130.372536
937.706632	3190.241279
938.009336	3272.492746
938.312002	3346.620392
938.614628	3408.669434
938.917216	3461.536015
939.219765	3490.452073
939.522275	3521.157741
939.824747	3529.271478
940.127179	3525.871220
940.429573	3520.482227
940.731929	3517.142462
941.034246	3503.614526
941.336524	3491.508195
941.638763	3475.094198
941.940964	3460.812609
942.243126	3418.794592
942.545250	3392.295767
942.847335	3359.374512
943.149381	3322.322031
943.451389	3290.429171
943.753359	3255.372987
944.055290	3227.528174
944.357182	3202.773588
944.659036	3191.947710
944.960851	3182.936647
945.262628	3166.116838
945.564367	3167.024245
945.866067	3163.019049
946.167729	3156.800785
946.469352	3157.655261
946.770937	3155.227945
947.072484	3140.830410
947.373992	3140.976603
947.675462	3133.712301
947.976893	3116.564816
948.278286	3109.000565
948.579641	3101.300202
948.880958	3096.090170
949.182236	3098.482197
949.483476	3090.106320
949.784678	3092.032041
950.085841	3092.021958
950.386967	3102.772219
950.688054	3118.709827
950.989103	3138.395533
951.290114	3160.185920
951.591087	3188.875127
951.892021	3217.907132
952.192917	3243.453179
952.493776	3271.582817
952.794596	3276.477778
953.095378	3284.475568
953.396122	3277.579270
953.696828	3275.640946
953.997496	3262.722989
954.298126	3236.577045
954.598718	3214.569888
954.899272	3188.272709
955.199788	3162.388904
955.500266	3131.461426
955.800706	3095.054212
956.101108	3052.355639
956.401472	3023.391690
956.701798	2990.576299
957.002087	2950.292439
957.302337	2923.223963
957.602550	2893.385373
957.902724	2862.992257
958.202861	2839.936540
958.502960	2820.659167
958.803022	2800.423976
959.103045	2777.164092
959.403031	2761.833943
959.702979	2749.397417
960.002889	2735.609861
960.302762	2723.110320
960.602596	2708.758155
960.902393	2702.040817
961.202153	2693.385156
961.501875	2687.335772
961.801559	2679.537107
962.101205	2673.727177
962.400814	2667.524037
962.700385	2662.344252
962.999918	2654.931235
963.299414	2650.406799
963.598873	2645.143835
963.898293	2637.123359
964.197677	2640.256436
964.497022	2639.016312
964.796331	2637.135962
965.095601	2632.382154
965.394835	2632.936681
965.694030	2631.774695
965.993189	2627.958541
966.292309	2628.412245
966.591393	2627.328397
966.890439	2627.396452
967.189447	2625.995012
967.488419	2629.506175
967.787353	2627.512399
968.086249	2629.634725
968.385108	2630.504324
968.683930	2634.620426
968.982714	2638.454223
969.281462	2642.242651
969.580172	2645.438742
969.878844	2652.440905
970.177480	2661.527585
970.476078	2667.387926
970.774639	2675.544513
971.073162	2684.558096
971.371649	2690.052954
971.670098	2693.352389
971.968510	2700.893955
972.266885	2704.384954
972.565223	2707.429811
972.863524	2713.635471
973.161788	2712.206304
973.460014	2717.839794
973.758204	2722.386914
974.056356	2722.555793
974.354471	2722.626369
974.652550	2724.103427
974.950591	2722.470093
975.248595	2718.502705
975.546563	2719.311811
975.844493	2715.833414
976.142386	2708.798484
976.440243	2702.882690
976.738062	2698.436392
977.035845	2691.114117
977.333590	2685.916687
977.631299	2680.187416
977.928971	2674.558967
978.226606	2667.745848
978.524204	2669.318688
978.821765	2661.280568
979.119290	2664.196876
979.416777	2663.118069
979.714228	2668.461692
980.011642	2670.364727
980.309020	2678.405368
980.606360	2692.535722
980.903664	2716.619834
981.200931	2753.158117
981.498162	2800.607978
981.795356	2874.173536
982.092513	2965.758699
982.389633	3071.733835
982.686717	3166.973834
982.983764	3243.609455
983.280775	3291.046712
983.577749	3300.614822
983.874686	3286.557565
984.171587	3251.478696
984.468451	3212.460165
984.765279	3169.738907
985.062070	3119.299642
985.358824	3075.567632
985.655543	3019.948582
985.952224	2967.455047
986.248869	2901.327711
986.545478	2843.314113
986.842050	2786.268416
987.138586	2742.546489
987.435086	2704.037114
987.731549	2673.195335
988.027975	2646.545275
988.324366	2633.597072
988.620719	2617.997221
988.917037	2609.061776
989.213318	2598.311515
989.509563	2590.560741
989.805772	2587.344485
990.101944	2579.266036
990.398080	2579.933989
990.694180	2575.933833
990.990244	2581.146387
991.286271	2576.543813
991.582262	2579.190419
991.878217	2578.454410
992.174136	2583.608990
992.470019	2584.907087
992.765865	2588.685432
993.061676	2594.669282
993.357450	2604.776795
993.653188	2607.380551
993.948890	2625.911833
994.244556	2648.864206
994.540186	2668.905313
994.835780	2702.149202
995.131337	2740.792167
995.426859	2783.520987
995.722345	2827.036227
996.017795	2877.130173
996.313208	2918.873447
996.608586	2946.100719
996.903928	2959.459777
997.199234	2956.341823
997.494504	2955.220167
997.789738	2941.122580
998.084936	2915.279105
998.380099	2885.586708
998.675225	2854.802903
998.970316	2822.627738
999.265371	2787.115330
999.560390	2751.018148
999.855373	2721.348437
1000.150320	2692.724765
1000.445232	2666.667041
1000.740108	2645.403454
1001.034948	2627.109107
1001.329752	2610.914400
1001.624521	2599.962493
1001.919254	2586.575709
1002.213951	2580.639751
1002.508613	2570.060889
1002.803239	2564.865980
1003.097829	2558.383056
1003.392384	2558.549414
1003.686903	2549.626572
1003.981386	2550.208825
1004.275834	2541.394368
1004.570246	2541.379244
1004.864623	2538.825900
1005.158964	2538.599048
1005.453270	2535.776002
1005.747540	2532.542102
1006.041775	2531.896834
1006.335974	2529.542615
1006.630138	2528.052954
1006.924266	2528.342821
1007.218359	2528.914992
1007.512416	2524.887110
1007.806438	2524.319980
1008.100425	2523.909126
1008.394376	2519.964423
1008.688292	2526.003725
1008.982172	2521.633045
1009.276017	2523.281502
1009.569827	2523.480628
1009.863602	2521.053312
1010.157341	2521.943076
1010.451045	2520.397962
1010.744714	2520.445853
1011.038347	2519.523322
1011.331945	2517.486696
1011.625508	2516.208763
1011.919036	2513.879750
1012.212528	2514.187261
1012.505986	2514.827487
1012.799408	2515.613907
1013.092795	2516.581809
1013.386147	2512.183402
1013.679464	2514.545183
1013.972745	2512.566530
1014.265992	2509.909842
1014.559204	2512.163237
1014.852380	2513.481499
1015.145521	2510.106447
1015.438628	2511.873371
1015.731699	2512.692558
1016.024736	2514.323372
1016.317737	2516.458300
1016.610703	2515.069463
1016.903635	2518.179854
1017.196531	2519.268744
1017.489393	2519.125071
1017.782219	2522.595905
1018.075011	2521.501975
1018.367768	2525.287881
1018.660490	2523.049609
1018.953177	2523.049609
1019.245829	2523.049609
