Dividing Wavelength (nm)	Counts (n)	Blue Motor Position (mm): 11.300000	Red Motor Position (mm): 0.000000	
326.493990	2137.907976
326.888308	2137.907976
327.282561	2137.907976
327.676750	2107.290528
328.070874	2105.851278
328.464933	2110.474017
328.858929	2116.147835
329.252859	2123.538167
329.646726	2135.846144
330.040528	2149.134625
330.434265	2166.292193
330.827938	2183.532939
331.221547	2200.662779
331.615091	2220.287991
332.008571	2239.890518
332.401986	2260.002201
332.795338	2278.228493
333.188625	2297.737758
333.581847	2315.212918
333.975006	2334.666731
334.368100	2353.830677
334.761129	2369.160826
335.154095	2387.533311
335.546996	2407.765982
335.939833	2423.582603
336.332606	2439.517690
336.725315	2451.447580
337.117960	2458.424537
337.510540	2469.424335
337.903056	2479.811632
338.295508	2487.380925
338.687896	2496.180259
339.080220	2502.418687
339.472480	2513.632734
339.864676	2510.960922
340.256807	2519.266223
340.648875	2522.787469
341.040879	2524.408200
341.432818	2525.237470
341.824694	2529.625794
342.216506	2525.436595
342.608253	2528.423479
342.999937	2527.190917
343.391557	2526.981709
343.783113	2525.920546
344.174605	2526.732172
344.566033	2522.575741
344.957397	2523.672192
345.348697	2521.176820
345.739934	2522.605988
346.131106	2516.183557
346.522215	2517.136336
346.913260	2514.129287
347.304241	2514.620800
347.695159	2508.823473
348.086012	2509.408247
348.476802	2506.849861
348.867528	2506.799450
349.258191	2504.677124
349.648789	2502.799294
350.039324	2498.579848
350.429796	2501.589417
350.820203	2498.264776
351.210548	2495.698829
351.600828	2496.631442
351.991045	2496.981803
352.381198	2494.667913
352.771288	2494.267141
353.161314	2494.141112
353.551276	2494.856956
353.941175	2494.801503
354.331010	2493.717655
354.720782	2493.170690
355.110490	2495.867708
355.500135	2493.120279
355.889717	2496.359220
356.279235	2494.488952
356.668689	2495.650938
357.058080	2495.187152
357.447408	2495.373674
357.836672	2490.957624
358.225873	2495.736637
358.615010	2492.056595
359.004084	2495.918119
359.393095	2495.197234
359.782043	2501.851557
360.170927	2498.726042
360.559748	2499.295692
360.948505	2500.288799
361.337199	2501.027328
361.725830	2500.308964
362.114398	2500.273676
362.502903	2499.948522
362.891344	2500.140085
363.279722	2502.637977
363.668037	2501.357524
364.056289	2505.536641
364.444478	2503.484891
364.832603	2503.258039
365.220665	2507.021260
365.608665	2504.659480
365.996601	2506.973369
366.384474	2505.060252
366.772284	2506.668380
367.160031	2505.130828
367.547715	2511.457476
367.935336	2505.342556
368.322893	2508.573936
368.710388	2508.639471
369.097820	2511.588546
369.485189	2510.676097
369.872495	2509.660304
370.259738	2509.274656
370.646918	2510.852537
371.034035	2509.592249
371.421090	2509.504029
371.808081	2508.659635
372.195010	2508.894049
372.581875	2511.318844
372.968678	2511.306241
373.355418	2511.220542
373.742096	2513.602487
374.128710	2508.831035
374.515262	2513.413443
374.901751	2509.793895
375.288177	2515.558454
375.674540	2511.001251
376.060841	2512.843793
376.447079	2511.598628
376.833254	2510.343381
377.219367	2510.045953
377.605417	2513.468896
377.991404	2507.792557
378.377329	2511.661643
378.763191	2508.765500
379.148991	2514.537621
379.534727	2515.079545
379.920402	2516.733043
380.306013	2516.090296
380.691563	2516.294463
381.077049	2515.016530
381.462474	2514.915707
381.847835	2516.244051
382.233134	2516.322189
382.618371	2515.807992
383.003545	2516.947292
383.388657	2515.901253
383.773706	2517.998373
384.158693	2516.773373
384.543618	2514.905625
384.928480	2516.057529
385.313280	2514.751870
385.698017	2514.754390
386.082692	2518.172293
386.467305	2521.131450
386.851856	2519.717406
387.236344	2519.699762
387.620770	2521.010462
388.005133	2519.548528
388.389435	2518.043743
388.773674	2518.721778
389.157851	2517.985770
389.541965	2518.996521
389.926018	2520.637417
390.310008	2519.422499
390.693936	2518.494927
391.077802	2518.152128
391.461606	2518.477283
391.845348	2517.947961
392.229027	2521.002901
392.612645	2522.495082
392.996200	2519.914011
393.379694	2519.120030
393.763125	2523.420134
394.146494	2521.776718
394.529801	2524.662778
394.913047	2521.940555
395.296230	2523.573889
395.679351	2521.927952
396.062410	2524.176307
396.445408	2524.889630
396.828343	2523.049609
397.211217	2517.597601
397.594028	2521.509537
397.976778	2518.938548
398.359466	2523.016842
398.742092	2519.568692
399.124656	2523.140350
399.507158	2526.011287
399.889598	2523.715041
400.271977	2524.869466
400.654294	2526.200330
401.036549	2526.777542
401.418742	2527.281658
401.800874	2524.370391
402.182944	2526.775022
402.564952	2527.465660
402.946898	2529.658562
403.328783	2527.062368
403.710606	2525.711338
404.092367	2526.820392
404.474067	2527.969775
404.855705	2526.112110
405.237282	2526.941380
405.618797	2526.061698
406.000250	2530.797862
406.381642	2528.247039
406.762972	2525.749147
407.144240	2528.345341
407.525447	2528.206709
407.906593	2529.282996
408.287677	2524.803931
408.668700	2525.754188
409.049661	2529.250228
409.430560	2529.794673
409.811399	2530.051772
410.192176	2528.632687
410.572891	2531.604447
410.953545	2529.487162
411.334138	2529.081350
411.714669	2526.379291
412.095139	2533.099149
412.475547	2529.842564
412.855894	2527.851308
413.236180	2530.994467
413.616405	2533.391536
413.996568	2530.742410
414.376670	2532.037986
414.756711	2529.051103
415.136691	2531.112935
415.516609	2529.774508
415.896466	2531.319622
416.276262	2533.457071
416.655997	2527.702594
417.035670	2529.774508
417.415283	2530.137471
417.794834	2529.711494
418.174324	2531.276772
418.553753	2531.019673
418.933121	2529.499765
419.312428	2532.816845
419.691674	2531.107893
420.070859	2533.893131
420.449983	2533.953625
420.829045	2532.191742
421.208047	2536.869932
421.586988	2531.569159
421.965867	2534.001516
422.344686	2534.432534
422.723444	2533.930940
423.102141	2531.909437
423.480777	2535.506300
423.859352	2533.205013
424.237866	2534.808100
424.616319	2533.603265
424.994712	2533.472195
425.373044	2533.968748
425.751314	2532.824406
426.129524	2535.002185
426.507673	2534.677030
426.885762	2533.774664
427.263789	2537.263142
427.641756	2535.985210
428.019662	2535.602082
428.397508	2534.578728
428.775292	2535.465971
429.153016	2535.866743
429.530679	2535.385313
429.908282	2532.020342
430.285824	2537.137113
430.663305	2531.443130
431.040726	2537.250539
431.418086	2537.520241
431.795385	2535.397915
432.172624	2534.379602
432.549802	2537.852957
432.926920	2537.326157
433.303977	2536.789274
433.680974	2536.847247
434.057910	2539.246836
434.434786	2537.094264
434.811601	2538.324305
435.188355	2539.105684
435.565050	2538.082330
435.941683	2537.164840
436.318257	2534.130065
436.694770	2533.867925
437.071222	2533.356248
437.447614	2535.450847
437.823946	2536.431352
438.200218	2537.033770
438.576429	2538.291538
438.952580	2540.832279
439.328670	2539.624923
439.704700	2535.231557
440.080670	2539.861857
440.456580	2535.793646
440.832429	2539.566950
441.208218	2539.272042
441.583947	2538.951929
441.959616	2538.505787
442.335224	2537.661393
442.710773	2539.882022
443.086261	2538.830941
443.461689	2539.390509
443.837057	2537.192566
444.212365	2537.968904
444.587612	2536.718698
444.962800	2540.529810
445.337927	2541.384286
445.712995	2539.602238
446.088002	2540.905376
446.462949	2538.475540
446.837837	2542.044677
447.212664	2541.533000
447.587431	2538.780530
447.962139	2539.138452
448.336786	2543.612476
448.711374	2540.086188
449.085901	2541.255736
449.460369	2540.726415
449.834776	2539.433359
450.209124	2539.267001
450.583412	2538.525951
450.957640	2541.928730
451.331808	2540.280273
451.705917	2537.605941
452.079965	2542.876467
452.453954	2542.037115
452.827883	2540.917979
453.201752	2541.139790
453.575562	2542.493339
453.949311	2540.560057
454.323001	2542.533669
454.696632	2541.164995
455.070202	2541.898483
455.443713	2541.969059
455.817164	2539.665252
456.190556	2539.120808
456.563888	2541.172557
456.937160	2541.180119
457.310373	2543.378062
457.683526	2543.894780
458.056619	2543.466282
458.429653	2541.606096
458.802628	2543.884698
459.175542	2542.853782
459.548398	2546.261602
459.921194	2542.125335
460.293930	2543.357897
460.666607	2544.918134
461.039224	2541.396888
461.411782	2543.592311
461.784280	2545.210521
462.156719	2544.724050
462.529099	2543.894780
462.901419	2543.365459
463.273680	2545.578526
463.645882	2546.720347
464.018024	2545.558361
464.390106	2543.060469
464.762130	2546.604400
465.134094	2544.151879
465.505999	2545.417209
465.877845	2543.292362
466.249631	2546.647250
466.621358	2545.180274
466.993026	2545.959133
467.364634	2547.857127
467.736184	2546.506098
468.107674	2544.325799
468.479105	2542.576518
468.850477	2544.156920
469.221790	2545.679349
469.593043	2542.538710
469.964238	2545.031560
470.335373	2543.756148
470.706449	2545.339071
471.077467	2544.976108
471.448425	2545.502908
471.819324	2545.316386
472.190164	2544.724050
472.560945	2542.790767
472.931667	2547.804195
473.302330	2544.043494
473.672934	2545.886036
474.043479	2547.652960
474.413965	2544.371169
474.784393	2540.958308
475.154761	2545.661705
475.525070	2541.280942
475.895321	2542.097609
476.265513	2543.262115
476.635645	2547.438711
477.005719	2543.811601
477.375734	2548.109185
477.745691	2546.632127
478.115588	2547.852086
478.485427	2548.774617
478.855207	2546.571633
479.224928	2544.991231
479.594591	2546.052394
479.964194	2546.702703
480.333739	2548.247817
480.703226	2548.313352
481.072653	2547.065666
481.442022	2549.130018
481.811333	2550.833928
482.180584	2546.629606
482.549777	2546.806047
482.918912	2546.289328
483.287988	2548.656150
483.657005	2547.910059
484.025964	2548.162117
484.394864	2550.052550
484.763706	2549.243444
485.132489	2547.839483
485.501213	2551.663198
485.869879	2549.719833
486.238487	2547.499205
486.607036	2548.222611
486.975527	2547.501726
487.343959	2548.618341
487.712333	2546.987528
488.080648	2549.603887
488.448905	2551.998435
488.817104	2549.727395
489.185244	2551.000287
489.553326	2550.254196
489.921350	2550.551624
490.289315	2549.324103
490.657222	2550.460883
491.025070	2552.429454
491.392861	2549.412323
491.760593	2551.232180
492.128267	2551.668239
492.495883	2549.538352
492.863440	2552.721841
493.230939	2545.470141
493.598380	2549.359391
493.965763	2542.800850
494.333088	2543.925027
494.700354	2544.822353
495.067563	2549.014072
495.434713	2545.046684
495.801805	2550.223949
496.168839	2550.470965
496.535815	2551.174206
496.902733	2551.728733
497.269593	2553.651933
497.636395	2549.533311
498.003139	2550.740667
498.369825	2552.384083
498.736453	2548.308310
499.103023	2551.159083
499.469535	2550.468445
499.835989	2549.356870
500.202385	2548.646068
500.568723	2553.399876
500.935003	2547.776469
501.301226	2551.098589
501.667390	2551.562375
502.033497	2550.793599
502.399546	2548.174720
502.765537	2551.161603
503.131470	2551.093548
503.497345	2549.424926
503.863163	2550.221428
504.228923	2549.866027
504.594625	2550.286963
504.960269	2551.708569
505.325856	2550.783517
505.691385	2549.515667
506.056856	2550.395348
506.422270	2547.937786
506.787625	2552.895760
507.152924	2551.892571
507.518164	2548.938455
507.883347	2550.717982
508.248472	2549.929041
508.613540	2554.536656
508.978550	2550.735626
509.343503	2550.937272
509.708398	2553.346944
510.073236	2549.193033
510.438016	2551.020451
510.802738	2551.108671
511.167403	2553.357026
511.532010	2552.608415
511.896561	2552.368960
512.261053	2552.943651
512.625488	2548.802343
512.989866	2547.985677
513.354186	2551.585060
513.718449	2546.674977
514.082655	2553.997252
514.446803	2551.703527
514.810894	2551.254865
515.174927	2552.976419
515.538904	2551.905174
515.902822	2555.023127
516.266684	2555.000442
516.630488	2554.445915
516.994235	2552.247972
517.357925	2556.459856
517.721558	2554.655123
518.085133	2555.517160
518.448651	2553.881306
518.812112	2554.897098
519.175516	2552.875596
519.538863	2553.324258
519.902152	2554.897098
520.265385	2551.151521
520.628560	2554.030020
520.991678	2554.839125
521.354739	2557.762994
521.717743	2552.799978
522.080690	2554.829043
522.443580	2556.835422
522.806413	2556.558159
523.169189	2554.007335
523.531908	2558.340207
523.894569	2555.464228
524.257174	2556.800134
524.619722	2557.347099
524.982213	2555.993549
525.344647	2559.542522
525.707025	2560.772563
526.069345	2554.556821
526.431608	2558.791390
526.793815	2558.577141
527.155964	2560.402038
527.518057	2556.941286
527.880093	2560.371792
528.242072	2559.005639
528.603995	2561.188458
528.965860	2556.396842
529.327669	2560.868345
529.689421	2560.104610
530.051117	2561.848850
530.412755	2558.269630
530.774337	2562.945301
531.135862	2562.645352
531.497331	2561.357337
531.858743	2557.090000
532.220098	2562.065619
532.581396	2557.064795
532.942638	2558.970351
533.303824	2563.603171
533.664953	2562.103428
534.026025	2562.337842
534.387040	2563.885476
534.747999	2563.696433
535.108902	2566.993347
535.469748	2564.888665
535.830537	2564.727348
536.191270	2566.038048
536.551947	2565.188614
536.912567	2565.566701
537.273131	2563.716597
537.633638	2562.862122
537.994089	2565.329766
538.354483	2566.625343
538.714821	2568.591393
539.075103	2563.835064
539.435328	2566.615261
539.795497	2566.045610
540.155609	2566.471588
540.515665	2566.927812
540.875665	2566.501835
541.235609	2566.698440
541.595496	2567.683985
541.955328	2568.790518
542.315102	2567.394119
542.674821	2568.356979
543.034483	2569.413101
543.394090	2569.612227
543.753640	2568.228430
544.113134	2565.995199
544.472571	2569.685323
544.831953	2569.932340
545.191278	2571.046435
545.550548	2571.243040
545.909761	2570.171795
546.268918	2569.365210
546.628019	2568.924109
546.987064	2567.895714
547.346053	2567.726835
547.704986	2570.257494
548.063863	2568.679613
548.422684	2569.027453
548.781449	2568.823286
549.140158	2570.171795
549.498811	2574.728998
549.857408	2569.894531
550.215949	2567.167267
550.574434	2565.203737
550.932864	2569.841599
551.291237	2567.449572
551.649555	2567.931002
552.007817	2572.389902
552.366022	2569.060220
552.724173	2570.302865
553.082267	2569.597103
553.440305	2571.064079
553.798288	2571.011147
554.156215	2570.668348
554.514086	2569.828996
554.871902	2569.821434
555.229661	2573.438462
555.587365	2570.996023
555.945014	2570.547361
556.302606	2573.241857
556.660143	2570.819583
557.017625	2572.067268
557.375050	2570.050807
557.732421	2570.149109
558.089735	2570.726322
558.446994	2569.917216
558.804197	2570.133986
559.161345	2570.847309
559.518437	2568.795560
559.875474	2572.185736
560.232455	2571.419480
560.589381	2570.542319
560.946251	2575.248237
561.303065	2571.585838
561.659825	2573.451065
562.016528	2570.935529
562.373177	2571.396795
562.729770	2570.418811
563.086307	2571.918554
563.442789	2569.186249
563.799216	2569.652556
564.155587	2570.307906
564.511904	2573.680438
564.868164	2571.031311
565.224370	2570.191959
565.580520	2570.781774
565.936615	2569.324881
566.292654	2569.327401
566.648638	2568.029304
567.004567	2570.766651
567.360441	2570.058369
567.716260	2568.160374
568.072023	2570.164233
568.427732	2564.775239
568.783385	2567.547874
569.138982	2566.557287
569.494525	2567.555436
569.850013	2566.327915
570.205445	2569.972669
570.560823	2567.205076
570.916145	2570.529717
571.271412	2568.157854
571.626625	2568.644325
571.981782	2571.122052
572.336884	2569.261866
572.691931	2569.181208
573.046923	2570.534758
573.401860	2571.104408
573.756743	2570.431414
574.111570	2569.297154
574.466342	2569.466033
574.821059	2566.874880
575.175722	2570.151630
575.530330	2568.392267
575.884882	2569.337484
576.239380	2570.917885
576.593823	2570.547361
576.948211	2569.897052
577.302544	2569.876887
577.656823	2569.934860
578.011047	2571.721949
578.365216	2569.458471
578.719330	2571.626168
579.073389	2570.363358
579.427394	2569.256825
579.781344	2570.754048
580.135239	2570.625498
580.489080	2567.956207
580.842866	2569.685323
581.196597	2576.485840
581.550273	2574.098853
581.903895	2573.375448
582.257463	2572.672207
582.610975	2571.742114
582.964434	2572.256312
583.317837	2572.747824
583.671186	2573.269584
584.024481	2575.248237
584.377721	2574.328226
584.730906	2571.295972
585.084037	2574.983576
585.437113	2572.987279
585.790135	2576.458113
586.143103	2573.201528
586.496016	2575.643967
586.848874	2569.937381
587.201679	2572.722618
587.554428	2571.038873
587.907124	2575.984245
588.259765	2574.234965
588.612352	2575.585994
588.964884	2576.808474
589.317362	2577.831828
589.669786	2578.615727
590.022155	2578.688824
590.374470	2576.989955
590.726731	2578.303176
591.078937	2576.836200
591.431090	2579.911304
591.783188	2580.896849
592.135232	2581.930286
592.487222	2579.702096
592.839157	2583.583784
593.191038	2583.097313
593.542866	2584.236614
593.894639	2583.503126
594.246358	2586.207705
594.598022	2585.075966
594.949633	2583.485482
595.301190	2583.331727
595.652692	2587.394897
596.004141	2586.439598
596.355535	2588.234249
596.706876	2586.583271
597.058162	2588.458580
597.409395	2588.360278
597.760573	2589.066039
598.111698	2589.993612
598.462768	2591.122830
598.813785	2592.945207
599.164748	2593.010742
599.515657	2593.484611
599.866511	2594.608788
600.217312	2593.560228
600.568060	2596.083325
600.918753	2599.533995
601.269392	2598.319077
601.619978	2596.617688
601.970510	2600.993409
602.320988	2599.065168
602.671412	2604.640684
603.021783	2602.024325
603.372100	2604.673452
603.722363	2608.015737
604.072572	2609.147476
604.422728	2611.171499
604.772830	2606.016919
605.122878	2607.884667
605.472872	2612.272991
605.822813	2608.900459
606.172701	2615.501850
606.522534	2617.283898
606.872314	2621.689866
607.222041	2623.383694
607.571714	2626.148767
607.921333	2626.325207
608.270899	2627.527522
608.620411	2631.779736
608.969870	2632.808131
609.319276	2635.106897
609.668627	2640.503452
610.017926	2644.962353
610.367171	2651.392345
610.716362	2652.148518
611.065500	2654.059115
611.414585	2657.154384
611.763616	2657.474497
612.112594	2660.121103
612.461518	2663.294509
612.810389	2664.685867
613.159207	2668.360869
613.507971	2671.408246
613.856682	2675.557116
614.205340	2676.232630
614.553945	2682.735719
614.902496	2686.488858
615.250994	2688.807789
615.599439	2695.487317
615.947830	2699.270703
616.296169	2699.946218
616.644454	2706.640870
616.992686	2709.995758
617.340864	2716.947509
617.688990	2718.522870
618.037063	2731.193810
618.385082	2733.853019
618.733048	2743.272415
619.080961	2747.000348
619.428821	2756.959147
619.776628	2759.767070
620.124382	2765.879469
620.472083	2768.387443
620.819731	2770.887856
621.167326	2773.468926
621.514868	2773.494132
621.862357	2778.626027
622.209793	2781.270112
622.557176	2786.893519
622.904506	2783.823456
623.251783	2784.856893
623.599007	2790.381997
623.946179	2792.937862
624.293297	2799.960190
624.640363	2800.030766
624.987376	2803.403298
625.334336	2809.001499
625.681243	2813.644402
626.028097	2817.715134
626.374899	2825.110506
626.721647	2828.266269
627.068343	2832.904130
627.414987	2836.369923
627.761577	2840.170953
628.108115	2850.177644
628.454600	2853.162007
628.801032	2865.671630
629.147412	2866.853781
629.493739	2875.096067
629.840014	2877.936757
630.186236	2889.659961
630.532405	2887.512429
630.878521	2902.845099
631.224585	2905.902558
631.570597	2906.562950
631.916556	2921.716658
632.262462	2928.280240
632.608316	2934.591765
632.954117	2939.186777
633.299866	2945.281532
633.645562	2954.852162
633.991206	2953.468366
634.336797	2956.215794
634.682336	2957.594550
635.027823	2961.856846
635.373257	2965.330201
635.718639	2964.997484
636.063968	2973.443938
636.409245	2967.109728
636.754470	2975.752786
637.099642	2980.990545
637.444762	2981.217397
637.789829	2989.873058
638.134845	2992.887668
638.479808	2996.431599
638.824719	3003.075840
639.169577	3002.037362
639.514383	3011.124042
639.859137	3010.647653
640.203839	3018.229548
640.548489	3025.919829
640.893086	3026.549973
641.237632	3031.069367
641.582125	3042.230482
641.926566	3047.301883
642.270955	3059.803944
642.615292	3066.841395
642.959576	3078.960329
643.303809	3086.433839
643.647990	3094.852566
643.992118	3099.543360
644.336195	3098.577979
644.680219	3115.039867
645.024192	3112.824280
645.368112	3144.006337
645.711981	3157.597288
646.055797	3175.558919
646.399562	3182.767769
646.743274	3217.491237
647.086935	3237.764237
647.430544	3246.150196
647.774101	3267.076026
648.117606	3266.219030
648.461059	3274.231944
648.804460	3281.619755
649.147810	3264.552928
649.491108	3271.086264
649.834354	3275.136831
650.177548	3269.707508
650.520690	3261.041765
650.863781	3265.001591
651.206820	3278.390896
651.549807	3266.637445
651.892742	3269.450409
652.235626	3276.722274
652.578458	3285.297276
652.921238	3274.398302
653.263967	3291.329017
653.606644	3281.586987
653.949269	3295.745068
654.291843	3289.070580
654.634365	3309.600679
654.976836	3316.716268
655.319255	3315.153510
655.661622	3327.138853
656.003938	3336.787622
656.346203	3327.998370
656.688416	3349.284642
657.030577	3340.243333
657.372687	3343.298272
657.714746	3348.518387
658.056753	3365.315511
658.398708	3362.084132
658.740612	3360.365098
659.082465	3388.824932
659.424266	3391.463976
659.766016	3404.533168
660.107715	3414.466761
660.449362	3423.964295
660.790958	3433.028290
661.132503	3440.763940
661.473996	3462.443423
661.815438	3461.881334
662.156829	3473.072695
662.498168	3477.513952
662.839456	3474.650577
663.180693	3496.685460
663.521879	3502.248373
663.863013	3511.062831
664.204097	3533.037220
664.545129	3548.516083
664.886110	3562.094431
665.227040	3581.180240
665.567918	3573.681523
665.908746	3595.378649
666.249522	3604.949280
666.590248	3605.234105
666.930922	3624.614821
667.271545	3643.123417
667.612118	3651.824449
667.952639	3643.272132
668.293109	3667.275586
668.633528	3662.068074
668.973896	3663.814833
669.314213	3670.073426
669.654480	3685.360725
669.994695	3685.232176
670.334859	3687.916590
670.674973	3703.050134
671.015035	3707.907286
671.355047	3722.897157
671.695008	3725.720203
672.034918	3716.041187
672.374777	3729.677508
672.714585	3735.565576
673.054342	3746.343563
673.394049	3752.657608
673.733705	3777.865898
674.073310	3787.050880
674.412864	3766.767798
674.752368	3781.245992
675.091820	3790.882157
675.431223	3773.323818
675.770574	3785.639357
676.109875	3768.927932
676.449125	3787.731436
676.788324	3776.529992
677.127473	3764.584978
677.466571	3767.655041
677.805619	3779.305148
678.144616	3785.205818
678.483562	3780.693985
678.822458	3777.840692
679.161303	3787.670942
679.500098	3790.390645
679.838842	3791.023310
680.177535	3801.428251
680.516179	3809.121052
680.854771	3829.046212
681.193314	3868.551215
681.531805	3919.083741
681.870247	4000.629445
682.208638	4050.650294
682.546978	4060.704876
682.885268	4065.778797
683.223508	4037.069426
683.561697	4022.210625
683.899836	4016.277187
684.237925	4006.436855
684.575963	3991.416737
684.913951	3979.323009
685.251889	4029.321172
685.589776	4006.590610
685.927614	3997.506451
686.265401	4046.894635
686.603137	4040.651166
686.940824	4090.041871
687.278460	4107.955611
687.616046	4119.479688
687.953582	4152.532014
688.291068	4148.685613
688.628504	4200.375084
688.965889	4178.168802
689.303224	4155.622241
689.640510	4145.408863
689.977745	4120.104792
690.314930	4078.391764
690.652065	4053.581725
690.989150	4011.926671
691.326185	3993.463445
691.663170	3976.610868
692.000105	3942.502421
692.336990	3906.594282
692.673825	3907.789036
693.010610	3875.104715
693.347345	3833.308508
693.684030	3850.624872
694.020665	3829.111747
694.357251	3785.856127
694.693786	3798.516985
695.030272	3785.911580
695.366707	3776.600568
695.703093	3764.237139
696.039429	3779.221968
696.375716	3780.147020
696.711952	3769.971451
697.048139	3766.490534
697.384276	3759.536263
697.720363	3771.025052
698.056400	3782.894449
698.392388	3755.221035
698.728326	3748.607041
699.064214	3740.155547
699.400053	3743.770054
699.735842	3732.954258
700.071581	3722.473700
700.407270	3713.402143
700.742910	3709.863253
701.078501	3683.447607
701.414042	3689.597815
701.749533	3680.425435
702.084974	3638.480515
702.420366	3682.172195
702.755709	3652.426867
703.091002	3617.022843
703.426246	3658.042712
703.761440	3633.504896
704.096584	3609.917337
704.431679	3636.413642
704.766725	3630.031541
705.101721	3625.930562
705.436668	3649.876043
705.771565	3615.949078
706.106413	3636.915237
706.441212	3666.632838
706.775961	3674.817152
707.110661	3659.338289
707.445311	3679.419725
707.779913	3706.699929
708.114465	3714.138152
708.448967	3728.691963
708.783421	3769.941204
709.117825	3798.653096
709.452180	3801.478663
709.786485	3834.896472
710.120742	3887.808422
710.454949	3875.883573
710.789107	3921.984925
711.123216	3968.242552
711.457275	3960.610246
711.791286	4014.066641
712.125247	4027.297149
712.459159	3962.404896
712.793023	4010.099253
713.126837	4010.250487
713.460602	4004.808562
713.794318	3951.891570
714.127985	3968.837409
714.461602	3925.279319
714.795171	3906.871546
715.128691	3877.673182
715.462162	3846.095395
715.795584	3818.290911
716.128957	3812.433090
716.462281	3780.835138
716.795556	3772.136627
717.128782	3749.499325
717.461960	3708.602965
717.795088	3720.671487
718.128167	3692.672919
718.461198	3655.232269
718.794180	3656.469872
719.127113	3646.483347
719.459997	3637.008498
719.792833	3609.178808
720.125619	3604.924074
720.458357	3586.738112
720.791046	3593.301694
721.123686	3576.071030
721.456278	3548.846279
721.788821	3562.059143
722.121315	3548.127914
722.453761	3527.623021
722.786158	3542.779250
723.118506	3562.626273
723.450805	3526.617311
723.783056	3542.814538
724.115259	3562.354051
724.447412	3568.617684
724.779518	3562.873289
725.111574	3568.728590
725.443582	3588.961261
725.775542	3578.397523
726.107453	3620.554172
726.439315	3621.380921
726.771129	3631.122951
727.102895	3656.439625
727.434612	3695.695090
727.766281	3702.041903
728.097901	3700.194320
728.429473	3709.192780
728.760996	3719.633009
729.092471	3715.625292
729.423897	3710.500959
729.755276	3723.239955
730.086606	3723.333216
730.417887	3751.480499
730.749120	3808.574087
731.080305	3857.647199
731.411442	3876.929612
731.742530	3856.086962
732.073570	3862.612735
732.404562	3910.869181
732.735506	3903.856936
733.066401	3874.245198
733.397249	3833.452181
733.728048	3783.849748
734.058798	3725.967219
734.389501	3677.539375
734.720156	3630.097076
735.050762	3602.292592
735.381320	3598.075667
735.711831	3555.750139
736.042293	3538.191800
736.372707	3558.530335
736.703073	3535.756923
737.033391	3529.858773
737.363661	3544.278993
737.693883	3567.412848
738.024056	3571.881831
738.354182	3563.412693
738.684260	3619.493009
739.014290	3631.687560
739.344272	3625.068525
739.674207	3660.848114
740.004093	3665.775842
740.333931	3661.135460
740.663722	3665.629649
740.993464	3665.511182
741.323159	3650.004592
741.652806	3631.763177
741.982405	3610.572687
742.311956	3590.098041
742.641460	3590.002259
742.970915	3569.555339
743.300323	3540.309085
743.629683	3514.775641
743.958996	3508.577542
744.288260	3489.884943
744.617477	3464.598516
744.946647	3454.226342
745.275768	3438.097170
745.604842	3438.432407
745.933869	3398.902199
746.262847	3391.191754
746.591778	3430.240532
746.920662	3403.310688
747.249498	3381.928634
747.578286	3420.758121
747.907027	3433.139195
748.235720	3428.854214
748.564365	3453.860858
748.892963	3454.591825
749.221514	3437.467026
749.550017	3421.655447
749.878473	3423.104778
750.206881	3397.226015
750.535242	3399.711304
750.863555	3400.684247
751.191821	3398.483783
751.520039	3378.054507
751.848210	3361.882486
752.176334	3398.456057
752.504411	3401.972262
752.832440	3364.297198
753.160421	3353.236907
753.488356	3360.818802
753.816243	3374.704660
754.144082	3334.035152
754.471875	3324.880416
754.799620	3341.891790
755.127318	3332.888289
755.454969	3336.127231
755.782572	3339.998837
756.110129	3319.461176
756.437638	3311.818787
756.765100	3326.584326
757.092515	3333.402487
757.419882	3341.944722
757.747203	3318.445383
758.074477	3316.401196
758.401703	3334.211592
758.728882	3348.611648
759.056014	3358.673791
759.383099	3363.707383
759.710138	3360.390304
760.037129	3374.659290
760.364073	3401.765574
760.690970	3388.590519
761.017820	3367.997405
761.344623	3389.409706
761.671379	3429.068463
761.998088	3475.961277
762.324751	3590.150973
762.651366	3805.153664
762.977935	4206.094273
763.304456	4587.150051
763.630931	4678.049617
763.957359	4365.195609
764.283740	4072.024787
764.610074	3915.509563
764.936362	3744.531268
765.262602	3600.994495
765.588796	3507.982686
765.914943	3430.283382
766.241044	3354.356043
766.567097	3329.772856
766.893104	3286.693676
767.219064	3262.740633
767.544978	3238.449834
767.870845	3188.796989
768.196665	3173.781912
768.522438	3181.814991
768.848165	3178.903724
769.173846	3146.247130
769.499479	3130.720376
769.825066	3117.454580
770.150607	3102.777260
770.476101	3118.235958
770.801548	3113.542644
771.126949	3076.548137
771.452303	3058.402503
771.777611	3066.755695
772.102872	3071.905234
772.428087	3050.356822
772.753256	3041.963301
773.078378	3034.010881
773.403453	3002.581807
773.728482	2992.771722
774.053465	3015.162006
774.378401	3001.142558
774.703291	2974.651294
775.028135	2976.965184
775.352932	2970.915799
775.677683	2961.146043
776.002388	2958.202009
776.327046	2958.900209
776.651658	2948.669187
776.976224	2938.269287
777.300743	2938.528906
777.625216	2931.327618
777.949643	2925.371495
778.274024	2929.797628
778.598359	2916.554517
778.922647	2923.970054
779.246889	2924.171700
779.571086	2907.626633
779.895236	2901.627660
780.219339	2912.723240
780.543397	2924.806885
780.867409	2929.747216
781.191374	2921.056267
781.515294	2919.828746
781.839167	2920.126174
782.162995	2910.873136
782.486776	2921.101637
782.810511	2920.163983
783.134201	2908.135790
783.457844	2913.219793
783.781441	2904.536406
784.104993	2886.030330
784.428498	2888.727347
784.751958	2902.116652
785.075372	2896.296640
785.398739	2881.820967
785.722061	2897.430899
786.045337	2907.858526
786.368568	2890.834550
786.691752	2885.702655
787.014891	2930.977258
787.337983	2957.438274
787.661030	2980.839310
787.984031	3042.144782
788.306987	3083.552820
788.629897	3079.124166
788.952760	3068.073957
789.275579	3049.817418
789.598351	2996.852536
789.921078	2954.002728
790.243759	2947.582818
790.566395	2931.740993
790.888984	2910.500091
791.211529	2894.418810
791.534027	2886.335320
791.856480	2879.819628
792.178888	2862.581403
792.501249	2857.300794
792.823566	2853.114116
793.145836	2852.766276
793.468062	2847.939372
793.790241	2848.738394
794.112375	2850.676718
794.434464	2862.105014
794.756507	2868.330839
795.078505	2871.153885
795.400457	2886.221894
795.722364	2920.337903
796.044226	2941.803136
796.366042	2942.012343
796.687812	2932.242587
797.009538	2952.911318
797.331218	2942.062755
797.652852	2929.737134
797.974442	2914.560740
798.295986	2912.587128
798.617484	2904.264183
798.938938	2888.853376
799.260346	2874.327291
799.581709	2870.369986
799.903026	2862.783049
800.224299	2861.399252
800.545526	2852.047912
800.866708	2836.621981
801.187845	2825.881803
801.508936	2827.825168
801.829983	2833.841785
802.150984	2823.983808
802.471940	2812.736994
802.792851	2810.254226
803.113717	2811.998465
803.434538	2816.921152
803.755314	2808.565439
804.076045	2803.297434
804.396731	2803.274748
804.717372	2803.688123
805.037967	2799.083029
805.358518	2806.617033
805.679024	2817.158086
805.999485	2813.057107
806.319901	2815.865030
806.640272	2808.278094
806.960598	2815.582726
807.280879	2824.107317
807.601115	2829.319870
807.921306	2818.551965
808.241453	2811.811942
808.561554	2818.917449
808.881611	2820.155052
809.201623	2813.883857
809.521590	2815.681028
809.841513	2811.748928
810.161390	2816.903508
810.481223	2809.203145
810.801011	2798.052113
811.120755	2795.319808
811.440453	2799.539253
811.760107	2798.790642
812.079716	2797.356434
812.399281	2790.908798
812.718801	2781.123918
813.038276	2776.743156
813.357707	2783.445370
813.677093	2792.070784
813.996434	2786.553241
814.315731	2778.719288
814.634983	2777.882457
814.954191	2779.440173
815.273354	2791.816206
815.592473	2801.941363
815.911547	2801.782567
816.230577	2808.961170
816.549562	2816.371666
816.868502	2816.107006
817.187399	2826.847184
817.506250	2840.135665
817.825058	2833.753565
818.143821	2848.113291
818.462539	2862.180631
818.781213	2886.758777
819.099843	2925.406783
819.418429	2974.870584
819.736970	3032.705222
820.055466	3100.939760
820.373919	3202.546736
820.692327	3338.284844
821.010691	3499.019514
821.329011	3911.781629
821.647286	4742.841047
821.965517	6005.198902
822.283704	6673.897877
822.601847	6656.578993
822.919945	6077.650365
823.237999	5632.496316
823.556010	5086.249488
823.873976	4578.529678
824.191897	4202.749468
824.509775	3925.435595
824.827609	3670.043179
825.145398	3553.900036
825.463144	3549.521793
825.780845	3638.445227
826.098502	3737.312336
826.416116	4005.897451
826.733685	4299.721103
827.051210	4353.837890
827.368692	4246.514245
827.686129	3995.865555
828.003522	3690.180068
828.320872	3447.473716
828.638177	3263.713576
828.955439	3133.964358
829.272656	3057.563151
829.589830	2994.969665
829.906960	2949.064918
830.224046	2905.796694
830.541088	2872.187322
830.858086	2860.489324
831.175041	2841.728670
831.491952	2842.900738
831.808819	2855.415403
832.125642	2878.909700
832.442421	2922.578695
832.759157	2998.644666
833.075849	3168.450892
833.392497	3439.049948
833.709101	3629.073722
834.025662	3575.113211
834.342179	3424.896909
834.658653	3257.830550
834.975083	3117.268057
835.291469	3027.991743
835.607811	2947.547530
835.924110	2892.130126
836.240366	2842.557940
836.556578	2803.299954
836.872746	2781.260030
837.188871	2761.516351
837.504952	2746.420615
837.820990	2734.510889
838.136984	2724.239538
838.452935	2718.550596
838.768842	2713.489278
839.084706	2731.350086
839.400526	2811.106181
839.716303	2934.445572
840.032037	3010.750997
840.347727	2993.366578
840.663373	2934.014553
840.978977	2865.056609
841.294537	2796.310394
841.610054	2751.282808
841.925527	2729.615929
842.240957	2712.483568
842.556344	2691.169569
842.871687	2672.708864
843.186987	2665.202586
843.502244	2661.658655
843.817458	2659.778304
844.132629	2647.745070
844.447756	2637.677886
844.762840	2631.429376
845.077881	2635.220323
845.392879	2633.944911
845.707833	2630.176649
846.022745	2621.069804
846.337613	2625.195989
846.652438	2622.814044
846.967221	2622.539301
847.281960	2620.106944
847.596656	2622.365381
847.911309	2619.045781
848.225919	2620.081738
848.540485	2611.055552
848.855009	2613.424895
849.169490	2614.465893
849.483928	2613.855913
849.798323	2612.983794
850.112675	2610.077568
850.426984	2611.660491
850.741251	2609.603700
851.055474	2612.179730
851.369654	2616.434463
851.683792	2615.287601
851.997887	2612.953547
852.311938	2608.320726
852.625947	2615.282560
852.939914	2613.445059
853.253837	2615.312807
853.567718	2612.091509
853.881555	2609.298710
854.195350	2614.516304
854.509103	2615.920266
854.822812	2609.790223
855.136479	2609.326437
855.450103	2610.377517
855.763685	2613.011520
856.077224	2612.346088
856.390720	2605.865684
856.704173	2608.698813
857.017584	2615.706017
857.330953	2615.297683
857.644278	2618.982767
857.957561	2618.743312
858.270802	2614.014710
858.584000	2615.272477
858.897155	2618.856738
859.210268	2620.212808
859.523339	2614.997735
859.836367	2608.804677
860.149352	2610.506067
860.462295	2612.512446
860.775195	2609.717126
861.088054	2607.723350
861.400869	2606.747886
861.713642	2603.914758
862.026373	2606.979779
862.339062	2607.700664
862.651708	2615.446397
862.964312	2613.324072
863.276873	2609.941457
863.589392	2614.113012
863.901869	2620.686677
864.214303	2622.136008
864.526696	2626.073150
864.839045	2628.934004
865.151353	2629.428037
865.463619	2629.062554
865.775842	2630.713532
866.088023	2631.273100
866.400162	2628.434930
866.712258	2629.556587
867.024313	2630.779067
867.336325	2626.017697
867.648296	2630.721093
867.960224	2632.843419
868.272110	2631.036166
868.583954	2624.757408
868.895755	2624.689353
869.207515	2630.600106
869.519233	2637.423307
869.830909	2632.558594
870.142542	2628.112296
870.454134	2629.992647
870.765684	2638.592855
871.077191	2636.478091
871.388657	2640.654687
871.700081	2639.981693
872.011463	2637.902217
872.322803	2641.110912
872.634101	2642.522435
872.945357	2649.600215
873.256571	2656.398211
873.567744	2653.418889
873.878874	2650.865544
874.189963	2649.264978
874.501010	2655.619352
874.812015	2662.417348
875.122979	2662.114879
875.433900	2655.952068
875.744780	2650.696666
876.055618	2659.044816
876.366415	2662.276196
876.677169	2660.131185
876.987882	2653.938127
877.298554	2653.945689
877.609183	2667.067813
877.919771	2672.640808
878.230317	2676.827487
878.540822	2684.769824
878.851285	2702.066023
879.161707	2723.193499
879.472087	2759.890578
879.782425	2799.561939
880.092722	2912.372879
880.402977	3093.436002
880.713191	3336.366685
881.023363	3608.039507
881.333494	3779.597534
881.643583	3945.995941
881.953631	3947.409984
882.263637	3776.766927
882.573602	3564.746078
882.883526	3442.750155
883.193408	3340.760051
883.503248	3244.408477
883.813048	3137.009215
884.122806	3027.356558
884.432522	2948.258333
884.742197	2889.085269
885.051831	2853.908098
885.361424	2823.406596
885.670975	2788.776390
885.980485	2760.654313
886.289954	2744.376427
886.599382	2729.431927
886.908768	2721.154352
887.218113	2702.867567
887.527417	2690.299970
887.836680	2682.113136
888.145901	2676.429235
888.455082	2669.641322
888.764221	2655.997439
889.073319	2651.291522
889.382376	2650.807571
889.691392	2651.888898
890.000366	2652.077942
890.309300	2648.770945
890.618193	2653.486944
890.927044	2655.568941
891.235855	2655.868889
891.544625	2655.760505
891.853353	2655.248827
892.162041	2661.676299
892.470687	2681.702282
892.779293	2690.496575
893.087858	2699.558049
893.396381	2719.077397
893.704864	2760.588778
894.013306	2828.611588
894.321707	2912.357756
894.630068	2959.447174
894.938387	2976.209011
895.246665	2972.007209
895.554903	2927.955086
895.863100	2888.467728
896.171256	2833.824141
896.479371	2777.932868
896.787446	2742.211252
897.095480	2725.373798
897.403473	2718.875751
897.711425	2704.309337
898.019336	2686.511543
898.327207	2673.888494
898.635038	2672.887825
898.942827	2669.890859
899.250576	2659.440547
899.558284	2651.581388
899.865952	2644.894297
900.173579	2644.256592
900.481165	2645.300110
900.788711	2636.130252
901.096216	2631.948614
901.403681	2623.764301
901.711105	2627.250259
902.018489	2625.299332
902.325832	2629.314612
902.633135	2628.997019
902.940397	2645.163999
903.247619	2679.431242
903.554800	2745.183012
903.861941	2863.445961
904.169041	2977.305462
904.476101	3033.743699
904.783121	3027.147350
905.090100	2975.621716
905.397039	2906.124369
905.703938	2838.744307
906.010796	2779.208280
906.317614	2729.772205
906.624391	2699.303471
906.931129	2674.110305
907.237826	2651.914104
907.544483	2636.853657
907.851099	2624.472583
908.157675	2614.770883
908.464211	2606.914244
908.770707	2595.004518
909.077163	2590.815320
909.383578	2591.095104
909.689954	2586.996646
909.996289	2589.260124
910.302584	2589.421441
910.608839	2583.369535
910.915054	2586.764752
911.221229	2587.841039
911.527363	2589.610484
911.833458	2585.839701
912.139513	2587.959506
912.445527	2588.975298
912.751502	2595.347317
913.057436	2600.814448
913.363331	2605.487598
913.669186	2613.193002
913.975000	2630.007770
914.280775	2643.928917
914.586510	2660.784014
914.892205	2694.037986
915.197859	2756.518047
915.503475	2836.473267
915.809050	2898.063564
916.114585	2907.591345
916.420081	2917.519898
916.725536	2928.595313
917.030952	2904.773340
917.336328	2861.744571
917.641665	2816.906028
917.946961	2766.234871
918.252218	2738.274111
918.557435	2715.364587
918.862612	2692.321473
919.167750	2680.179854
919.472848	2663.216371
919.777906	2645.900008
920.082925	2637.922382
920.387904	2627.187245
920.692843	2623.194651
920.997743	2620.177520
921.302603	2613.654267
921.607423	2608.955912
921.912204	2599.521392
922.216946	2598.472832
922.521647	2596.723552
922.826310	2594.248345
923.130932	2589.585278
923.435516	2581.854669
923.740059	2584.150914
924.044564	2581.075810
924.349028	2580.296952
924.653454	2572.538616
924.957840	2569.922258
925.262186	2569.156002
925.566493	2570.897721
925.870761	2564.802966
926.174989	2566.494273
926.479178	2561.216185
926.783328	2564.326577
927.087438	2560.301215
927.391509	2561.672409
927.695541	2562.050496
927.999533	2559.174518
928.303486	2554.178734
928.607400	2555.807027
928.911275	2554.824002
929.215110	2555.101265
929.518906	2558.385577
929.822663	2556.056564
930.126381	2556.275854
930.430060	2556.616132
930.733699	2556.701832
931.037299	2557.054712
931.340861	2558.544373
931.644383	2556.321224
931.947866	2559.353478
932.251309	2558.670402
932.554714	2557.163097
932.858080	2557.599157
933.161407	2556.507747
933.464694	2556.669064
933.767943	2556.336348
934.071153	2557.268961
934.374323	2553.886347
934.677455	2554.602191
934.980548	2553.357026
935.283602	2553.271326
935.586617	2554.070349
935.889593	2554.035061
936.192530	2553.150339
936.495428	2556.427089
936.798287	2555.108827
937.101108	2552.885678
937.403890	2558.153684
937.706632	2561.311967
938.009336	2565.682647
938.312002	2567.673903
938.614628	2573.645150
938.917216	2572.526013
939.219765	2577.068093
939.522275	2579.432394
939.824747	2576.221179
940.127179	2570.292782
940.429573	2569.518965
940.731929	2566.305230
941.034246	2563.729200
941.336524	2562.085784
941.638763	2568.609037
941.940964	2566.779098
942.243126	2564.593758
942.545250	2563.736762
942.847335	2562.267265
943.149381	2560.384394
943.451389	2560.281051
943.753359	2558.534291
944.055290	2560.651576
944.357182	2556.815258
944.659036	2558.337686
944.960851	2558.070505
945.262628	2557.495813
945.564367	2557.016904
945.866067	2558.786349
946.167729	2556.696790
946.469352	2558.930022
946.770937	2555.703683
947.072484	2557.747871
947.373992	2556.928683
947.675462	2555.895247
947.976893	2558.554456
948.278286	2554.972716
948.579641	2553.515822
948.880958	2557.042109
949.182236	2555.509599
949.483476	2556.666543
949.784678	2557.760474
950.085841	2552.535318
950.386967	2558.887172
950.688054	2555.900288
950.989103	2554.622356
951.290114	2557.735268
951.591087	2557.916750
951.892021	2556.691749
952.192917	2561.939590
952.493776	2557.836091
952.794596	2558.594785
953.095378	2562.168963
953.396122	2563.378840
953.696828	2563.066288
953.997496	2557.447922
954.298126	2559.373643
954.598718	2558.814075
954.899272	2558.572100
955.199788	2555.592778
955.500266	2555.265103
955.800706	2551.184289
956.101108	2549.099772
956.401472	2547.448794
956.701798	2548.434339
957.002087	2544.086344
957.302337	2549.523228
957.602550	2547.511808
957.902724	2547.075748
958.202861	2544.708927
958.502960	2547.937786
958.803022	2544.945861
959.103045	2543.640202
959.403031	2542.402599
959.702979	2544.318237
960.002889	2543.738504
960.302762	2545.253371
960.602596	2545.820501
960.902393	2540.219779
961.202153	2540.723894
961.501875	2541.033925
961.801559	2542.914276
962.101205	2540.565098
962.400814	2544.681200
962.700385	2541.467465
962.999918	2540.481919
963.299414	2541.263298
963.598873	2542.579039
963.898293	2540.839841
964.197677	2543.075593
964.497022	2539.420756
964.796331	2540.368493
965.095601	2543.491488
965.394835	2543.204142
965.694030	2541.215407
965.993189	2541.669111
966.292309	2541.626261
966.591393	2541.863195
966.890439	2539.942516
967.189447	2540.297917
967.488419	2541.648946
967.787353	2542.911755
968.086249	2540.819676
968.385108	2542.720191
968.683930	2543.183978
968.982714	2542.180788
969.281462	2537.938657
969.580172	2540.744059
969.878844	2540.560057
970.177480	2540.108874
970.476078	2541.795140
970.774639	2542.720191
971.073162	2540.885211
971.371649	2541.888401
971.670098	2541.938813
971.968510	2541.691796
972.266885	2536.703574
972.565223	2540.113915
972.863524	2542.193391
973.161788	2546.203629
973.460014	2544.106509
973.758204	2545.815460
974.056356	2541.984183
974.354471	2542.783206
974.652550	2543.793957
974.950591	2541.273380
975.248595	2541.628782
975.546563	2543.151210
975.844493	2541.717002
976.142386	2540.791950
976.440243	2543.627599
976.738062	2542.836138
977.035845	2541.429656
977.333590	2540.340767
977.631299	2541.860675
977.928971	2541.394368
978.226606	2540.827238
978.524204	2542.773123
978.821765	2544.414019
979.119290	2539.113246
979.416777	2541.328833
979.714228	2541.646426
980.011642	2540.917979
980.309020	2542.407640
980.606360	2543.146169
980.903664	2541.969059
981.200931	2544.421581
981.498162	2543.408309
981.795356	2544.487116
982.092513	2548.507436
982.389633	2549.729916
982.686717	2553.319217
982.983764	2553.180586
983.280775	2556.449774
983.577749	2555.106306
983.874686	2556.112017
984.171587	2549.510626
984.468451	2550.702858
984.765279	2548.058773
985.062070	2548.605738
985.358824	2546.548948
985.655543	2547.395862
985.952224	2542.447969
986.248869	2541.185160
986.545478	2536.819521
986.842050	2541.901004
987.138586	2537.794984
987.435086	2539.282124
987.731549	2534.160312
988.027975	2540.504604
988.324366	2540.618030
988.620719	2540.265149
988.917037	2540.676003
989.213318	2537.742052
989.509563	2541.956457
989.805772	2542.526107
990.101944	2539.680376
990.398080	2541.611138
990.694180	2541.263298
990.990244	2542.326981
991.286271	2538.722556
991.582262	2541.182639
991.878217	2537.671476
992.174136	2536.423790
992.470019	2539.362783
992.765865	2538.140303
993.061676	2535.745755
993.357450	2538.475540
993.653188	2539.826569
993.948890	2540.073586
994.244556	2537.870601
994.540186	2542.523586
994.835780	2541.427135
995.131337	2542.334543
995.426859	2540.101312
995.722345	2540.975952
996.017795	2543.345294
996.313208	2544.668597
996.608586	2542.911755
996.903928	2542.599204
997.199234	2545.139945
997.494504	2543.504091
997.789738	2541.830428
998.084936	2540.318082
998.380099	2541.969059
998.675225	2540.761703
998.970316	2539.335057
999.265371	2538.790612
999.560390	2540.139121
999.855373	2539.662732
1000.150320	2539.882022
1000.445232	2539.675334
1000.740108	2540.469316
1001.034948	2541.966539
1001.329752	2536.454037
1001.624521	2539.811446
1001.919254	2535.350024
1002.213951	2536.287679
1002.508613	2534.659386
1002.803239	2534.455220
1003.097829	2533.749458
1003.392384	2537.001002
1003.686903	2538.601569
1003.981386	2538.606610
1004.275834	2539.826569
1004.570246	2538.162988
1004.864623	2537.048893
1005.158964	2536.355735
1005.453270	2538.911600
1005.747540	2538.299099
1006.041775	2539.750952
1006.335974	2536.179294
1006.630138	2540.900335
1006.924266	2539.299768
1007.218359	2539.274563
1007.512416	2537.709284
1007.806438	2539.360262
1008.100425	2538.238606
1008.394376	2539.912269
1008.688292	2539.390509
1008.982172	2538.346990
1009.276017	2536.847247
1009.569827	2537.603420
1009.863602	2537.759696
1010.157341	2536.927906
1010.451045	2538.601569
1010.744714	2538.178112
1011.038347	2538.967052
1011.331945	2538.301620
1011.625508	2537.784902
1011.919036	2535.839016
1012.212528	2537.061496
1012.505986	2537.805066
1012.799408	2538.972093
1013.092795	2537.333718
1013.386147	2541.036446
1013.679464	2539.582073
1013.972745	2537.061496
1014.265992	2538.195756
1014.559204	2539.332536
1014.852380	2538.478060
1015.145521	2538.251208
1015.438628	2540.144162
1015.731699	2538.246167
1016.024736	2535.854140
1016.317737	2537.583256
1016.610703	2539.571991
1016.903635	2534.495549
1017.196531	2532.902544
1017.489393	2534.079654
1017.782219	2533.943543
1018.075011	2536.809438
1018.367768	2538.404964
1018.660490	2538.588966
1018.953177	2538.588966
1019.245829	2538.588966
