Dividing Wavelength (nm)	Counts (n)	Blue Motor Position (mm): 0.500000	Red Motor Position (mm): 0.000000	
326.493990	2145.212608
326.888308	2145.212608
327.282561	2145.212608
327.676750	2111.973760
328.070874	2110.771445
328.464933	2113.758328
328.858929	2120.770573
329.252859	2129.350617
329.646726	2140.758748
330.040528	2156.582930
330.434265	2171.880312
330.827938	2190.472087
331.221547	2208.005220
331.615091	2226.221429
332.008571	2247.285891
332.401986	2265.643253
332.795338	2284.635800
333.188625	2302.199180
333.581847	2321.569813
333.975006	2338.752586
334.368100	2360.542974
334.761129	2378.464276
335.154095	2393.325597
335.546996	2412.386200
335.939833	2425.604105
336.332606	2439.507607
336.725315	2452.155863
337.117960	2462.303705
337.510540	2469.313430
337.903056	2483.153918
338.295508	2486.695328
338.687896	2498.153871
339.080220	2506.766682
339.472480	2511.742301
339.864676	2515.951664
340.256807	2522.127078
340.648875	2524.146060
341.040879	2528.604961
341.432818	2526.386853
341.824694	2529.212420
342.216506	2530.205527
342.608253	2531.944725
342.999937	2528.428520
343.391557	2530.477749
343.783113	2526.759898
344.174605	2526.545649
344.566033	2525.522295
344.957397	2524.357788
345.348697	2522.689167
345.739934	2520.657582
346.131106	2517.590039
346.522215	2518.615914
346.913260	2513.073166
347.304241	2511.971673
347.695159	2513.670542
348.086012	2510.986128
348.476802	2508.697444
348.867528	2505.090498
349.258191	2505.697957
349.648789	2503.270642
350.039324	2502.897597
350.429796	2503.608399
350.820203	2498.065651
351.210548	2500.319046
351.600828	2502.411125
351.991045	2495.744199
352.381198	2499.396515
352.771288	2497.102790
353.161314	2496.449961
353.551276	2496.679333
353.941175	2496.354179
354.331010	2495.315701
354.720782	2496.523058
355.110490	2496.878459
355.500135	2495.877790
355.889717	2495.202275
356.279235	2496.001298
356.668689	2498.804180
357.058080	2497.511124
357.447408	2495.023314
357.836672	2496.207985
358.225873	2496.029024
358.615010	2494.322594
359.004084	2501.634787
359.393095	2500.515651
359.782043	2503.570591
360.170927	2503.989006
360.559748	2502.390961
360.948505	2503.184942
361.337199	2503.386588
361.725830	2502.121259
362.114398	2503.709222
362.502903	2504.019253
362.891344	2505.569408
363.279722	2503.462206
363.668037	2507.187618
364.056289	2505.244254
364.444478	2504.989675
364.832603	2506.885149
365.220665	2505.914727
365.608665	2508.972187
365.996601	2508.059738
366.384474	2507.837927
366.772284	2508.952022
367.160031	2509.274656
367.547715	2511.086951
367.935336	2512.117867
368.322893	2511.822959
368.710388	2510.862620
369.097820	2512.732888
369.485189	2509.912362
369.872495	2509.327588
370.259738	2509.781292
370.646918	2512.581653
371.034035	2511.969153
371.421090	2512.485871
371.808081	2510.242558
372.195010	2513.536952
372.581875	2511.555778
372.968678	2513.000069
373.355418	2513.161386
373.742096	2513.650378
374.128710	2514.789678
374.515262	2512.954698
374.901751	2512.730367
375.288177	2515.379493
375.674540	2512.435460
376.060841	2513.763804
376.447079	2512.632065
376.833254	2511.374297
377.219367	2511.636437
377.605417	2513.988135
377.991404	2510.091323
378.377329	2510.935716
378.763191	2510.729029
379.148991	2517.363188
379.534727	2515.545852
379.920402	2515.997035
380.306013	2517.632889
380.691563	2519.639268
381.077049	2515.790348
381.462474	2517.980729
381.847835	2517.852179
382.233134	2517.398476
382.618371	2517.214473
383.003545	2519.185565
383.388657	2518.930986
383.773706	2518.479803
384.158693	2520.168590
384.543618	2520.098013
384.928480	2517.995852
385.313280	2519.838394
385.698017	2521.070956
386.082692	2522.164887
386.467305	2519.253620
386.851856	2520.682787
387.236344	2522.595905
387.620770	2521.305370
388.005133	2521.174300
388.389435	2522.835360
388.773674	2521.728827
389.157851	2519.603980
389.541965	2520.506347
389.926018	2523.087418
390.310008	2520.650020
390.693936	2523.072294
391.077802	2522.235463
391.461606	2524.693025
391.845348	2521.927952
392.229027	2520.012314
392.612645	2521.746471
392.996200	2522.636234
393.379694	2523.601615
393.763125	2522.510206
394.146494	2522.729496
394.529801	2524.932480
394.913047	2525.628159
395.296230	2523.117665
395.679351	2523.740247
396.062410	2524.030113
396.445408	2524.904754
396.828343	2524.516585
397.211217	2523.026924
397.594028	2523.851152
397.976778	2521.988446
398.359466	2527.758047
398.742092	2520.120699
399.124656	2527.513551
399.507158	2527.553880
399.889598	2525.708818
400.271977	2522.694208
400.654294	2527.594209
401.036549	2526.916174
401.418742	2526.366688
401.800874	2525.794517
402.182944	2527.889117
402.564952	2526.190248
402.946898	2524.982892
403.328783	2529.698891
403.710606	2528.320135
404.092367	2529.572862
404.474067	2527.377440
404.855705	2529.078829
405.237282	2529.565300
405.618797	2529.892975
406.000250	2528.476411
406.381642	2531.105373
406.762972	2529.245187
407.144240	2528.526823
407.525447	2532.968079
407.906593	2530.611340
408.287677	2528.620084
408.668700	2532.584952
409.049661	2531.828778
409.430560	2529.371216
409.811399	2532.668131
410.192176	2531.259128
410.572891	2530.578572
410.953545	2530.044210
411.334138	2529.509848
411.714669	2533.981351
412.095139	2530.429858
412.475547	2530.923891
412.855894	2532.174097
413.236180	2531.120496
413.616405	2534.629139
413.996568	2531.798532
414.376670	2535.965045
414.756711	2533.383974
415.136691	2533.938501
415.516609	2535.564273
415.896466	2533.429345
416.276262	2531.380116
416.655997	2528.972965
417.035670	2529.519930
417.415283	2529.043541
417.794834	2530.699560
418.174324	2531.130579
418.553753	2536.194418
418.933121	2531.700229
419.312428	2532.804242
419.691674	2534.692154
420.070859	2536.829603
420.449983	2532.758871
420.829045	2536.343132
421.208047	2535.082843
421.586988	2536.058307
421.965867	2535.982689
422.344686	2535.425642
422.723444	2535.453368
423.102141	2533.250384
423.480777	2534.876156
423.859352	2537.719367
424.237866	2536.098636
424.616319	2537.568132
424.994712	2537.941177
425.373044	2537.270704
425.751314	2536.020498
426.129524	2535.965045
426.507673	2537.588297
426.885762	2535.687782
427.263789	2537.295910
427.641756	2537.137113
428.019662	2536.718698
428.397508	2537.144675
428.775292	2538.493184
429.153016	2535.687782
429.530679	2539.559388
429.908282	2536.927906
430.285824	2538.662063
430.663305	2537.479912
431.040726	2541.013761
431.418086	2536.552340
431.795385	2538.039480
432.172624	2533.368851
432.549802	2539.425797
432.926920	2537.207690
433.303977	2537.469830
433.680974	2540.512166
434.057910	2541.946374
434.434786	2540.187012
434.811601	2540.655839
435.188355	2539.884542
435.565050	2542.843700
435.941683	2538.480581
436.318257	2538.682227
436.694770	2538.220962
437.071222	2539.178781
437.447614	2534.629139
437.823946	2536.033101
438.200218	2536.943029
438.576429	2542.122815
438.952580	2540.446631
439.328670	2537.885725
439.704700	2540.068544
440.080670	2540.297917
440.456580	2540.900335
440.832429	2540.822197
441.208218	2539.108205
441.583947	2539.750952
441.959616	2540.597866
442.335224	2539.501415
442.710773	2540.176929
443.086261	2542.311858
443.461689	2542.974770
443.837057	2542.848741
444.212365	2540.265149
444.587612	2539.922351
444.962800	2539.289686
445.337927	2541.278421
445.712995	2540.358411
446.088002	2541.124666
446.462949	2542.402599
446.837837	2540.759182
447.212664	2540.910417
447.587431	2541.795140
447.962139	2543.012578
448.336786	2542.886549
448.711374	2541.401930
449.085901	2544.025850
449.460369	2541.638864
449.834776	2544.466951
450.209124	2543.456200
450.583412	2545.248330
450.957640	2541.192722
451.331808	2542.112732
451.705917	2545.379400
452.079965	2544.497198
452.453954	2546.201108
452.827883	2542.911755
453.201752	2542.934440
453.575562	2542.253885
453.949311	2542.841179
454.323001	2542.934440
454.696632	2544.764379
455.070202	2547.484082
455.443713	2545.245809
455.817164	2542.488298
456.190556	2539.990407
456.563888	2541.558205
456.937160	2539.637526
457.310373	2544.083823
457.683526	2542.579039
458.056619	2546.755635
458.429653	2544.169523
458.802628	2544.214893
459.175542	2546.274205
459.548398	2544.560213
459.921194	2544.653474
460.293930	2545.588608
460.666607	2541.810263
461.039224	2548.341078
461.411782	2546.291849
461.784280	2545.838145
462.156719	2545.031560
462.529099	2544.184647
462.901419	2544.078782
463.273680	2546.695141
463.645882	2545.301262
464.018024	2544.474513
464.390106	2543.430994
464.762130	2548.154555
465.134094	2546.768238
465.505999	2544.487116
465.877845	2547.337888
466.249631	2547.350491
466.621358	2545.611293
466.993026	2546.954761
467.364634	2549.525749
467.736184	2547.736139
468.107674	2545.560882
468.479105	2547.526932
468.850477	2545.896118
469.221790	2545.991900
469.593043	2544.797147
469.964238	2547.859648
470.335373	2548.719164
470.706449	2546.165820
471.077467	2545.686910
471.448425	2550.723023
471.819324	2548.492312
472.190164	2548.532642
472.560945	2548.210008
472.931667	2546.720347
473.302330	2549.039278
473.672934	2547.882333
474.043479	2547.960471
474.413965	2546.727909
474.784393	2542.818494
475.154761	2547.668084
475.525070	2541.994265
475.895321	2546.289328
476.265513	2543.546941
476.635645	2550.811243
477.005719	2545.873433
477.375734	2547.781510
477.745691	2547.529452
478.115588	2549.732436
478.485427	2546.821170
478.855207	2550.871737
479.224928	2548.883002
479.594591	2548.366284
479.964194	2547.262271
480.333739	2548.441901
480.703226	2545.180274
481.072653	2547.705892
481.442022	2546.410316
481.811333	2549.124977
482.180584	2547.899977
482.549777	2549.122457
482.918912	2549.394679
483.287988	2547.345450
483.657005	2548.096582
484.025964	2551.542211
484.394864	2549.989535
484.763706	2551.050698
485.132489	2547.564740
485.501213	2551.055739
485.869879	2551.983312
486.238487	2547.968032
486.607036	2548.971222
486.975527	2548.857796
487.343959	2549.656819
487.712333	2549.314021
488.080648	2550.405430
488.448905	2550.105482
488.817104	2550.279402
489.185244	2549.215718
489.553326	2546.468289
489.921350	2548.169679
490.289315	2547.005172
490.657222	2552.114382
491.025070	2551.869886
491.392861	2551.191850
491.760593	2548.855276
492.128267	2550.455842
492.495883	2549.450132
492.863440	2552.174875
493.230939	2549.745039
493.598380	2551.396017
493.965763	2544.209852
494.333088	2547.935265
494.700354	2544.282949
495.067563	2549.003990
495.434713	2545.954092
495.801805	2548.540203
496.168839	2552.008517
496.535815	2549.114895
496.902733	2550.498692
497.269593	2550.919628
497.636395	2551.350647
498.003139	2547.095913
498.369825	2550.297046
498.736453	2549.326623
499.103023	2550.264278
499.469535	2553.089845
499.835989	2549.198074
500.202385	2550.014741
500.568723	2548.603218
500.935003	2555.786862
501.301226	2549.503064
501.667390	2552.689073
502.033497	2552.416851
502.399546	2552.235369
502.765537	2550.995245
503.131470	2547.950388
503.497345	2549.452652
503.863163	2552.948692
504.228923	2551.151521
504.594625	2550.460883
504.960269	2550.433157
505.325856	2551.358208
505.691385	2548.885523
506.056856	2549.407282
506.422270	2548.900646
506.787625	2551.194371
507.152924	2550.095399
507.518164	2550.012220
507.883347	2549.137580
508.248472	2549.268650
508.613540	2549.835780
508.978550	2552.043805
509.343503	2551.728733
509.708398	2552.520194
510.073236	2551.320400
510.438016	2550.102961
510.802738	2550.223949
511.167403	2551.065822
511.532010	2552.134546
511.896561	2553.488096
512.261053	2553.677139
512.625488	2546.725388
512.989866	2546.594318
513.354186	2550.123126
513.718449	2547.650440
514.082655	2549.828218
514.446803	2553.447767
514.810894	2550.470965
515.174927	2554.158569
515.538904	2551.688404
515.902822	2551.453990
516.266684	2550.808723
516.630488	2552.043805
516.994235	2552.142108
517.357925	2552.114382
517.721558	2552.928528
518.085133	2550.090358
518.448651	2552.716799
518.812112	2551.895091
519.175516	2552.999104
519.538863	2551.610266
519.902152	2553.110009
520.265385	2551.983312
520.628560	2555.023127
520.991678	2553.684701
521.354739	2554.055226
521.717743	2553.972047
522.080690	2550.670091
522.443580	2552.268137
522.806413	2552.232849
523.169189	2552.643703
523.531908	2553.147818
523.894569	2552.719320
524.257174	2551.895091
524.619722	2550.523897
524.982213	2553.125133
525.344647	2551.418702
525.707025	2554.955072
526.069345	2551.469114
526.431608	2552.530277
526.793815	2553.309135
527.155964	2553.425082
527.518057	2554.884496
527.880093	2554.398024
528.242072	2552.550441
528.603995	2554.070349
528.965860	2552.300904
529.327669	2553.344423
529.689421	2552.827705
530.051117	2553.500699
530.412755	2550.846531
530.774337	2551.338044
531.135862	2551.980791
531.497331	2555.035730
531.858743	2547.902498
532.220098	2553.523384
532.581396	2548.653629
532.942638	2551.138918
533.303824	2553.916594
533.664953	2552.356357
534.026025	2551.748898
534.387040	2553.790565
534.747999	2554.309804
535.108902	2552.558003
535.469748	2552.104299
535.830537	2553.535987
536.191270	2554.708055
536.551947	2555.292829
536.912567	2555.088662
537.273131	2553.478014
537.633638	2556.069167
537.994089	2553.455328
538.354483	2554.093034
538.714821	2557.722665
539.075103	2553.750236
539.435328	2551.801830
539.795497	2554.244269
540.155609	2553.117571
540.515665	2553.278888
540.875665	2552.658826
541.235609	2555.794424
541.595496	2554.239228
541.955328	2552.759649
542.315102	2554.629917
542.674821	2553.498178
543.034483	2555.897768
543.394090	2555.691080
543.753640	2553.402396
544.113134	2552.994063
544.472571	2555.847356
544.831953	2553.349464
545.191278	2554.750905
545.550548	2555.234856
545.909761	2554.715617
546.268918	2555.073539
546.628019	2554.861810
546.987064	2553.306614
547.346053	2555.560010
547.704986	2553.581357
548.063863	2556.326266
548.422684	2554.493806
548.781449	2551.653116
549.140158	2554.448436
549.498811	2555.323076
549.857408	2554.085473
550.215949	2550.405430
550.574434	2552.310987
550.932864	2548.325954
551.291237	2550.125646
551.649555	2551.504402
552.007817	2556.147305
552.366022	2553.803168
552.724173	2553.755277
553.082267	2553.372149
553.440305	2554.541697
553.798288	2552.608415
554.156215	2554.282078
554.514086	2552.855431
554.871902	2551.118754
555.229661	2554.879454
555.587365	2556.096893
555.945014	2553.208312
556.302606	2554.496327
556.660143	2552.086655
557.017625	2554.042623
557.375050	2555.312994
557.732421	2554.324927
558.089735	2554.019938
558.446994	2553.437684
558.804197	2554.229146
559.161345	2553.306614
559.518437	2554.226625
559.875474	2553.372149
560.232455	2554.234187
560.589381	2553.881306
560.946251	2555.983467
561.303065	2552.812581
561.659825	2554.229146
562.016528	2551.632951
562.373177	2555.227294
562.729770	2551.814433
563.086307	2556.250648
563.442789	2554.327448
563.799216	2554.299722
564.155587	2555.471790
564.511904	2554.829043
564.868164	2552.368960
565.224370	2553.611604
565.580520	2552.915925
565.936615	2557.016904
566.292654	2553.485575
566.648638	2555.935576
567.004567	2552.757129
567.360441	2552.933569
567.716260	2552.769732
568.072023	2555.008004
568.427732	2550.428116
568.783385	2551.766542
569.138982	2550.254196
569.494525	2552.920966
569.850013	2548.812426
570.205445	2553.571275
570.560823	2554.826522
570.916145	2555.108827
571.271412	2553.251162
571.626625	2553.994732
571.981782	2553.644372
572.336884	2555.943138
572.691931	2550.677653
573.046923	2554.201419
573.401860	2557.142932
573.756743	2555.345761
574.111570	2554.398024
574.466342	2555.018086
574.821059	2553.480534
575.175722	2557.112686
575.530330	2555.854918
575.884882	2554.072870
576.239380	2555.799465
576.593823	2557.402552
576.948211	2555.330638
577.302544	2556.230484
577.656823	2554.282078
578.011047	2556.505227
578.365216	2555.386090
578.719330	2557.846173
579.073389	2555.585216
579.427394	2552.971378
579.781344	2553.644372
580.135239	2556.298539
580.489080	2554.836605
580.842866	2556.321224
581.196597	2554.967675
581.550273	2553.717468
581.903895	2553.999773
582.257463	2553.956923
582.610975	2553.470452
582.964434	2556.880792
583.317837	2555.623025
583.671186	2555.439022
584.024481	2557.475649
584.377721	2555.708724
584.730906	2555.650751
585.084037	2555.696121
585.437113	2554.312325
585.790135	2554.801317
586.143103	2557.621842
586.496016	2556.454815
586.848874	2551.869886
587.201679	2557.342058
587.554428	2552.903322
587.907124	2551.058260
588.259765	2549.760163
588.612352	2553.944320
588.964884	2556.999260
589.317362	2556.525391
589.669786	2554.193857
590.022155	2555.232335
590.374470	2554.186296
590.726731	2553.160421
591.078937	2552.394166
591.431090	2557.667212
591.783188	2554.433312
592.135232	2555.406255
592.487222	2554.443395
592.839157	2555.582695
593.191038	2553.485575
593.542866	2556.089331
593.894639	2557.130330
594.246358	2555.285267
594.598022	2552.918446
594.949633	2553.498178
595.301190	2554.597150
595.652692	2554.438353
596.004141	2551.509443
596.355535	2554.723179
596.706876	2555.544887
597.058162	2555.159238
597.409395	2554.612273
597.760573	2557.561348
598.111698	2553.677139
598.462768	2556.626214
598.813785	2555.043292
599.164748	2553.987170
599.515657	2553.735112
599.866511	2554.571944
600.217312	2555.393652
600.568060	2556.031358
600.918753	2556.434650
601.269392	2553.336861
601.619978	2553.359547
601.970510	2555.159238
602.320988	2557.190823
602.671412	2554.607232
603.021783	2555.701163
603.372100	2554.440874
603.722363	2554.763508
604.072572	2555.169321
604.422728	2557.863818
604.772830	2550.445760
605.122878	2552.235369
605.472872	2553.072201
605.822813	2548.867878
606.172701	2551.275029
606.522534	2555.015566
606.872314	2553.951882
607.222041	2553.019269
607.571714	2554.481203
607.921333	2556.273333
608.270899	2555.575134
608.620411	2558.035217
608.969870	2555.486913
609.319276	2557.377346
609.668627	2561.727862
610.017926	2560.979251
610.367171	2562.920095
610.716362	2562.607543
611.065500	2559.749209
611.414585	2559.212326
611.763616	2559.537481
612.112594	2558.234342
612.461518	2556.396842
612.810389	2556.106975
613.159207	2554.597150
613.507971	2555.350802
613.856682	2558.826678
614.205340	2556.543035
614.553945	2555.595298
614.902496	2557.775597
615.250994	2556.036399
615.599439	2556.235525
615.947830	2555.935576
616.296169	2554.387942
616.644454	2555.260062
616.992686	2556.149825
617.340864	2555.640669
617.688990	2554.017417
618.037063	2555.267623
618.385082	2555.973385
618.733048	2558.083108
619.080961	2554.027499
619.428821	2555.945658
619.776628	2554.632438
620.124382	2556.316183
620.472083	2554.697973
620.819731	2554.617314
621.167326	2555.307952
621.514868	2554.324927
621.862357	2554.609753
622.209793	2555.146636
622.557176	2554.849207
622.904506	2553.679660
623.251783	2550.400389
623.599007	2554.740823
623.946179	2551.010369
624.293297	2552.157231
624.640363	2553.881306
624.987376	2554.375339
625.334336	2553.251162
625.681243	2559.691236
626.028097	2552.774773
626.374899	2555.358364
626.721647	2555.617983
627.068343	2555.040771
627.414987	2551.869886
627.761577	2554.423230
628.108115	2553.230997
628.454600	2555.194527
628.801032	2556.016235
629.147412	2554.574465
629.493739	2553.044474
629.840014	2557.392470
630.186236	2555.048333
630.532405	2556.658982
630.878521	2558.191492
631.224585	2555.645710
631.570597	2553.629248
631.916556	2552.610935
632.262462	2554.869372
632.608316	2555.378529
632.954117	2554.826522
633.299866	2552.983981
633.645562	2553.452808
633.991206	2554.786193
634.336797	2556.369115
634.682336	2556.028837
635.027823	2554.418189
635.373257	2553.551110
635.718639	2556.283416
636.063968	2556.573282
636.409245	2550.990204
636.754470	2554.854249
637.099642	2554.748384
637.444762	2556.706873
637.789829	2556.757284
638.134845	2554.196378
638.479808	2555.433981
638.824719	2554.289639
639.169577	2556.545556
639.514383	2553.420040
639.859137	2553.848538
640.203839	2555.214691
640.548489	2555.267623
640.893086	2551.600184
641.237632	2553.309135
641.582125	2550.944834
641.926566	2549.268650
642.270955	2557.246276
642.615292	2554.387942
642.959576	2556.606050
643.303809	2551.935421
643.647990	2553.967006
643.992118	2554.554300
644.336195	2551.738816
644.680219	2552.956254
645.024192	2553.435164
645.368112	2554.335010
645.711981	2554.481203
646.055797	2553.901471
646.399562	2556.149825
646.743274	2553.107489
647.086935	2555.791903
647.430544	2553.639331
647.774101	2553.384752
648.117606	2555.383570
648.461059	2554.776111
648.804460	2555.567572
649.147810	2552.232849
649.491108	2556.427089
649.834354	2553.304094
650.177548	2552.069011
650.520690	2555.363405
650.863781	2553.145298
651.206820	2556.800134
651.549807	2553.485575
651.892742	2551.958106
652.235626	2556.573282
652.578458	2552.063970
652.921238	2554.135884
653.263967	2554.430792
653.606644	2552.525236
653.949269	2553.515822
654.291843	2552.661347
654.634365	2554.211502
654.976836	2554.513971
655.319255	2552.552962
655.661622	2554.892057
656.003938	2551.683363
656.346203	2553.112530
656.688416	2554.438353
657.030577	2552.016079
657.372687	2553.253682
657.714746	2554.758467
658.056753	2553.117571
658.398708	2550.468445
658.740612	2551.879968
659.082465	2550.196223
659.424266	2550.176058
659.766016	2549.427447
660.107715	2556.288457
660.449362	2551.091027
660.790958	2553.772921
661.132503	2551.259906
661.473996	2555.547407
661.815438	2555.285267
662.156829	2553.427602
662.498168	2554.287119
662.839456	2555.383570
663.180693	2553.777962
663.521879	2556.341389
663.863013	2552.850390
664.204097	2553.057077
664.545129	2553.097407
664.886110	2556.157387
665.227040	2552.671429
665.567918	2554.203940
665.908746	2552.399207
666.249522	2554.902140
666.590248	2554.153528
666.930922	2556.485062
667.271545	2554.662685
667.612118	2553.674619
667.952639	2553.120092
668.293109	2554.937428
668.633528	2554.052705
668.973896	2553.606563
669.314213	2553.359547
669.654480	2551.766542
669.994695	2555.592778
670.334859	2552.958775
670.674973	2550.831408
671.015035	2554.400545
671.355047	2551.481717
671.695008	2553.586398
672.034918	2553.543549
672.374777	2556.303580
672.714585	2553.810730
673.054342	2556.568241
673.394049	2557.450443
673.733705	2553.155380
674.073310	2553.732592
674.412864	2554.098076
674.752368	2552.651264
675.091820	2552.215205
675.431223	2549.868548
675.770574	2552.071532
676.109875	2548.101623
676.449125	2551.683363
676.788324	2550.304607
677.127473	2550.150852
677.466571	2549.266130
677.805619	2553.236038
678.144616	2551.133877
678.483562	2553.160421
678.822458	2551.514484
679.161303	2557.001780
679.500098	2553.399876
679.838842	2554.239228
680.177535	2554.047664
680.516179	2555.708724
680.854771	2554.657644
681.193314	2551.711089
681.531805	2552.222766
681.870247	2553.762839
682.208638	2555.194527
682.546978	2551.403579
682.885268	2554.806358
683.223508	2553.909032
683.561697	2549.770245
683.899836	2558.209137
684.237925	2552.192519
684.575963	2553.508261
684.913951	2554.158569
685.251889	2556.689229
685.589776	2552.008517
685.927614	2553.024310
686.265401	2554.667726
686.603137	2552.920966
686.940824	2554.904660
687.278460	2553.634289
687.616046	2553.843497
687.953582	2554.075390
688.291068	2550.637323
688.628504	2554.430792
688.965889	2553.336861
689.303224	2556.926163
689.640510	2554.861810
689.977745	2553.931718
690.314930	2553.309135
690.652065	2553.626728
690.989150	2552.457180
691.326185	2552.739485
691.663170	2552.172355
692.000105	2551.885009
692.336990	2552.217725
692.673825	2552.568085
693.010610	2555.580175
693.347345	2550.349978
693.684030	2549.195553
694.020665	2550.087838
694.357251	2548.630944
694.693786	2552.537838
695.030272	2552.976419
695.366707	2552.615976
695.703093	2554.783673
696.039429	2553.856100
696.375716	2552.555483
696.711952	2551.859803
697.048139	2555.086142
697.384276	2553.062118
697.720363	2552.832746
698.056400	2554.095555
698.392388	2555.091183
698.728326	2551.756460
699.064214	2554.829043
699.400053	2554.390463
699.735842	2552.394166
700.071581	2553.941800
700.407270	2551.307797
700.742910	2555.065977
701.078501	2552.124464
701.414042	2553.120092
701.749533	2551.756460
702.084974	2552.915925
702.420366	2556.323745
702.755709	2553.427602
703.091002	2553.225956
703.426246	2554.546738
703.761440	2553.485575
704.096584	2552.865513
704.431679	2551.464073
704.766725	2554.597150
705.101721	2550.198743
705.436668	2553.256203
705.771565	2553.725030
706.106413	2554.582026
706.441212	2551.138918
706.775961	2552.946172
707.110661	2555.983467
707.445311	2553.969526
707.779913	2554.854249
708.114465	2555.905329
708.448967	2557.329455
708.783421	2555.005483
709.117825	2551.219577
709.452180	2552.331151
709.786485	2554.637479
710.120742	2552.752088
710.454949	2553.286450
710.789107	2550.433157
711.123216	2548.819987
711.457275	2550.241593
711.791286	2549.283774
712.125247	2547.978115
712.459159	2552.996583
712.793023	2550.402910
713.126837	2551.383414
713.460602	2550.826367
713.794318	2551.706048
714.127985	2553.442726
714.461602	2550.541542
714.795171	2553.745195
715.128691	2553.034392
715.462162	2553.407438
715.795584	2552.676470
716.128957	2552.905843
716.462281	2550.811243
716.795556	2551.844680
717.128782	2553.712427
717.461960	2553.818292
717.795088	2551.748898
718.128167	2550.228990
718.461198	2552.210163
718.794180	2553.929197
719.127113	2552.598332
719.459997	2553.662016
719.792833	2553.120092
720.125619	2554.524053
720.458357	2551.123795
720.791046	2552.994063
721.123686	2555.071018
721.456278	2553.780483
721.788821	2550.458362
722.121315	2550.680173
722.453761	2552.986501
722.786158	2550.685214
723.118506	2552.618497
723.450805	2555.081101
723.783056	2551.378373
724.115259	2553.314176
724.447412	2551.448949
724.779518	2548.744370
725.111574	2550.707900
725.443582	2553.803168
725.775542	2553.535987
726.107453	2551.280071
726.439315	2550.072714
726.771129	2554.196378
727.102895	2551.728733
727.434612	2554.035061
727.766281	2551.310317
728.097901	2548.701520
728.429473	2548.467107
728.760996	2550.249155
729.092471	2545.172713
729.423897	2551.075904
729.755276	2552.434495
730.086606	2552.053888
730.417887	2551.869886
730.749120	2553.049516
731.080305	2549.581202
731.411442	2551.252344
731.742530	2551.834597
732.073570	2550.241593
732.404562	2550.395348
732.735506	2551.232180
733.066401	2552.515153
733.397249	2551.905174
733.728048	2553.707386
734.058798	2554.171172
734.389501	2552.855431
734.720156	2553.117571
735.050762	2552.928528
735.381320	2552.676470
735.711831	2553.412479
736.042293	2552.797458
736.372707	2553.288970
736.703073	2552.429454
737.033391	2553.326779
737.363661	2552.502550
737.693883	2552.197561
738.024056	2551.791748
738.354182	2551.355688
738.684260	2552.585729
739.014290	2555.552448
739.344272	2550.118085
739.674207	2551.821995
740.004093	2552.469783
740.333931	2549.800492
740.663722	2552.747046
740.993464	2553.334341
741.323159	2553.034392
741.652806	2550.836449
741.982405	2550.027344
742.311956	2553.573796
742.641460	2552.041285
742.970915	2552.505071
743.300323	2553.535987
743.629683	2551.426264
743.958996	2550.385266
744.288260	2553.445246
744.617477	2549.624052
744.946647	2549.039278
745.275768	2549.999617
745.604842	2547.176571
745.933869	2549.407282
746.262847	2546.120450
746.591778	2550.014741
746.920662	2552.121943
747.249498	2549.193033
747.578286	2550.924669
747.907027	2552.434495
748.235720	2549.722354
748.564365	2549.490461
748.892963	2548.399051
749.221514	2552.865513
749.550017	2551.136398
749.878473	2552.416851
750.206881	2548.330996
750.535242	2553.230997
750.863555	2552.048847
751.191821	2556.008673
751.520039	2551.333003
751.848210	2551.466593
752.176334	2551.968188
752.504411	2553.427602
752.832440	2549.853424
753.160421	2551.590102
753.488356	2553.190668
753.816243	2552.552962
754.144082	2549.878630
754.471875	2550.554144
754.799620	2550.685214
755.127318	2549.805533
755.454969	2551.227138
755.782572	2548.527601
756.110129	2551.078424
756.437638	2553.714948
756.765100	2550.927190
757.092515	2552.754608
757.419882	2548.850234
757.747203	2552.726882
758.074477	2553.218394
758.401703	2552.840308
758.728882	2552.137067
759.056014	2551.038095
759.383099	2550.690256
759.710138	2550.982643
760.037129	2551.338044
760.364073	2549.835780
760.690970	2551.030533
761.017820	2551.290153
761.344623	2549.077086
761.671379	2551.539690
761.998088	2545.049204
762.324751	2550.347457
762.651366	2546.198588
762.977935	2549.185471
763.304456	2545.805377
763.630931	2549.747560
763.957359	2547.627755
764.283740	2550.171017
764.610074	2551.237221
764.936362	2551.887530
765.262602	2549.860986
765.588796	2551.264947
765.914943	2553.248641
766.241044	2551.174206
766.567097	2549.984494
766.893104	2550.223949
767.219064	2551.340564
767.544978	2552.132026
767.870845	2552.636141
768.196665	2550.060111
768.522438	2550.503733
768.848165	2552.875596
769.173846	2551.988353
769.499479	2550.743188
769.825066	2552.343754
770.150607	2550.060111
770.476101	2551.126315
770.801548	2550.087838
771.126949	2549.649257
771.452303	2550.304607
771.777611	2550.019782
772.102872	2553.107489
772.428087	2548.875440
772.753256	2550.418033
773.078378	2548.615821
773.403453	2554.077911
773.728482	2549.014072
774.053465	2549.412323
774.378401	2549.266130
774.703291	2551.811912
775.028135	2548.845193
775.352932	2551.675801
775.677683	2552.431974
776.002388	2550.105482
776.327046	2551.194371
776.651658	2549.949206
776.976224	2551.164124
777.300743	2551.794268
777.625216	2550.108002
777.949643	2554.415668
778.274024	2549.903836
778.598359	2547.189174
778.922647	2546.521221
779.246889	2548.459545
779.571086	2547.247147
779.895236	2551.706048
780.219339	2549.830739
780.543397	2552.764690
780.867409	2549.001469
781.191374	2549.104813
781.515294	2550.241593
781.839167	2551.635472
782.162995	2551.118754
782.486776	2550.924669
782.810511	2548.414175
783.134201	2551.655637
783.457844	2550.493651
783.781441	2550.770914
784.104993	2550.027344
784.428498	2552.260575
784.751958	2550.312169
785.075372	2550.536500
785.398739	2547.259750
785.722061	2552.492468
786.045337	2548.847714
786.368568	2548.235214
786.691752	2550.105482
787.014891	2552.701676
787.337983	2549.845862
787.661030	2552.308466
787.984031	2549.097251
788.306987	2551.529608
788.629897	2547.857127
788.952760	2553.029351
789.275579	2551.466593
789.598351	2552.147149
789.921078	2552.689073
790.243759	2553.180586
790.566395	2549.112374
790.888984	2550.075235
791.211529	2547.894936
791.534027	2550.286963
791.856480	2552.114382
792.178888	2549.170348
792.501249	2550.314690
792.823566	2553.306614
793.145836	2551.010369
793.468062	2552.963816
793.790241	2551.506922
794.112375	2554.153528
794.434464	2551.249824
794.756507	2549.160265
795.078505	2549.477858
795.400457	2547.632796
795.722364	2549.951727
796.044226	2547.370656
796.366042	2546.717826
796.687812	2547.627755
797.009538	2550.065152
797.331218	2551.232180
797.652852	2550.581871
797.974442	2548.003321
798.295986	2548.840152
798.617484	2551.781665
798.938938	2548.240255
799.260346	2552.860472
799.581709	2551.209494
799.903026	2549.853424
800.224299	2549.462735
800.545526	2550.826367
800.866708	2546.105326
801.187845	2549.036757
801.508936	2549.261088
801.829983	2551.103630
802.150984	2547.630275
802.471940	2551.345606
802.792851	2549.603887
803.113717	2551.206974
803.434538	2546.697662
803.755314	2549.810574
804.076045	2549.344268
804.396731	2550.599515
804.717372	2550.818805
805.037967	2549.200595
805.358518	2550.478527
805.679024	2551.968188
805.999485	2550.838970
806.319901	2551.390976
806.640272	2548.512477
806.960598	2548.958619
807.280879	2549.573640
807.601115	2551.091027
807.921306	2548.895605
808.241453	2549.031716
808.561554	2547.005172
808.881611	2550.503733
809.201623	2548.822508
809.521590	2550.468445
809.841513	2551.249824
810.161390	2551.229659
810.481223	2550.561706
810.801011	2550.768393
811.120755	2550.876778
811.440453	2549.664381
811.760107	2549.659340
812.079716	2547.337888
812.399281	2547.778989
812.718801	2548.963660
813.038276	2543.887218
813.357707	2548.227652
813.677093	2550.241593
813.996434	2549.311500
814.315731	2550.458363
814.634983	2550.539021
814.954191	2549.621531
815.273354	2548.966181
815.592473	2551.703528
815.911547	2551.247303
816.230577	2549.883671
816.549562	2551.222097
816.868502	2547.789072
817.187399	2547.842004
817.506250	2551.184289
817.825058	2550.695297
818.143821	2550.244113
818.462539	2550.299566
818.781213	2549.014072
819.099843	2546.064997
819.418429	2549.084648
819.736970	2549.961809
820.055466	2550.186140
820.373919	2550.102961
820.692327	2549.157745
821.010691	2551.423743
821.329011	2548.724206
821.647286	2553.460370
821.965517	2547.141283
822.283704	2550.143290
822.601847	2550.899463
822.919945	2550.533980
823.237999	2548.399051
823.556010	2548.406613
823.873976	2548.167158
824.191897	2549.251006
824.509775	2548.028526
824.827609	2548.401572
825.145398	2548.653629
825.463144	2550.670091
825.780845	2549.308979
826.098502	2550.914587
826.416116	2549.271171
826.733685	2549.694628
827.051210	2548.457024
827.368692	2545.298742
827.686129	2549.596325
828.003522	2549.989535
828.320872	2543.274718
828.638177	2548.885522
828.955439	2546.818649
829.272656	2547.776469
829.589830	2544.920655
829.906960	2549.876109
830.224046	2547.663043
830.541088	2551.184289
830.858086	2550.080276
831.175041	2548.736808
831.491952	2549.034237
831.808819	2550.176058
832.125642	2545.623896
832.442421	2547.032898
832.759157	2548.172199
833.075849	2551.128836
833.392497	2547.937786
833.709101	2550.544062
834.025662	2546.264123
834.342179	2547.688248
834.658653	2550.851573
834.975083	2549.029195
835.291469	2553.341902
835.607811	2549.755122
835.924110	2549.392158
836.240366	2549.089689
836.556578	2549.324103
836.872746	2552.797458
837.188871	2547.171530
837.504952	2549.576161
837.820990	2550.181099
838.136984	2550.859134
838.452935	2550.276881
838.768842	2548.424257
839.084706	2548.940975
839.400526	2549.881150
839.716303	2547.816798
840.032037	2549.624052
840.347727	2548.653629
840.663373	2548.799823
840.978977	2547.567261
841.294537	2547.509288
841.610054	2549.185471
841.925527	2548.094061
842.240957	2549.278732
842.556344	2547.791592
842.871687	2550.148332
843.186987	2548.320913
843.502244	2546.259081
843.817458	2546.269164
844.132629	2548.330996
844.447756	2547.799154
844.762840	2545.233207
845.077881	2547.564740
845.392879	2544.850079
845.707833	2546.400234
846.022745	2543.163813
846.337613	2550.085317
846.652438	2549.550955
846.967221	2550.292004
847.281960	2549.566078
847.596656	2549.704710
847.911309	2548.978784
848.225919	2547.748742
848.540485	2547.615152
848.855009	2547.705893
849.169490	2548.726726
849.483928	2547.514329
849.798323	2545.276056
850.112675	2552.295863
850.426984	2549.034237
850.741251	2543.113401
851.055474	2549.608928
851.369654	2546.732950
851.683792	2548.134391
851.997887	2550.385266
852.311938	2544.784544
852.625947	2549.354350
852.939914	2548.807385
853.253837	2551.017931
853.567718	2548.953578
853.881555	2550.017262
854.195350	2550.707900
854.509103	2547.932744
854.822812	2549.974412
855.136479	2548.194884
855.450103	2548.658671
855.763685	2549.636654
856.077224	2547.678166
856.390720	2549.049360
856.704173	2547.955430
857.017584	2548.646068
857.330953	2548.956099
857.644278	2546.790923
857.957561	2549.296377
858.270802	2548.537683
858.584000	2545.717157
858.897155	2550.400389
859.210268	2544.298072
859.523339	2546.523742
859.836367	2549.508105
860.149352	2547.902498
860.462295	2550.720503
860.775195	2546.553989
861.088054	2544.761859
861.400869	2544.156920
861.713642	2544.277908
862.026373	2545.351674
862.339062	2548.489792
862.651708	2548.620862
862.964312	2547.267312
863.276873	2547.337888
863.589392	2548.043650
863.901869	2546.513660
864.214303	2548.053732
864.526696	2548.520039
864.839045	2545.127342
865.151353	2550.148332
865.463619	2549.598846
865.775842	2546.589277
866.088023	2546.619524
866.400162	2547.048022
866.712258	2550.617159
867.024313	2547.849565
867.336325	2548.436860
867.648296	2547.143804
867.960224	2548.091541
868.272110	2547.597508
868.583954	2548.482230
868.895755	2550.128167
869.207515	2546.364946
869.519233	2547.247147
869.830909	2546.720347
870.142542	2548.416695
870.454134	2547.337888
870.765684	2546.833773
871.077191	2548.091541
871.388657	2546.919472
871.700081	2544.950902
872.011463	2546.269164
872.322803	2549.245965
872.634101	2548.414175
872.945357	2545.399565
873.256571	2549.124977
873.567744	2545.601211
873.878874	2550.707900
874.189963	2548.688918
874.501010	2548.424257
874.812015	2550.596994
875.122979	2550.050029
875.433900	2547.186654
875.744780	2548.444422
876.055618	2544.262784
876.366415	2548.071376
876.677169	2546.801005
876.987882	2549.331665
877.298554	2544.265305
877.609183	2544.242620
877.919771	2543.405788
878.230317	2543.045346
878.540822	2547.494164
878.851285	2545.664225
879.161707	2546.869061
879.472087	2547.027857
879.782425	2546.490974
880.092722	2545.918803
880.402977	2548.051212
880.713191	2547.819318
881.023363	2545.351674
881.333494	2547.849565
881.643583	2548.046170
881.953631	2547.814277
882.263637	2549.364432
882.573602	2549.019113
882.883526	2546.498536
883.193408	2547.116077
883.503248	2547.022816
883.813048	2546.390151
884.122806	2546.412837
884.432522	2547.594987
884.742197	2547.710934
885.051831	2546.816129
885.361424	2546.483413
885.670975	2549.331665
885.980485	2547.413506
886.289954	2547.317724
886.599382	2546.402754
886.908768	2544.141797
887.218113	2545.812939
887.527417	2548.734288
887.836680	2547.393341
888.145901	2546.165820
888.455082	2544.038453
888.764221	2547.630275
889.073319	2545.482744
889.382376	2548.429298
889.691392	2548.086500
890.000366	2548.489792
890.309300	2549.150183
890.618193	2549.424926
890.927044	2546.455686
891.235855	2548.235214
891.544625	2546.685059
891.853353	2548.076417
892.162041	2546.939637
892.470687	2548.250337
892.779293	2549.717313
893.087858	2547.826880
893.396381	2544.396375
893.704864	2546.306972
894.013306	2543.194060
894.321707	2547.922662
894.630068	2547.511808
894.938387	2546.427960
895.246665	2547.978115
895.554903	2546.342260
895.863100	2547.907539
896.171256	2547.889895
896.479371	2546.979966
896.787446	2544.524924
897.095480	2547.632796
897.403473	2546.112888
897.711425	2545.709596
898.019336	2548.003321
898.327207	2549.314021
898.635038	2548.583053
898.942827	2547.491643
899.250576	2544.827394
899.558284	2544.963505
899.865952	2545.318906
900.173579	2544.343443
900.481165	2545.951571
900.788711	2547.617672
901.096216	2545.397044
901.403681	2547.688248
901.711105	2546.334699
902.018489	2549.432488
902.325832	2546.942158
902.633135	2545.437373
902.940397	2548.300749
903.247619	2544.736653
903.554800	2545.258412
903.861941	2548.580533
904.169041	2547.330327
904.476101	2545.686910
904.783121	2544.035933
905.090100	2546.266643
905.397039	2545.102137
905.703938	2546.894267
906.010796	2547.869730
906.317614	2545.177754
906.624391	2548.888043
906.931129	2547.138763
907.237826	2546.377548
907.544483	2547.879812
907.851099	2547.032898
908.157675	2547.050542
908.464211	2547.327806
908.770707	2541.480068
909.077163	2546.095244
909.383578	2540.852444
909.689954	2546.107847
909.996289	2541.464944
910.302584	2546.596839
910.608839	2547.468958
910.915054	2546.551468
911.221229	2546.064997
911.527363	2548.033567
911.833458	2546.009544
912.139513	2544.834955
912.445527	2548.293187
912.751502	2547.184133
913.057436	2548.278063
913.363331	2548.598177
913.669186	2544.809750
913.975000	2545.812939
914.280775	2545.197918
914.586510	2547.582384
914.892205	2546.798485
915.197859	2546.929555
915.503475	2546.294369
915.809050	2548.678835
916.114585	2548.436860
916.420081	2548.399051
916.725536	2548.451983
917.030952	2545.518032
917.336328	2545.969215
917.641665	2546.730429
917.946961	2546.198587
918.252218	2546.019627
918.557435	2547.020296
918.862612	2545.061807
919.167750	2546.415357
919.472848	2546.533824
919.777906	2542.722712
920.082925	2546.248999
920.387904	2545.858310
920.692843	2544.850079
920.997743	2546.279246
921.302603	2546.725388
921.607423	2543.783875
921.912204	2549.006510
922.216946	2547.025337
922.521647	2545.142466
922.826310	2545.031560
923.130932	2547.983156
923.435516	2546.634647
923.740059	2546.553989
924.044564	2547.143804
924.349028	2547.973074
924.653454	2542.465613
924.957840	2543.468803
925.262186	2543.113401
925.566493	2546.299411
925.870761	2541.969059
926.174989	2547.887374
926.479178	2543.630120
926.783328	2544.729091
927.087438	2546.070038
927.391509	2547.552137
927.695541	2547.930224
927.999533	2547.083310
928.303486	2545.392003
928.607400	2548.388969
928.911275	2544.535007
929.215110	2546.531304
929.518906	2546.632127
929.822663	2546.458207
930.126381	2548.399051
930.430060	2546.725388
930.733699	2543.930068
931.037299	2544.010727
931.340861	2547.274874
931.644383	2545.817980
931.947866	2545.782692
932.251309	2546.924514
932.554714	2545.880995
932.858080	2547.174051
933.161407	2545.901159
933.464694	2546.208670
933.767943	2547.221942
934.071153	2546.049873
934.374323	2546.594318
934.677455	2548.116747
934.980548	2544.978628
935.283602	2546.755635
935.586617	2545.437373
935.889593	2547.264792
936.192530	2546.410316
936.495428	2544.403937
936.798287	2546.198588
937.101108	2546.354863
937.403890	2545.603731
937.706632	2545.875954
938.009336	2541.729605
938.312002	2545.422250
938.614628	2544.348484
938.917216	2547.287477
939.219765	2544.051056
939.522275	2545.954092
939.824747	2546.977446
940.127179	2541.780016
940.429573	2542.649615
940.731929	2543.955274
941.034246	2539.075437
941.336524	2542.997455
941.638763	2546.385110
941.940964	2547.421067
942.243126	2548.346119
942.545250	2546.778320
942.847335	2542.382434
943.149381	2544.592980
943.451389	2545.255892
943.753359	2549.301418
944.055290	2545.928886
944.357182	2546.463248
944.659036	2547.484082
944.960851	2548.635985
945.262628	2546.070038
945.564367	2543.612476
945.866067	2546.407795
946.167729	2548.048691
946.469352	2547.181613
946.770937	2544.650953
947.072484	2545.381921
947.373992	2544.691283
947.675462	2546.143135
947.976893	2545.414688
948.278286	2546.619524
948.579641	2546.485933
948.880958	2546.064997
949.182236	2544.265305
949.483476	2544.605583
949.784678	2544.978628
950.085841	2544.033412
950.386967	2549.555996
950.688054	2544.698844
950.989103	2545.447456
951.290114	2545.825542
951.591087	2546.009544
951.892021	2544.668597
952.192917	2548.741850
952.493776	2545.087013
952.794596	2548.572971
953.095378	2545.404606
953.396122	2547.458876
953.696828	2542.929399
953.997496	2544.759338
954.298126	2544.950902
954.598718	2547.872251
954.899272	2546.077600
955.199788	2548.308310
955.500266	2545.429812
955.800706	2543.620037
956.101108	2542.258926
956.401472	2542.947043
956.701798	2541.401930
957.002087	2540.423946
957.302337	2545.215562
957.602550	2546.410316
957.902724	2545.369318
958.202861	2546.649771
958.502960	2544.383772
958.803022	2543.118442
959.103045	2546.680018
959.403031	2544.439225
959.702979	2545.651622
960.002889	2545.291180
960.302762	2545.785213
960.602596	2544.345963
960.902393	2545.608772
961.202153	2544.771941
961.501875	2544.464431
961.801559	2544.159441
962.101205	2548.245296
962.400814	2547.594987
962.700385	2543.685572
962.999918	2547.312683
963.299414	2543.367980
963.598873	2545.288659
963.898293	2547.537014
964.197677	2545.946530
964.497022	2545.399565
964.796331	2542.417722
965.095601	2546.518701
965.394835	2543.461241
965.694030	2545.480223
965.993189	2546.281767
966.292309	2543.955274
966.591393	2545.144986
966.890439	2543.801519
967.189447	2543.342774
967.488419	2545.722198
967.787353	2545.868392
968.086249	2546.611962
968.385108	2543.950233
968.683930	2544.013247
968.982714	2544.219935
969.281462	2545.722198
969.580172	2543.292362
969.878844	2543.632640
970.177480	2543.730943
970.476078	2545.528114
970.774639	2546.687579
971.073162	2546.352343
971.371649	2541.918648
971.670098	2542.931920
971.968510	2544.020809
972.266885	2540.925541
972.565223	2546.488454
972.863524	2543.287321
973.161788	2545.467620
973.460014	2544.204811
973.758204	2546.465769
974.056356	2545.472661
974.354471	2546.982487
974.652550	2545.407126
974.950591	2546.692621
975.248595	2543.609955
975.546563	2545.306303
975.844493	2544.903011
976.142386	2546.725388
976.440243	2541.656508
976.738062	2544.981149
977.035845	2544.837476
977.333590	2545.424770
977.631299	2544.295552
977.928971	2543.998124
978.226606	2545.213042
978.524204	2544.287990
978.821765	2543.131045
979.119290	2547.030378
979.416777	2543.728422
979.714228	2543.907383
980.011642	2545.137425
980.309020	2547.126160
980.606360	2547.884853
980.903664	2544.073741
981.200931	2547.320244
981.498162	2544.960984
981.795356	2543.342774
982.092513	2544.905532
982.389633	2545.641540
982.686717	2545.213042
982.983764	2542.914276
983.280775	2543.733463
983.577749	2540.991076
983.874686	2545.850748
984.171587	2543.141128
984.468451	2547.685728
984.765279	2546.080120
985.062070	2544.277908
985.358824	2544.305634
985.655543	2542.180788
985.952224	2541.638864
986.248869	2541.608617
986.545478	2540.975952
986.842050	2542.037115
987.138586	2542.168185
987.435086	2541.351518
987.731549	2539.151054
988.027975	2542.329502
988.324366	2544.154400
988.620719	2543.257074
988.917037	2547.068187
989.213318	2541.664070
989.509563	2543.231868
989.805772	2546.979966
990.101944	2546.929555
990.398080	2545.507949
990.694180	2546.274205
990.990244	2544.401416
991.286271	2544.197249
991.582262	2545.528114
991.878217	2543.002496
992.174136	2542.694986
992.470019	2543.103319
992.765865	2546.438042
993.061676	2544.184647
993.357450	2548.041129
993.653188	2544.315717
993.948890	2544.429143
994.244556	2542.740356
994.540186	2543.428473
994.835780	2542.894111
995.131337	2543.970397
995.426859	2542.299255
995.722345	2542.516025
996.017795	2545.318906
996.313208	2544.565254
996.608586	2544.161961
996.903928	2545.245809
997.199234	2545.117260
997.494504	2543.189019
997.789738	2544.169523
998.084936	2544.527445
998.380099	2543.597352
998.675225	2543.983000
998.970316	2543.720860
999.265371	2544.766900
999.560390	2546.501057
999.855373	2546.743032
1000.150320	2544.603062
1000.445232	2544.262784
1000.740108	2542.246323
1001.034948	2543.539379
1001.329752	2542.029553
1001.624521	2545.817980
1001.919254	2538.382278
1002.213951	2539.445962
1002.508613	2541.394368
1002.803239	2542.190870
1003.097829	2538.727597
1003.392384	2543.113401
1003.686903	2545.381921
1003.981386	2544.179605
1004.275834	2542.483257
1004.570246	2545.782692
1004.864623	2545.490305
1005.158964	2543.201622
1005.453270	2544.839997
1005.747540	2546.916952
1006.041775	2544.383772
1006.335974	2542.624409
1006.630138	2544.192208
1006.924266	2542.652136
1007.218359	2545.071890
1007.512416	2541.159954
1007.806438	2543.614996
1008.100425	2545.744884
1008.394376	2543.020140
1008.688292	2543.163813
1008.982172	2542.422763
1009.276017	2542.397558
1009.569827	2544.177085
1009.863602	2546.317055
1010.157341	2543.408309
1010.451045	2541.918648
1010.744714	2544.315717
1011.038347	2542.921838
1011.331945	2544.910573
1011.625508	2544.822352
1011.919036	2541.870757
1012.212528	2543.483926
1012.505986	2542.780685
1012.799408	2545.669266
1013.092795	2543.073072
1013.386147	2541.802701
1013.679464	2543.163813
1013.972745	2544.247661
1014.265992	2543.499050
1014.559204	2543.073072
1014.852380	2542.944523
1015.145521	2541.369162
1015.438628	2544.386293
1015.731699	2543.546941
1016.024736	2545.560882
1016.317737	2543.425953
1016.610703	2543.360418
1016.903635	2542.717671
1017.196531	2538.886394
1017.489393	2542.281611
1017.782219	2540.078627
1018.075011	2540.290355
1018.367768	2545.603731
1018.660490	2545.586087
1018.953177	2545.586087
1019.245829	2545.586087
