Dividing Wavelength (nm)	Counts (n)	Blue Motor Position (mm): 45.700000	Red Motor Position (mm): 0.000000	
326.493990	2130.247943
326.888308	2130.247943
327.282561	2130.247943
327.676750	2098.027408
328.070874	2098.289548
328.464933	2100.477408
328.858929	2106.252050
329.252859	2114.063318
329.646726	2126.303240
330.040528	2139.574077
330.434265	2155.703249
330.827938	2172.107163
331.221547	2188.432940
331.615091	2210.976980
332.008571	2230.420711
332.401986	2252.090110
332.795338	2268.199118
333.188625	2289.873558
333.581847	2307.298307
333.975006	2325.007880
334.368100	2343.957578
334.761129	2363.176977
335.154095	2376.722557
335.546996	2401.686351
335.939833	2423.343148
336.332606	2440.470468
336.725315	2451.898764
337.117960	2461.877728
337.510540	2471.322329
337.903056	2484.497385
338.295508	2489.599033
338.687896	2498.395846
339.080220	2507.888339
339.472480	2513.741118
339.864676	2515.873527
340.256807	2521.567510
340.648875	2525.973478
341.040879	2526.210412
341.432818	2529.187214
341.824694	2531.085208
342.216506	2529.683767
342.608253	2531.148223
342.999937	2529.557739
343.391557	2533.237781
343.783113	2528.796524
344.174605	2528.524302
344.566033	2528.143695
344.957397	2525.489528
345.348697	2524.128416
345.739934	2521.025586
346.131106	2522.744619
346.522215	2520.791172
346.913260	2516.342354
347.304241	2514.061232
347.695159	2512.440501
348.086012	2512.248937
348.476802	2510.701303
348.867528	2508.137876
349.258191	2506.388596
349.648789	2508.601662
350.039324	2503.918430
350.429796	2506.799450
350.820203	2501.723008
351.210548	2500.140085
351.600828	2501.228975
351.991045	2500.341732
352.381198	2499.310816
352.771288	2499.777122
353.161314	2498.010198
353.551276	2500.321567
353.941175	2499.041114
354.331010	2499.328460
354.720782	2496.830568
355.110490	2498.113542
355.500135	2497.226298
355.889717	2495.403921
356.279235	2502.375837
356.668689	2500.457678
357.058080	2501.029849
357.447408	2496.921309
357.836672	2496.220588
358.225873	2498.010198
358.615010	2497.841319
359.004084	2505.632423
359.393095	2500.586228
359.782043	2501.967504
360.170927	2502.196876
360.559748	2504.843482
360.948505	2506.081085
361.337199	2508.190808
361.725830	2506.166785
362.114398	2506.963287
362.502903	2507.994203
362.891344	2508.979749
363.279722	2507.578308
363.668037	2510.827332
364.056289	2508.165602
364.444478	2511.114677
364.832603	2511.737260
365.220665	2512.868999
365.608665	2511.346570
365.996601	2514.169617
366.384474	2512.856396
366.772284	2514.033505
367.160031	2510.915552
367.547715	2514.709020
367.935336	2515.762621
368.322893	2517.166582
368.710388	2515.427384
369.097820	2518.159690
369.485189	2516.554082
369.872495	2516.554082
370.259738	2520.347551
370.646918	2519.064577
371.034035	2518.580626
371.421090	2520.813857
371.808081	2520.632376
372.195010	2522.593385
372.581875	2521.285205
372.968678	2525.701256
373.355418	2525.166894
373.742096	2528.047913
374.128710	2529.151926
374.515262	2535.642411
374.901751	2539.241795
375.288177	2547.143804
375.674540	2549.223280
376.060841	2561.664848
376.447079	2570.212124
376.833254	2579.341653
377.219367	2586.457242
377.605417	2602.840992
377.991404	2612.625872
378.377329	2628.283696
378.763191	2636.987248
379.148991	2661.764519
379.534727	2677.815553
379.920402	2699.278265
380.306013	2716.773590
380.691563	2744.454565
381.077049	2766.653286
381.462474	2784.962757
381.847835	2816.404434
382.233134	2844.917200
382.618371	2856.562265
383.003545	2905.791653
383.388657	2923.407965
383.773706	2960.261320
384.158693	2985.129332
384.543618	3018.360618
384.928480	3058.392421
385.313280	3105.423866
385.698017	3118.583798
386.082692	3175.324505
386.467305	3194.818647
386.851856	3237.943198
387.236344	3268.943773
387.620770	3310.371976
388.005133	3346.375896
388.389435	3382.687327
388.773674	3408.671955
389.157851	3460.308494
389.541965	3487.863441
389.926018	3471.068837
390.310008	3547.008778
390.693936	3574.898962
391.077802	3623.394862
391.461606	3628.221767
391.845348	3692.892209
392.229027	3703.239177
392.612645	3723.935634
392.996200	3807.873366
393.379694	3850.463555
393.763125	3926.027930
394.146494	3897.366450
394.529801	3965.888334
394.913047	4014.396837
395.296230	3989.836335
395.679351	4045.399933
396.062410	4076.251794
396.445408	4059.305956
396.828343	4095.952623
397.211217	4122.194350
397.594028	4044.414387
397.976778	4110.569449
398.359466	4139.581289
398.742092	4171.416176
399.124656	4098.851287
399.507158	4175.312988
399.889598	4199.150084
400.271977	4263.646606
400.654294	4235.595106
401.036549	4243.489553
401.418742	4213.303123
401.800874	4315.048731
402.182944	4336.478676
402.564952	4405.502155
402.946898	4389.279722
403.328783	4386.426429
403.710606	4299.111123
404.092367	4493.767718
404.474067	4456.334630
404.855705	4462.905774
405.237282	4393.385742
405.618797	4500.986650
406.000250	4535.647103
406.381642	4617.175164
406.762972	4581.859360
407.144240	4592.899487
407.525447	4594.358901
407.906593	4649.335205
408.287677	4695.489489
408.668700	4619.783961
409.049661	4671.728010
409.430560	4713.824165
409.811399	4641.463443
410.192176	4801.915808
410.572891	4738.724945
410.953545	4845.068085
411.334138	4726.308583
411.714669	4793.557575
412.095139	4688.406667
412.475547	4830.332792
412.855894	4807.927384
413.236180	4820.842820
413.616405	4775.059061
413.996568	4859.382441
414.376670	4798.984377
414.756711	4759.491978
415.136691	4790.570691
415.516609	4864.773955
415.896466	4904.447836
416.276262	4940.416469
416.655997	4917.582562
417.035670	5102.688691
417.415283	5188.325292
417.794834	5134.284122
418.174324	5091.184778
418.553753	4994.871013
418.933121	5182.454868
419.312428	5244.864352
419.691674	5188.708419
420.070859	5308.944980
420.449983	5229.831632
420.829045	5338.395400
421.208047	5246.996761
421.586988	5323.710519
421.965867	5331.546993
422.344686	5463.718485
422.723444	5316.108459
423.102141	5137.465090
423.480777	5433.239669
423.859352	5202.992529
424.237866	5463.771417
424.616319	5453.724397
424.994712	5564.775976
425.373044	5441.076142
425.751314	5582.130148
426.129524	5385.578080
426.507673	5579.690229
426.885762	5658.715357
427.263789	5594.246561
427.641756	5473.377336
428.019662	5600.364001
428.397508	5604.969095
428.775292	5554.862547
429.153016	5650.931815
429.530679	5580.106124
429.908282	5663.577550
430.285824	5531.504360
430.663305	5807.537780
431.040726	5541.064908
431.418086	5543.961051
431.795385	5648.461650
432.172624	5661.203166
432.549802	5654.684954
432.926920	5669.304301
433.303977	5675.567934
433.680974	5715.831630
434.057910	5729.651953
434.434786	5736.661678
434.811601	5707.390218
435.188355	5944.115241
435.565050	5814.481970
435.941683	5796.469927
436.318257	6010.285426
436.694770	5994.930072
437.071222	6028.030288
437.447614	5959.178208
437.823946	5870.821905
438.200218	6024.040214
438.576429	5895.889043
438.952580	5992.938816
439.328670	6036.290218
439.704700	5942.950734
440.080670	5930.320123
440.456580	6201.201484
440.832429	6080.493576
441.208218	5928.732160
441.583947	6088.607313
441.959616	6082.568011
442.335224	6014.545201
442.710773	6153.746582
443.086261	6178.037382
443.461689	5973.689170
443.837057	6124.805318
444.212365	6281.224760
444.587612	6168.184447
444.962800	6320.200441
445.337927	6301.734695
445.712995	5914.105252
446.088002	6496.020764
446.462949	6323.812428
446.837837	6257.173415
447.212664	6425.454692
447.587431	6571.118833
447.962139	7107.424505
448.336786	8037.779530
448.711374	7774.008717
449.085901	6852.788263
449.460369	6772.523011
449.834776	6711.192333
450.209124	7099.126766
450.583412	7252.226608
450.957640	7395.662559
451.331808	7162.657907
451.705917	6712.898764
452.079965	6637.505788
452.453954	6845.478590
452.827883	6725.526854
453.201752	6815.327448
453.575562	6619.304702
453.949311	6820.726524
454.323001	6711.469597
454.696632	6782.658251
455.070202	6921.693274
455.443713	7082.538849
455.817164	7185.033069
456.190556	7266.213290
456.563888	7332.774164
456.937160	7372.964763
457.310373	7033.037239
457.683526	7060.456075
458.056619	6952.527492
458.429653	6939.957374
458.802628	6876.741305
459.175542	6986.310784
459.548398	7341.117274
459.921194	7499.114597
460.293930	7504.445618
460.666607	8031.742748
461.039224	8336.525868
461.411782	8468.851116
461.784280	8483.810740
462.156719	8374.362249
462.529099	8252.207529
462.901419	7838.762338
463.273680	7730.259063
463.645882	7745.495950
464.018024	7612.404448
464.390106	7776.597349
464.762130	8162.119589
465.134094	8632.676013
465.505999	9653.862547
465.877845	10879.893848
466.249631	11541.772142
466.621358	11142.169959
466.993026	10521.034270
467.364634	10261.175392
467.736184	9893.965143
468.107674	9565.234022
468.479105	9598.230894
468.850477	9364.097024
469.221790	9138.981779
469.593043	8803.591293
469.964238	8668.382506
470.335373	8680.445987
470.706449	8735.064368
471.077467	8717.286739
471.448425	10024.213435
471.819324	11096.275295
472.190164	11121.869233
472.560945	9868.204847
472.931667	9083.350126
473.302330	8949.830125
473.672934	8599.159902
474.043479	8956.504612
474.413965	8891.216629
474.784393	8780.946430
475.154761	8935.546015
475.525070	9021.343933
475.895321	8852.987039
476.265513	9027.423565
476.635645	9196.937404
477.005719	9198.797590
477.375734	9313.987955
477.745691	9549.142659
478.115588	9675.380713
478.485427	9922.727447
478.855207	10466.632659
479.224928	11281.920826
479.594591	11903.679098
479.964194	11718.514996
480.333739	11651.646611
480.703226	11570.012686
481.072653	11662.323775
481.442022	11898.184240
481.811333	12089.090215
482.180584	11887.691078
482.549777	11600.289856
482.918912	11423.408371
483.287988	11446.345621
483.657005	11459.248454
484.025964	11139.656944
484.394864	11272.335072
484.763706	11244.686864
485.132489	10997.582105
485.501213	10965.936262
485.869879	11036.421675
486.238487	10881.590196
486.607036	10990.537093
486.975527	10768.968299
487.343959	10962.412495
487.712333	11009.234732
488.080648	10949.449168
488.448905	10987.681279
488.817104	10924.308934
489.185244	11197.005110
489.553326	11344.274858
489.921350	11881.349307
490.289315	12948.710290
490.657222	13291.327270
491.025070	13199.603476
491.392861	13071.164958
491.760593	12692.047503
492.128267	12342.342661
492.495883	12011.118689
492.863440	11664.685555
493.230939	11334.409320
493.598380	11268.851635
493.965763	11133.559668
494.333088	11030.649554
494.700354	10955.243975
495.067563	11022.109839
495.434713	10842.344814
495.801805	10974.213837
496.168839	10901.417054
496.535815	10844.184835
496.902733	10835.589668
497.269593	10770.742785
497.636395	10866.602846
498.003139	10861.909532
498.369825	10720.427028
498.736453	10888.985569
499.103023	10812.143261
499.469535	10843.557211
499.835989	10827.881743
500.202385	10789.725250
500.568723	10645.023970
500.935003	10866.096210
501.301226	10669.672692
501.667390	10926.642988
502.033497	11026.213338
502.399546	10880.806297
502.765537	10798.693463
503.131470	10868.208453
503.497345	11037.124916
503.863163	10656.565692
504.228923	10958.054418
504.594625	11017.653459
504.960269	10768.275140
505.325856	10989.440642
505.691385	10785.866247
506.056856	10939.621439
506.422270	10965.860645
506.787625	10851.910403
507.152924	10967.015069
507.518164	10953.882863
507.883347	10871.218022
508.248472	10795.782196
508.613540	11025.429439
508.978550	10920.971690
509.343503	10887.528676
509.708398	11006.583085
510.073236	11121.450817
510.438016	11127.590942
510.802738	11078.243087
511.167403	11129.819132
511.532010	11022.918944
511.896561	11260.503484
512.261053	11329.300111
512.625488	11196.218690
512.989866	11177.183293
513.354186	11173.067191
513.718449	11068.246479
514.082655	11263.528176
514.446803	11155.581949
514.810894	11277.414035
515.174927	11143.551235
515.538904	11167.274905
515.902822	11319.411887
516.266684	11204.806296
516.630488	11143.639456
516.994235	11204.405524
517.357925	11265.448856
517.721558	11350.442710
518.085133	11368.651358
518.448651	11379.948583
518.812112	11254.108780
519.175516	11275.498396
519.538863	11396.624720
519.902152	11317.690333
520.265385	11473.204888
520.628560	11383.389171
520.991678	11359.554595
521.354739	11424.734194
521.717743	11360.056190
522.080690	11335.175575
522.443580	11475.060033
522.806413	11434.002355
523.169189	11461.423712
523.531908	11517.037721
523.894569	11336.466111
524.257174	11339.657161
524.619722	11460.849020
524.982213	11410.593758
525.344647	11461.050666
525.707025	11409.688870
526.069345	11505.490958
526.431608	11423.068093
526.793815	11528.062724
527.155964	11315.169756
527.518057	11378.484128
527.880093	11315.557925
528.242072	11388.785726
528.603995	11301.367077
528.965860	11218.092257
529.327669	11265.189237
529.689421	11219.342463
530.051117	11187.157216
530.412755	11287.703030
530.774337	11180.061792
531.135862	11163.194091
531.497331	11176.187665
531.858743	11031.889678
532.220098	11202.933507
532.581396	11069.708414
532.942638	11061.932434
533.303824	11024.849706
533.664953	11035.733558
534.026025	10949.827255
534.387040	11046.808973
534.747999	11044.968951
535.108902	11111.643252
535.469748	10864.276353
535.830537	10973.296347
536.191270	10947.334404
536.551947	10971.196706
536.912567	10978.201389
537.273131	10905.742364
537.633638	10879.041893
537.994089	10862.554799
538.354483	10811.782818
538.714821	10962.488113
539.075103	10966.775614
539.435328	10931.369070
539.795497	10758.742318
540.155609	10917.032028
540.515665	11007.480411
540.875665	10736.490665
541.235609	10805.723352
541.595496	10800.846035
541.955328	10960.723709
542.315102	10833.852990
542.674821	10794.138780
543.034483	10794.652978
543.394090	10797.387804
543.753640	10719.426359
544.113134	10943.727459
544.472571	10801.219081
544.831953	10948.977820
545.191278	10749.370813
545.550548	10779.370720
545.909761	10913.934239
546.268918	10888.864581
546.628019	10976.028652
546.987064	10840.260297
547.346053	10760.665518
547.704986	10858.345436
548.063863	10845.969403
548.422684	10833.162352
548.781449	10752.261915
549.140158	10863.000942
549.498811	10729.080169
549.857408	10591.925496
550.215949	10812.831378
550.574434	10668.843422
550.932864	10769.245562
551.291237	10834.536066
551.649555	10777.520616
552.007817	10793.213728
552.366022	10751.903993
552.724173	10749.511966
553.082267	10729.289377
553.440305	10868.097548
553.798288	10665.939717
554.156215	10820.050311
554.514086	10800.790583
554.871902	10645.669237
555.229661	10679.500421
555.587365	10666.826960
555.945014	10557.292769
556.302606	10682.522593
556.660143	10571.080325
557.017625	10726.947761
557.375050	10627.072421
557.732421	10756.201577
558.089735	10671.094297
558.446994	10668.351909
558.804197	10710.679958
559.161345	10714.178518
559.518437	10560.173789
559.875474	10651.234671
560.232455	10683.482933
560.589381	10632.630293
560.946251	10625.323141
561.303065	10730.005221
561.659825	10666.184213
562.016528	10601.581827
562.373177	10468.765067
562.729770	10596.500343
563.086307	10516.449341
563.442789	10603.683988
563.799216	10475.134565
564.155587	10524.116936
564.511904	10479.530451
564.868164	10470.486621
565.224370	10491.742646
565.580520	10410.144009
565.936615	10414.048383
566.292654	10285.478795
566.648638	10414.796994
567.004567	10374.712259
567.360441	10359.132573
567.716260	10270.630077
568.072023	10364.536690
568.427732	10317.502725
568.783385	10221.282222
569.138982	10294.094127
569.494525	10311.982662
569.850013	10184.176809
570.205445	10268.621177
570.560823	10163.737450
570.916145	10081.090254
571.271412	10151.429473
571.626625	10096.332182
571.981782	10072.190097
572.336884	10043.909223
572.691931	10051.193691
573.046923	10001.966823
573.401860	9952.755080
573.756743	9887.933403
574.111570	9931.168859
574.466342	9910.394264
574.821059	9940.857957
575.175722	9832.737809
575.530330	9841.038069
575.884882	9840.113017
576.239380	9764.437737
576.593823	9743.637936
576.948211	9758.390872
577.302544	9638.045927
577.656823	9659.256582
578.011047	9660.085852
578.365216	9632.445205
578.719330	9555.653309
579.073389	9563.698990
579.427394	9517.849696
579.781344	9490.514039
580.135239	9442.265156
580.489080	9448.957288
580.842866	9349.470117
581.196597	9353.059418
581.550273	9396.849401
581.903895	9361.846149
582.257463	9430.022714
582.610975	9308.180546
582.964434	9336.219444
583.317837	9260.957537
583.671186	9240.795442
584.024481	9235.290503
584.377721	9152.739088
584.730906	9128.637331
585.084037	9159.015324
585.437113	9099.920398
585.790135	9117.100651
586.143103	9011.455710
586.496016	8993.078184
586.848874	9050.534735
587.201679	9035.870018
587.554428	8921.312318
587.907124	8969.969534
588.259765	8943.783261
588.612352	8939.732694
588.964884	8815.276687
589.317362	8831.282351
589.669786	8832.101538
590.022155	8878.964105
590.374470	8896.693843
590.726731	8834.851488
591.078937	8681.688631
591.431090	8795.311198
591.783188	8672.347373
592.135232	8662.824633
592.487222	8657.256679
592.839157	8712.890853
593.191038	8648.086820
593.542866	8596.793080
593.894639	8495.770877
594.246358	8550.638796
594.598022	8559.513747
594.949633	8458.340310
595.301190	8434.470447
595.652692	8464.135116
596.004141	8572.325840
596.355535	8353.312911
596.706876	8335.628543
597.058162	8268.830734
597.409395	8342.804626
597.760573	8409.660408
598.111698	8314.901839
598.462768	8303.271897
598.813785	8267.179756
599.164748	8236.368224
599.515657	8225.517140
599.866511	8132.026422
600.217312	8265.891741
600.568060	8115.055377
600.918753	8221.317859
601.269392	8194.309877
601.619978	8101.605579
601.970510	8169.252822
602.320988	8165.676123
602.671412	8221.648055
603.021783	8162.202768
603.372100	8128.643807
603.722363	8132.918706
604.072572	8106.160261
604.422728	8113.785006
604.772830	8048.582723
605.122878	8051.410810
605.472872	8046.979636
605.822813	8078.993483
606.172701	8023.208075
606.522534	8099.326977
606.872314	8092.138292
607.222041	8067.171977
607.571714	8121.848332
607.921333	8081.672856
608.270899	8090.714166
608.620411	8177.540479
608.969870	8083.326355
609.319276	8074.900066
609.668627	8084.629493
610.017926	8130.408211
610.367171	8171.813728
610.716362	8149.083166
611.065500	8137.556567
611.414585	8168.126124
611.763616	8156.082808
612.112594	8140.099829
612.461518	8151.230697
612.810389	8217.486582
613.159207	8151.429823
613.507971	8103.198583
613.856682	8225.890186
614.205340	8170.424890
614.553945	8258.662727
614.902496	8150.769432
615.250994	8207.706744
615.599439	8186.168414
615.947830	8201.337246
616.296169	8178.064759
616.644454	8193.110083
616.992686	8190.720576
617.340864	8242.470541
617.688990	8150.560224
618.037063	8237.746979
618.385082	8186.972478
618.733048	8274.252495
619.080961	8213.559523
619.428821	8229.867656
619.776628	8232.781443
620.124382	8183.625152
620.472083	8164.438520
620.819731	8199.161988
621.167326	8091.707273
621.514868	8100.549457
621.862357	7984.466807
622.209793	8000.563212
622.557176	7933.684744
622.904506	7905.686176
623.251783	7841.809715
623.599007	7800.550392
623.946179	7795.524361
624.293297	7761.864577
624.640363	7675.529776
624.987376	7650.933987
625.334336	7601.916327
625.681243	7546.241824
626.028097	7540.240330
626.374899	7522.422372
626.721647	7506.953592
627.068343	7438.439270
627.414987	7413.392297
627.761577	7368.135338
628.108115	7404.098930
628.454600	7297.090357
628.801032	7348.799993
629.147412	7313.360681
629.493739	7303.540513
629.840014	7234.842189
630.186236	7293.236395
630.532405	7178.595515
630.878521	7230.836992
631.224585	7182.673809
631.570597	7111.114630
631.916556	7138.619165
632.262462	7138.994731
632.608316	7100.117353
632.954117	7074.218425
633.299866	7062.729635
633.645562	7055.256125
633.991206	6975.439536
634.336797	6919.283602
634.682336	6874.772735
635.027823	6845.690318
635.373257	6837.785789
635.718639	6768.328771
636.063968	6781.907119
636.409245	6675.629514
636.754470	6670.437125
637.099642	6629.150075
637.444762	6575.648309
637.789829	6581.896820
638.134845	6524.750300
638.479808	6507.239852
638.824719	6516.558425
639.169577	6444.888340
639.514383	6461.907276
639.859137	6384.709566
640.203839	6401.088275
640.548489	6385.901799
640.893086	6363.219127
641.237632	6335.938923
641.582125	6352.229412
641.926566	6322.489125
642.270955	6339.820612
642.615292	6334.129149
642.959576	6346.956365
643.303809	6337.078224
643.647990	6339.944120
643.992118	6330.965825
644.336195	6286.729700
644.680219	6303.579757
645.024192	6294.268746
645.368112	6396.092492
645.711981	6411.316776
646.055797	6494.221072
646.399562	6452.102232
646.743274	6571.990952
647.086935	6630.768286
647.430544	6623.216637
647.774101	6643.245141
648.117606	6656.238715
648.461059	6643.499720
648.804460	6605.013031
649.147810	6508.631210
649.491108	6480.093238
649.834354	6456.493077
650.177548	6369.152566
650.520690	6281.683505
650.863781	6266.945692
651.206820	6285.121572
651.549807	6208.130550
651.892742	6151.611654
652.235626	6155.321943
652.578458	6140.148070
652.921238	6047.705911
653.263967	6090.548157
653.606644	6030.394589
653.949269	6031.944744
654.291843	5972.907791
654.634365	6022.623650
654.976836	5976.683615
655.319255	5974.596578
655.661622	5951.498011
656.003938	5946.134223
656.346203	5916.126755
656.688416	5940.563748
657.030577	5894.411984
657.372687	5863.797057
657.714746	5851.715932
658.056753	5889.872425
658.398708	5834.097099
658.740612	5830.210370
659.082465	5877.040168
659.424266	5864.961564
659.766016	5863.446697
660.107715	5835.828736
660.449362	5853.084605
660.790958	5847.683009
661.132503	5834.850752
661.473996	5874.943048
661.815438	5860.669021
662.156829	5856.179874
662.498168	5849.255849
662.839456	5825.562426
663.180693	5858.506366
663.521879	5863.749166
663.863013	5851.481518
664.204097	5867.247727
664.545129	5910.803296
664.886110	5906.762811
665.227040	5937.806237
665.567918	5904.368263
665.908746	5935.003355
666.249522	5939.507626
666.590248	5920.978865
666.930922	5954.104287
667.271545	5960.831707
667.612118	5965.182223
667.952639	5941.241783
668.293109	5959.354649
668.633528	5919.867291
668.973896	5920.457106
669.314213	5913.833030
669.654480	5895.906687
669.994695	5891.891408
670.334859	5878.434047
670.674973	5871.963726
671.015035	5872.838367
671.355047	5876.369695
671.695008	5857.598958
672.034918	5834.671791
672.374777	5848.570252
672.714585	5830.611141
673.054342	5834.376883
673.394049	5827.422612
673.733705	5858.201376
674.073310	5850.395150
674.412864	5807.888140
674.752368	5795.053363
675.091820	5801.422861
675.431223	5738.171503
675.770574	5735.098920
676.109875	5687.601168
676.449125	5690.550243
676.788324	5661.230893
677.127473	5602.425833
677.466571	5595.416109
677.805619	5580.769036
678.144616	5566.893260
678.483562	5549.143357
678.822458	5520.716291
679.161303	5520.736456
679.500098	5502.691645
679.838842	5488.221013
680.177535	5493.080686
680.516179	5502.361450
680.854771	5516.055744
681.193314	5595.484164
681.531805	5704.627666
681.870247	5859.081058
682.208638	5959.780626
682.546978	5974.778059
682.885268	5950.726714
683.223508	5863.769331
683.561697	5808.979550
683.899836	5783.723369
684.237925	5733.949537
684.575963	5697.486871
684.913951	5658.299462
685.251889	5722.052414
685.589776	5690.124266
685.927614	5662.647457
686.265401	5735.298046
686.603137	5719.839347
686.940824	5790.806191
687.278460	5818.892979
687.616046	5831.460576
687.953582	5894.568260
688.291068	5875.512699
688.628504	5936.430002
688.965889	5901.088993
689.303224	5847.269634
689.640510	5801.090144
689.977745	5720.434203
690.314930	5625.718484
690.652065	5567.599022
690.989150	5477.082584
691.326185	5396.388834
691.663170	5346.405794
692.000105	5268.124236
692.336990	5190.931568
692.673825	5160.886291
693.010610	5096.689718
693.347345	5026.355539
693.684030	5012.683930
694.020665	4973.614988
694.357251	4881.608889
694.693786	4892.432246
695.030272	4860.080641
695.366707	4823.617975
695.703093	4790.111946
696.039429	4811.073064
696.375716	4798.061846
696.711952	4768.374491
697.048139	4758.214045
697.384276	4738.997167
697.720363	4750.629629
698.056400	4754.271863
698.392388	4706.078432
698.728326	4688.033622
699.064214	4663.886495
699.400053	4660.453469
699.735842	4626.962564
700.071581	4603.990026
700.407270	4573.919543
700.742910	4556.978746
701.078501	4501.440354
701.414042	4504.109645
701.749533	4470.485148
702.084974	4404.138523
702.420366	4464.675219
702.755709	4401.927977
703.091002	4350.208259
703.426246	4399.190630
703.761440	4352.302858
704.096584	4317.304648
704.431679	4337.053368
704.766725	4321.077951
705.101721	4310.383143
705.436668	4337.973378
705.771565	4290.984783
706.106413	4311.129234
706.441212	4344.912527
706.775961	4353.638764
707.110661	4339.936908
707.445311	4365.646792
707.779913	4385.524062
708.114465	4399.679622
708.448967	4422.405144
708.783421	4485.038960
709.117825	4527.049415
709.452180	4530.910939
709.786485	4579.795008
710.120742	4664.420857
710.454949	4642.504441
710.789107	4715.364238
711.123216	4786.867964
711.457275	4781.005102
711.791286	4853.794322
712.125247	4866.619018
712.459159	4770.736272
712.793023	4845.252087
713.126837	4806.157939
713.460602	4801.003359
713.794318	4718.870360
714.127985	4724.990321
714.461602	4642.295233
714.795171	4610.750213
715.128691	4543.047517
715.462162	4489.097088
715.795584	4437.914253
716.128957	4418.558743
716.462281	4372.197772
716.795556	4344.173998
717.128782	4306.423317
717.461960	4235.431268
717.795088	4248.979369
718.128167	4205.927915
718.461198	4144.289727
718.794180	4141.852329
719.127113	4127.469917
719.459997	4098.947069
719.792833	4056.535842
720.125619	4047.217269
720.458357	4013.139069
720.791046	4016.725850
721.123686	3992.997138
721.456278	3945.897638
721.788821	3963.771049
722.121315	3940.712811
722.453761	3912.467226
722.786158	3928.004062
723.118506	3954.270995
723.450805	3901.008684
723.783056	3921.730347
724.115259	3939.959159
724.447412	3943.659366
724.779518	3935.432203
725.111574	3939.180301
725.443582	3971.239518
725.775542	3956.940286
726.107453	4007.185466
726.439315	4005.703367
726.771129	4023.488557
727.102895	4056.455183
727.434612	4107.438893
727.766281	4120.525728
728.097901	4119.681335
728.429473	4126.227273
728.760996	4129.146101
729.092471	4124.276346
729.423897	4108.487453
729.755276	4113.841158
730.086606	4116.913741
730.417887	4152.153927
730.749120	4222.238568
731.080305	4283.566726
731.411442	4309.974810
731.742530	4281.469606
732.073570	4283.412970
732.404562	4336.730734
732.735506	4329.030372
733.066401	4291.930000
733.397249	4229.250813
733.728048	4150.041684
734.058798	4067.681833
734.389501	3995.207684
734.720156	3932.760391
735.050762	3887.712640
735.381320	3886.401940
735.711831	3831.896985
736.042293	3803.207778
736.372707	3824.075635
736.703073	3795.227632
737.033391	3785.089872
737.363661	3801.133344
737.693883	3826.719720
738.024056	3838.629446
738.354182	3833.921008
738.684260	3899.314856
739.014290	3920.260850
739.344272	3913.919079
739.674207	3957.535142
740.004093	3960.307776
740.333931	3955.654791
740.663722	3960.252324
740.993464	3953.310655
741.323159	3931.679064
741.652806	3902.072367
741.982405	3874.361144
742.311956	3842.191021
742.641460	3835.312367
742.970915	3807.991833
743.300323	3769.709311
743.629683	3736.268817
743.958996	3725.447980
744.288260	3696.042930
744.617477	3666.148888
744.946647	3650.964932
745.275768	3625.464256
745.604842	3623.394862
745.933869	3576.060948
746.262847	3568.773960
746.591778	3607.389198
746.920662	3574.183118
747.249498	3545.130948
747.578286	3589.049481
747.907027	3607.374075
748.235720	3605.629836
748.564365	3634.152684
748.892963	3631.511120
749.221514	3610.892800
749.550017	3589.566199
749.878473	3586.634768
750.206881	3558.210222
750.535242	3554.860375
750.863555	3557.703586
751.191821	3550.383831
751.520039	3532.316335
751.848210	3512.880167
752.176334	3545.463665
752.504411	3552.957340
752.832440	3509.837830
753.160421	3494.096828
753.488356	3503.705267
753.816243	3515.146165
754.144082	3473.599496
754.471875	3455.242134
754.799620	3475.275680
755.127318	3469.125472
755.454969	3469.488435
755.782572	3471.620843
756.110129	3450.246351
756.437638	3437.139351
756.765100	3450.556382
757.092515	3463.302939
757.419882	3469.949701
757.747203	3442.888787
758.074477	3444.570012
758.401703	3461.445274
758.728882	3484.894201
759.056014	3487.099706
759.383099	3494.154801
759.710138	3493.340654
760.037129	3508.000330
760.364073	3540.188097
760.690970	3521.513143
761.017820	3499.760564
761.344623	3516.300590
761.671379	3564.667940
761.998088	3615.515538
762.324751	3745.126124
762.651366	3990.456397
762.977935	4463.941731
763.304456	4909.791459
763.630931	5003.133464
763.957359	4650.325791
764.283740	4300.930980
764.610074	4108.643728
764.936362	3908.381371
765.262602	3748.939757
765.588796	3636.315339
765.914943	3549.005075
766.241044	3459.227166
766.567097	3429.983433
766.893104	3386.816033
767.219064	3351.545600
767.544978	3329.573731
767.870845	3270.763630
768.196665	3251.425764
768.522438	3260.373812
768.848165	3256.098913
769.173846	3220.203377
769.499479	3203.000440
769.825066	3181.736853
770.150607	3167.856036
770.476101	3181.973787
770.801548	3180.045546
771.126949	3134.334883
771.452303	3117.076493
771.777611	3123.597226
772.102872	3129.576034
772.428087	3101.020418
772.753256	3091.832915
773.078378	3085.400403
773.403453	3055.476114
773.728482	3040.367776
774.053465	3061.628842
774.378401	3050.797923
774.703291	3015.335926
775.028135	3019.419261
775.352932	3011.895339
775.677683	3002.107938
776.002388	2997.822958
776.327046	2999.378154
776.651658	2990.946824
776.976224	2976.443424
777.300743	2975.692292
777.625216	2966.688792
777.949643	2962.502113
778.274024	2966.847588
778.598359	2953.428036
778.922647	2959.038841
779.246889	2957.029941
779.571086	2944.336315
779.895236	2937.676951
780.219339	2947.184567
780.543397	2962.618060
780.867409	2962.832309
781.191374	2957.385342
781.515294	2950.960392
781.839167	2954.658078
782.162995	2945.329423
782.486776	2954.610187
782.810511	2952.649178
783.134201	2938.055038
783.457844	2943.398661
783.781441	2934.405242
784.104993	2916.065525
784.428498	2916.496543
784.751958	2930.836105
785.075372	2924.113727
785.398739	2908.869278
785.722061	2927.168666
786.045337	2939.022939
786.368568	2920.438726
786.691752	2913.471851
787.014891	2962.194603
787.337983	2992.494458
787.661030	3019.134436
787.984031	3086.154055
788.306987	3132.328504
788.629897	3127.967906
788.952760	3107.863784
789.275579	3093.718307
789.598351	3034.804862
789.921078	2992.234839
790.243759	2982.482727
790.566395	2961.425827
790.888984	2936.900613
791.211529	2923.022317
791.534027	2911.490677
791.856480	2903.528175
792.178888	2888.422358
792.501249	2879.935575
792.823566	2876.137066
793.145836	2875.280069
793.468062	2870.317053
793.790241	2869.339070
794.112375	2875.517004
794.434464	2885.710217
794.756507	2891.626011
795.078505	2899.457443
795.400457	2912.559402
795.722364	2948.802778
796.044226	2974.147179
796.366042	2973.499390
796.687812	2964.160653
797.009538	2983.390134
797.331218	2974.908393
797.652852	2957.937348
797.974442	2939.927826
798.295986	2938.523865
798.617484	2932.048503
798.938938	2914.603590
799.260346	2896.936866
799.581709	2892.188099
799.903026	2885.720299
800.224299	2882.693086
800.545526	2870.669934
800.866708	2855.392718
801.187845	2843.321675
801.508936	2847.851151
801.829983	2854.709641
802.150984	2844.995338
802.471940	2829.014880
802.792851	2828.490600
803.113717	2827.976402
803.434538	2832.127792
803.755314	2829.400528
804.076045	2820.276040
804.396731	2820.492809
804.717372	2821.309476
805.037967	2816.535504
805.358518	2822.640341
805.679024	2836.281703
805.999485	2831.069150
806.319901	2835.807835
806.640272	2824.548418
806.960598	2831.527895
807.280879	2840.526355
807.601115	2848.546831
807.921306	2832.689881
808.241453	2828.979592
808.561554	2834.678616
808.881611	2841.332939
809.201623	2834.096363
809.521590	2832.944459
809.841513	2828.626711
810.161390	2832.326918
810.481223	2822.463901
810.801011	2816.666574
811.120755	2812.951243
811.440453	2814.476192
811.760107	2817.193374
812.079716	2814.410657
812.399281	2805.381951
812.718801	2794.740075
813.038276	2790.445012
813.357707	2800.839871
813.677093	2806.322126
813.996434	2798.692340
814.315731	2795.556742
814.634983	2789.877882
814.954191	2795.498769
815.273354	2808.459575
815.592473	2814.415698
815.911547	2816.500216
816.230577	2824.775270
816.549562	2835.482680
816.868502	2833.685509
817.187399	2841.264884
817.506250	2861.041330
817.825058	2852.408354
818.143821	2863.619881
818.462539	2880.548075
818.781213	2906.656211
819.099843	2946.536779
819.418429	3003.096005
819.736970	3064.850139
820.055466	3138.168681
820.373919	3247.844024
820.692327	3386.952144
821.010691	3556.423133
821.329011	4006.578007
821.647286	4912.543929
821.965517	6312.182486
822.283704	7076.129022
822.601847	7054.845271
822.919945	6409.590181
823.237999	5897.250154
823.556010	5309.227284
823.873976	4742.334411
824.191897	4331.389632
824.509775	4035.131102
824.827609	3755.982249
825.145398	3633.615801
825.463144	3619.193060
825.780845	3711.957853
826.098502	3819.702434
826.416116	4105.664406
826.733685	4428.620886
827.051210	4492.981298
827.368692	4375.923185
827.686129	4103.869756
828.003522	3778.435548
828.320872	3516.829911
828.638177	3314.646874
828.955439	3176.972962
829.272656	3093.133533
829.589830	3024.679705
829.906960	2974.857981
830.224046	2928.859973
830.541088	2893.524005
830.858086	2878.135883
831.175041	2860.151567
831.491952	2861.338758
831.808819	2875.453989
832.125642	2899.916188
832.442421	2944.469906
832.759157	3029.733462
833.075849	3208.223075
833.392497	3493.096158
833.709101	3699.332283
834.025662	3648.880415
834.342179	3488.007114
834.658653	3307.732932
834.975083	3156.581495
835.291469	3057.979047
835.607811	2973.585090
835.924110	2916.763724
836.240366	2864.542412
836.556578	2821.493478
836.872746	2796.776701
837.188871	2773.221910
837.504952	2755.071235
837.820990	2744.084041
838.136984	2732.993502
838.452935	2727.397821
838.768842	2726.629045
839.084706	2740.335943
839.400526	2821.838798
839.716303	2956.747636
840.032037	3040.450955
840.347727	3024.079808
840.663373	2962.663430
840.978977	2887.361195
841.294537	2810.788588
841.610054	2765.176228
841.925527	2741.994482
842.240957	2719.256358
842.556344	2699.502597
842.871687	2680.804957
843.186987	2670.543688
843.502244	2666.820796
843.817458	2663.113028
844.132629	2650.129536
844.447756	2638.565129
844.762840	2632.840899
845.077881	2639.669142
845.392879	2636.107566
845.707833	2633.173615
846.022745	2622.854373
846.337613	2629.032307
846.652438	2626.007615
846.967221	2625.448047
847.281960	2623.965947
847.596656	2623.781945
847.911309	2621.505864
848.225919	2617.467900
848.540485	2616.121912
848.855009	2617.014196
849.169490	2613.767693
849.483928	2617.757766
849.798323	2612.910697
850.112675	2610.894235
850.426984	2615.229628
850.741251	2611.547065
851.055474	2611.400871
851.369654	2614.307097
851.683792	2615.940430
851.997887	2614.685183
852.311938	2612.575460
852.625947	2614.130656
852.939914	2617.006634
853.253837	2617.394803
853.567718	2614.123094
853.881555	2611.894904
854.195350	2618.264402
854.509103	2615.907663
854.822812	2610.511108
855.136479	2612.577981
855.450103	2616.023609
855.763685	2617.619135
856.077224	2613.636623
856.390720	2610.664863
856.704173	2615.068311
857.017584	2619.615432
857.330953	2619.996039
857.644278	2624.351596
857.957561	2621.619290
858.270802	2616.888167
858.584000	2616.633589
858.897155	2617.137704
859.210268	2621.165586
859.523339	2617.674587
859.836367	2612.646036
860.149352	2612.557816
860.462295	2613.669391
860.775195	2610.702672
861.088054	2611.335336
861.400869	2606.735283
861.713642	2609.218052
862.026373	2609.054214
862.339062	2610.778289
862.651708	2614.685183
862.964312	2614.412961
863.276873	2612.749380
863.589392	2616.585698
863.901869	2624.898561
864.214303	2629.284365
864.526696	2628.797893
864.839045	2632.765281
865.151353	2633.309726
865.463619	2634.799387
865.775842	2633.034983
866.088023	2632.936681
866.400162	2635.240488
866.712258	2633.881897
867.024313	2631.953656
867.336325	2630.748820
867.648296	2632.462812
867.960224	2635.653862
868.272110	2636.011784
868.583954	2628.157667
868.895755	2632.548512
869.207515	2634.728811
869.519233	2642.388844
869.830909	2638.958339
870.142542	2632.707308
870.454134	2636.034470
870.765684	2638.766775
871.077191	2642.693834
871.388657	2646.477220
871.700081	2646.003351
872.011463	2646.144504
872.322803	2647.218269
872.634101	2648.932262
872.945357	2655.160607
873.256571	2662.603871
873.567744	2659.768222
873.878874	2658.598674
874.189963	2659.622028
874.501010	2664.327946
874.812015	2664.688388
875.122979	2667.481187
875.433900	2661.946000
875.744780	2659.022131
876.055618	2663.395332
876.366415	2671.383040
876.677169	2671.491425
876.987882	2662.026659
877.298554	2659.352327
877.609183	2674.478309
877.919771	2680.013496
878.230317	2687.048426
878.540822	2696.898841
878.851285	2711.855944
879.161707	2737.417115
879.472087	2776.657456
879.782425	2824.364416
880.092722	2944.316151
880.402977	3135.645583
880.713191	3401.125348
881.023363	3705.795042
881.333494	3901.885844
881.643583	4074.820107
881.953631	4075.808173
882.263637	3895.775966
882.573602	3670.232222
882.883526	3536.462684
883.193408	3415.406937
883.503248	3313.472285
883.813048	3192.918132
884.122806	3077.420256
884.432522	2990.067143
884.742197	2922.361926
885.051831	2886.418499
885.361424	2846.706809
885.670975	2810.612148
885.980485	2778.948661
886.289954	2759.091556
886.599382	2745.356932
886.908768	2734.014336
887.218113	2716.065307
887.527417	2700.992257
887.836680	2695.835157
888.145901	2687.625638
888.455082	2678.143228
888.764221	2668.502021
889.073319	2659.934580
889.382376	2659.732934
889.691392	2663.541526
890.000366	2660.834426
890.309300	2656.861997
890.618193	2661.396515
890.927044	2665.941115
891.235855	2664.900117
891.544625	2663.158398
891.853353	2664.116217
892.162041	2673.112156
892.470687	2690.375587
892.779293	2704.949563
893.087858	2715.104968
893.396381	2737.500294
893.704864	2779.165430
894.013306	2851.458097
894.321707	2948.134825
894.630068	3001.772702
894.938387	3020.692152
895.246665	3016.250896
895.554903	2967.313895
895.863100	2922.175403
896.171256	2864.776825
896.479371	2803.481436
896.787446	2760.886206
897.095480	2742.707806
897.403473	2735.544326
897.711425	2720.357850
898.019336	2700.634336
898.327207	2688.661595
898.635038	2685.266378
898.942827	2681.984587
899.250576	2671.650222
899.558284	2661.830054
899.865952	2657.323262
900.173579	2655.488282
900.481165	2652.468631
900.788711	2644.196098
901.096216	2637.440952
901.403681	2633.362658
901.711105	2634.247381
902.018489	2629.783439
902.325832	2634.685961
902.633135	2639.142341
902.940397	2654.477531
903.247619	2688.785103
903.554800	2762.287647
903.861941	2894.804458
904.169041	3025.849253
904.476101	3090.673450
904.783121	3086.421237
905.090100	3024.465456
905.397039	2945.566357
905.703938	2869.462578
906.010796	2805.777681
906.317614	2753.256420
906.624391	2715.271326
906.931129	2685.331913
907.237826	2663.639828
907.544483	2645.269863
907.851099	2627.822430
908.157675	2621.621811
908.464211	2616.033692
908.770707	2602.364603
909.077163	2596.942842
909.383578	2596.869745
909.689954	2595.032245
909.996289	2592.294898
910.302584	2590.936307
910.608839	2586.747108
910.915054	2586.734506
911.221229	2592.272213
911.527363	2594.160125
911.833458	2590.696852
912.139513	2593.892944
912.445527	2593.232553
912.751502	2600.849736
913.057436	2607.002465
913.363331	2611.451283
913.669186	2619.996039
913.975000	2636.795684
914.280775	2654.081800
914.586510	2676.111643
914.892205	2712.942313
915.197859	2783.833539
915.503475	2865.361599
915.809050	2937.916406
916.114585	2954.804271
916.420081	2969.988227
916.725536	2975.465440
917.030952	2948.424691
917.336328	2902.532547
917.641665	2849.481965
917.946961	2797.285858
918.252218	2762.983326
918.557435	2734.609192
918.862612	2711.371993
919.167750	2693.211237
919.472848	2677.528207
919.777906	2660.829385
920.082925	2648.647437
920.387904	2636.810807
920.692843	2633.791156
920.997743	2627.320835
921.302603	2620.530401
921.607423	2612.835080
921.912204	2609.828031
922.216946	2605.696806
922.521647	2604.489449
922.826310	2597.756988
923.130932	2593.565269
923.435516	2587.531008
923.740059	2587.737695
924.044564	2584.135791
924.349028	2580.707806
924.653454	2575.041549
924.957840	2571.921075
925.262186	2569.657597
925.566493	2570.885118
925.870761	2566.756413
926.174989	2567.787329
926.479178	2565.977555
926.783328	2566.360682
927.087438	2563.971175
927.391509	2564.200548
927.695541	2559.431616
927.999533	2560.389436
928.303486	2556.258210
928.607400	2557.699980
928.911275	2554.793755
929.215110	2559.270299
929.518906	2559.144271
929.822663	2555.318035
930.126381	2555.703683
930.430060	2556.371636
930.733699	2555.902809
931.037299	2555.262582
931.340861	2558.398180
931.644383	2557.513457
931.947866	2558.536812
932.251309	2556.411965
932.554714	2557.132850
932.858080	2556.918601
933.161407	2556.341389
933.464694	2554.108158
933.767943	2551.716130
934.071153	2555.963302
934.374323	2553.422561
934.677455	2554.672767
934.980548	2553.306614
935.283602	2551.113713
935.586617	2553.450287
935.889593	2555.872562
936.192530	2553.402396
936.495428	2553.046995
936.798287	2551.869886
937.101108	2557.967161
937.403890	2562.065619
937.706632	2562.743654
938.009336	2567.691547
938.312002	2570.527196
938.614628	2569.604665
938.917216	2578.126735
939.219765	2579.964236
939.522275	2578.736715
939.824747	2578.086406
940.127179	2572.031980
940.429573	2567.454613
940.731929	2572.349573
941.034246	2569.219017
941.336524	2567.971331
941.638763	2570.156671
941.940964	2567.182390
942.243126	2564.094684
942.545250	2565.312122
942.847335	2562.005125
943.149381	2563.134344
943.451389	2562.085784
943.753359	2562.506720
944.055290	2558.375495
944.357182	2559.978582
944.659036	2557.301729
944.960851	2559.507234
945.262628	2555.794424
945.564367	2559.635783
945.866067	2556.505227
946.167729	2554.602191
946.469352	2555.865000
946.770937	2559.809703
947.072484	2557.125288
947.373992	2558.224260
947.675462	2556.369115
947.976893	2556.169990
948.278286	2552.779814
948.579641	2555.854918
948.880958	2559.862635
949.182236	2554.952551
949.483476	2553.561193
949.784678	2551.985832
950.085841	2554.569423
950.386967	2555.318035
950.688054	2554.841646
950.989103	2553.561193
951.290114	2555.812068
951.591087	2559.073694
951.892021	2558.486400
952.192917	2560.270968
952.493776	2559.754250
952.794596	2563.187276
953.095378	2562.463870
953.396122	2561.231308
953.696828	2559.688715
953.997496	2558.194013
954.298126	2556.936245
954.598718	2558.861966
954.899272	2554.186296
955.199788	2554.584547
955.500266	2553.251162
955.800706	2548.898125
956.101108	2545.979297
956.401472	2547.095913
956.701798	2544.477033
957.002087	2545.956612
957.302337	2548.512477
957.602550	2543.972918
957.902724	2543.302445
958.202861	2545.240768
958.502960	2542.153062
958.803022	2542.962167
959.103045	2542.833617
959.403031	2543.773793
959.702979	2539.642567
960.002889	2540.439069
960.302762	2539.733308
960.602596	2541.885880
960.902393	2540.600386
961.202153	2540.978473
961.501875	2538.800694
961.801559	2536.912782
962.101205	2538.714995
962.400814	2538.750283
962.700385	2537.515200
962.999918	2540.716333
963.299414	2540.852444
963.598873	2538.561239
963.898293	2534.924047
964.197677	2538.190715
964.497022	2537.195087
964.796331	2539.098122
965.095601	2538.709953
965.394835	2537.830272
965.694030	2538.374717
965.993189	2536.827083
966.292309	2535.097967
966.591393	2536.527134
966.890439	2538.964532
967.189447	2537.041332
967.488419	2538.089892
967.787353	2537.121990
968.086249	2536.990920
968.385108	2540.083668
968.683930	2539.430838
968.982714	2536.779192
969.281462	2537.936136
969.580172	2536.658204
969.878844	2540.464275
970.177480	2539.740869
970.476078	2538.341949
970.774639	2539.753472
971.073162	2539.380427
971.371649	2538.200797
971.670098	2533.547812
971.968510	2538.609130
972.266885	2532.829448
972.565223	2539.080478
972.863524	2535.796167
973.161788	2539.040149
973.460014	2537.646270
973.758204	2536.857329
974.056356	2536.915303
974.354471	2539.246836
974.652550	2538.820859
974.950591	2540.229861
975.248595	2540.484440
975.546563	2539.718184
975.844493	2538.266332
976.142386	2536.925385
976.440243	2537.056455
976.738062	2538.619213
977.035845	2536.794315
977.333590	2537.701723
977.631299	2536.610313
977.928971	2536.259953
978.226606	2536.995961
978.524204	2537.868081
978.821765	2534.961856
979.119290	2536.030580
979.416777	2536.093595
979.714228	2538.160468
980.011642	2537.608461
980.309020	2536.680889
980.606360	2537.921013
980.903664	2537.270704
981.200931	2536.655683
981.498162	2537.789943
981.795356	2539.892104
982.092513	2544.673638
982.389633	2546.712785
982.686717	2549.558517
982.983764	2553.052036
983.280775	2557.881462
983.577749	2552.734443
983.874686	2552.416851
984.171587	2546.758156
984.468451	2546.700182
984.765279	2545.989380
985.062070	2538.677186
985.358824	2542.009389
985.655543	2539.206507
985.952224	2537.772299
986.248869	2538.031918
986.545478	2531.496062
986.842050	2532.486649
987.138586	2533.656197
987.435086	2532.650487
987.731549	2528.627646
988.027975	2535.145858
988.324366	2531.178470
988.620719	2533.071423
988.917037	2533.794828
989.213318	2534.119983
989.509563	2535.937319
989.805772	2532.179139
990.101944	2532.252235
990.398080	2535.655014
990.694180	2533.373892
990.990244	2534.671989
991.286271	2532.191742
991.582262	2535.841537
991.878217	2532.219468
992.174136	2531.296937
992.470019	2533.762061
992.765865	2534.233409
993.061676	2533.353727
993.357450	2533.066382
993.653188	2530.790301
993.948890	2535.271887
994.244556	2532.829447
994.540186	2532.405991
994.835780	2535.397915
995.131337	2534.805580
995.426859	2534.626619
995.722345	2534.946732
996.017795	2537.941178
996.313208	2537.709284
996.608586	2538.490663
996.903928	2538.145344
997.199234	2538.684748
997.494504	2536.950591
997.789738	2537.787422
998.084936	2536.050745
998.380099	2536.544778
998.675225	2536.549819
998.970316	2535.934798
999.265371	2535.990251
999.560390	2534.757689
999.855373	2536.365817
1000.150320	2534.056968
1000.445232	2534.755168
1000.740108	2533.769623
1001.034948	2533.888090
1001.329752	2531.622091
1001.624521	2533.633512
1001.919254	2525.655886
1002.213951	2533.071423
1002.508613	2529.202337
1002.803239	2530.414735
1003.097829	2527.311905
1003.392384	2533.394057
1003.686903	2529.759385
1003.981386	2534.074612
1004.275834	2532.816845
1004.570246	2531.675023
1004.864623	2534.326670
1005.158964	2532.456402
1005.453270	2531.838861
1005.747540	2531.460774
1006.041775	2532.350538
1006.335974	2531.876669
1006.630138	2530.868439
1006.924266	2531.180990
1007.218359	2529.797193
1007.512416	2531.075126
1007.806438	2533.368851
1008.100425	2531.223840
1008.394376	2531.848943
1008.688292	2531.669982
1008.982172	2534.016639
1009.276017	2530.185362
1009.569827	2529.134282
1009.863602	2531.997657
1010.157341	2530.749972
1010.451045	2531.700229
1010.744714	2531.301978
1011.038347	2531.924560
1011.331945	2531.526309
1011.625508	2531.826258
1011.919036	2531.312060
1012.212528	2534.014119
1012.505986	2529.610671
1012.799408	2534.719880
1013.092795	2529.219981
1013.386147	2533.129396
1013.679464	2529.971113
1013.972745	2533.593182
1014.265992	2531.077647
1014.559204	2532.837009
1014.852380	2531.806093
1015.145521	2530.089580
1015.438628	2532.484128
1015.731699	2534.505631
1016.024736	2529.403983
1016.317737	2528.383150
1016.610703	2528.552028
1016.903635	2528.824251
1017.196531	2525.834847
1017.489393	2527.437933
1017.782219	2526.790145
1018.075011	2528.320135
1018.367768	2532.244674
1018.660490	2527.747964
1018.953177	2527.747964
1019.245829	2527.747964
