Dividing Wavelength (nm)	Counts (n)	Blue Motor Position (mm): 1.200000	Red Motor Position (mm): 0.000000	
326.493990	2018.982115
326.888308	2018.982115
327.282561	2018.982115
327.676750	2089.558269
328.070874	2069.393654
328.464933	2076.955385
328.858929	2167.696154
329.252859	2066.873077
329.646726	2031.585000
330.040528	2112.243462
330.434265	2081.996538
330.827938	2152.572692
331.221547	2177.778462
331.615091	2225.669423
332.008571	2155.093269
332.401986	2104.681731
332.795338	2180.299038
333.188625	2318.930769
333.581847	2366.821731
333.975006	2245.834038
334.368100	2346.657115
334.761129	2303.807308
335.154095	2374.383462
335.546996	2331.533654
335.939833	2402.109808
336.332606	2366.821731
336.725315	2467.644808
337.117960	2427.315577
337.510540	2455.041923
337.903056	2434.877308
338.295508	2462.603654
338.687896	2452.521346
339.080220	2472.685962
339.472480	2437.397885
339.864676	2442.439038
340.256807	2535.700385
340.648875	2545.782692
341.040879	2480.247692
341.432818	2502.932885
341.824694	2460.083077
342.216506	2507.974038
342.608253	2462.603654
342.999937	2389.506923
343.391557	2455.041923
343.783113	2455.041923
344.174605	2472.685962
344.566033	2510.494615
344.957397	2444.959615
345.348697	2543.262115
345.739934	2432.356731
346.131106	2515.535769
346.522215	2444.959615
346.913260	2432.356731
347.304241	2510.494615
347.695159	2439.918462
348.086012	2452.521346
348.476802	2447.480192
348.867528	2450.000769
349.258191	2444.959615
349.648789	2455.041923
350.039324	2480.247692
350.429796	2442.439038
350.820203	2429.836154
351.210548	2497.891731
351.600828	2427.315577
351.991045	2434.877308
352.381198	2429.836154
352.771288	2424.795000
353.161314	2422.274423
353.551276	2407.150962
353.941175	2437.397885
354.331010	2404.630385
354.720782	2497.891731
355.110490	2480.247692
355.500135	2356.739423
355.889717	2482.768269
356.279235	2482.768269
356.668689	2507.974038
357.058080	2419.753846
357.447408	2518.056346
357.836672	2419.753846
358.225873	2485.288846
358.615010	2487.809423
359.004084	2480.247692
359.393095	2422.274423
359.782043	2500.412308
360.170927	2442.439038
360.559748	2452.521346
360.948505	2500.412308
361.337199	2525.618077
361.725830	2429.836154
362.114398	2379.424615
362.502903	2384.465769
362.891344	2399.589231
363.279722	2558.385577
363.668037	2379.424615
364.056289	2394.548077
364.444478	2462.603654
364.832603	2444.959615
365.220665	2457.562500
365.608665	2545.782692
365.996601	2482.768269
366.384474	2429.836154
366.772284	2402.109808
367.160031	2346.657115
367.547715	2407.150962
367.935336	2399.589231
368.322893	2439.918462
368.710388	2485.288846
369.097820	2467.644808
369.485189	2407.150962
369.872495	2480.247692
370.259738	2495.371154
370.646918	2558.385577
371.034035	2477.727115
371.421090	2507.974038
371.808081	2510.494615
372.195010	2492.850577
372.581875	2402.109808
372.968678	2442.439038
373.355418	2523.097500
373.742096	2414.712692
374.128710	2500.412308
374.515262	2490.330000
374.901751	2429.836154
375.288177	2490.330000
375.674540	2563.426731
376.060841	2470.165385
376.447079	2424.795000
376.833254	2470.165385
377.219367	2414.712692
377.605417	2530.659231
377.991404	2490.330000
378.377329	2502.932885
378.763191	2434.877308
379.148991	2316.410192
379.534727	2500.412308
379.920402	2465.124231
380.306013	2429.836154
380.691563	2321.451346
381.077049	2412.192115
381.462474	2495.371154
381.847835	2427.315577
382.233134	2429.836154
382.618371	2444.959615
383.003545	2455.041923
383.388657	2412.192115
383.773706	2487.809423
384.158693	2475.206538
384.543618	2447.480192
384.928480	2422.274423
385.313280	2475.206538
385.698017	2462.603654
386.082692	2452.521346
386.467305	2457.562500
386.851856	2419.753846
387.236344	2513.015192
387.620770	2409.671538
388.005133	2475.206538
388.389435	2407.150962
388.773674	2540.741538
389.157851	2525.618077
389.541965	2460.083077
389.926018	2462.603654
390.310008	2462.603654
390.693936	2545.782692
391.077802	2467.644808
391.461606	2465.124231
391.845348	2505.453462
392.229027	2394.548077
392.612645	2477.727115
392.996200	2462.603654
393.379694	2442.439038
393.763125	2467.644808
394.146494	2563.426731
394.529801	2487.809423
394.913047	2495.371154
395.296230	2485.288846
395.679351	2487.809423
396.062410	2460.083077
396.445408	2432.356731
396.828343	2533.179808
397.211217	2407.150962
397.594028	2386.986346
397.976778	2460.083077
398.359466	2434.877308
398.742092	2470.165385
399.124656	2492.850577
399.507158	2513.015192
399.889598	2530.659231
400.271977	2447.480192
400.654294	2444.959615
401.036549	2525.618077
401.418742	2409.671538
401.800874	2510.494615
402.182944	2427.315577
402.564952	2487.809423
402.946898	2432.356731
403.328783	2465.124231
403.710606	2470.165385
404.092367	2487.809423
404.474067	2442.439038
404.855705	2409.671538
405.237282	2603.755962
405.618797	2460.083077
406.000250	2442.439038
406.381642	2424.795000
406.762972	2434.877308
407.144240	2560.906154
407.525447	2495.371154
407.906593	2540.741538
408.287677	2427.315577
408.668700	2442.439038
409.049661	2439.918462
409.430560	2573.509038
409.811399	2480.247692
410.192176	2442.439038
410.572891	2495.371154
410.953545	2490.330000
411.334138	2455.041923
411.714669	2475.206538
412.095139	2500.412308
412.475547	2482.768269
412.855894	2460.083077
413.236180	2507.974038
413.616405	2502.932885
413.996568	2525.618077
414.376670	2495.371154
414.756711	2480.247692
415.136691	2523.097500
415.516609	2535.700385
415.896466	2447.480192
416.276262	2563.426731
416.655997	2480.247692
417.035670	2500.412308
417.415283	2487.809423
417.794834	2482.768269
418.174324	2525.618077
418.553753	2495.371154
418.933121	2570.988462
419.312428	2457.562500
419.691674	2409.671538
420.070859	2457.562500
420.449983	2518.056346
420.829045	2520.576923
421.208047	2402.109808
421.586988	2490.330000
421.965867	2427.315577
422.344686	2482.768269
422.723444	2515.535769
423.102141	2394.548077
423.480777	2500.412308
423.859352	2548.303269
424.237866	2419.753846
424.616319	2457.562500
424.994712	2452.521346
425.373044	2490.330000
425.751314	2502.932885
426.129524	2465.124231
426.507673	2442.439038
426.885762	2424.795000
427.263789	2455.041923
427.641756	2525.618077
428.019662	2492.850577
428.397508	2490.330000
428.775292	2518.056346
429.153016	2487.809423
429.530679	2472.685962
429.908282	2530.659231
430.285824	2450.000769
430.663305	2467.644808
431.040726	2502.932885
431.418086	2455.041923
431.795385	2505.453462
432.172624	2475.206538
432.549802	2462.603654
432.926920	2470.165385
433.303977	2442.439038
433.680974	2447.480192
434.057910	2492.850577
434.434786	2490.330000
434.811601	2475.206538
435.188355	2490.330000
435.565050	2386.986346
435.941683	2500.412308
436.318257	2439.918462
436.694770	2492.850577
437.071222	2515.535769
437.447614	2492.850577
437.823946	2475.206538
438.200218	2490.330000
438.576429	2480.247692
438.952580	2513.015192
439.328670	2444.959615
439.704700	2533.179808
440.080670	2394.548077
440.456580	2490.330000
440.832429	2450.000769
441.208218	2452.521346
441.583947	2540.741538
441.959616	2472.685962
442.335224	2485.288846
442.710773	2434.877308
443.086261	2485.288846
443.461689	2495.371154
443.837057	2591.153077
444.212365	2513.015192
444.587612	2487.809423
444.962800	2563.426731
445.337927	2472.685962
445.712995	2545.782692
446.088002	2450.000769
446.462949	2462.603654
446.837837	2455.041923
447.212664	2429.836154
447.587431	2543.262115
447.962139	2505.453462
448.336786	2530.659231
448.711374	2462.603654
449.085901	2505.453462
449.460369	2470.165385
449.834776	2568.467885
450.209124	2555.865000
450.583412	2409.671538
450.957640	2452.521346
451.331808	2450.000769
451.705917	2528.138654
452.079965	2502.932885
452.453954	2480.247692
452.827883	2576.029615
453.201752	2505.453462
453.575562	2427.315577
453.949311	2555.865000
454.323001	2424.795000
454.696632	2528.138654
455.070202	2507.974038
455.443713	2407.150962
455.817164	2507.974038
456.190556	2487.809423
456.563888	2507.974038
456.937160	2397.068654
457.310373	2507.974038
457.683526	2437.397885
458.056619	2452.521346
458.429653	2427.315577
458.802628	2447.480192
459.175542	2523.097500
459.548398	2462.603654
459.921194	2530.659231
460.293930	2447.480192
460.666607	2417.233269
461.039224	2434.877308
461.411782	2520.576923
461.784280	2500.412308
462.156719	2497.891731
462.529099	2558.385577
462.901419	2487.809423
463.273680	2444.959615
463.645882	2465.124231
464.018024	2427.315577
464.390106	2427.315577
464.762130	2386.986346
465.134094	2447.480192
465.505999	2507.974038
465.877845	2548.303269
466.249631	2482.768269
466.621358	2467.644808
466.993026	2477.727115
467.364634	2538.220962
467.736184	2472.685962
468.107674	2439.918462
468.479105	2502.932885
468.850477	2472.685962
469.221790	2543.262115
469.593043	2450.000769
469.964238	2490.330000
470.335373	2475.206538
470.706449	2500.412308
471.077467	2490.330000
471.448425	2495.371154
471.819324	2535.700385
472.190164	2417.233269
472.560945	2475.206538
472.931667	2576.029615
473.302330	2457.562500
473.672934	2497.891731
474.043479	2568.467885
474.413965	2452.521346
474.784393	2487.809423
475.154761	2548.303269
475.525070	2472.685962
475.895321	2472.685962
476.265513	2470.165385
476.635645	2442.439038
477.005719	2497.891731
477.375734	2485.288846
477.745691	2475.206538
478.115588	2465.124231
478.485427	2470.165385
478.855207	2447.480192
479.224928	2447.480192
479.594591	2548.303269
479.964194	2482.768269
480.333739	2540.741538
480.703226	2568.467885
481.072653	2548.303269
481.442022	2487.809423
481.811333	2545.782692
482.180584	2465.124231
482.549777	2442.439038
482.918912	2487.809423
483.287988	2538.220962
483.657005	2417.233269
484.025964	2482.768269
484.394864	2490.330000
484.763706	2548.303269
485.132489	2492.850577
485.501213	2502.932885
485.869879	2480.247692
486.238487	2555.865000
486.607036	2593.673654
486.975527	2505.453462
487.343959	2525.618077
487.712333	2510.494615
488.080648	2502.932885
488.448905	2450.000769
488.817104	2477.727115
489.185244	2452.521346
489.553326	2470.165385
489.921350	2505.453462
490.289315	2525.618077
490.657222	2462.603654
491.025070	2545.782692
491.392861	2545.782692
491.760593	2502.932885
492.128267	2482.768269
492.495883	2530.659231
492.863440	2457.562500
493.230939	2558.385577
493.598380	2434.877308
493.965763	2450.000769
494.333088	2490.330000
494.700354	2487.809423
495.067563	2502.932885
495.434713	2437.397885
495.801805	2576.029615
496.168839	2409.671538
496.535815	2543.262115
496.902733	2490.330000
497.269593	2437.397885
497.636395	2457.562500
498.003139	2505.453462
498.369825	2429.836154
498.736453	2525.618077
499.103023	2507.974038
499.469535	2487.809423
499.835989	2507.974038
500.202385	2470.165385
500.568723	2513.015192
500.935003	2492.850577
501.301226	2462.603654
501.667390	2492.850577
502.033497	2439.918462
502.399546	2450.000769
502.765537	2515.535769
503.131470	2525.618077
503.497345	2500.412308
503.863163	2586.111923
504.228923	2475.206538
504.594625	2502.932885
504.960269	2402.109808
505.325856	2530.659231
505.691385	2432.356731
506.056856	2452.521346
506.422270	2480.247692
506.787625	2475.206538
507.152924	2505.453462
507.518164	2520.576923
507.883347	2444.959615
508.248472	2490.330000
508.613540	2462.603654
508.978550	2482.768269
509.343503	2394.548077
509.708398	2437.397885
510.073236	2545.782692
510.438016	2424.795000
510.802738	2470.165385
511.167403	2502.932885
511.532010	2427.315577
511.896561	2487.809423
512.261053	2417.233269
512.625488	2525.618077
512.989866	2581.070769
513.354186	2462.603654
513.718449	2518.056346
514.082655	2518.056346
514.446803	2477.727115
514.810894	2419.753846
515.174927	2500.412308
515.538904	2467.644808
515.902822	2477.727115
516.266684	2482.768269
516.630488	2545.782692
516.994235	2490.330000
517.357925	2543.262115
517.721558	2553.344423
518.085133	2490.330000
518.448651	2528.138654
518.812112	2560.906154
519.175516	2581.070769
519.538863	2475.206538
519.902152	2460.083077
520.265385	2472.685962
520.628560	2565.947308
520.991678	2560.906154
521.354739	2412.192115
521.717743	2505.453462
522.080690	2500.412308
522.443580	2502.932885
522.806413	2490.330000
523.169189	2520.576923
523.531908	2639.044038
523.894569	2520.576923
524.257174	2414.712692
524.619722	2455.041923
524.982213	2550.823846
525.344647	2538.220962
525.707025	2560.906154
526.069345	2497.891731
526.431608	2553.344423
526.793815	2485.288846
527.155964	2447.480192
527.518057	2505.453462
527.880093	2487.809423
528.242072	2465.124231
528.603995	2477.727115
528.965860	2427.315577
529.327669	2538.220962
529.689421	2568.467885
530.051117	2548.303269
530.412755	2497.891731
530.774337	2543.262115
531.135862	2437.397885
531.497331	2472.685962
531.858743	2487.809423
532.220098	2462.603654
532.581396	2586.111923
532.942638	2487.809423
533.303824	2555.865000
533.664953	2412.192115
534.026025	2490.330000
534.387040	2513.015192
534.747999	2472.685962
535.108902	2457.562500
535.469748	2530.659231
535.830537	2505.453462
536.191270	2515.535769
536.551947	2475.206538
536.912567	2507.974038
537.273131	2535.700385
537.633638	2487.809423
537.994089	2457.562500
538.354483	2507.974038
538.714821	2492.850577
539.075103	2477.727115
539.435328	2502.932885
539.795497	2492.850577
540.155609	2462.603654
540.515665	2460.083077
540.875665	2497.891731
541.235609	2490.330000
541.595496	2490.330000
541.955328	2490.330000
542.315102	2490.330000
542.674821	2487.809423
543.034483	2591.153077
543.394090	2485.288846
543.753640	2530.659231
544.113134	2525.618077
544.472571	2371.862885
544.831953	2495.371154
545.191278	2477.727115
545.550548	2424.795000
545.909761	2518.056346
546.268918	2465.124231
546.628019	2543.262115
546.987064	2457.562500
547.346053	2523.097500
547.704986	2548.303269
548.063863	2492.850577
548.422684	2475.206538
548.781449	2462.603654
549.140158	2475.206538
549.498811	2558.385577
549.857408	2540.741538
550.215949	2467.644808
550.574434	2429.836154
550.932864	2427.315577
551.291237	2492.850577
551.649555	2530.659231
552.007817	2462.603654
552.366022	2470.165385
552.724173	2462.603654
553.082267	2515.535769
553.440305	2500.412308
553.798288	2434.877308
554.156215	2565.947308
554.514086	2530.659231
554.871902	2568.467885
555.229661	2500.412308
555.587365	2533.179808
555.945014	2472.685962
556.302606	2480.247692
556.660143	2492.850577
557.017625	2520.576923
557.375050	2565.947308
557.732421	2465.124231
558.089735	2465.124231
558.446994	2419.753846
558.804197	2530.659231
559.161345	2432.356731
559.518437	2497.891731
559.875474	2412.192115
560.232455	2455.041923
560.589381	2545.782692
560.946251	2480.247692
561.303065	2528.138654
561.659825	2520.576923
562.016528	2538.220962
562.373177	2548.303269
562.729770	2485.288846
563.086307	2513.015192
563.442789	2414.712692
563.799216	2502.932885
564.155587	2487.809423
564.511904	2558.385577
564.868164	2424.795000
565.224370	2482.768269
565.580520	2419.753846
565.936615	2462.603654
566.292654	2513.015192
566.648638	2553.344423
567.004567	2470.165385
567.360441	2490.330000
567.716260	2515.535769
568.072023	2500.412308
568.427732	2505.453462
568.783385	2444.959615
569.138982	2555.865000
569.494525	2482.768269
569.850013	2480.247692
570.205445	2477.727115
570.560823	2482.768269
570.916145	2502.932885
571.271412	2455.041923
571.626625	2480.247692
571.981782	2462.603654
572.336884	2535.700385
572.691931	2470.165385
573.046923	2472.685962
573.401860	2470.165385
573.756743	2570.988462
574.111570	2578.550192
574.466342	2545.782692
574.821059	2475.206538
575.175722	2565.947308
575.530330	2480.247692
575.884882	2548.303269
576.239380	2472.685962
576.593823	2548.303269
576.948211	2553.344423
577.302544	2570.988462
577.656823	2502.932885
578.011047	2576.029615
578.365216	2477.727115
578.719330	2505.453462
579.073389	2455.041923
579.427394	2576.029615
579.781344	2497.891731
580.135239	2568.467885
580.489080	2497.891731
580.842866	2417.233269
581.196597	2502.932885
581.550273	2397.068654
581.903895	2402.109808
582.257463	2583.591346
582.610975	2492.850577
582.964434	2455.041923
583.317837	2563.426731
583.671186	2384.465769
584.024481	2540.741538
584.377721	2490.330000
584.730906	2482.768269
585.084037	2525.618077
585.437113	2472.685962
585.790135	2490.330000
586.143103	2530.659231
586.496016	2500.412308
586.848874	2558.385577
587.201679	2444.959615
587.554428	2596.194231
587.907124	2525.618077
588.259765	2525.618077
588.612352	2437.397885
588.964884	2502.932885
589.317362	2467.644808
589.669786	2543.262115
590.022155	2447.480192
590.374470	2462.603654
590.726731	2520.576923
591.078937	2518.056346
591.431090	2490.330000
591.783188	2533.179808
592.135232	2475.206538
592.487222	2560.906154
592.839157	2492.850577
593.191038	2525.618077
593.542866	2525.618077
593.894639	2513.015192
594.246358	2545.782692
594.598022	2490.330000
594.949633	2523.097500
595.301190	2472.685962
595.652692	2515.535769
596.004141	2467.644808
596.355535	2505.453462
596.706876	2490.330000
597.058162	2535.700385
597.409395	2523.097500
597.760573	2492.850577
598.111698	2482.768269
598.462768	2495.371154
598.813785	2497.891731
599.164748	2485.288846
599.515657	2495.371154
599.866511	2555.865000
600.217312	2457.562500
600.568060	2437.397885
600.918753	2608.797115
601.269392	2482.768269
601.619978	2518.056346
601.970510	2457.562500
602.320988	2502.932885
602.671412	2507.974038
603.021783	2490.330000
603.372100	2502.932885
603.722363	2472.685962
604.072572	2490.330000
604.422728	2472.685962
604.772830	2424.795000
605.122878	2560.906154
605.472872	2424.795000
605.822813	2550.823846
606.172701	2460.083077
606.522534	2502.932885
606.872314	2500.412308
607.222041	2507.974038
607.571714	2495.371154
607.921333	2465.124231
608.270899	2475.206538
608.620411	2495.371154
608.969870	2563.426731
609.319276	2477.727115
609.668627	2467.644808
610.017926	2507.974038
610.367171	2598.714808
610.716362	2480.247692
611.065500	2528.138654
611.414585	2472.685962
611.763616	2487.809423
612.112594	2477.727115
612.461518	2490.330000
612.810389	2477.727115
613.159207	2510.494615
613.507971	2502.932885
613.856682	2407.150962
614.205340	2520.576923
614.553945	2457.562500
614.902496	2581.070769
615.250994	2439.918462
615.599439	2452.521346
615.947830	2545.782692
616.296169	2507.974038
616.644454	2490.330000
616.992686	2475.206538
617.340864	2555.865000
617.688990	2482.768269
618.037063	2618.879423
618.385082	2460.083077
618.733048	2538.220962
619.080961	2422.274423
619.428821	2520.576923
619.776628	2507.974038
620.124382	2515.535769
620.472083	2447.480192
620.819731	2581.070769
621.167326	2505.453462
621.514868	2467.644808
621.862357	2548.303269
622.209793	2462.603654
622.557176	2500.412308
622.904506	2397.068654
623.251783	2472.685962
623.599007	2472.685962
623.946179	2409.671538
624.293297	2525.618077
624.640363	2457.562500
624.987376	2535.700385
625.334336	2515.535769
625.681243	2545.782692
626.028097	2492.850577
626.374899	2513.015192
626.721647	2533.179808
627.068343	2437.397885
627.414987	2497.891731
627.761577	2550.823846
628.108115	2419.753846
628.454600	2510.494615
628.801032	2528.138654
629.147412	2588.632500
629.493739	2470.165385
629.840014	2581.070769
630.186236	2439.918462
630.532405	2548.303269
630.878521	2497.891731
631.224585	2535.700385
631.570597	2530.659231
631.916556	2450.000769
632.262462	2452.521346
632.608316	2502.932885
632.954117	2608.797115
633.299866	2525.618077
633.645562	2419.753846
633.991206	2490.330000
634.336797	2581.070769
634.682336	2452.521346
635.027823	2492.850577
635.373257	2424.795000
635.718639	2581.070769
636.063968	2500.412308
636.409245	2520.576923
636.754470	2500.412308
637.099642	2437.397885
637.444762	2439.918462
637.789829	2530.659231
638.134845	2480.247692
638.479808	2550.823846
638.824719	2543.262115
639.169577	2540.741538
639.514383	2490.330000
639.859137	2490.330000
640.203839	2394.548077
640.548489	2460.083077
640.893086	2490.330000
641.237632	2495.371154
641.582125	2480.247692
641.926566	2583.591346
642.270955	2465.124231
642.615292	2545.782692
642.959576	2492.850577
643.303809	2525.618077
643.647990	2384.465769
643.992118	2482.768269
644.336195	2548.303269
644.680219	2490.330000
645.024192	2538.220962
645.368112	2487.809423
645.711981	2520.576923
646.055797	2497.891731
646.399562	2505.453462
646.743274	2437.397885
647.086935	2427.315577
647.430544	2465.124231
647.774101	2573.509038
648.117606	2457.562500
648.461059	2548.303269
648.804460	2487.809423
649.147810	2507.974038
649.491108	2495.371154
649.834354	2507.974038
650.177548	2492.850577
650.520690	2558.385577
650.863781	2497.891731
651.206820	2497.891731
651.549807	2497.891731
651.892742	2434.877308
652.235626	2502.932885
652.578458	2462.603654
652.921238	2558.385577
653.263967	2497.891731
653.606644	2477.727115
653.949269	2475.206538
654.291843	2530.659231
654.634365	2568.467885
654.976836	2437.397885
655.319255	2513.015192
655.661622	2437.397885
656.003938	2545.782692
656.346203	2523.097500
656.688416	2457.562500
657.030577	2465.124231
657.372687	2538.220962
657.714746	2472.685962
658.056753	2485.288846
658.398708	2477.727115
658.740612	2613.838269
659.082465	2457.562500
659.424266	2495.371154
659.766016	2482.768269
660.107715	2482.768269
660.449362	2495.371154
660.790958	2402.109808
661.132503	2492.850577
661.473996	2545.782692
661.815438	2510.494615
662.156829	2477.727115
662.498168	2525.618077
662.839456	2545.782692
663.180693	2457.562500
663.521879	2515.535769
663.863013	2487.809423
664.204097	2437.397885
664.545129	2427.315577
664.886110	2472.685962
665.227040	2472.685962
665.567918	2518.056346
665.908746	2497.891731
666.249522	2457.562500
666.590248	2555.865000
666.930922	2424.795000
667.271545	2538.220962
667.612118	2492.850577
667.952639	2497.891731
668.293109	2457.562500
668.633528	2427.315577
668.973896	2507.974038
669.314213	2586.111923
669.654480	2513.015192
669.994695	2487.809423
670.334859	2492.850577
670.674973	2467.644808
671.015035	2467.644808
671.355047	2485.288846
671.695008	2447.480192
672.034918	2545.782692
672.374777	2442.439038
672.714585	2523.097500
673.054342	2477.727115
673.394049	2432.356731
673.733705	2523.097500
674.073310	2555.865000
674.412864	2565.947308
674.752368	2447.480192
675.091820	2480.247692
675.431223	2434.877308
675.770574	2487.809423
676.109875	2523.097500
676.449125	2558.385577
676.788324	2455.041923
677.127473	2442.439038
677.466571	2437.397885
677.805619	2540.741538
678.144616	2593.673654
678.483562	2588.632500
678.822458	2490.330000
679.161303	2376.904038
679.500098	2525.618077
679.838842	2399.589231
680.177535	2462.603654
680.516179	2485.288846
680.854771	2477.727115
681.193314	2447.480192
681.531805	2505.453462
681.870247	2591.153077
682.208638	2513.015192
682.546978	2533.179808
682.885268	2568.467885
683.223508	2558.385577
683.561697	2515.535769
683.899836	2455.041923
684.237925	2475.206538
684.575963	2487.809423
684.913951	2407.150962
685.251889	2553.344423
685.589776	2437.397885
685.927614	2528.138654
686.265401	2538.220962
686.603137	2523.097500
686.940824	2485.288846
687.278460	2548.303269
687.616046	2533.179808
687.953582	2628.961731
688.291068	2510.494615
688.628504	2502.932885
688.965889	2427.315577
689.303224	2500.412308
689.640510	2563.426731
689.977745	2591.153077
690.314930	2460.083077
690.652065	2513.015192
690.989150	2470.165385
691.326185	2545.782692
691.663170	2465.124231
692.000105	2555.865000
692.336990	2475.206538
692.673825	2439.918462
693.010610	2528.138654
693.347345	2558.385577
693.684030	2452.521346
694.020665	2442.439038
694.357251	2455.041923
694.693786	2548.303269
695.030272	2497.891731
695.366707	2455.041923
695.703093	2530.659231
696.039429	2518.056346
696.375716	2538.220962
696.711952	2467.644808
697.048139	2497.891731
697.384276	2470.165385
697.720363	2397.068654
698.056400	2507.974038
698.392388	2507.974038
698.728326	2442.439038
699.064214	2490.330000
699.400053	2492.850577
699.735842	2437.397885
700.071581	2462.603654
700.407270	2565.947308
700.742910	2495.371154
701.078501	2485.288846
701.414042	2523.097500
701.749533	2465.124231
702.084974	2563.426731
702.420366	2543.262115
702.755709	2538.220962
703.091002	2510.494615
703.426246	2427.315577
703.761440	2444.959615
704.096584	2550.823846
704.431679	2518.056346
704.766725	2570.988462
705.101721	2518.056346
705.436668	2568.467885
705.771565	2439.918462
706.106413	2422.274423
706.441212	2409.671538
706.775961	2502.932885
707.110661	2513.015192
707.445311	2545.782692
707.779913	2540.741538
708.114465	2515.535769
708.448967	2510.494615
708.783421	2450.000769
709.117825	2528.138654
709.452180	2540.741538
709.786485	2497.891731
710.120742	2495.371154
710.454949	2495.371154
710.789107	2533.179808
711.123216	2424.795000
711.457275	2427.315577
711.791286	2528.138654
712.125247	2482.768269
712.459159	2450.000769
712.793023	2507.974038
713.126837	2457.562500
713.460602	2513.015192
713.794318	2429.836154
714.127985	2485.288846
714.461602	2518.056346
714.795171	2533.179808
715.128691	2505.453462
715.462162	2419.753846
715.795584	2513.015192
716.128957	2487.809423
716.462281	2606.276538
716.795556	2558.385577
717.128782	2560.906154
717.461960	2525.618077
717.795088	2422.274423
718.128167	2442.439038
718.461198	2467.644808
718.794180	2455.041923
719.127113	2553.344423
719.459997	2480.247692
719.792833	2510.494615
720.125619	2548.303269
720.458357	2553.344423
720.791046	2535.700385
721.123686	2480.247692
721.456278	2455.041923
721.788821	2583.591346
722.121315	2354.218846
722.453761	2518.056346
722.786158	2510.494615
723.118506	2538.220962
723.450805	2505.453462
723.783056	2472.685962
724.115259	2472.685962
724.447412	2550.823846
724.779518	2528.138654
725.111574	2412.192115
725.443582	2515.535769
725.775542	2475.206538
726.107453	2409.671538
726.439315	2507.974038
726.771129	2540.741538
727.102895	2513.015192
727.434612	2553.344423
727.766281	2485.288846
728.097901	2513.015192
728.429473	2429.836154
728.760996	2510.494615
729.092471	2490.330000
729.423897	2502.932885
729.755276	2424.795000
730.086606	2596.194231
730.417887	2525.618077
730.749120	2495.371154
731.080305	2465.124231
731.411442	2462.603654
731.742530	2452.521346
732.073570	2442.439038
732.404562	2518.056346
732.735506	2462.603654
733.066401	2495.371154
733.397249	2515.535769
733.728048	2465.124231
734.058798	2513.015192
734.389501	2465.124231
734.720156	2482.768269
735.050762	2442.439038
735.381320	2467.644808
735.711831	2424.795000
736.042293	2513.015192
736.372707	2555.865000
736.703073	2475.206538
737.033391	2502.932885
737.363661	2482.768269
737.693883	2520.576923
738.024056	2467.644808
738.354182	2507.974038
738.684260	2460.083077
739.014290	2550.823846
739.344272	2520.576923
739.674207	2563.426731
740.004093	2497.891731
740.333931	2500.412308
740.663722	2545.782692
740.993464	2490.330000
741.323159	2530.659231
741.652806	2457.562500
741.982405	2480.247692
742.311956	2477.727115
742.641460	2485.288846
742.970915	2450.000769
743.300323	2518.056346
743.629683	2515.535769
743.958996	2467.644808
744.288260	2467.644808
744.617477	2460.083077
744.946647	2502.932885
745.275768	2513.015192
745.604842	2543.262115
745.933869	2437.397885
746.262847	2540.741538
746.591778	2450.000769
746.920662	2535.700385
747.249498	2560.906154
747.578286	2366.821731
747.907027	2480.247692
748.235720	2490.330000
748.564365	2477.727115
748.892963	2586.111923
749.221514	2528.138654
749.550017	2480.247692
749.878473	2505.453462
750.206881	2417.233269
750.535242	2528.138654
750.863555	2467.644808
751.191821	2510.494615
751.520039	2437.397885
751.848210	2502.932885
752.176334	2543.262115
752.504411	2472.685962
752.832440	2515.535769
753.160421	2513.015192
753.488356	2505.453462
753.816243	2455.041923
754.144082	2495.371154
754.471875	2457.562500
754.799620	2560.906154
755.127318	2513.015192
755.454969	2467.644808
755.782572	2507.974038
756.110129	2553.344423
756.437638	2500.412308
756.765100	2470.165385
757.092515	2437.397885
757.419882	2548.303269
757.747203	2530.659231
758.074477	2485.288846
758.401703	2460.083077
758.728882	2518.056346
759.056014	2523.097500
759.383099	2505.453462
759.710138	2482.768269
760.037129	2450.000769
760.364073	2457.562500
760.690970	2480.247692
761.017820	2467.644808
761.344623	2450.000769
761.671379	2444.959615
761.998088	2482.768269
762.324751	2490.330000
762.651366	2487.809423
762.977935	2520.576923
763.304456	2447.480192
763.630931	2460.083077
763.957359	2530.659231
764.283740	2462.603654
764.610074	2460.083077
764.936362	2497.891731
765.262602	2535.700385
765.588796	2500.412308
765.914943	2530.659231
766.241044	2550.823846
766.567097	2523.097500
766.893104	2472.685962
767.219064	2525.618077
767.544978	2495.371154
767.870845	2505.453462
768.196665	2490.330000
768.522438	2540.741538
768.848165	2563.426731
769.173846	2502.932885
769.499479	2487.809423
769.825066	2505.453462
770.150607	2444.959615
770.476101	2490.330000
770.801548	2601.235385
771.126949	2427.315577
771.452303	2553.344423
771.777611	2487.809423
772.102872	2399.589231
772.428087	2500.412308
772.753256	2507.974038
773.078378	2520.576923
773.403453	2523.097500
773.728482	2485.288846
774.053465	2495.371154
774.378401	2492.850577
774.703291	2560.906154
775.028135	2570.988462
775.352932	2432.356731
775.677683	2533.179808
776.002388	2460.083077
776.327046	2505.453462
776.651658	2550.823846
776.976224	2550.823846
777.300743	2611.317692
777.625216	2520.576923
777.949643	2472.685962
778.274024	2515.535769
778.598359	2444.959615
778.922647	2520.576923
779.246889	2460.083077
779.571086	2505.453462
779.895236	2548.303269
780.219339	2528.138654
780.543397	2505.453462
780.867409	2535.700385
781.191374	2482.768269
781.515294	2427.315577
781.839167	2523.097500
782.162995	2513.015192
782.486776	2437.397885
782.810511	2485.288846
783.134201	2386.986346
783.457844	2530.659231
783.781441	2555.865000
784.104993	2497.891731
784.428498	2533.179808
784.751958	2507.974038
785.075372	2495.371154
785.398739	2492.850577
785.722061	2492.850577
786.045337	2475.206538
786.368568	2553.344423
786.691752	2507.974038
787.014891	2530.659231
787.337983	2429.836154
787.661030	2528.138654
787.984031	2485.288846
788.306987	2502.932885
788.629897	2475.206538
788.952760	2540.741538
789.275579	2538.220962
789.598351	2598.714808
789.921078	2490.330000
790.243759	2492.850577
790.566395	2550.823846
790.888984	2457.562500
791.211529	2558.385577
791.534027	2485.288846
791.856480	2545.782692
792.178888	2586.111923
792.501249	2417.233269
792.823566	2472.685962
793.145836	2467.644808
793.468062	2447.480192
793.790241	2472.685962
794.112375	2533.179808
794.434464	2515.535769
794.756507	2538.220962
795.078505	2442.439038
795.400457	2444.959615
795.722364	2586.111923
796.044226	2513.015192
796.366042	2543.262115
796.687812	2515.535769
797.009538	2548.303269
797.331218	2502.932885
797.652852	2470.165385
797.974442	2560.906154
798.295986	2482.768269
798.617484	2472.685962
798.938938	2505.453462
799.260346	2475.206538
799.581709	2525.618077
799.903026	2500.412308
800.224299	2515.535769
800.545526	2467.644808
800.866708	2578.550192
801.187845	2563.426731
801.508936	2424.795000
801.829983	2492.850577
802.150984	2528.138654
802.471940	2437.397885
802.792851	2495.371154
803.113717	2427.315577
803.434538	2540.741538
803.755314	2447.480192
804.076045	2502.932885
804.396731	2528.138654
804.717372	2492.850577
805.037967	2520.576923
805.358518	2528.138654
805.679024	2404.630385
805.999485	2553.344423
806.319901	2520.576923
806.640272	2480.247692
806.960598	2452.521346
807.280879	2457.562500
807.601115	2495.371154
807.921306	2490.330000
808.241453	2470.165385
808.561554	2465.124231
808.881611	2492.850577
809.201623	2502.932885
809.521590	2465.124231
809.841513	2530.659231
810.161390	2507.974038
810.481223	2470.165385
810.801011	2424.795000
811.120755	2513.015192
811.440453	2460.083077
811.760107	2482.768269
812.079716	2555.865000
812.399281	2467.644808
812.718801	2510.494615
813.038276	2455.041923
813.357707	2490.330000
813.677093	2492.850577
813.996434	2507.974038
814.315731	2470.165385
814.634983	2472.685962
814.954191	2485.288846
815.273354	2389.506923
815.592473	2477.727115
815.911547	2465.124231
816.230577	2465.124231
816.549562	2497.891731
816.868502	2414.712692
817.187399	2472.685962
817.506250	2492.850577
817.825058	2543.262115
818.143821	2482.768269
818.462539	2598.714808
818.781213	2490.330000
819.099843	2520.576923
819.418429	2560.906154
819.736970	2455.041923
820.055466	2427.315577
820.373919	2530.659231
820.692327	2444.959615
821.010691	2535.700385
821.329011	2467.644808
821.647286	2487.809423
821.965517	2424.795000
822.283704	2467.644808
822.601847	2452.521346
822.919945	2437.397885
823.237999	2533.179808
823.556010	2538.220962
823.873976	2507.974038
824.191897	2480.247692
824.509775	2523.097500
824.827609	2540.741538
825.145398	2487.809423
825.463144	2533.179808
825.780845	2455.041923
826.098502	2515.535769
826.416116	2419.753846
826.733685	2502.932885
827.051210	2490.330000
827.368692	2528.138654
827.686129	2538.220962
828.003522	2485.288846
828.320872	2500.412308
828.638177	2444.959615
828.955439	2507.974038
829.272656	2366.821731
829.589830	2482.768269
829.906960	2485.288846
830.224046	2502.932885
830.541088	2492.850577
830.858086	2447.480192
831.175041	2475.206538
831.491952	2583.591346
831.808819	2439.918462
832.125642	2439.918462
832.442421	2417.233269
832.759157	2543.262115
833.075849	2455.041923
833.392497	2495.371154
833.709101	2530.659231
834.025662	2543.262115
834.342179	2460.083077
834.658653	2502.932885
834.975083	2502.932885
835.291469	2460.083077
835.607811	2465.124231
835.924110	2424.795000
836.240366	2429.836154
836.556578	2409.671538
836.872746	2555.865000
837.188871	2442.439038
837.504952	2507.974038
837.820990	2465.124231
838.136984	2429.836154
838.452935	2507.974038
838.768842	2470.165385
839.084706	2513.015192
839.400526	2442.439038
839.716303	2394.548077
840.032037	2513.015192
840.347727	2455.041923
840.663373	2465.124231
840.978977	2470.165385
841.294537	2452.521346
841.610054	2434.877308
841.925527	2477.727115
842.240957	2507.974038
842.556344	2470.165385
842.871687	2480.247692
843.186987	2477.727115
843.502244	2472.685962
843.817458	2497.891731
844.132629	2525.618077
844.447756	2530.659231
844.762840	2497.891731
845.077881	2555.865000
845.392879	2457.562500
845.707833	2482.768269
846.022745	2495.371154
846.337613	2492.850577
846.652438	2462.603654
846.967221	2477.727115
847.281960	2490.330000
847.596656	2518.056346
847.911309	2525.618077
848.225919	2480.247692
848.540485	2437.397885
848.855009	2510.494615
849.169490	2523.097500
849.483928	2492.850577
849.798323	2419.753846
850.112675	2528.138654
850.426984	2586.111923
850.741251	2439.918462
851.055474	2455.041923
851.369654	2475.206538
851.683792	2538.220962
851.997887	2407.150962
852.311938	2540.741538
852.625947	2502.932885
852.939914	2487.809423
853.253837	2513.015192
853.567718	2467.644808
853.881555	2515.535769
854.195350	2404.630385
854.509103	2563.426731
854.822812	2475.206538
855.136479	2467.644808
855.450103	2528.138654
855.763685	2492.850577
856.077224	2515.535769
856.390720	2452.521346
856.704173	2497.891731
857.017584	2452.521346
857.330953	2399.589231
857.644278	2538.220962
857.957561	2475.206538
858.270802	2457.562500
858.584000	2450.000769
858.897155	2505.453462
859.210268	2523.097500
859.523339	2422.274423
859.836367	2528.138654
860.149352	2465.124231
860.462295	2442.439038
860.775195	2505.453462
861.088054	2520.576923
861.400869	2492.850577
861.713642	2568.467885
862.026373	2515.535769
862.339062	2462.603654
862.651708	2490.330000
862.964312	2545.782692
863.276873	2472.685962
863.589392	2472.685962
863.901869	2500.412308
864.214303	2515.535769
864.526696	2457.562500
864.839045	2399.589231
865.151353	2520.576923
865.463619	2490.330000
865.775842	2467.644808
866.088023	2533.179808
866.400162	2465.124231
866.712258	2424.795000
867.024313	2419.753846
867.336325	2507.974038
867.648296	2535.700385
867.960224	2472.685962
868.272110	2447.480192
868.583954	2535.700385
868.895755	2553.344423
869.207515	2447.480192
869.519233	2510.494615
869.830909	2477.727115
870.142542	2528.138654
870.454134	2485.288846
870.765684	2563.426731
871.077191	2460.083077
871.388657	2492.850577
871.700081	2518.056346
872.011463	2492.850577
872.322803	2500.412308
872.634101	2429.836154
872.945357	2495.371154
873.256571	2492.850577
873.567744	2545.782692
873.878874	2444.959615
874.189963	2565.947308
874.501010	2477.727115
874.812015	2596.194231
875.122979	2538.220962
875.433900	2457.562500
875.744780	2417.233269
876.055618	2518.056346
876.366415	2462.603654
876.677169	2442.439038
876.987882	2467.644808
877.298554	2472.685962
877.609183	2452.521346
877.919771	2540.741538
878.230317	2490.330000
878.540822	2533.179808
878.851285	2444.959615
879.161707	2414.712692
879.472087	2530.659231
879.782425	2490.330000
880.092722	2475.206538
880.402977	2472.685962
880.713191	2518.056346
881.023363	2560.906154
881.333494	2555.865000
881.643583	2467.644808
881.953631	2505.453462
882.263637	2477.727115
882.573602	2485.288846
882.883526	2558.385577
883.193408	2492.850577
883.503248	2502.932885
883.813048	2457.562500
884.122806	2497.891731
884.432522	2457.562500
884.742197	2450.000769
885.051831	2455.041923
885.361424	2518.056346
885.670975	2452.521346
885.980485	2492.850577
886.289954	2404.630385
886.599382	2553.344423
886.908768	2507.974038
887.218113	2485.288846
887.527417	2540.741538
887.836680	2452.521346
888.145901	2490.330000
888.455082	2477.727115
888.764221	2492.850577
889.073319	2525.618077
889.382376	2485.288846
889.691392	2475.206538
890.000366	2553.344423
890.309300	2591.153077
890.618193	2467.644808
890.927044	2533.179808
891.235855	2482.768269
891.544625	2490.330000
891.853353	2525.618077
892.162041	2427.315577
892.470687	2565.947308
892.779293	2581.070769
893.087858	2515.535769
893.396381	2507.974038
893.704864	2472.685962
894.013306	2407.150962
894.321707	2404.630385
894.630068	2462.603654
894.938387	2513.015192
895.246665	2450.000769
895.554903	2437.397885
895.863100	2472.685962
896.171256	2485.288846
896.479371	2460.083077
896.787446	2520.576923
897.095480	2553.344423
897.403473	2495.371154
897.711425	2538.220962
898.019336	2444.959615
898.327207	2490.330000
898.635038	2520.576923
898.942827	2513.015192
899.250576	2563.426731
899.558284	2573.509038
899.865952	2525.618077
900.173579	2535.700385
900.481165	2444.959615
900.788711	2535.700385
901.096216	2384.465769
901.403681	2457.562500
901.711105	2573.509038
902.018489	2432.356731
902.325832	2513.015192
902.633135	2447.480192
902.940397	2543.262115
903.247619	2500.412308
903.554800	2515.535769
903.861941	2429.836154
904.169041	2583.591346
904.476101	2450.000769
904.783121	2450.000769
905.090100	2452.521346
905.397039	2540.741538
905.703938	2470.165385
906.010796	2465.124231
906.317614	2465.124231
906.624391	2510.494615
906.931129	2510.494615
907.237826	2520.576923
907.544483	2467.644808
907.851099	2497.891731
908.157675	2485.288846
908.464211	2500.412308
908.770707	2480.247692
909.077163	2492.850577
909.383578	2553.344423
909.689954	2497.891731
909.996289	2414.712692
910.302584	2414.712692
910.608839	2485.288846
910.915054	2515.535769
911.221229	2361.780577
911.527363	2497.891731
911.833458	2548.303269
912.139513	2507.974038
912.445527	2477.727115
912.751502	2550.823846
913.057436	2513.015192
913.363331	2487.809423
913.669186	2422.274423
913.975000	2452.521346
914.280775	2419.753846
914.586510	2500.412308
914.892205	2442.439038
915.197859	2530.659231
915.503475	2460.083077
915.809050	2439.918462
916.114585	2465.124231
916.420081	2601.235385
916.725536	2450.000769
917.030952	2530.659231
917.336328	2475.206538
917.641665	2487.809423
917.946961	2379.424615
918.252218	2495.371154
918.557435	2495.371154
918.862612	2533.179808
919.167750	2457.562500
919.472848	2490.330000
919.777906	2472.685962
920.082925	2407.150962
920.387904	2364.301154
920.692843	2507.974038
920.997743	2540.741538
921.302603	2505.453462
921.607423	2518.056346
921.912204	2487.809423
922.216946	2457.562500
922.521647	2434.877308
922.826310	2472.685962
923.130932	2477.727115
923.435516	2487.809423
923.740059	2502.932885
924.044564	2533.179808
924.349028	2550.823846
924.653454	2528.138654
924.957840	2427.315577
925.262186	2495.371154
925.566493	2565.947308
925.870761	2535.700385
926.174989	2482.768269
926.479178	2588.632500
926.783328	2437.397885
927.087438	2593.673654
927.391509	2462.603654
927.695541	2530.659231
927.999533	2467.644808
928.303486	2477.727115
928.607400	2429.836154
928.911275	2505.453462
929.215110	2525.618077
929.518906	2523.097500
929.822663	2528.138654
930.126381	2475.206538
930.430060	2528.138654
930.733699	2543.262115
931.037299	2439.918462
931.340861	2452.521346
931.644383	2502.932885
931.947866	2482.768269
932.251309	2455.041923
932.554714	2485.288846
932.858080	2500.412308
933.161407	2424.795000
933.464694	2475.206538
933.767943	2487.809423
934.071153	2543.262115
934.374323	2540.741538
934.677455	2583.591346
934.980548	2462.603654
935.283602	2598.714808
935.586617	2505.453462
935.889593	2515.535769
936.192530	2505.453462
936.495428	2444.959615
936.798287	2507.974038
937.101108	2502.932885
937.403890	2462.603654
937.706632	2482.768269
938.009336	2452.521346
938.312002	2457.562500
938.614628	2475.206538
938.917216	2480.247692
939.219765	2520.576923
939.522275	2525.618077
939.824747	2447.480192
940.127179	2518.056346
940.429573	2480.247692
940.731929	2450.000769
941.034246	2452.521346
941.336524	2492.850577
941.638763	2507.974038
941.940964	2550.823846
942.243126	2470.165385
942.545250	2591.153077
942.847335	2495.371154
943.149381	2427.315577
943.451389	2475.206538
943.753359	2520.576923
944.055290	2480.247692
944.357182	2492.850577
944.659036	2477.727115
944.960851	2502.932885
945.262628	2520.576923
945.564367	2565.947308
945.866067	2581.070769
946.167729	2507.974038
946.469352	2490.330000
946.770937	2490.330000
947.072484	2452.521346
947.373992	2470.165385
947.675462	2482.768269
947.976893	2465.124231
948.278286	2581.070769
948.579641	2565.947308
948.880958	2535.700385
949.182236	2490.330000
949.483476	2492.850577
949.784678	2520.576923
950.085841	2513.015192
950.386967	2533.179808
950.688054	2611.317692
950.989103	2550.823846
951.290114	2460.083077
951.591087	2465.124231
951.892021	2424.795000
952.192917	2455.041923
952.493776	2485.288846
952.794596	2520.576923
953.095378	2432.356731
953.396122	2407.150962
953.696828	2422.274423
953.997496	2386.986346
954.298126	2535.700385
954.598718	2490.330000
954.899272	2487.809423
955.199788	2490.330000
955.500266	2598.714808
955.800706	2467.644808
956.101108	2470.165385
956.401472	2432.356731
956.701798	2525.618077
957.002087	2427.315577
957.302337	2437.397885
957.602550	2495.371154
957.902724	2545.782692
958.202861	2472.685962
958.502960	2502.932885
958.803022	2432.356731
959.103045	2507.974038
959.403031	2462.603654
959.702979	2500.412308
960.002889	2495.371154
960.302762	2394.548077
960.602596	2543.262115
960.902393	2434.877308
961.202153	2465.124231
961.501875	2588.632500
961.801559	2492.850577
962.101205	2510.494615
962.400814	2447.480192
962.700385	2507.974038
962.999918	2432.356731
963.299414	2495.371154
963.598873	2470.165385
963.898293	2583.591346
964.197677	2457.562500
964.497022	2545.782692
964.796331	2502.932885
965.095601	2540.741538
965.394835	2520.576923
965.694030	2472.685962
965.993189	2437.397885
966.292309	2535.700385
966.591393	2525.618077
966.890439	2399.589231
967.189447	2485.288846
967.488419	2477.727115
967.787353	2507.974038
968.086249	2472.685962
968.385108	2490.330000
968.683930	2502.932885
968.982714	2497.891731
969.281462	2523.097500
969.580172	2404.630385
969.878844	2495.371154
970.177480	2540.741538
970.476078	2548.303269
970.774639	2576.029615
971.073162	2553.344423
971.371649	2457.562500
971.670098	2560.906154
971.968510	2502.932885
972.266885	2558.385577
972.565223	2520.576923
972.863524	2472.685962
973.161788	2480.247692
973.460014	2470.165385
973.758204	2538.220962
974.056356	2384.465769
974.354471	2520.576923
974.652550	2490.330000
974.950591	2470.165385
975.248595	2553.344423
975.546563	2482.768269
975.844493	2485.288846
976.142386	2460.083077
976.440243	2455.041923
976.738062	2495.371154
977.035845	2525.618077
977.333590	2457.562500
977.631299	2455.041923
977.928971	2417.233269
978.226606	2442.439038
978.524204	2467.644808
978.821765	2457.562500
979.119290	2558.385577
979.416777	2467.644808
979.714228	2409.671538
980.011642	2447.480192
980.309020	2502.932885
980.606360	2452.521346
980.903664	2437.397885
981.200931	2500.412308
981.498162	2472.685962
981.795356	2525.618077
982.092513	2485.288846
982.389633	2513.015192
982.686717	2495.371154
982.983764	2510.494615
983.280775	2427.315577
983.577749	2452.521346
983.874686	2485.288846
984.171587	2457.562500
984.468451	2434.877308
984.765279	2452.521346
985.062070	2515.535769
985.358824	2507.974038
985.655543	2502.932885
985.952224	2477.727115
986.248869	2500.412308
986.545478	2447.480192
986.842050	2381.945192
987.138586	2505.453462
987.435086	2437.397885
987.731549	2475.206538
988.027975	2528.138654
988.324366	2505.453462
988.620719	2462.603654
988.917037	2497.891731
989.213318	2457.562500
989.509563	2523.097500
989.805772	2563.426731
990.101944	2570.988462
990.398080	2553.344423
990.694180	2497.891731
990.990244	2439.918462
991.286271	2540.741538
991.582262	2414.712692
991.878217	2455.041923
992.174136	2528.138654
992.470019	2495.371154
992.765865	2439.918462
993.061676	2472.685962
993.357450	2472.685962
993.653188	2462.603654
993.948890	2477.727115
994.244556	2550.823846
994.540186	2465.124231
994.835780	2485.288846
995.131337	2510.494615
995.426859	2518.056346
995.722345	2535.700385
996.017795	2497.891731
996.313208	2442.439038
996.608586	2520.576923
996.903928	2447.480192
997.199234	2492.850577
997.494504	2447.480192
997.789738	2455.041923
998.084936	2495.371154
998.380099	2563.426731
998.675225	2379.424615
998.970316	2386.986346
999.265371	2442.439038
999.560390	2472.685962
999.855373	2500.412308
1000.150320	2525.618077
1000.445232	2452.521346
1000.740108	2475.206538
1001.034948	2470.165385
1001.329752	2475.206538
1001.624521	2538.220962
1001.919254	2535.700385
1002.213951	2568.467885
1002.508613	2470.165385
1002.803239	2472.685962
1003.097829	2472.685962
1003.392384	2518.056346
1003.686903	2528.138654
1003.981386	2439.918462
1004.275834	2505.453462
1004.570246	2460.083077
1004.864623	2472.685962
1005.158964	2593.673654
1005.453270	2535.700385
1005.747540	2457.562500
1006.041775	2505.453462
1006.335974	2429.836154
1006.630138	2450.000769
1006.924266	2437.397885
1007.218359	2563.426731
1007.512416	2482.768269
1007.806438	2480.247692
1008.100425	2555.865000
1008.394376	2462.603654
1008.688292	2545.782692
1008.982172	2470.165385
1009.276017	2439.918462
1009.569827	2492.850577
1009.863602	2560.906154
1010.157341	2502.932885
1010.451045	2525.618077
1010.744714	2475.206538
1011.038347	2460.083077
1011.331945	2404.630385
1011.625508	2530.659231
1011.919036	2502.932885
1012.212528	2492.850577
1012.505986	2450.000769
1012.799408	2452.521346
1013.092795	2550.823846
1013.386147	2535.700385
1013.679464	2495.371154
1013.972745	2505.453462
1014.265992	2450.000769
1014.559204	2530.659231
1014.852380	2497.891731
1015.145521	2513.015192
1015.438628	2603.755962
1015.731699	2485.288846
1016.024736	2470.165385
1016.317737	2467.644808
1016.610703	2455.041923
1016.903635	2500.412308
1017.196531	2472.685962
1017.489393	2485.288846
1017.782219	2376.904038
1018.075011	2543.262115
1018.367768	2465.124231
1018.660490	2530.659231
1018.953177	2530.659231
1019.245829	2530.659231
