Dividing Wavelength (nm)	Counts (n)	Blue Motor Position (mm): 30.100000	Red Motor Position (mm): 0.000000	
326.493990	2129.723663
326.888308	2129.723663
327.282561	2129.723663
327.676750	2100.064034
328.070874	2095.675709
328.464933	2098.077819
328.858929	2107.217431
329.252859	2113.274378
329.646726	2127.248456
330.040528	2141.872843
330.434265	2156.028403
330.827938	2175.603204
331.221547	2192.982582
331.615091	2213.444625
332.008571	2229.629249
332.401986	2250.955851
332.795338	2267.740373
333.188625	2288.031017
333.581847	2305.657411
333.975006	2326.923519
334.368100	2345.379183
334.761129	2361.266379
335.154095	2377.115767
335.546996	2400.993192
335.939833	2425.367171
336.332606	2440.016764
336.725315	2454.499999
337.117960	2461.048458
337.510540	2470.185549
337.903056	2481.386993
338.295508	2490.408138
338.687896	2495.308139
339.080220	2503.986486
339.472480	2512.793382
339.864676	2514.429236
340.256807	2519.465349
340.648875	2522.386697
341.040879	2524.962727
341.432818	2528.292409
341.824694	2530.724766
342.216506	2531.077647
342.608253	2528.259642
342.999937	2531.022194
343.391557	2528.405835
343.783113	2527.153108
344.174605	2526.969106
344.566033	2528.635208
344.957397	2524.284692
345.348697	2520.375277
345.739934	2519.442663
346.131106	2518.648682
346.522215	2519.742612
346.913260	2514.971160
347.304241	2514.056191
347.695159	2510.671056
348.086012	2510.033350
348.476802	2506.713750
348.867528	2506.827176
349.258191	2502.060765
349.648789	2504.911537
350.039324	2499.404077
350.429796	2501.002123
350.820203	2498.673110
351.210548	2500.283758
351.600828	2499.822493
351.991045	2497.861484
352.381198	2497.506083
352.771288	2497.145640
353.161314	2496.391988
353.551276	2497.135558
353.941175	2497.095228
354.331010	2497.828716
354.720782	2496.465084
355.110490	2498.050527
355.500135	2497.659838
355.889717	2492.553149
356.279235	2496.553304
356.668689	2498.816783
357.058080	2497.259066
357.447408	2494.562049
357.836672	2492.424599
358.225873	2495.847543
358.615010	2492.545587
359.004084	2499.036073
359.393095	2499.209993
359.782043	2499.547750
360.170927	2501.869201
360.559748	2502.595127
360.948505	2501.128152
361.337199	2502.055724
361.725830	2503.273162
362.114398	2503.192504
362.502903	2501.788543
362.891344	2504.803153
363.279722	2502.741321
363.668037	2505.975221
364.056289	2501.372648
364.444478	2503.709222
364.832603	2504.162926
365.220665	2507.326250
365.608665	2508.596621
365.996601	2509.350273
366.384474	2508.170643
366.772284	2509.128463
367.160031	2506.713750
367.547715	2510.587877
367.935336	2509.889677
368.322893	2511.139883
368.710388	2509.128463
369.097820	2513.325223
369.485189	2508.873884
369.872495	2513.211797
370.259738	2511.006292
370.646918	2513.642816
371.034035	2511.094513
371.421090	2509.080572
371.808081	2512.518639
372.195010	2512.276663
372.581875	2512.614421
372.968678	2511.780110
373.355418	2512.569050
373.742096	2515.384535
374.128710	2515.563496
374.515262	2513.670542
374.901751	2509.927486
375.288177	2513.960409
375.674540	2512.853875
376.060841	2512.921931
376.447079	2515.586181
376.833254	2513.670542
377.219367	2510.325737
377.605417	2513.037877
377.991404	2510.250119
378.377329	2514.083917
378.763191	2508.987310
379.148991	2515.782786
379.534727	2514.966119
379.920402	2517.516943
380.306013	2520.148425
380.691563	2518.326048
381.077049	2520.254289
381.462474	2519.460308
381.847835	2518.464680
382.233134	2520.438291
382.618371	2520.075328
383.003545	2519.203209
383.388657	2520.009793
383.773706	2518.525173
384.158693	2518.459638
384.543618	2520.355112
384.928480	2519.576254
385.313280	2519.669515
385.698017	2519.120030
386.082692	2523.568848
386.467305	2519.621624
386.851856	2522.797551
387.236344	2521.088600
387.620770	2522.923580
388.005133	2524.014990
388.389435	2523.102541
388.773674	2522.477438
389.157851	2518.946110
389.541965	2521.751512
389.926018	2523.367202
390.310008	2522.474917
390.693936	2522.847963
391.077802	2521.207067
391.461606	2524.541791
391.845348	2522.714372
392.229027	2524.425844
392.612645	2524.521626
392.996200	2527.838705
393.379694	2524.708149
393.763125	2527.810979
394.146494	2526.646472
394.529801	2524.191430
394.913047	2526.180166
395.296230	2528.857018
395.679351	2523.823426
396.062410	2527.160670
396.445408	2525.751667
396.828343	2527.027079
397.211217	2523.856194
397.594028	2523.720083
397.976778	2525.194620
398.359466	2527.238808
398.742092	2522.663961
399.124656	2527.264014
399.507158	2528.126051
399.889598	2532.695857
400.271977	2528.524302
400.654294	2530.061854
401.036549	2529.318284
401.418742	2530.268541
401.800874	2530.704601
402.182944	2533.636032
402.564952	2529.628315
402.946898	2532.048069
403.328783	2529.794673
403.710606	2530.102183
404.092367	2531.460774
404.474067	2531.962369
404.855705	2532.705939
405.237282	2534.220806
405.618797	2531.695188
406.000250	2531.889272
406.381642	2532.325332
406.762972	2534.621578
407.144240	2536.948070
407.525447	2535.965045
407.906593	2534.107380
408.287677	2538.160468
408.668700	2533.855322
409.049661	2536.512010
409.430560	2536.562422
409.811399	2538.367155
410.192176	2536.176774
410.572891	2537.008564
410.953545	2537.616023
411.334138	2537.628626
411.714669	2536.895138
412.095139	2536.900179
412.475547	2536.988399
412.855894	2539.607279
413.236180	2540.179450
413.616405	2538.999820
413.996568	2536.774150
414.376670	2539.607279
414.756711	2538.130221
415.136691	2539.070396
415.516609	2540.134079
415.896466	2539.027546
416.276262	2544.512322
416.655997	2536.696012
417.035670	2537.225334
417.415283	2540.524769
417.794834	2539.299768
418.174324	2538.412525
418.553753	2544.298072
418.933121	2545.785213
419.312428	2543.887218
419.691674	2545.419729
420.070859	2546.732950
420.449983	2543.730943
420.829045	2546.488454
421.208047	2547.617672
421.586988	2551.113712
421.965867	2549.361912
422.344686	2549.412323
422.723444	2557.188303
423.102141	2551.824515
423.480777	2557.919270
423.859352	2560.535629
424.237866	2565.145764
424.616319	2568.697257
424.994712	2575.253278
425.373044	2578.265367
425.751314	2586.570668
426.129524	2591.090062
426.507673	2598.102307
426.885762	2608.860130
427.263789	2613.250975
427.641756	2620.956378
428.019662	2636.868781
428.397508	2643.686941
428.775292	2658.291164
429.153016	2665.983965
429.530679	2677.954184
429.908282	2691.182172
430.285824	2699.815148
430.663305	2726.543346
431.040726	2728.307750
431.418086	2745.006572
431.795385	2768.841147
432.172624	2788.478962
432.549802	2802.274079
432.926920	2824.518171
433.303977	2847.553723
433.680974	2873.077085
434.057910	2897.924933
434.434786	2923.735640
434.811601	2940.656273
435.188355	2994.886486
435.565050	3005.515758
435.941683	3032.594316
436.318257	3098.948504
436.694770	3123.153604
437.071222	3162.935870
437.447614	3182.311544
437.823946	3197.561035
438.200218	3262.203751
438.576429	3277.637243
438.952580	3335.945749
439.328670	3386.750498
439.704700	3401.631984
440.080670	3433.361006
440.456580	3552.153276
440.832429	3565.008218
441.208218	3560.811458
441.583947	3651.209428
441.959616	3700.519475
442.335224	3719.033112
442.710773	3810.335970
443.086261	3877.118656
443.461689	3842.841330
443.837057	3951.571457
444.212365	4064.447932
444.587612	4066.650917
444.962800	4182.481509
445.337927	4229.268458
445.712995	4107.141464
446.088002	4426.012089
446.462949	4396.917070
446.837837	4421.144855
447.212664	4552.751738
447.587431	4692.048901
447.962139	5041.534453
448.336786	5598.428198
448.711374	5520.943143
449.085901	5066.951951
449.460369	5084.608592
449.834776	5102.300522
450.209124	5397.094596
450.583412	5562.504936
450.957640	5695.578794
451.331808	5614.703563
451.705917	5377.431575
452.079965	5371.719948
452.453954	5578.576134
452.827883	5538.103231
453.201752	5653.280993
453.575562	5554.156785
453.949311	5754.532568
454.323001	5709.225198
454.696632	5811.386701
455.070202	5968.322862
455.443713	6127.391430
455.817164	6247.065902
456.190556	6362.677203
456.563888	6469.771476
456.937160	6543.299225
457.310373	6303.514222
457.683526	6365.933789
458.056619	6313.520912
458.429653	6335.265929
458.802628	6308.348688
459.175542	6435.874757
459.548398	6779.457118
459.921194	6946.727644
460.293930	6974.416182
460.666607	7466.878939
461.039224	7780.738657
461.411782	7921.969102
461.784280	7981.074111
462.156719	7919.690501
462.529099	7840.433480
462.901419	7488.664285
463.273680	7407.723519
463.645882	7450.636341
464.018024	7345.926535
464.390106	7521.613267
464.762130	7909.766990
465.134094	8367.503759
465.505999	9344.912913
465.877845	10536.223267
466.249631	11180.817965
466.621358	10849.447799
466.993026	10266.914746
467.364634	10042.527947
467.736184	9702.875166
468.107674	9396.385615
468.479105	9440.397408
468.850477	9221.545797
469.221790	9011.327161
469.593043	8691.652472
469.964238	8568.703771
470.335373	8586.257068
470.706449	8644.847879
471.077467	8639.771437
471.448425	9939.005333
471.819324	10991.757052
472.190164	11017.640856
472.560945	9790.631572
472.931667	9019.403089
473.302330	8887.350064
473.672934	8544.654946
474.043479	8902.818845
474.413965	8837.941715
474.784393	8722.675732
475.154761	8884.262357
475.525070	8971.870049
475.895321	8806.429462
476.265513	8981.912028
476.635645	9145.384044
477.005719	9146.810691
477.375734	9259.999718
477.745691	9496.366819
478.115588	9637.554415
478.485427	9881.523576
478.855207	10417.430997
479.224928	11223.319933
479.594591	11841.630055
479.964194	11660.677838
480.333739	11602.359250
480.703226	11522.512414
481.072653	11614.211002
481.442022	11844.841270
481.811333	12037.408306
482.180584	11843.119716
482.549777	11553.240767
482.918912	11381.521423
483.287988	11407.027141
483.657005	11421.938874
484.025964	11092.912845
484.394864	11226.218597
484.763706	11201.335461
485.132489	10963.851745
485.501213	10922.226938
485.869879	10996.210911
486.238487	10839.652838
486.607036	10946.709301
486.975527	10730.665612
487.343959	10925.884295
487.712333	10973.588733
488.080648	10898.145346
488.448905	10946.053951
488.817104	10879.205731
489.185244	11142.732048
489.553326	11305.460494
489.921350	11848.574245
490.289315	12893.925550
490.657222	13238.916914
491.025070	13143.182882
491.392861	13025.623174
491.760593	12639.528763
492.128267	12294.907924
492.495883	11962.469034
492.863440	11632.611214
493.230939	11300.026130
493.598380	11235.708569
493.965763	11096.199677
494.333088	11000.170738
494.700354	10929.718092
495.067563	10987.121711
495.434713	10818.142234
495.801805	10939.127406
496.168839	10865.766014
496.535815	10804.100100
496.902733	10805.211674
497.269593	10732.520757
497.636395	10840.025883
498.003139	10818.225413
498.369825	10692.652791
498.736453	10858.234531
499.103023	10776.187231
499.469535	10810.303240
499.835989	10798.857300
500.202385	10761.431774
500.568723	10609.899730
500.935003	10836.179483
501.301226	10638.170521
501.667390	10905.258414
502.033497	10999.331386
502.399546	10852.185146
502.765537	10761.071331
503.131470	10835.635038
503.497345	11017.081288
503.863163	10631.972423
504.228923	10928.399830
504.594625	10995.928607
504.960269	10750.318550
505.325856	10959.380241
505.691385	10755.914231
506.056856	10908.394011
506.422270	10936.246386
506.787625	10823.906793
507.152924	10937.236973
507.518164	10927.013513
507.883347	10848.096770
508.248472	10765.631055
508.613540	10994.249903
508.978550	10882.724456
509.343503	10854.083140
509.708398	10982.015022
510.073236	11089.137021
510.438016	11093.479975
510.802738	11037.520647
511.167403	11090.750190
511.532010	10989.821249
511.896561	11228.872764
512.261053	11295.917590
512.625488	11164.693835
512.989866	11149.595579
513.354186	11134.252827
513.718449	11036.890502
514.082655	11221.996630
514.446803	11126.194543
514.810894	11244.160063
515.174927	11109.354568
515.538904	11139.021759
515.902822	11287.382916
516.266684	11174.670278
516.630488	11114.012594
516.994235	11170.728096
517.357925	11240.235525
517.721558	11324.498412
518.085133	11335.571306
518.448651	11343.455671
518.812112	11233.003990
519.175516	11249.440672
519.538863	11365.465348
519.902152	11280.932760
520.265385	11444.278748
520.628560	11357.129800
520.991678	11330.421767
521.354739	11396.304607
521.717743	11326.207363
522.080690	11308.699435
522.443580	11448.402411
522.806413	11394.704041
523.169189	11430.486151
523.531908	11489.749955
523.894569	11302.433281
524.257174	11309.044754
524.619722	11429.656881
524.982213	11374.297450
525.344647	11430.453383
525.707025	11378.562266
526.069345	11469.635751
526.431608	11385.146013
526.793815	11495.663229
527.155964	11290.362238
527.518057	11347.843995
527.880093	11289.555654
528.242072	11360.444359
528.603995	11261.078176
528.965860	11190.736435
529.327669	11234.047509
529.689421	11186.673265
530.051117	11156.315437
530.412755	11259.500294
530.774337	11149.678758
531.135862	11129.403237
531.497331	11151.324695
531.858743	10996.558751
532.220098	11172.013590
532.581396	11045.568849
532.942638	11027.733246
533.303824	10991.557926
533.664953	11005.854639
534.026025	10921.679972
534.387040	11014.716987
534.747999	11019.705209
535.108902	11068.327138
535.469748	10831.642444
535.830537	10933.345202
536.191270	10913.150340
536.551947	10941.337952
536.912567	10936.942066
537.273131	10865.062773
537.633638	10840.756850
537.994089	10832.829636
538.354483	10777.200503
538.714821	10928.356981
539.075103	10935.928794
539.435328	10906.221274
539.795497	10730.882382
540.155609	10884.025074
540.515665	10969.875924
540.875665	10708.161901
541.235609	10777.092118
541.595496	10766.820767
541.955328	10924.349263
542.315102	10812.322222
542.674821	10761.651064
543.034483	10758.734757
543.394090	10767.440829
543.753640	10691.228665
544.113134	10914.496328
544.472571	10769.235480
544.831953	10912.119424
545.191278	10723.209745
545.550548	10755.326937
545.909761	10879.719928
546.268918	10856.507935
546.628019	10936.808475
546.987064	10807.066819
547.346053	10721.362163
547.704986	10828.249748
548.063863	10814.913375
548.422684	10807.775101
548.781449	10719.832172
549.140158	10830.737557
549.498811	10698.283760
549.857408	10559.657071
550.215949	10789.664756
550.574434	10635.571806
550.932864	10738.577703
551.291237	10796.588781
551.649555	10746.532644
552.007817	10754.898438
552.366022	10717.926616
552.724173	10715.348066
553.082267	10695.180930
553.440305	10833.308545
553.798288	10638.064657
554.156215	10788.593511
554.514086	10766.679615
554.871902	10616.498601
555.229661	10647.262242
555.587365	10622.318613
555.945014	10527.771772
556.302606	10646.914403
556.660143	10535.146981
557.017625	10699.612104
557.375050	10588.961298
557.732421	10727.346012
558.089735	10638.818309
558.446994	10642.601695
558.804197	10675.263331
559.161345	10677.005050
559.518437	10530.340240
559.875474	10618.935999
560.232455	10640.590275
560.589381	10590.168654
560.946251	10587.436349
561.303065	10699.148318
561.659825	10638.041972
562.016528	10566.253420
562.373177	10441.973855
562.729770	10564.927597
563.086307	10477.304781
563.442789	10566.220653
563.799216	10444.355800
564.155587	10491.503191
564.511904	10448.144227
564.868164	10438.240880
565.224370	10453.543303
565.580520	10380.043280
565.936615	10388.267922
566.292654	10250.241130
566.648638	10386.700123
567.004567	10343.177322
567.360441	10322.997583
567.716260	10239.160674
568.072023	10331.171814
568.427732	10282.411253
568.783385	10190.080000
569.138982	10266.571948
569.494525	10276.732393
569.850013	10153.977777
570.205445	10239.228729
570.560823	10133.089756
570.916145	10049.451972
571.271412	10122.730184
571.626625	10067.297657
571.981782	10040.176249
572.336884	10013.619451
572.691931	10019.696562
573.046923	9967.117327
573.401860	9920.869782
573.756743	9856.721099
574.111570	9900.561493
574.466342	9890.630420
574.821059	9909.872504
575.175722	9809.397267
575.530330	9818.569647
575.884882	9811.685951
576.239380	9736.897913
576.593823	9711.520745
576.948211	9730.351975
577.302544	9612.903172
577.656823	9623.706365
578.011047	9629.002097
578.365216	9600.015463
578.719330	9526.956541
579.073389	9536.932984
579.427394	9485.475406
579.781344	9461.408938
580.135239	9410.236185
580.489080	9426.138505
580.842866	9315.762441
581.196597	9330.376746
581.550273	9369.972489
581.903895	9334.475204
582.257463	9398.271006
582.610975	9279.335064
582.964434	9303.580493
583.317837	9229.286488
583.671186	9208.947953
584.024481	9210.452738
584.377721	9128.975088
584.730906	9101.485677
585.084037	9131.951890
585.437113	9067.586438
585.790135	9085.356505
586.143103	8987.860589
586.496016	8960.121640
586.848874	9021.933748
587.201679	9004.156119
587.554428	8893.278461
587.907124	8939.082385
588.259765	8911.658508
588.612352	8914.990711
588.964884	8788.845918
589.317362	8809.388620
589.669786	8808.151017
590.022155	8849.816153
590.374470	8872.125779
590.726731	8805.673289
591.078937	8660.626690
591.431090	8771.070809
591.783188	8639.567270
592.135232	8635.801528
592.487222	8639.353021
592.839157	8683.422788
593.191038	8622.245866
593.542866	8568.184532
593.894639	8475.253381
594.246358	8523.262810
594.598022	8536.447948
594.949633	8430.137575
595.301190	8407.548164
595.652692	8441.497815
596.004141	8548.811378
596.355535	8327.396339
596.706876	8303.682751
597.058162	8243.229234
597.409395	8320.074063
597.760573	8379.968012
598.111698	8286.194988
598.462768	8270.580014
598.813785	8240.365859
599.164748	8209.710602
599.515657	8195.655865
599.866511	8116.169472
600.217312	8236.012822
600.568060	8095.969569
600.918753	8192.308539
601.269392	8169.288110
601.619978	8084.044719
601.970510	8142.995972
602.320988	8135.562791
602.671412	8200.018984
603.021783	8130.710680
603.372100	8107.470961
603.722363	8109.124460
604.072572	8084.137981
604.422728	8094.888241
604.772830	8026.194958
605.122878	8032.698047
605.472872	8029.436420
605.822813	8057.361892
606.172701	7995.859815
606.522534	8076.601456
606.872314	8074.678255
607.222041	8042.916466
607.571714	8101.141792
607.921333	8055.166469
608.270899	8063.423879
608.620411	8153.065677
608.969870	8060.008498
609.319276	8054.097745
609.668627	8069.001916
610.017926	8100.080630
610.367171	8151.749936
610.716362	8124.187427
611.065500	8120.318342
611.414585	8147.127198
611.763616	8134.685630
612.112594	8115.481355
612.461518	8131.635732
612.810389	8192.132099
613.159207	8132.044066
613.507971	8081.294770
613.856682	8198.607461
614.205340	8154.015935
614.553945	8231.311947
614.902496	8131.812172
615.250994	8184.202364
615.599439	8166.873398
615.947830	8180.149276
616.296169	8154.469638
616.644454	8163.510948
616.992686	8161.854929
617.340864	8223.581337
617.688990	8123.259855
618.037063	8219.853404
618.385082	8168.282400
618.733048	8247.541941
619.080961	8181.127260
619.428821	8208.800674
619.776628	8207.444604
620.124382	8156.239083
620.472083	8143.668966
620.819731	8174.117536
621.167326	8069.269097
621.514868	8074.983245
621.862357	7963.442675
622.209793	7981.868092
622.557176	7916.053308
622.904506	7881.329841
623.251783	7820.062177
623.599007	7773.809591
623.946179	7773.605424
624.293297	7736.336174
624.640363	7659.750965
624.987376	7639.765310
625.334336	7580.935045
625.681243	7534.049793
626.028097	7523.717949
626.374899	7504.420412
626.721647	7492.132599
627.068343	7420.858246
627.414987	7396.017960
627.761577	7351.207143
628.108115	7380.113120
628.454600	7280.237780
628.801032	7331.057652
629.147412	7290.829244
629.493739	7284.805065
629.840014	7221.520940
630.186236	7274.402644
630.532405	7157.901579
630.878521	7210.574075
631.224585	7164.384502
631.570597	7085.508089
631.916556	7125.572659
632.262462	7121.348172
632.608316	7078.710093
632.954117	7057.113790
633.299866	7049.156328
633.645562	7035.661160
633.991206	6957.553522
634.336797	6906.879843
634.682336	6858.187338
635.027823	6828.905796
635.373257	6819.037738
635.718639	6747.959989
636.063968	6764.729387
636.409245	6659.636453
636.754470	6657.110835
637.099642	6612.577282
637.444762	6560.056021
637.789829	6568.348719
638.134845	6510.496437
638.479808	6496.965980
638.824719	6498.092678
639.169577	6428.179436
639.514383	6449.816068
639.859137	6378.622373
640.203839	6387.608230
640.548489	6369.729778
640.893086	6348.816551
641.237632	6322.784032
641.582125	6343.437640
641.926566	6312.139636
642.270955	6326.572460
642.615292	6320.132386
642.959576	6336.891702
643.303809	6323.353683
643.647990	6330.209652
643.992118	6324.288817
644.336195	6270.703872
644.680219	6293.305885
645.024192	6281.320542
645.368112	6378.332507
645.711981	6401.229427
646.055797	6474.666436
646.399562	6434.919459
646.743274	6563.622637
647.086935	6612.768846
647.430544	6608.569565
647.774101	6628.169571
648.117606	6634.493698
648.461059	6625.354086
648.804460	6594.328305
649.147810	6499.335322
649.491108	6471.513194
649.834354	6447.809689
650.177548	6361.124528
650.520690	6278.338700
650.863781	6256.150061
651.206820	6274.875427
651.549807	6192.013981
651.892742	6136.309231
652.235626	6140.289222
652.578458	6127.409074
652.921238	6038.843563
653.263967	6076.362350
653.606644	6019.755234
653.949269	6020.191293
654.291843	5963.072500
654.634365	6009.564541
654.976836	5965.104085
655.319255	5962.550740
655.661622	5936.576195
656.003938	5937.549138
656.346203	5898.911214
656.688416	5930.347850
657.030577	5883.757506
657.372687	5855.327919
657.714746	5838.636658
658.056753	5881.728441
658.398708	5823.036808
658.740612	5814.058513
659.082465	5859.423856
659.424266	5855.887487
659.766016	5854.032342
660.107715	5825.907745
660.449362	5841.583213
660.790958	5835.891750
661.132503	5820.536395
661.473996	5863.103898
661.815438	5852.638463
662.156829	5850.725345
662.498168	5839.987688
662.839456	5813.380478
663.180693	5851.395819
663.521879	5846.669737
663.863013	5843.619839
664.204097	5860.394278
664.545129	5896.650257
664.886110	5892.602210
665.227040	5929.705103
665.567918	5898.661677
665.908746	5920.807466
666.249522	5929.024547
666.590248	5919.234626
666.930922	5938.043171
667.271545	5952.909534
667.612118	5958.061593
667.952639	5929.669814
668.293109	5949.284944
668.633528	5909.474952
668.973896	5913.565848
669.314213	5901.850207
669.654480	5886.961159
669.994695	5878.764243
670.334859	5868.470207
670.674973	5858.657601
671.015035	5860.974011
671.355047	5865.874013
671.695008	5848.419017
672.034918	5822.237785
672.374777	5833.202294
672.714585	5820.546478
673.054342	5826.646274
673.394049	5815.228060
673.733705	5845.101938
674.073310	5834.223128
674.412864	5795.607890
674.752368	5786.191014
675.091820	5784.865191
675.431223	5724.058793
675.770574	5727.638012
676.109875	5680.558677
676.449125	5684.705026
676.788324	5654.201004
677.127473	5588.673565
677.466571	5581.356331
677.805619	5577.872893
678.144616	5562.245316
678.483562	5540.182707
678.822458	5511.780846
679.161303	5505.807078
679.500098	5491.772506
679.838842	5478.781453
680.177535	5482.411083
680.516179	5498.257951
680.854771	5508.995608
681.193314	5592.005768
681.531805	5699.866296
681.870247	5846.442885
682.208638	5948.803514
682.546978	5964.032840
682.885268	5941.766063
683.223508	5853.545871
683.561697	5803.774559
683.899836	5772.824395
684.237925	5726.113063
684.575963	5690.131828
684.913951	5649.459798
685.251889	5716.658379
685.589776	5678.958110
685.927614	5656.459441
686.265401	5719.312547
686.603137	5707.002049
686.940824	5786.634636
687.278460	5806.264889
687.616046	5814.139171
687.953582	5881.501589
688.291068	5865.747984
688.628504	5931.769455
688.965889	5891.921654
689.303224	5830.298590
689.640510	5792.396675
689.977745	5710.654365
690.314930	5610.073263
690.652065	5558.114091
690.989150	5468.084124
691.326185	5390.195777
691.663170	5336.643599
692.000105	5261.905973
692.336990	5183.266494
692.673825	5159.043749
693.010610	5089.823666
693.347345	5023.280435
693.684030	5008.015821
694.020665	4968.399914
694.357251	4873.593454
694.693786	4887.300351
695.030272	4852.511349
695.366707	4818.065144
695.703093	4786.673879
696.039429	4807.491324
696.375716	4788.148417
696.711952	4764.606228
697.048139	4749.649125
697.384276	4726.941248
697.720363	4743.798866
698.056400	4752.623406
698.392388	4699.857648
698.728326	4683.173950
699.064214	4658.477337
699.400053	4652.233868
699.735842	4617.782623
700.071581	4597.713789
700.407270	4570.327721
700.742910	4552.555133
701.078501	4498.755939
701.414042	4494.720496
701.749533	4467.430209
702.084974	4398.895723
702.420366	4459.613900
702.755709	4400.765991
703.091002	4342.147454
703.426246	4390.761821
703.761440	4349.096684
704.096584	4311.681241
704.431679	4331.913912
704.766725	4317.912107
705.101721	4306.201506
705.436668	4333.360723
705.771565	4284.151499
706.106413	4309.001867
706.441212	4345.053679
706.775961	4349.442003
707.110661	4331.291329
707.445311	4356.945761
707.779913	4380.119945
708.114465	4393.673087
708.448967	4416.620420
708.783421	4476.801714
709.117825	4519.419629
709.452180	4525.842059
709.786485	4567.426537
710.120742	4656.412985
710.454949	4638.950428
710.789107	4708.452816
711.123216	4775.905975
711.457275	4770.300212
711.791286	4845.625132
712.125247	4862.616342
712.459159	4765.387607
712.793023	4838.242363
713.126837	4800.705931
713.460602	4795.551351
713.794318	4710.713773
714.127985	4717.322726
714.461602	4634.209222
714.795171	4605.628401
715.128691	4538.613822
715.462162	4479.344976
715.795584	4435.370991
716.128957	4415.549174
716.462281	4362.160835
716.795556	4337.529757
717.128782	4297.911329
717.461960	4231.358016
717.795088	4240.255652
718.128167	4198.590516
718.461198	4144.945077
718.794180	4137.988285
719.127113	4120.399699
719.459997	4098.773149
719.792833	4052.702044
720.125619	4041.455230
720.458357	4009.753934
720.791046	4015.246271
721.123686	3987.338443
721.456278	3946.247998
721.788821	3957.951037
722.121315	3936.120320
722.453761	3914.798760
722.786158	3922.224380
723.118506	3942.749437
723.450805	3896.665730
723.783056	3919.025767
724.115259	3936.750464
724.447412	3941.690795
724.779518	3934.948252
725.111574	3936.390022
725.443582	3965.961430
725.775542	3954.646561
726.107453	4003.752440
726.439315	4001.967872
726.771129	4017.305582
727.102895	4053.173392
727.434612	4101.749950
727.766281	4114.284779
728.097901	4116.676807
728.429473	4118.668063
728.760996	4125.279536
729.092471	4119.492291
729.423897	4105.077112
729.755276	4113.508442
730.086606	4112.265797
730.417887	4147.780726
730.749120	4214.797825
731.080305	4280.340387
731.411442	4304.439623
731.742530	4273.469294
732.073570	4278.671765
732.404562	4337.265096
732.735506	4322.827232
733.066401	4284.242240
733.397249	4221.873085
733.728048	4144.703102
734.058798	4062.769228
734.389501	3991.386490
734.720156	3929.939866
735.050762	3883.662073
735.381320	3878.265518
735.711831	3826.835667
736.042293	3799.850370
736.372707	3819.462979
736.703073	3791.729071
737.033391	3782.554171
737.363661	3799.540339
737.693883	3824.557065
738.024056	3834.178107
738.354182	3830.266172
738.684260	3894.533322
739.014290	3917.316816
739.344272	3909.681989
739.674207	3950.170016
740.004093	3954.664205
740.333931	3949.431487
740.663722	3957.144452
740.993464	3949.527269
741.323159	3926.020368
741.652806	3897.094228
741.982405	3869.599775
742.311956	3836.393694
742.641460	3830.891275
742.970915	3805.181390
743.300323	3766.026748
743.629683	3729.251531
743.958996	3716.782237
744.288260	3694.465049
744.617477	3661.657220
744.946647	3646.483347
745.275768	3620.927217
745.604842	3618.061321
745.933869	3570.351841
746.262847	3562.185172
746.591778	3603.237808
746.920662	3572.436358
747.249498	3542.703633
747.578286	3586.901949
747.907027	3605.924743
748.235720	3600.422324
748.564365	3625.794451
748.892963	3626.303608
749.221514	3610.096298
749.550017	3586.266764
749.878473	3583.153851
750.206881	3554.051270
750.535242	3550.698903
750.863555	3555.661919
751.191821	3547.961556
751.520039	3527.358361
751.848210	3508.403622
752.176334	3544.158006
752.504411	3548.616906
752.832440	3506.490504
753.160421	3488.533914
753.488356	3496.904750
753.816243	3512.028212
754.144082	3469.022128
754.471875	3452.169551
754.799620	3472.258549
755.127318	3465.223619
755.454969	3465.306798
755.782572	3471.091522
756.110129	3446.029426
756.437638	3435.274124
756.765100	3446.873819
757.092515	3460.099286
757.419882	3466.093218
757.747203	3440.095988
758.074477	3441.452058
758.401703	3457.157773
758.728882	3482.061073
759.056014	3485.395796
759.383099	3488.375118
759.710138	3485.237000
760.037129	3503.891789
760.364073	3535.951007
760.690970	3519.577340
761.017820	3495.977178
761.344623	3513.091895
761.671379	3556.655026
761.998088	3608.689816
762.324751	3740.926843
762.651366	3985.274091
762.977935	4458.071307
763.304456	4896.339140
763.630931	4990.744828
763.957359	4634.362978
764.283740	4291.307417
764.610074	4102.740537
764.936362	3904.804672
765.262602	3746.797267
765.588796	3632.743682
765.914943	3545.677914
766.241044	3456.260447
766.567097	3429.252466
766.893104	3382.967112
767.219064	3348.490660
767.544978	3322.742967
767.870845	3267.640635
768.196665	3248.312851
768.522438	3254.702514
768.848165	3251.181268
769.173846	3216.485526
769.499479	3196.883000
769.825066	3183.579395
770.150607	3167.707322
770.476101	3180.297603
770.801548	3174.033970
771.126949	3130.075108
771.452303	3115.269239
771.777611	3121.921042
772.102872	3127.060498
772.428087	3099.951693
772.753256	3092.606732
773.078378	3082.927717
773.403453	3049.378838
773.728482	3039.825852
774.053465	3060.159346
774.378401	3047.992521
774.703291	3014.247037
775.028135	3016.954137
775.352932	3010.859382
775.677683	2999.471415
776.002388	2995.362875
776.327046	2999.065602
776.651658	2986.437512
776.976224	2974.875625
777.300743	2975.707416
777.625216	2964.788277
777.949643	2960.929273
778.274024	2962.308029
778.598359	2951.099023
778.922647	2957.818881
779.246889	2956.263685
779.571086	2941.742642
779.895236	2933.699481
780.219339	2947.620627
780.543397	2959.747123
780.867409	2964.505972
781.191374	2952.873509
781.515294	2950.683128
781.839167	2951.726647
782.162995	2941.278856
782.486776	2951.373766
782.810511	2949.553910
783.134201	2936.215017
783.457844	2942.861778
783.781441	2935.854574
784.104993	2914.159968
784.428498	2916.425967
784.751958	2927.939963
785.075372	2922.918973
785.398739	2908.332395
785.722061	2923.140784
786.045337	2938.594441
786.368568	2921.515012
786.691752	2909.325502
787.014891	2961.892134
787.337983	2989.174858
787.661030	3016.749970
787.984031	3083.653643
788.306987	3131.443782
788.629897	3121.472379
788.952760	3105.310440
789.275579	3092.112699
789.598351	3033.539533
789.921078	2987.468428
790.243759	2981.139259
790.566395	2958.484314
790.888984	2938.959925
791.211529	2921.414189
791.534027	2909.895152
791.856480	2899.162536
792.178888	2886.305073
792.501249	2878.571943
792.823566	2875.791747
793.145836	2874.528938
793.468062	2868.592979
793.790241	2865.338914
794.112375	2871.206817
794.434464	2882.645195
794.756507	2889.420506
795.078505	2896.558780
795.400457	2907.427508
795.722364	2945.362190
796.044226	2968.448154
796.366042	2973.242292
796.687812	2962.413893
797.009538	2981.439208
797.331218	2966.751806
797.652852	2954.269909
797.974442	2936.731735
798.295986	2929.850560
798.617484	2927.309818
798.938938	2911.263826
799.260346	2897.440982
799.581709	2892.188099
799.903026	2886.710886
800.224299	2879.930534
800.545526	2867.456199
800.866708	2855.150742
801.187845	2844.990297
801.508936	2843.752693
801.829983	2855.586802
802.150984	2839.954184
802.471940	2827.013542
802.792851	2826.554797
803.113717	2825.962461
803.434538	2832.299192
803.755314	2823.991370
804.076045	2818.635144
804.396731	2817.221101
804.717372	2818.007521
805.037967	2813.016778
805.358518	2818.645227
805.679024	2832.836075
805.999485	2829.024962
806.319901	2832.805828
806.640272	2824.175372
806.960598	2831.195179
807.280879	2837.249605
807.601115	2845.968280
807.921306	2832.435303
808.241453	2828.137719
808.561554	2833.773729
808.881611	2840.642301
809.201623	2833.259532
809.521590	2828.674602
809.841513	2826.585044
810.161390	2831.618636
810.481223	2823.804847
810.801011	2817.745381
811.120755	2813.021819
811.440453	2813.558702
811.760107	2813.578867
812.079716	2812.694144
812.399281	2801.265849
812.718801	2794.283851
813.038276	2789.968623
813.357707	2796.181845
813.677093	2803.597382
813.996434	2796.653193
814.315731	2792.635393
814.634983	2788.589867
814.954191	2791.296967
815.273354	2802.400108
815.592473	2811.254895
815.911547	2811.925368
816.230577	2819.779486
816.549562	2832.430262
816.868502	2827.994046
817.187399	2840.233968
817.506250	2856.312728
817.825058	2850.497757
818.143821	2863.456043
818.462539	2877.911552
818.781213	2904.730490
819.099843	2940.131993
819.418429	2998.425376
819.736970	3061.727144
820.055466	3132.567959
820.373919	3238.525451
820.692327	3379.723129
821.010691	3545.498953
821.329011	3989.334740
821.647286	4884.137027
821.965517	6267.820332
822.283704	7004.698393
822.601847	6982.507233
822.919945	6354.450040
823.237999	5850.579152
823.556010	5271.582468
823.873976	4713.587231
824.191897	4305.354593
824.509775	4011.480529
824.827609	3739.124631
825.145398	3616.284314
825.463144	3606.857357
825.780845	3696.521840
826.098502	3804.841112
826.416116	4085.708999
826.733685	4399.722472
827.051210	4462.318479
827.368692	4348.474102
827.686129	4082.023915
828.003522	3758.396962
828.320872	3501.393898
828.638177	3305.608085
828.955439	3169.602796
829.272656	3087.638675
829.589830	3019.262985
829.906960	2970.941005
830.224046	2926.024324
830.541088	2889.894374
830.858086	2874.715460
831.175041	2857.351206
831.491952	2861.242977
831.808819	2870.480891
832.125642	2897.861918
832.442421	2939.229627
832.759157	3022.035620
833.075849	3201.130172
833.392497	3481.282214
833.709101	3684.060107
834.025662	3631.168321
834.342179	3472.941625
834.658653	3296.934780
834.975083	3149.793582
835.291469	3051.435629
835.607811	2966.288020
835.924110	2909.242323
836.240366	2856.128726
836.556578	2813.485606
836.872746	2793.782256
837.188871	2769.675458
837.504952	2753.258941
837.820990	2746.395410
838.136984	2729.197513
838.452935	2723.914384
838.768842	2721.386245
839.084706	2740.850140
839.400526	2818.640185
839.716303	2951.880402
840.032037	3031.429810
840.347727	3020.182996
840.663373	2954.826957
840.978977	2880.230483
841.294537	2809.296407
841.610054	2760.808068
841.925527	2738.067423
842.240957	2715.896429
842.556344	2694.418593
842.871687	2679.073321
843.186987	2668.547391
843.502244	2665.258038
843.817458	2662.568583
844.132629	2650.187509
844.447756	2639.543113
844.762840	2636.417597
845.077881	2637.982876
845.392879	2633.539098
845.707833	2633.493728
846.022745	2623.156842
846.337613	2626.327728
846.652438	2623.817233
846.967221	2625.863942
847.281960	2624.306225
847.596656	2621.508385
847.911309	2621.273971
848.225919	2616.505040
848.540485	2614.508743
848.855009	2616.941099
849.169490	2614.385234
849.483928	2617.777931
849.798323	2613.946654
850.112675	2614.304576
850.426984	2614.828856
850.741251	2610.611931
851.055474	2609.951540
851.369654	2617.498147
851.683792	2615.504371
851.997887	2614.866665
852.311938	2609.533124
852.625947	2614.937241
852.939914	2615.436315
853.253837	2616.245420
853.567718	2614.924638
853.881555	2610.566560
854.195350	2614.528907
854.509103	2611.292487
854.822812	2608.255191
855.136479	2613.155193
855.450103	2615.579988
855.763685	2615.065790
856.077224	2613.185440
856.390720	2611.642847
856.704173	2612.038577
857.017584	2616.671398
857.330953	2620.351440
857.644278	2619.607870
857.957561	2620.888323
858.270802	2615.020420
858.584000	2613.997066
858.897155	2617.669546
859.210268	2622.408231
859.523339	2614.516304
859.836367	2611.494133
860.149352	2609.666714
860.462295	2613.210646
860.775195	2608.943309
861.088054	2608.814759
861.400869	2609.777620
861.713642	2605.074223
862.026373	2606.147989
862.339062	2610.896756
862.651708	2615.738784
862.964312	2615.259875
863.276873	2614.458331
863.589392	2617.283898
863.901869	2623.479476
864.214303	2626.685650
864.526696	2632.114972
864.839045	2630.920219
865.151353	2632.654376
865.463619	2630.070785
865.775842	2631.802421
866.088023	2633.042545
866.400162	2636.130252
866.712258	2632.339304
867.024313	2630.748820
867.336325	2627.519961
867.648296	2631.159674
867.960224	2635.636218
868.272110	2633.125724
868.583954	2630.390898
868.895755	2629.480970
869.207515	2634.900210
869.519233	2640.579070
869.830909	2636.611682
870.142542	2628.984416
870.454134	2631.948614
870.765684	2637.085550
871.077191	2640.402629
871.388657	2646.066366
871.700081	2644.271715
872.011463	2642.966056
872.322803	2641.138638
872.634101	2645.652991
872.945357	2652.372849
873.256571	2660.484066
873.567744	2655.349651
873.878874	2657.045999
874.189963	2657.802172
874.501010	2662.540857
874.812015	2666.374654
875.122979	2666.704850
875.433900	2656.645227
875.744780	2654.616163
876.055618	2663.609581
876.366415	2667.894562
876.677169	2664.464057
876.987882	2660.698315
877.298554	2662.797955
877.609183	2668.524706
877.919771	2677.845800
878.230317	2684.285874
878.540822	2694.942873
878.851285	2707.041642
879.161707	2731.612226
879.472087	2770.955911
879.782425	2820.717141
880.092722	2931.630087
880.402977	3123.269551
880.713191	3377.860423
881.023363	3671.028725
881.333494	3862.317828
881.643583	4037.734858
881.953631	4035.282337
882.263637	3855.441694
882.573602	3639.695433
882.883526	3505.688961
883.193408	3392.003380
883.503248	3291.840694
883.813048	3179.044877
884.122806	3061.613718
884.432522	2977.333188
884.742197	2911.934299
885.051831	2873.994575
885.361424	2839.361848
885.670975	2802.873977
885.980485	2771.207969
886.289954	2754.620052
886.599382	2739.854512
886.908768	2729.764643
887.218113	2713.035574
887.527417	2698.121320
887.836680	2690.980526
888.145901	2684.227900
888.455082	2673.785150
888.764221	2668.484377
889.073319	2657.519867
889.382376	2655.079949
889.691392	2657.086328
890.000366	2659.369971
890.309300	2655.810916
890.618193	2658.021462
890.927044	2662.064467
891.235855	2662.550939
891.544625	2661.663696
891.853353	2659.337203
892.162041	2665.071516
892.470687	2684.424505
892.779293	2700.286496
893.087858	2711.067003
893.396381	2730.505693
893.704864	2774.751900
894.013306	2845.151613
894.321707	2936.620829
894.630068	2985.635968
894.938387	3005.387209
895.246665	2995.506548
895.554903	2954.829477
895.863100	2914.250709
896.171256	2853.451873
896.479371	2792.269910
896.787446	2755.197264
897.095480	2735.773698
897.403473	2729.933522
897.711425	2714.744525
898.019336	2695.988912
898.327207	2683.161696
898.635038	2681.445183
898.942827	2678.420491
899.250576	2668.625529
899.558284	2658.971720
899.865952	2652.579537
900.173579	2651.657005
900.481165	2647.913949
900.788711	2638.580252
901.096216	2635.381640
901.403681	2631.565487
901.711105	2631.893162
902.018489	2632.177987
902.325832	2633.206382
902.633135	2634.317957
902.940397	2651.057108
903.247619	2685.974660
903.554800	2755.948396
903.861941	2885.165772
904.169041	3009.445338
904.476101	3073.659556
904.783121	3064.033472
905.090100	3006.972652
905.397039	2933.616302
905.703938	2858.021679
906.010796	2797.883234
906.317614	2745.624113
906.624391	2706.146837
906.931129	2683.542303
907.237826	2659.866524
907.544483	2642.678710
907.851099	2625.319497
908.157675	2620.275823
908.464211	2608.023298
908.770707	2599.861670
909.077163	2596.095928
909.383578	2592.942687
909.689954	2592.075608
909.996289	2590.464959
910.302584	2587.596543
910.608839	2586.457242
910.915054	2587.281471
911.221229	2590.475042
911.527363	2592.289857
911.833458	2589.739033
912.139513	2591.274065
912.445527	2593.310691
912.751502	2597.754468
913.057436	2604.469285
913.363331	2611.080758
913.669186	2622.834208
913.975000	2635.457257
914.280775	2648.198774
914.586510	2668.461692
914.892205	2705.685572
915.197859	2771.976745
915.503475	2856.458922
915.809050	2920.927718
916.114585	2936.898093
916.420081	2947.701286
916.725536	2958.199488
917.030952	2936.152002
917.336328	2887.479662
917.641665	2838.242712
917.946961	2789.910650
918.252218	2755.393869
918.557435	2730.493090
918.862612	2703.880839
919.167750	2690.234435
919.472848	2671.766168
919.777906	2656.176400
920.082925	2644.856489
920.387904	2632.712349
920.692843	2628.997019
920.997743	2623.547532
921.302603	2616.908332
921.607423	2610.732918
921.912204	2605.664038
922.216946	2600.461567
922.521647	2600.045672
922.826310	2596.864704
923.130932	2591.180803
923.435516	2586.190061
923.740059	2581.413568
924.044564	2584.211408
924.349028	2583.966912
924.653454	2571.742114
924.957840	2571.999213
925.262186	2567.661300
925.566493	2566.574931
925.870761	2566.146433
926.174989	2568.919068
926.479178	2561.737944
926.783328	2561.513613
927.087438	2561.092677
927.391509	2560.949004
927.695541	2556.530432
927.999533	2556.404403
928.303486	2558.315001
928.607400	2559.043447
928.911275	2557.072356
929.215110	2556.540515
929.518906	2557.016904
929.822663	2558.042778
930.126381	2556.931204
930.430060	2558.551935
930.733699	2555.630586
931.037299	2557.684857
931.340861	2555.721327
931.644383	2560.071843
931.947866	2558.050340
932.251309	2557.866338
932.554714	2555.844835
932.858080	2556.785011
933.161407	2556.492624
933.464694	2558.103272
933.767943	2554.128322
934.071153	2554.455997
934.374323	2554.476162
934.677455	2553.833415
934.980548	2552.999104
935.283602	2553.679660
935.586617	2556.023796
935.889593	2552.734443
936.192530	2552.477345
936.495428	2553.276368
936.798287	2551.829556
937.101108	2556.558159
937.403890	2557.122768
937.706632	2563.197358
938.009336	2563.187276
938.312002	2567.333625
938.614628	2568.399829
938.917216	2576.944585
939.219765	2573.950139
939.522275	2578.116653
939.824747	2578.719071
940.127179	2570.756568
940.429573	2566.335477
940.731929	2565.700291
941.034246	2567.381516
941.336524	2570.305385
941.638763	2569.133317
941.940964	2566.033007
942.243126	2566.433779
942.545250	2563.963614
942.847335	2562.209292
943.149381	2561.637121
943.451389	2560.434806
943.753359	2561.523695
944.055290	2558.299877
944.357182	2557.619322
944.659036	2554.861810
944.960851	2559.013201
945.262628	2554.524053
945.564367	2556.444733
945.866067	2556.502706
946.167729	2557.722665
946.469352	2555.744012
946.770937	2558.619991
947.072484	2556.525391
947.373992	2556.164949
947.675462	2555.650751
947.976893	2556.447253
948.278286	2552.316028
948.579641	2553.775442
948.880958	2553.919115
949.182236	2553.457849
949.483476	2553.644372
949.784678	2555.267623
950.085841	2550.284443
950.386967	2553.848538
950.688054	2550.874258
950.989103	2554.834084
951.290114	2557.959599
951.591087	2559.920608
951.892021	2560.523026
952.192917	2560.003787
952.493776	2559.776935
952.794596	2562.289951
953.095378	2562.806669
953.396122	2562.216854
953.696828	2560.122254
953.997496	2557.450443
954.298126	2554.846687
954.598718	2555.973385
954.899272	2553.427602
955.199788	2556.273333
955.500266	2550.367622
955.800706	2549.223280
956.101108	2545.298742
956.401472	2546.576674
956.701798	2542.054759
957.002087	2545.568443
957.302337	2544.640871
957.602550	2546.133052
957.902724	2543.688093
958.202861	2544.998793
958.502960	2544.030891
958.803022	2543.899821
959.103045	2543.657846
959.403031	2544.872764
959.702979	2542.067362
960.002889	2541.941333
960.302762	2541.104502
960.602596	2542.246323
960.902393	2539.566950
961.202153	2541.084337
961.501875	2536.915303
961.801559	2541.951415
962.101205	2538.059645
962.400814	2540.181970
962.700385	2538.649460
962.999918	2537.737011
963.299414	2537.631147
963.598873	2540.537372
963.898293	2537.520241
964.197677	2539.778678
964.497022	2539.632485
964.796331	2537.958822
965.095601	2537.001002
965.394835	2539.289686
965.694030	2539.340098
965.993189	2539.889583
966.292309	2538.435211
966.591393	2536.685930
966.890439	2536.998482
967.189447	2536.837165
967.488419	2536.794315
967.787353	2538.236085
968.086249	2539.387989
968.385108	2539.798843
968.683930	2538.745242
968.982714	2536.809438
969.281462	2536.254912
969.580172	2538.246167
969.878844	2534.767771
970.177480	2538.551157
970.476078	2538.266332
970.774639	2541.744728
971.073162	2538.798174
971.371649	2537.469830
971.670098	2534.974458
971.968510	2538.800694
972.266885	2537.132072
972.565223	2540.232382
972.863524	2537.638708
973.161788	2540.678524
973.460014	2537.830272
973.758204	2539.531662
974.056356	2539.750952
974.354471	2540.678524
974.652550	2537.812628
974.950591	2539.768596
975.248595	2538.089892
975.546563	2537.764737
975.844493	2542.258926
976.142386	2536.239788
976.440243	2536.819521
976.738062	2539.524100
977.035845	2535.655014
977.333590	2536.683410
977.631299	2538.160468
977.928971	2538.160468
978.226606	2537.056455
978.524204	2536.932947
978.821765	2533.779705
979.119290	2537.212731
979.416777	2536.650642
979.714228	2538.410005
980.011642	2537.805066
980.309020	2542.382434
980.606360	2535.050076
980.903664	2537.424459
981.200931	2539.385468
981.498162	2540.270191
981.795356	2539.352701
982.092513	2544.711447
982.389633	2544.598021
982.686717	2549.936603
982.983764	2550.564227
983.280775	2554.289639
983.577749	2553.399876
983.874686	2551.348126
984.171587	2551.950544
984.468451	2547.567261
984.765279	2545.117260
985.062070	2542.579039
985.358824	2540.378575
985.655543	2540.766744
985.952224	2538.694830
986.248869	2536.988399
986.545478	2534.356917
986.842050	2537.595858
987.138586	2533.651156
987.435086	2534.921526
987.731549	2532.375744
988.027975	2534.135106
988.324366	2536.116280
988.620719	2534.921526
988.917037	2536.282638
989.213318	2535.118131
989.509563	2533.578059
989.805772	2535.617206
990.101944	2532.731145
990.398080	2533.278110
990.694180	2533.078985
990.990244	2535.171063
991.286271	2533.290713
991.582262	2533.265507
991.878217	2533.532688
992.174136	2537.600900
992.470019	2534.951773
992.765865	2532.859694
993.061676	2536.897659
993.357450	2534.389685
993.653188	2534.752648
993.948890	2536.375899
994.244556	2537.094264
994.540186	2537.585776
994.835780	2534.651825
995.131337	2537.353883
995.426859	2536.779192
995.722345	2534.626619
996.017795	2536.680889
996.313208	2538.503266
996.608586	2537.840354
996.903928	2541.212886
997.199234	2536.070909
997.494504	2536.204500
997.789738	2537.356404
998.084936	2537.253060
998.380099	2536.950591
998.675225	2534.697195
998.970316	2534.079654
999.265371	2538.289017
999.560390	2535.435724
999.855373	2535.622247
1000.150320	2534.931609
1000.445232	2533.893131
1000.740108	2533.439427
1001.034948	2534.636701
1001.329752	2533.189890
1001.624521	2536.615354
1001.919254	2528.592358
1002.213951	2532.569828
1002.508613	2529.693850
1002.803239	2532.201824
1003.097829	2530.828109
1003.392384	2534.737524
1003.686903	2532.738707
1003.981386	2533.504962
1004.275834	2531.919519
1004.570246	2534.503111
1004.864623	2531.758202
1005.158964	2529.305681
1005.453270	2534.987061
1005.747540	2532.209386
1006.041775	2532.002698
1006.335974	2534.762730
1006.630138	2532.463964
1006.924266	2535.004705
1007.218359	2533.068902
1007.512416	2529.209899
1007.806438	2531.574200
1008.100425	2532.005219
1008.394376	2532.529499
1008.688292	2534.440096
1008.982172	2530.603778
1009.276017	2531.627132
1009.569827	2533.232740
1009.863602	2533.610826
1010.157341	2531.669982
1010.451045	2534.591331
1010.744714	2532.302647
1011.038347	2531.561597
1011.331945	2531.664941
1011.625508	2533.076464
1011.919036	2531.738038
1012.212528	2532.768954
1012.505986	2531.707791
1012.799408	2531.080167
1013.092795	2533.096629
1013.386147	2532.269879
1013.679464	2530.906247
1013.972745	2532.249715
1014.265992	2532.269879
1014.559204	2531.208717
1014.852380	2533.121834
1015.145521	2533.172246
1015.438628	2531.218799
1015.731699	2534.808100
1016.024736	2529.991278
1016.317737	2534.563604
1016.610703	2534.331711
1016.903635	2527.284178
1017.196531	2526.810310
1017.489393	2528.342821
1017.782219	2527.415248
1018.075011	2529.038500
1018.367768	2530.392050
1018.660490	2531.480939
1018.953177	2531.480939
1019.245829	2531.480939
