Dividing Wavelength (nm)	Counts (n)	Blue Motor Position (mm): 6.600000	Red Motor Position (mm): 0.000000	
326.493990	2155.297436
326.888308	2155.297436
327.282561	2155.297436
327.676750	2118.539863
328.070874	2114.625407
328.464933	2112.800509
328.858929	2119.757301
329.252859	2123.550770
329.646726	2131.198200
330.040528	2142.518111
330.434265	2157.676861
330.827938	2175.381393
331.221547	2189.811696
331.615091	2209.424305
332.008571	2226.982644
332.401986	2244.667011
332.795338	2265.988572
333.188625	2283.388114
333.581847	2303.363686
333.975006	2319.991932
334.368100	2336.277380
334.761129	2355.181707
335.154095	2373.712988
335.546996	2387.881151
335.939833	2406.394788
336.332606	2422.569331
336.725315	2435.000816
337.117960	2449.398351
337.510540	2459.727676
337.903056	2471.912144
338.295508	2478.868937
338.687896	2486.347488
339.080220	2495.247646
339.472480	2502.557319
339.864676	2505.304747
340.256807	2511.205418
340.648875	2515.409740
341.040879	2517.852179
341.432818	2523.210926
341.824694	2524.801410
342.216506	2527.732841
342.608253	2526.654034
342.999937	2528.564631
343.391557	2528.864580
343.783113	2527.964734
344.174605	2525.837367
344.566033	2524.483817
344.957397	2524.970289
345.348697	2521.852335
345.739934	2520.251769
346.131106	2519.578775
346.522215	2515.787827
346.913260	2517.310255
347.304241	2513.804133
347.695159	2512.511077
348.086012	2511.346570
348.476802	2508.178205
348.867528	2506.464213
349.258191	2500.757627
349.648789	2502.101094
350.039324	2496.568428
350.429796	2499.998933
350.820203	2497.624550
351.210548	2499.227637
351.600828	2496.180259
351.991045	2493.735299
352.381198	2494.856956
352.771288	2493.904178
353.161314	2491.786893
353.551276	2492.936277
353.941175	2489.682212
354.331010	2490.508961
354.720782	2492.424599
355.110490	2490.440905
355.500135	2493.029538
355.889717	2493.316884
356.279235	2491.706235
356.668689	2492.144815
357.058080	2490.531646
357.447408	2492.495176
357.836672	2493.604229
358.225873	2492.827892
358.615010	2496.036586
359.004084	2493.478201
359.393095	2492.981647
359.782043	2493.911740
360.170927	2493.367295
360.559748	2496.518016
360.948505	2499.651093
361.337199	2498.206803
361.725830	2497.107831
362.114398	2498.214365
362.502903	2497.939622
362.891344	2498.993223
363.279722	2498.232009
363.668037	2500.288799
364.056289	2499.832575
364.444478	2502.877432
364.832603	2501.017246
365.220665	2503.348780
365.608665	2503.399191
365.996601	2500.692092
366.384474	2502.249808
366.772284	2502.335508
367.160031	2505.516476
367.547715	2504.712412
367.935336	2501.871722
368.322893	2501.402894
368.710388	2503.079078
369.097820	2502.890035
369.485189	2496.896103
369.872495	2503.905827
370.259738	2503.245436
370.646918	2508.044615
371.034035	2504.747700
371.421090	2506.975890
371.808081	2508.183246
372.195010	2504.541013
372.581875	2506.272649
372.968678	2507.129645
373.355418	2505.067813
373.742096	2507.699296
374.128710	2508.521004
374.515262	2510.018226
374.901751	2508.392454
375.288177	2509.577125
375.674540	2507.893380
376.060841	2510.663494
376.447079	2507.595952
376.833254	2512.122908
377.219367	2510.393792
377.605417	2510.761797
377.991404	2508.447907
378.377329	2510.202228
378.763191	2509.050325
379.148991	2513.733557
379.534727	2510.479492
379.920402	2513.620131
380.306013	2515.361849
380.691563	2514.572909
381.077049	2511.737260
381.462474	2512.420336
381.847835	2514.540141
382.233134	2514.779596
382.618371	2510.761797
383.003545	2511.235665
383.388657	2513.960409
383.773706	2513.410923
384.158693	2513.385717
384.543618	2515.991994
384.928480	2514.900584
385.313280	2517.078362
385.698017	2514.066273
386.082692	2514.119205
386.467305	2515.702127
386.851856	2515.777745
387.236344	2516.319669
387.620770	2512.780779
388.005133	2511.875892
388.389435	2512.584174
388.773674	2513.599966
389.157851	2515.848321
389.541965	2517.660616
389.926018	2517.716068
390.310008	2517.509381
390.693936	2515.881088
391.077802	2518.222704
391.461606	2519.576254
391.845348	2516.491068
392.229027	2518.164731
392.612645	2517.433764
392.996200	2516.609535
393.379694	2516.067611
393.763125	2517.232118
394.146494	2521.262520
394.529801	2521.534742
394.913047	2519.387211
395.296230	2518.613394
395.679351	2518.885616
396.062410	2520.100534
396.445408	2519.654392
396.828343	2516.906963
397.211217	2517.973167
397.594028	2521.963240
397.976778	2521.635565
398.359466	2521.224711
398.742092	2521.592716
399.124656	2520.163548
399.507158	2521.759074
399.889598	2521.544825
400.271977	2521.590195
400.654294	2521.184382
401.036549	2524.040196
401.418742	2524.899713
401.800874	2519.805627
402.182944	2522.023734
402.564952	2523.949455
402.946898	2524.788807
403.328783	2521.628004
403.710606	2525.303005
404.092367	2524.158663
404.474067	2523.745288
404.855705	2524.017511
405.237282	2524.844260
405.618797	2524.216636
406.000250	2522.845442
406.381642	2522.658920
406.762972	2523.389887
407.144240	2519.903929
407.525447	2521.428878
407.906593	2521.711183
408.287677	2523.684794
408.668700	2522.951307
409.049661	2527.437933
409.430560	2523.833508
409.811399	2526.331400
410.192176	2526.648993
410.572891	2526.313756
410.953545	2528.418438
411.334138	2525.665968
411.714669	2527.052285
412.095139	2523.034486
412.475547	2527.311905
412.855894	2527.185876
413.236180	2524.811492
413.616405	2525.643283
413.996568	2527.657224
414.376670	2527.097656
414.756711	2527.899199
415.136691	2529.882893
415.516609	2528.720907
415.896466	2528.688140
416.276262	2527.251411
416.655997	2528.683098
417.035670	2526.444826
417.415283	2529.393901
417.794834	2527.218643
418.174324	2528.887265
418.553753	2528.539426
418.933121	2527.508510
419.312428	2530.865918
419.691674	2530.775177
420.070859	2531.362472
420.449983	2529.666123
420.829045	2531.685106
421.208047	2531.624612
421.586988	2529.744261
421.965867	2529.076308
422.344686	2531.312060
422.723444	2533.968748
423.102141	2529.416586
423.480777	2530.475229
423.859352	2531.485980
424.237866	2531.634694
424.616319	2530.064375
424.994712	2532.063192
425.373044	2532.181659
425.751314	2527.150588
426.129524	2527.158149
426.507673	2528.226874
426.885762	2528.514220
427.263789	2532.113604
427.641756	2532.113604
428.019662	2532.340456
428.397508	2532.683254
428.775292	2533.391536
429.153016	2533.867925
429.530679	2534.253573
429.908282	2536.514531
430.285824	2533.172246
430.663305	2531.949766
431.040726	2531.344828
431.418086	2533.121834
431.795385	2533.240302
432.172624	2532.300126
432.549802	2534.238450
432.926920	2534.961856
433.303977	2536.252391
433.680974	2536.454037
434.057910	2533.139478
434.434786	2534.440096
434.811601	2533.913296
435.188355	2534.523275
435.565050	2537.384130
435.941683	2534.006557
436.318257	2534.747607
436.694770	2535.876825
437.071222	2533.938501
437.447614	2535.826413
437.823946	2535.602082
438.200218	2533.389016
438.576429	2533.608306
438.952580	2532.907585
439.328670	2534.523275
439.704700	2537.137113
440.080670	2535.629808
440.456580	2533.933460
440.832429	2534.916485
441.208218	2537.376568
441.583947	2537.822710
441.959616	2537.376568
442.335224	2533.963707
442.710773	2537.361445
443.086261	2536.234747
443.461689	2536.580066
443.837057	2537.605941
444.212365	2535.768440
444.587612	2535.274407
444.962800	2532.761392
445.337927	2535.355066
445.712995	2530.926412
446.088002	2537.447144
446.462949	2535.770961
446.837837	2535.423121
447.212664	2536.625436
447.587431	2540.192053
447.962139	2536.935467
448.336786	2539.602238
448.711374	2537.046373
449.085901	2537.406815
449.460369	2537.684079
449.834776	2537.689120
450.209124	2538.987217
450.583412	2537.172402
450.957640	2537.351363
451.331808	2540.698689
451.705917	2537.449665
452.079965	2537.079140
452.453954	2539.307330
452.827883	2540.368493
453.201752	2539.783719
453.575562	2537.807587
453.949311	2537.860519
454.323001	2541.081816
454.696632	2539.514018
455.070202	2539.909748
455.443713	2540.358411
455.817164	2537.978986
456.190556	2541.659028
456.563888	2542.392516
456.937160	2540.696168
457.310373	2538.394881
457.683526	2541.354039
458.056619	2539.423277
458.429653	2541.071734
458.802628	2539.791281
459.175542	2539.819007
459.548398	2537.558050
459.921194	2542.163144
460.293930	2541.250695
460.666607	2538.694830
461.039224	2541.013761
461.411782	2539.534182
461.784280	2541.187681
462.156719	2539.025026
462.529099	2540.275232
462.901419	2541.500232
463.273680	2537.684079
463.645882	2537.018646
464.018024	2537.502597
464.390106	2538.473019
464.762130	2541.928730
465.134094	2541.613658
465.505999	2539.846734
465.877845	2540.681045
466.249631	2540.678524
466.621358	2542.818494
466.993026	2539.309851
467.364634	2544.555171
467.736184	2543.317568
468.107674	2541.837989
468.479105	2541.774975
468.850477	2542.382434
469.221790	2540.156765
469.593043	2541.333874
469.964238	2543.652805
470.335373	2544.212373
470.706449	2544.179605
471.077467	2542.657177
471.448425	2540.439069
471.819324	2540.423946
472.190164	2544.517363
472.560945	2541.122146
472.931667	2543.186498
473.302330	2541.999306
473.672934	2540.623071
474.043479	2538.883873
474.413965	2542.160623
474.784393	2543.068031
475.154761	2542.631971
475.525070	2543.378062
475.895321	2543.221786
476.265513	2540.834800
476.635645	2544.267826
477.005719	2542.034594
477.375734	2543.965356
477.745691	2545.467620
478.115588	2544.033412
478.485427	2542.463092
478.855207	2542.407640
479.224928	2543.612476
479.594591	2543.269677
479.964194	2544.880326
480.333739	2543.045346
480.703226	2545.578526
481.072653	2541.830428
481.442022	2546.420398
481.811333	2542.964687
482.180584	2540.204656
482.549777	2540.701209
482.918912	2539.254398
483.287988	2543.859492
483.657005	2544.837476
484.025964	2542.831097
484.394864	2543.975439
484.763706	2544.701365
485.132489	2545.593649
485.501213	2545.349153
485.869879	2543.110881
486.238487	2545.754966
486.607036	2546.755635
486.975527	2545.747404
487.343959	2544.953422
487.712333	2544.456869
488.080648	2545.346633
488.448905	2543.914945
488.817104	2546.206149
489.185244	2545.419729
489.553326	2545.341591
489.921350	2543.163813
490.289315	2544.091385
490.657222	2545.639019
491.025070	2543.120963
491.392861	2544.870243
491.760593	2547.332847
492.128267	2546.556509
492.495883	2543.176416
492.863440	2545.097095
493.230939	2546.473330
493.598380	2544.918134
493.965763	2543.279759
494.333088	2545.560882
494.700354	2545.641540
495.067563	2545.949050
495.434713	2544.033412
495.801805	2544.623227
496.168839	2546.138094
496.535815	2546.064997
496.902733	2545.989380
497.269593	2546.627086
497.636395	2547.249668
498.003139	2545.754966
498.369825	2543.834286
498.736453	2547.466438
499.103023	2546.828732
499.469535	2546.299411
499.835989	2545.868392
500.202385	2544.802188
500.568723	2544.411498
500.935003	2543.909904
501.301226	2543.158772
501.667390	2546.359904
502.033497	2550.120605
502.399546	2545.223124
502.765537	2545.553320
503.131470	2544.872764
503.497345	2547.794113
503.863163	2545.102137
504.228923	2545.467620
504.594625	2545.354194
504.960269	2545.560882
505.325856	2547.713454
505.691385	2548.520039
506.056856	2546.848896
506.422270	2546.997610
506.787625	2548.429298
507.152924	2546.735470
507.518164	2545.999462
507.883347	2548.283105
508.248472	2547.093392
508.613540	2547.902497
508.978550	2546.541386
509.343503	2547.380738
509.708398	2549.339226
510.073236	2547.441232
510.438016	2546.964843
510.802738	2547.269833
511.167403	2547.189174
511.532010	2546.634647
511.896561	2547.226983
512.261053	2548.918290
512.625488	2547.975594
512.989866	2545.439894
513.354186	2546.848896
513.718449	2547.300080
514.082655	2548.759494
514.446803	2547.526932
514.810894	2544.819832
515.174927	2549.157745
515.538904	2550.828887
515.902822	2548.242775
516.266684	2546.982487
516.630488	2550.786038
516.994235	2547.428629
517.357925	2551.055739
517.721558	2546.155738
518.085133	2547.368135
518.448651	2545.528114
518.812112	2544.323278
519.175516	2544.875285
519.538863	2544.005686
519.902152	2548.204967
520.265385	2546.715306
520.628560	2547.204298
520.991678	2547.277394
521.354739	2546.964843
521.717743	2545.858310
522.080690	2549.550955
522.443580	2545.094575
522.806413	2550.733105
523.169189	2548.888043
523.531908	2548.605738
523.894569	2546.261602
524.257174	2548.542724
524.619722	2546.858979
524.982213	2548.552806
525.344647	2548.630944
525.707025	2547.594987
526.069345	2546.196067
526.431608	2548.280584
526.793815	2548.608259
527.155964	2548.431819
527.518057	2545.540717
527.880093	2551.655637
528.242072	2548.968702
528.603995	2547.857127
528.965860	2548.918290
529.327669	2549.404761
529.689421	2550.133208
530.051117	2548.993907
530.412755	2550.652447
530.774337	2550.264278
531.135862	2548.890564
531.497331	2547.353012
531.858743	2549.760163
532.220098	2552.474824
532.581396	2548.956099
532.942638	2548.532642
533.303824	2547.317724
533.664953	2549.931562
534.026025	2549.263609
534.387040	2548.819988
534.747999	2546.851417
535.108902	2550.181099
535.469748	2548.809905
535.830537	2550.367622
536.191270	2551.068342
536.551947	2549.253527
536.912567	2545.651622
537.273131	2547.766386
537.633638	2542.669780
537.994089	2550.481048
538.354483	2551.955585
538.714821	2548.963660
539.075103	2547.932744
539.435328	2550.942313
539.795497	2550.788558
540.155609	2551.529608
540.515665	2550.138249
540.875665	2551.229659
541.235609	2548.479710
541.595496	2551.048177
541.955328	2547.980635
542.315102	2548.525080
542.674821	2552.794937
543.034483	2551.252344
543.394090	2551.141439
543.753640	2551.869886
544.113134	2554.337530
544.472571	2552.179917
544.831953	2554.824002
545.191278	2555.960782
545.550548	2550.909546
545.909761	2555.144115
546.268918	2554.513971
546.628019	2554.183775
546.987064	2553.558672
547.346053	2551.736295
547.704986	2556.459856
548.063863	2556.154866
548.422684	2554.859290
548.781449	2552.742005
549.140158	2552.593291
549.498811	2555.121430
549.857408	2555.837274
550.215949	2554.140925
550.574434	2551.562375
550.932864	2555.643189
551.291237	2556.616132
551.649555	2556.311142
552.007817	2557.004301
552.366022	2555.169321
552.724173	2554.604712
553.082267	2557.634445
553.440305	2556.737120
553.798288	2558.100752
554.156215	2559.686195
554.514086	2554.435833
554.871902	2550.619679
555.229661	2554.428271
555.587365	2554.128322
555.945014	2556.953889
556.302606	2555.726368
556.660143	2555.590257
557.017625	2555.988508
557.375050	2556.661502
557.732421	2557.463046
558.089735	2557.266441
558.446994	2556.595967
558.804197	2557.652089
559.161345	2558.965310
559.518437	2556.989177
559.875474	2559.988664
560.232455	2559.363561
560.589381	2559.003118
560.946251	2559.479507
561.303065	2559.348437
561.659825	2558.277192
562.016528	2558.919939
562.373177	2557.258879
562.729770	2559.136709
563.086307	2558.546894
563.442789	2557.851215
563.799216	2559.860114
564.155587	2562.461350
564.511904	2561.410269
564.868164	2559.512275
565.224370	2560.616287
565.580520	2562.375650
565.936615	2560.081925
566.292654	2557.730227
566.648638	2558.292316
567.004567	2558.904816
567.360441	2560.200392
567.716260	2558.665361
568.072023	2561.516133
568.427732	2559.290464
568.783385	2559.146791
569.138982	2557.110165
569.494525	2560.427244
569.850013	2559.424055
570.205445	2560.298695
570.560823	2557.788200
570.916145	2561.148129
571.271412	2560.485217
571.626625	2560.389436
571.981782	2556.704352
572.336884	2556.873231
572.691931	2555.018086
573.046923	2554.947510
573.401860	2555.091183
573.756743	2559.676112
574.111570	2559.355999
574.466342	2560.079405
574.821059	2560.717111
575.175722	2559.524878
575.530330	2559.650907
575.884882	2558.693087
576.239380	2559.991184
576.593823	2560.434806
576.948211	2555.754095
577.302544	2558.020093
577.656823	2557.987326
578.011047	2558.660320
578.365216	2558.912377
578.719330	2560.704508
579.073389	2557.861297
579.427394	2559.620660
579.781344	2558.378015
580.135239	2558.781307
580.489080	2560.717111
580.842866	2557.611760
581.196597	2559.431616
581.550273	2557.871379
581.903895	2557.218550
582.257463	2560.026473
582.610975	2558.146122
582.964434	2558.040258
583.317837	2557.614280
583.671186	2558.635114
584.024481	2560.026472
584.377721	2557.914229
584.730906	2557.135371
585.084037	2557.563869
585.437113	2559.361040
585.790135	2559.819785
586.143103	2558.829198
586.496016	2556.878272
586.848874	2557.773077
587.201679	2556.623694
587.554428	2556.472459
587.907124	2557.546225
588.259765	2553.422561
588.612352	2557.528581
588.964884	2560.381874
589.317362	2557.147974
589.669786	2559.096380
590.022155	2555.214691
590.374470	2549.384597
590.726731	2551.897612
591.078937	2548.381407
591.431090	2556.031358
591.783188	2555.401214
592.135232	2557.652089
592.487222	2554.445915
592.839157	2555.181924
593.191038	2557.382387
593.542866	2554.955072
593.894639	2557.876420
594.246358	2557.894064
594.598022	2555.073539
594.949633	2557.652089
595.301190	2553.518343
595.652692	2555.955741
596.004141	2551.524567
596.355535	2556.820299
596.706876	2554.677808
597.058162	2555.234856
597.409395	2554.846687
597.760573	2555.980947
598.111698	2556.207798
598.462768	2555.063457
598.813785	2556.764846
599.164748	2555.146636
599.515657	2555.789383
599.866511	2557.694939
600.217312	2553.130174
600.568060	2551.491799
600.918753	2555.751574
601.269392	2554.246790
601.619978	2553.851059
601.970510	2556.764846
602.320988	2554.007335
602.671412	2552.555483
603.021783	2554.065308
603.372100	2556.142263
603.722363	2553.891388
604.072572	2555.880123
604.422728	2554.657644
604.772830	2552.482386
605.122878	2553.205791
605.472872	2554.536656
605.822813	2553.848538
606.172701	2551.489278
606.522534	2554.370298
606.872314	2553.931717
607.222041	2554.241748
607.571714	2550.503733
607.921333	2549.619010
608.270899	2554.975236
608.620411	2550.584391
608.969870	2556.578323
609.319276	2558.874569
609.668627	2564.006463
610.017926	2564.387071
610.367171	2570.610375
610.716362	2567.008471
611.065500	2567.532751
611.414585	2566.007802
611.763616	2559.419013
612.112594	2561.533777
612.461518	2559.794579
612.810389	2559.502192
613.159207	2557.417675
613.507971	2557.725186
613.856682	2559.174517
614.205340	2556.853066
614.553945	2556.658982
614.902496	2556.595967
615.250994	2555.113868
615.599439	2557.314332
615.947830	2557.289126
616.296169	2555.577654
616.644454	2555.716286
616.992686	2556.835422
617.340864	2557.233673
617.688990	2556.227963
618.037063	2557.911708
618.385082	2555.131512
618.733048	2557.866338
619.080961	2557.347099
619.428821	2554.899619
619.776628	2556.641338
620.124382	2555.761656
620.472083	2554.385421
620.819731	2557.989846
621.167326	2556.537994
621.514868	2556.263251
621.862357	2557.790721
622.209793	2559.824826
622.557176	2556.981616
622.904506	2557.064795
623.251783	2556.742161
623.599007	2555.756615
623.946179	2556.222922
624.293297	2554.665205
624.640363	2556.752243
624.987376	2554.274516
625.334336	2552.283260
625.681243	2553.372149
626.028097	2551.474155
626.374899	2554.705535
626.721647	2555.945658
627.068343	2556.112017
627.414987	2551.272509
627.761577	2555.877603
628.108115	2558.138560
628.454600	2559.497151
628.801032	2555.093703
629.147412	2558.287274
629.493739	2555.928014
629.840014	2557.644527
630.186236	2555.917932
630.532405	2557.130330
630.878521	2558.372974
631.224585	2555.849877
631.570597	2556.999260
631.916556	2555.275185
632.262462	2556.664023
632.608316	2555.222253
632.954117	2556.517829
633.299866	2556.946328
633.645562	2556.285936
633.991206	2554.062788
634.336797	2555.928014
634.682336	2556.853066
635.027823	2556.848025
635.373257	2552.288301
635.718639	2554.014897
636.063968	2555.141594
636.409245	2555.363405
636.754470	2556.124619
637.099642	2553.762839
637.444762	2558.309960
637.789829	2554.468600
638.134845	2556.578323
638.479808	2555.786862
638.824719	2555.938097
639.169577	2555.870041
639.514383	2555.403734
639.859137	2553.346944
640.203839	2555.645710
640.548489	2554.345092
640.893086	2556.540515
641.237632	2555.834753
641.582125	2558.587223
641.926566	2555.678477
642.270955	2555.156718
642.615292	2551.713610
642.959576	2555.048333
643.303809	2551.252344
643.647990	2556.522871
643.992118	2556.842984
644.336195	2557.697459
644.680219	2556.714434
645.024192	2555.439022
645.368112	2557.838612
645.711981	2554.582026
646.055797	2559.194682
646.399562	2558.972871
646.743274	2558.050340
647.086935	2556.338868
647.430544	2557.926832
647.774101	2556.074208
648.117606	2558.748540
648.461059	2561.211144
648.804460	2560.394477
649.147810	2560.641493
649.491108	2559.010680
649.834354	2559.698797
650.177548	2559.592933
650.520690	2559.056050
650.863781	2558.090669
651.206820	2557.810885
651.549807	2558.783828
651.892742	2560.036555
652.235626	2557.604198
652.578458	2558.030176
652.921238	2557.931873
653.263967	2560.447409
653.606644	2561.037224
653.949269	2558.536812
654.291843	2561.188458
654.634365	2558.483879
654.976836	2558.987995
655.319255	2558.919939
655.661622	2559.111503
656.003938	2559.290464
656.346203	2560.956565
656.688416	2560.596123
657.030577	2558.594785
657.372687	2559.736606
657.714746	2558.501523
658.056753	2559.842470
658.398708	2560.840619
658.740612	2558.751061
659.082465	2559.822306
659.424266	2559.101421
659.766016	2556.863148
660.107715	2559.008159
660.449362	2555.514640
660.790958	2562.494117
661.132503	2562.113510
661.473996	2561.435475
661.815438	2561.869014
662.156829	2559.895402
662.498168	2561.916905
662.839456	2565.710373
663.180693	2561.775753
663.521879	2564.747513
663.863013	2562.695763
664.204097	2563.872873
664.545129	2562.473953
664.886110	2561.536298
665.227040	2565.702812
665.567918	2567.023594
665.908746	2566.224571
666.249522	2564.538305
666.590248	2565.791032
666.930922	2567.585683
667.271545	2565.027297
667.612118	2567.638615
667.952639	2567.744479
668.293109	2566.325394
668.633528	2567.167267
668.973896	2567.497462
669.314213	2566.743810
669.654480	2568.089798
669.994695	2566.630384
670.334859	2569.955025
670.674973	2568.649366
671.015035	2568.566187
671.355047	2568.835889
671.695008	2570.171795
672.034918	2569.708008
672.374777	2570.917885
672.714585	2569.259346
673.054342	2572.780592
673.394049	2569.385375
673.733705	2571.285890
674.073310	2572.599110
674.412864	2571.860581
674.752368	2575.742270
675.091820	2572.100036
675.431223	2575.643967
675.770574	2572.478122
676.109875	2576.243864
676.449125	2571.114490
676.788324	2568.115004
677.127473	2570.020560
677.466571	2569.738255
677.805619	2572.707495
678.144616	2573.624985
678.483562	2576.291755
678.822458	2576.059862
679.161303	2575.596076
679.500098	2579.203022
679.838842	2578.681262
680.177535	2578.499781
680.516179	2579.298804
680.854771	2577.289904
681.193314	2579.755028
681.531805	2579.770152
681.870247	2587.926738
682.208638	2586.963878
682.546978	2589.887747
682.885268	2593.696339
683.223508	2589.925556
683.561697	2588.445977
683.899836	2589.481934
684.237925	2588.745926
684.575963	2589.411358
684.913951	2592.912440
685.251889	2590.366657
685.589776	2594.061823
685.927614	2598.104828
686.265401	2594.560897
686.603137	2598.886207
686.940824	2598.404777
687.278460	2602.309150
687.616046	2605.354007
687.953582	2608.953391
688.291068	2606.866353
688.628504	2614.246603
688.965889	2616.709206
689.303224	2616.131994
689.640510	2615.557303
689.977745	2613.878598
690.314930	2611.047991
690.652065	2612.222579
690.989150	2610.798453
691.326185	2607.466251
691.663170	2609.946498
692.000105	2608.587907
692.336990	2606.218565
692.673825	2605.512804
693.010610	2604.005499
693.347345	2601.689088
693.684030	2599.707915
694.020665	2603.912237
694.357251	2601.903337
694.693786	2607.078082
695.030272	2599.909561
695.366707	2603.607247
695.703093	2603.090529
696.039429	2606.397526
696.375716	2607.972887
696.711952	2603.060282
697.048139	2604.991044
697.384276	2609.893566
697.720363	2606.873915
698.056400	2608.567743
698.392388	2611.211828
698.728326	2610.463217
699.064214	2607.564553
699.400053	2613.377004
699.735842	2611.400871
700.071581	2610.967332
700.407270	2611.181581
700.742910	2610.659822
701.078501	2611.375666
701.414042	2610.579163
701.749533	2611.910028
702.084974	2610.153186
702.420366	2611.625203
702.755709	2611.317692
703.091002	2609.477671
703.426246	2611.242075
703.761440	2614.312138
704.096584	2613.591253
704.431679	2611.015223
704.766725	2612.673763
705.101721	2611.103443
705.436668	2614.778444
705.771565	2616.376490
706.106413	2617.659464
706.441212	2619.953189
706.775961	2620.369084
707.110661	2619.539814
707.445311	2625.095166
707.779913	2622.884620
708.114465	2627.998870
708.448967	2628.795373
708.783421	2628.777729
709.117825	2638.897845
709.452180	2640.115284
709.786485	2639.389357
710.120742	2647.697179
710.454949	2649.257416
710.789107	2654.021307
711.123216	2655.664723
711.457275	2670.788184
711.791286	2675.184070
712.125247	2672.461847
712.459159	2682.022396
712.793023	2688.046574
713.126837	2680.464679
713.460602	2684.563137
713.794318	2675.947805
714.127985	2682.292097
714.461602	2679.418640
714.795171	2675.481498
715.128691	2674.206087
715.462162	2662.883655
715.795584	2669.396826
716.128957	2663.725528
716.462281	2653.582726
716.795556	2664.660662
717.128782	2658.059271
717.461960	2646.693989
717.795088	2653.519712
718.128167	2655.889054
718.461198	2652.869403
718.794180	2649.877478
719.127113	2658.160094
719.459997	2654.212870
719.792833	2641.909934
720.125619	2651.714979
720.458357	2647.540903
720.791046	2646.086530
721.123686	2654.691780
721.456278	2646.668784
721.788821	2647.056952
722.121315	2644.601911
722.453761	2650.452170
722.786158	2652.342602
723.118506	2650.966367
723.450805	2652.685401
723.783056	2654.545587
724.115259	2652.466111
724.447412	2658.039106
724.779518	2656.125988
725.111574	2659.163283
725.443582	2661.378871
725.775542	2663.609581
726.107453	2674.843792
726.439315	2670.246260
726.771129	2673.961591
727.102895	2677.298834
727.434612	2683.075997
727.766281	2683.262519
728.097901	2691.797193
728.429473	2687.890299
728.760996	2691.643438
729.092471	2687.552541
729.423897	2690.899867
729.755276	2692.316432
730.086606	2691.156966
730.417887	2688.646472
730.749120	2695.605785
731.080305	2711.641695
731.411442	2719.367263
731.742530	2709.504246
732.073570	2722.331462
732.404562	2730.548542
732.735506	2716.982797
733.066401	2732.917885
733.397249	2733.537947
733.728048	2721.592933
734.058798	2710.126828
734.389501	2709.549616
734.720156	2702.824717
735.050762	2692.792821
735.381320	2687.202181
735.711831	2691.940866
736.042293	2686.539269
736.372707	2687.822243
736.703073	2686.773683
737.033391	2689.684949
737.363661	2689.006914
737.693883	2689.016997
738.024056	2693.284333
738.354182	2698.643080
738.684260	2702.481918
739.014290	2709.605069
739.344272	2714.603373
739.674207	2712.907025
740.004093	2718.283415
740.333931	2723.301884
740.663722	2720.352809
740.993464	2727.493603
741.323159	2738.415263
741.652806	2718.999259
741.982405	2717.111347
742.311956	2731.652555
742.641460	2723.095197
742.970915	2706.842517
743.300323	2713.685883
743.629683	2708.067517
743.958996	2702.008050
744.288260	2699.941177
744.617477	2701.846733
744.946647	2708.521221
745.275768	2695.197451
745.604842	2697.821372
745.933869	2700.238605
746.262847	2695.688964
746.591778	2698.701053
746.920662	2699.250539
747.249498	2699.933615
747.578286	2701.153574
747.907027	2708.768237
748.235720	2715.357025
748.564365	2710.008361
748.892963	2712.662529
749.221514	2731.138357
749.550017	2720.148642
749.878473	2708.070037
750.206881	2720.458673
750.535242	2713.885008
750.863555	2707.911241
751.191821	2715.341902
751.520039	2717.517160
751.848210	2708.042311
752.176334	2710.169678
752.504411	2718.563199
752.832440	2715.883826
753.160421	2707.644060
753.488356	2718.238045
753.816243	2727.105434
754.144082	2715.568754
754.471875	2707.916282
754.799620	2718.066646
755.127318	2720.488920
755.454969	2716.392982
755.782572	2714.235369
756.110129	2720.209136
756.437638	2725.235166
756.765100	2717.396172
757.092515	2720.977912
757.419882	2720.904815
757.747203	2721.353478
758.074477	2734.082391
758.401703	2730.787997
758.728882	2717.204608
759.056014	2721.240052
759.383099	2742.654873
759.710138	2739.567167
760.037129	2733.684140
760.364073	2735.360324
760.690970	2744.008423
761.017820	2754.299939
761.344623	2744.263002
761.671379	2750.546800
761.998088	2761.654982
762.324751	2773.789040
762.651366	2814.982828
762.977935	2890.169117
763.304456	2981.134218
763.630931	3050.114847
763.957359	3028.619367
764.283740	2982.137408
764.610074	2947.149279
764.936362	2888.137532
765.262602	2845.133969
765.588796	2804.472022
765.914943	2776.491098
766.241044	2777.154010
766.567097	2769.766199
766.893104	2749.152921
767.219064	2727.090311
767.544978	2731.534088
767.870845	2730.984602
768.196665	2719.009341
768.522438	2717.842314
768.848165	2714.323589
769.173846	2712.614638
769.499479	2709.826880
769.825066	2704.342104
770.150607	2701.932433
770.476101	2696.016639
770.801548	2704.299254
771.126949	2699.437062
771.452303	2691.260310
771.777611	2692.364323
772.102872	2694.970599
772.428087	2689.052285
772.753256	2689.740402
773.078378	2686.899712
773.403453	2685.583971
773.728482	2687.416430
774.053465	2678.884277
774.378401	2681.102385
774.703291	2683.426357
775.028135	2679.186747
775.352932	2673.853206
775.677683	2673.873370
776.002388	2674.080058
776.327046	2677.868485
776.651658	2669.159892
776.976224	2657.600526
777.300743	2666.755261
777.625216	2671.178874
777.949643	2674.500994
778.274024	2664.078408
778.598359	2659.921977
778.922647	2663.234015
779.246889	2664.148985
779.571086	2662.500527
779.895236	2666.490601
780.219339	2664.244767
780.543397	2659.072543
780.867409	2666.493121
781.191374	2671.166271
781.515294	2665.731907
781.839167	2664.206958
782.162995	2666.750220
782.486776	2666.740138
782.810511	2669.265756
783.134201	2672.285407
783.457844	2668.875066
783.781441	2659.475835
784.104993	2661.527585
784.428498	2666.107473
784.751958	2667.902124
785.075372	2668.491939
785.398739	2658.331493
785.722061	2662.051865
786.045337	2665.515137
786.368568	2675.325223
786.691752	2658.752429
787.014891	2662.732420
787.337983	2675.647857
787.661030	2690.615042
787.984031	2703.951415
788.306987	2718.180072
788.629897	2727.425548
788.952760	2724.025289
789.275579	2717.665874
789.598351	2722.570917
789.921078	2713.096068
790.243759	2688.119671
790.566395	2686.433405
790.888984	2694.622760
791.211529	2678.365038
791.534027	2676.267918
791.856480	2677.636592
792.178888	2667.130827
792.501249	2656.529281
792.823566	2661.358706
793.145836	2667.458502
793.468062	2666.099911
793.790241	2656.902326
794.112375	2661.754437
794.434464	2668.559994
794.756507	2672.887825
795.078505	2669.449758
795.400457	2668.363389
795.722364	2680.447035
796.044226	2689.929445
796.366042	2698.922864
796.687812	2700.389840
797.009538	2703.515355
797.331218	2699.043852
797.652852	2695.668799
797.974442	2698.229705
798.295986	2701.040148
798.617484	2693.990095
798.938938	2682.229083
799.260346	2688.984229
799.581709	2693.879189
799.903026	2684.484999
800.224299	2676.787157
800.545526	2680.676407
800.866708	2676.076355
801.187845	2666.258707
801.508936	2675.486540
801.829983	2679.685821
802.150984	2665.749551
802.471940	2661.920795
802.792851	2667.685354
803.113717	2664.559839
803.434538	2669.855571
803.755314	2661.537667
804.076045	2654.308652
804.396731	2657.257727
804.717372	2664.398522
805.037967	2664.000271
805.358518	2656.793941
805.679024	2663.448264
805.999485	2665.868018
806.319901	2663.753254
806.640272	2667.652587
806.960598	2665.648728
807.280879	2666.404901
807.601115	2666.997237
807.921306	2671.262053
808.241453	2676.572908
808.561554	2674.596776
808.881611	2663.100425
809.201623	2669.593431
809.521590	2674.130469
809.841513	2671.577125
810.161390	2676.212466
810.481223	2681.172961
810.801011	2667.408091
811.120755	2663.107986
811.440453	2674.705161
811.760107	2679.234637
812.079716	2671.909841
812.399281	2665.333656
812.718801	2668.179387
813.038276	2661.817451
813.357707	2668.496980
813.677093	2674.054852
813.996434	2665.905827
814.315731	2665.832730
814.634983	2665.575631
814.954191	2666.964469
815.273354	2672.315654
815.592473	2671.289779
815.911547	2671.650222
816.230577	2677.379493
816.549562	2684.371573
816.868502	2694.564786
817.187399	2696.412369
817.506250	2696.548480
817.825058	2691.199816
818.143821	2705.851930
818.462539	2728.080898
818.781213	2732.854870
819.099843	2734.946949
819.418429	2764.750251
819.736970	2798.657052
820.055466	2819.749239
820.373919	2879.418857
820.692327	2937.044286
821.010691	2984.947851
821.329011	3130.392701
821.647286	3398.745923
821.965517	3742.356010
822.283704	4030.266389
822.601847	4220.280080
822.919945	4183.973690
823.237999	4040.663769
823.556010	3877.801732
823.873976	3745.282400
824.191897	3497.519771
824.509775	3321.235662
824.827609	3181.862882
825.145398	3099.898761
825.463144	3101.756427
825.780845	3111.047273
826.098502	3115.748149
826.416116	3196.454502
826.733685	3324.419151
827.051210	3456.194912
827.368692	3509.255577
827.686129	3407.661204
828.003522	3217.803788
828.320872	3099.422372
828.638177	3013.110257
828.955439	2946.428394
829.272656	2867.980479
829.589830	2824.107317
829.906960	2805.213072
830.224046	2770.106477
830.541088	2754.887233
830.858086	2749.223497
831.175041	2741.112280
831.491952	2734.465519
831.808819	2738.964749
832.125642	2750.236769
832.442421	2772.536313
832.759157	2809.921510
833.075849	2880.853065
833.392497	2984.307624
833.709101	3055.261865
834.025662	3114.387038
834.342179	3104.556787
834.658653	3031.147505
834.975083	2958.532205
835.291469	2878.173692
835.607811	2800.774336
835.924110	2788.700773
836.240366	2755.043509
836.556578	2717.499516
836.872746	2701.511496
837.188871	2696.598892
837.504952	2691.522450
837.820990	2675.216838
838.136984	2661.313336
838.452935	2669.800118
838.768842	2670.818431
839.084706	2675.259688
839.400526	2698.176773
839.716303	2735.740931
840.032037	2796.827113
840.347727	2840.803618
840.663373	2820.840649
840.978977	2771.956580
841.294537	2731.269427
841.610054	2691.666123
841.925527	2675.806653
842.240957	2662.288799
842.556344	2654.482572
842.871687	2647.795482
843.186987	2638.837351
843.502244	2628.528192
843.817458	2620.989146
844.132629	2613.795419
844.447756	2621.949486
844.762840	2616.757097
845.077881	2612.383896
845.392879	2606.372320
845.707833	2608.260232
846.022745	2607.554471
846.337613	2608.056066
846.652438	2607.504059
846.967221	2606.624378
847.281960	2603.955087
847.596656	2600.438882
847.911309	2602.634305
848.225919	2602.178080
848.540485	2600.701022
848.855009	2604.179418
849.169490	2599.513831
849.483928	2599.924685
849.798323	2597.028542
850.112675	2595.639704
850.426984	2599.322267
850.741251	2598.006526
851.055474	2596.756319
851.369654	2595.826227
851.683792	2596.857142
851.997887	2598.361927
852.311938	2597.867894
852.625947	2596.731114
852.939914	2599.027359
853.253837	2602.495673
853.567718	2593.804724
853.881555	2595.238932
854.195350	2598.162801
854.509103	2597.870414
854.822812	2595.939652
855.136479	2596.877307
855.450103	2596.461412
855.763685	2592.274734
856.077224	2586.648806
856.390720	2596.723552
856.704173	2594.860846
857.017584	2601.580704
857.330953	2596.423603
857.644278	2597.071392
857.957561	2601.565580
858.270802	2600.879983
858.584000	2601.063985
858.897155	2599.775971
859.210268	2599.738162
859.523339	2600.428800
859.836367	2603.201435
860.149352	2598.840837
860.462295	2597.673809
860.775195	2602.578852
861.088054	2599.952411
861.400869	2597.683892
861.713642	2594.122317
862.026373	2599.662545
862.339062	2600.648090
862.651708	2602.883842
862.964312	2602.883842
863.276873	2601.689088
863.589392	2601.588265
863.901869	2602.036928
864.214303	2606.354676
864.526696	2610.453134
864.839045	2610.314503
865.151353	2611.700820
865.463619	2610.798453
865.775842	2611.373145
866.088023	2613.336674
866.400162	2615.385903
866.712258	2610.196036
867.024313	2607.269646
867.336325	2611.713423
867.648296	2618.211470
867.960224	2616.804988
868.272110	2612.250306
868.583954	2613.739967
868.895755	2618.508898
869.207515	2615.481685
869.519233	2614.221397
869.830909	2617.079731
870.142542	2622.824126
870.454134	2620.568210
870.765684	2620.316152
871.077191	2620.963940
871.388657	2619.824639
871.700081	2621.243724
872.011463	2622.985443
872.322803	2625.122892
872.634101	2628.911319
872.945357	2631.515075
873.256571	2636.074799
873.567744	2633.481125
873.878874	2630.441309
874.189963	2638.265180
874.501010	2637.733338
874.812015	2636.652011
875.122979	2637.776188
875.433900	2637.229223
875.744780	2640.168216
876.055618	2641.483957
876.366415	2641.057979
876.677169	2646.930924
876.987882	2647.344298
877.298554	2644.548978
877.609183	2651.843528
877.919771	2654.308652
878.230317	2660.461381
878.540822	2676.514935
878.851285	2688.407017
879.161707	2694.869776
879.472087	2710.935933
879.782425	2754.350350
880.092722	2851.949609
880.402977	2935.274841
880.713191	2986.722337
881.023363	3082.753797
881.333494	3205.188301
881.643583	3241.219948
881.953631	3237.181983
882.263637	3220.591546
882.573602	3202.919781
882.883526	3162.913184
883.193408	3076.916141
883.503248	3006.773526
883.813048	2971.556026
884.122806	2927.304777
884.432522	2872.265459
884.742197	2826.940445
885.051831	2787.432922
885.361424	2757.722882
885.670975	2744.520100
885.980485	2720.567058
886.289954	2704.694985
886.599382	2696.704756
886.908768	2687.275278
887.218113	2679.017868
887.527417	2664.587565
887.836680	2650.643733
888.145901	2654.444763
888.455082	2654.525422
888.764221	2641.219296
889.073319	2635.069089
889.382376	2637.236785
889.691392	2639.737197
890.000366	2636.208389
890.309300	2632.354427
890.618193	2634.476753
890.927044	2638.040849
891.235855	2641.650315
891.544625	2634.401136
891.853353	2636.483132
892.162041	2637.226702
892.470687	2647.651809
892.779293	2658.422234
893.087858	2669.069151
893.396381	2682.871830
893.704864	2704.357228
894.013306	2744.447004
894.321707	2800.844912
894.630068	2835.878411
894.938387	2835.081909
895.246665	2836.042248
895.554903	2829.299705
895.863100	2794.399797
896.171256	2762.690939
896.479371	2737.744790
896.787446	2714.374000
897.095480	2688.394414
897.403473	2672.202228
897.711425	2660.244611
898.019336	2659.309477
898.327207	2651.772952
898.635038	2643.621406
898.942827	2639.681744
899.250576	2639.051600
899.558284	2629.304529
899.865952	2623.166924
900.173579	2619.673405
900.481165	2618.702983
900.788711	2618.463528
901.096216	2611.378186
901.403681	2606.742845
901.711105	2611.358022
902.018489	2608.645881
902.325832	2609.391972
902.633135	2610.092692
902.940397	2617.026799
903.247619	2634.938019
903.554800	2671.531754
903.861941	2726.840774
904.169041	2793.593212
904.476101	2849.398786
904.783121	2852.574713
905.090100	2831.537977
905.397039	2789.812347
905.703938	2740.056159
906.010796	2699.943697
906.317614	2677.220697
906.624391	2657.403921
906.931129	2640.747948
907.237826	2624.066770
907.544483	2611.176540
907.851099	2603.450972
908.157675	2596.983171
908.464211	2594.770105
908.770707	2589.847418
909.077163	2589.618046
909.383578	2583.939186
909.689954	2578.038515
909.996289	2579.329051
910.302584	2580.120512
910.608839	2581.244689
910.915054	2580.097827
911.221229	2575.283525
911.527363	2576.193453
911.833458	2578.580439
912.139513	2579.679411
912.445527	2577.642785
912.751502	2584.665112
913.057436	2586.568148
913.363331	2589.728951
913.669186	2592.688108
913.975000	2601.063985
914.280775	2613.687035
914.586510	2629.730507
914.892205	2645.579894
915.197859	2669.202741
915.503475	2701.335056
915.809050	2732.103738
916.114585	2756.964189
916.420081	2766.381064
916.725536	2764.311670
917.030952	2751.237438
917.336328	2728.040568
917.641665	2702.363451
917.946961	2676.809842
918.252218	2669.391785
918.557435	2653.582726
918.862612	2641.756179
919.167750	2631.202524
919.472848	2620.694238
919.777906	2616.235338
920.082925	2608.915583
920.387904	2599.095415
920.692843	2596.786566
920.997743	2594.402101
921.302603	2590.946390
921.607423	2585.580081
921.912204	2583.119998
922.216946	2582.618403
922.521647	2581.153948
922.826310	2577.451221
923.130932	2576.594225
923.435516	2573.347722
923.740059	2571.381672
924.044564	2569.524006
924.349028	2566.282544
924.653454	2565.791032
924.957840	2563.613253
925.262186	2562.607543
925.566493	2561.090156
925.870761	2560.757440
926.174989	2560.165104
926.479178	2556.401883
926.783328	2556.399362
927.087438	2560.061761
927.391509	2556.969013
927.695541	2555.567572
927.999533	2552.903322
928.303486	2556.323745
928.607400	2552.789896
928.911275	2554.060267
929.215110	2555.013045
929.518906	2552.842828
929.822663	2554.337530
930.126381	2552.363919
930.430060	2551.892571
930.733699	2552.721841
931.037299	2555.439022
931.340861	2552.179917
931.644383	2554.173693
931.947866	2555.290308
932.251309	2553.997252
932.554714	2551.123795
932.858080	2548.058773
933.161407	2547.879812
933.464694	2549.727395
933.767943	2550.160934
934.071153	2551.154042
934.374323	2550.168496
934.677455	2552.230328
934.980548	2552.285781
935.283602	2551.574978
935.586617	2552.983981
935.889593	2551.892571
936.192530	2550.039947
936.495428	2551.650595
936.798287	2551.960626
937.101108	2554.093034
937.403890	2555.101265
937.706632	2555.749053
938.009336	2557.125288
938.312002	2559.308108
938.614628	2563.010836
938.917216	2562.884807
939.219765	2561.702656
939.522275	2562.778942
939.824747	2563.928326
940.127179	2562.161401
940.429573	2562.373130
940.731929	2563.172152
941.034246	2559.275341
941.336524	2560.212995
941.638763	2559.330793
941.940964	2556.807696
942.243126	2555.610422
942.545250	2559.121585
942.847335	2559.255176
943.149381	2554.637479
943.451389	2557.636966
943.753359	2554.856769
944.055290	2551.033054
944.357182	2554.829043
944.659036	2555.650751
944.960851	2553.503219
945.262628	2552.167314
945.564367	2552.721841
945.866067	2549.921480
946.167729	2554.085473
946.469352	2552.784855
946.770937	2549.815615
947.072484	2551.769063
947.373992	2552.396686
947.675462	2549.838301
947.976893	2546.047353
948.278286	2545.525593
948.579641	2547.312682
948.880958	2546.332178
949.182236	2550.029864
949.483476	2548.940975
949.784678	2549.704710
950.085841	2549.818136
950.386967	2550.362581
950.688054	2551.529608
950.989103	2550.470965
951.290114	2552.903322
951.591087	2553.329300
951.892021	2551.292673
952.192917	2553.465411
952.493776	2555.484393
952.794596	2556.537994
953.095378	2551.481717
953.396122	2552.290822
953.696828	2552.515153
953.997496	2552.779814
954.298126	2550.559186
954.598718	2548.565409
954.899272	2551.600184
955.199788	2548.273022
955.500266	2548.038609
955.800706	2550.392828
956.101108	2548.338557
956.401472	2546.972405
956.701798	2547.158927
957.002087	2546.382590
957.302337	2546.508618
957.602550	2543.370500
957.902724	2546.927034
958.202861	2543.438556
958.502960	2544.068700
958.803022	2542.503422
959.103045	2544.550130
959.403031	2543.022661
959.702979	2542.589121
960.002889	2543.602393
960.302762	2542.057280
960.602596	2542.876467
960.902393	2543.073072
961.202153	2541.999306
961.501875	2538.921682
961.801559	2543.788916
962.101205	2539.100643
962.400814	2541.263298
962.700385	2540.756662
962.999918	2539.937474
963.299414	2538.964532
963.598873	2536.340611
963.898293	2536.138965
964.197677	2543.325130
964.497022	2540.796991
964.796331	2541.180119
965.095601	2538.974614
965.394835	2539.690458
965.694030	2538.470499
965.993189	2541.348997
966.292309	2544.285470
966.591393	2541.694317
966.890439	2540.940664
967.189447	2539.939995
967.488419	2541.477547
967.787353	2541.303627
968.086249	2541.560726
968.385108	2541.885880
968.683930	2540.116435
968.982714	2544.015768
969.281462	2541.364121
969.580172	2539.400592
969.878844	2539.960160
970.177480	2540.232382
970.476078	2540.733977
970.774639	2542.309337
971.073162	2542.642053
971.371649	2539.319933
971.670098	2540.297917
971.968510	2542.069883
972.266885	2542.508463
972.565223	2544.003165
972.863524	2540.401261
973.161788	2541.711961
973.460014	2540.030736
973.758204	2541.275901
974.056356	2542.011909
974.354471	2544.275387
974.652550	2540.481919
974.950591	2540.676003
975.248595	2539.730787
975.546563	2541.880839
975.844493	2539.428318
976.142386	2542.460572
976.440243	2541.752290
976.738062	2541.480067
977.035845	2543.073072
977.333590	2541.901004
977.631299	2541.487629
977.928971	2537.326157
978.226606	2537.343801
978.524204	2539.387989
978.821765	2537.623585
979.119290	2540.570139
979.416777	2537.202648
979.714228	2538.538554
980.011642	2540.313040
980.309020	2539.554347
980.606360	2542.221117
980.903664	2541.205325
981.200931	2540.179450
981.498162	2539.108205
981.795356	2541.868236
982.092513	2541.081816
982.389633	2542.180788
982.686717	2543.178936
982.983764	2545.588608
983.280775	2546.095244
983.577749	2543.995603
983.874686	2545.538196
984.171587	2545.366797
984.468451	2544.421581
984.765279	2542.606765
985.062070	2545.291180
985.358824	2544.003165
985.655543	2540.822197
985.952224	2542.074924
986.248869	2540.653318
986.545478	2542.329502
986.842050	2540.970911
987.138586	2539.922351
987.435086	2541.154913
987.731549	2542.964687
988.027975	2540.229861
988.324366	2539.766075
988.620719	2540.484440
988.917037	2541.162475
989.213318	2542.637012
989.509563	2537.742052
989.805772	2538.168029
990.101944	2537.328677
990.398080	2538.251208
990.694180	2538.778009
990.990244	2539.478729
991.286271	2539.171219
991.582262	2537.681558
991.878217	2539.667773
992.174136	2541.638864
992.470019	2539.511497
992.765865	2536.811959
993.061676	2536.622916
993.357450	2534.339273
993.653188	2533.396577
993.948890	2540.595345
994.244556	2538.379758
994.540186	2539.456044
994.835780	2537.850437
995.131337	2540.580222
995.426859	2540.252547
995.722345	2539.166178
996.017795	2540.519728
996.313208	2543.110881
996.608586	2540.983514
996.903928	2541.170037
997.199234	2541.638864
997.494504	2542.689944
997.789738	2538.838503
998.084936	2539.912269
998.380099	2539.766075
998.675225	2539.614841
998.970316	2540.686086
999.265371	2541.843031
999.560390	2537.938657
999.855373	2539.829090
1000.150320	2540.350849
1000.445232	2541.714481
1000.740108	2538.354552
1001.034948	2537.661393
1001.329752	2542.145500
1001.624521	2541.666590
1001.919254	2541.260777
1002.213951	2539.894625
1002.508613	2537.943698
1002.803239	2537.701723
1003.097829	2539.972762
1003.392384	2539.430838
1003.686903	2537.384130
1003.981386	2541.006199
1004.275834	2538.480581
1004.570246	2537.961342
1004.864623	2540.665921
1005.158964	2539.203987
1005.453270	2538.026877
1005.747540	2537.636188
1006.041775	2537.351363
1006.335974	2537.883204
1006.630138	2538.069727
1006.924266	2538.367155
1007.218359	2538.379758
1007.512416	2535.007226
1007.806438	2536.181815
1008.100425	2536.431352
1008.394376	2536.058307
1008.688292	2536.096115
1008.982172	2539.801363
1009.276017	2538.498225
1009.569827	2539.272042
1009.863602	2536.708615
1010.157341	2539.849254
1010.451045	2537.258101
1010.744714	2538.566281
1011.038347	2537.608461
1011.331945	2536.781712
1011.625508	2539.508976
1011.919036	2538.709953
1012.212528	2538.362114
1012.505986	2537.119469
1012.799408	2537.895807
1013.092795	2540.015612
1013.386147	2538.137783
1013.679464	2536.685930
1013.972745	2537.482433
1014.265992	2537.694161
1014.559204	2537.779861
1014.852380	2535.849099
1015.145521	2537.333718
1015.438628	2537.638708
1015.731699	2538.074768
1016.024736	2537.953780
1016.317737	2537.991589
1016.610703	2537.863040
1016.903635	2537.855478
1017.196531	2537.346321
1017.489393	2537.926054
1017.782219	2538.289017
1018.075011	2537.424459
1018.367768	2535.879346
1018.660490	2536.988399
1018.953177	2536.988399
1019.245829	2536.988399
