Dividing Wavelength (nm)	Counts (n)	Blue Motor Position (mm): 3.100000	Red Motor Position (mm): 0.000000	
326.493990	2102.161154
326.888308	2102.161154
327.282561	2102.161154
327.676750	2124.846346
328.070874	2021.502692
328.464933	2119.805192
328.858929	2024.023269
329.252859	2081.996538
329.646726	2069.393654
330.040528	2074.434808
330.434265	2026.543846
330.827938	2185.340192
331.221547	2205.504808
331.615091	2127.366923
332.008571	2170.216731
332.401986	2253.395769
332.795338	2271.039808
333.188625	2180.299038
333.581847	2228.190000
333.975006	2349.177692
334.368100	2331.533654
334.761129	2318.930769
335.154095	2334.054231
335.546996	2334.054231
335.939833	2374.383462
336.332606	2313.889615
336.725315	2364.301154
337.117960	2507.974038
337.510540	2417.233269
337.903056	2366.821731
338.295508	2467.644808
338.687896	2457.562500
339.080220	2392.027500
339.472480	2371.862885
339.864676	2386.986346
340.256807	2467.644808
340.648875	2392.027500
341.040879	2475.206538
341.432818	2505.453462
341.824694	2467.644808
342.216506	2432.356731
342.608253	2525.618077
342.999937	2538.220962
343.391557	2477.727115
343.783113	2402.109808
344.174605	2530.659231
344.566033	2422.274423
344.957397	2397.068654
345.348697	2487.809423
345.739934	2424.795000
346.131106	2465.124231
346.522215	2444.959615
346.913260	2427.315577
347.304241	2467.644808
347.695159	2462.603654
348.086012	2482.768269
348.476802	2457.562500
348.867528	2381.945192
349.258191	2528.138654
349.648789	2485.288846
350.039324	2394.548077
350.429796	2432.356731
350.820203	2439.918462
351.210548	2568.467885
351.600828	2467.644808
351.991045	2361.780577
352.381198	2450.000769
352.771288	2450.000769
353.161314	2452.521346
353.551276	2492.850577
353.941175	2409.671538
354.331010	2389.506923
354.720782	2384.465769
355.110490	2525.618077
355.500135	2465.124231
355.889717	2374.383462
356.279235	2450.000769
356.668689	2442.439038
357.058080	2417.233269
357.447408	2457.562500
357.836672	2432.356731
358.225873	2444.959615
358.615010	2369.342308
359.004084	2412.192115
359.393095	2412.192115
359.782043	2485.288846
360.170927	2422.274423
360.559748	2444.959615
360.948505	2429.836154
361.337199	2460.083077
361.725830	2427.315577
362.114398	2394.548077
362.502903	2407.150962
362.891344	2434.877308
363.279722	2460.083077
363.668037	2442.439038
364.056289	2432.356731
364.444478	2507.974038
364.832603	2392.027500
365.220665	2450.000769
365.608665	2424.795000
365.996601	2490.330000
366.384474	2376.904038
366.772284	2535.700385
367.160031	2419.753846
367.547715	2538.220962
367.935336	2399.589231
368.322893	2392.027500
368.710388	2497.891731
369.097820	2460.083077
369.485189	2432.356731
369.872495	2374.383462
370.259738	2475.206538
370.646918	2472.685962
371.034035	2460.083077
371.421090	2434.877308
371.808081	2412.192115
372.195010	2422.274423
372.581875	2460.083077
372.968678	2450.000769
373.355418	2497.891731
373.742096	2455.041923
374.128710	2434.877308
374.515262	2495.371154
374.901751	2480.247692
375.288177	2528.138654
375.674540	2427.315577
376.060841	2507.974038
376.447079	2573.509038
376.833254	2444.959615
377.219367	2427.315577
377.605417	2366.821731
377.991404	2447.480192
378.377329	2485.288846
378.763191	2452.521346
379.148991	2477.727115
379.534727	2442.439038
379.920402	2497.891731
380.306013	2457.562500
380.691563	2465.124231
381.077049	2462.603654
381.462474	2475.206538
381.847835	2452.521346
382.233134	2442.439038
382.618371	2412.192115
383.003545	2515.535769
383.388657	2402.109808
383.773706	2414.712692
384.158693	2475.206538
384.543618	2369.342308
384.928480	2452.521346
385.313280	2414.712692
385.698017	2487.809423
386.082692	2412.192115
386.467305	2434.877308
386.851856	2434.877308
387.236344	2442.439038
387.620770	2417.233269
388.005133	2439.918462
388.389435	2502.932885
388.773674	2457.562500
389.157851	2460.083077
389.541965	2543.262115
389.926018	2475.206538
390.310008	2480.247692
390.693936	2447.480192
391.077802	2550.823846
391.461606	2510.494615
391.845348	2487.809423
392.229027	2570.988462
392.612645	2477.727115
392.996200	2606.276538
393.379694	2480.247692
393.763125	2497.891731
394.146494	2419.753846
394.529801	2487.809423
394.913047	2437.397885
395.296230	2485.288846
395.679351	2447.480192
396.062410	2455.041923
396.445408	2502.932885
396.828343	2467.644808
397.211217	2497.891731
397.594028	2497.891731
397.976778	2437.397885
398.359466	2576.029615
398.742092	2528.138654
399.124656	2432.356731
399.507158	2432.356731
399.889598	2538.220962
400.271977	2497.891731
400.654294	2528.138654
401.036549	2399.589231
401.418742	2515.535769
401.800874	2518.056346
402.182944	2467.644808
402.564952	2523.097500
402.946898	2500.412308
403.328783	2477.727115
403.710606	2392.027500
404.092367	2507.974038
404.474067	2444.959615
404.855705	2490.330000
405.237282	2447.480192
405.618797	2465.124231
406.000250	2422.274423
406.381642	2507.974038
406.762972	2555.865000
407.144240	2467.644808
407.525447	2502.932885
407.906593	2399.589231
408.287677	2507.974038
408.668700	2472.685962
409.049661	2502.932885
409.430560	2470.165385
409.811399	2434.877308
410.192176	2528.138654
410.572891	2500.412308
410.953545	2470.165385
411.334138	2520.576923
411.714669	2467.644808
412.095139	2497.891731
412.475547	2470.165385
412.855894	2455.041923
413.236180	2495.371154
413.616405	2528.138654
413.996568	2558.385577
414.376670	2555.865000
414.756711	2437.397885
415.136691	2518.056346
415.516609	2462.603654
415.896466	2543.262115
416.276262	2502.932885
416.655997	2518.056346
417.035670	2397.068654
417.415283	2525.618077
417.794834	2439.918462
418.174324	2460.083077
418.553753	2523.097500
418.933121	2376.904038
419.312428	2432.356731
419.691674	2460.083077
420.070859	2470.165385
420.449983	2460.083077
420.829045	2487.809423
421.208047	2465.124231
421.586988	2455.041923
421.965867	2500.412308
422.344686	2475.206538
422.723444	2467.644808
423.102141	2487.809423
423.480777	2507.974038
423.859352	2540.741538
424.237866	2502.932885
424.616319	2402.109808
424.994712	2553.344423
425.373044	2462.603654
425.751314	2480.247692
426.129524	2560.906154
426.507673	2540.741538
426.885762	2530.659231
427.263789	2500.412308
427.641756	2515.535769
428.019662	2455.041923
428.397508	2510.494615
428.775292	2384.465769
429.153016	2450.000769
429.530679	2432.356731
429.908282	2492.850577
430.285824	2490.330000
430.663305	2397.068654
431.040726	2545.782692
431.418086	2450.000769
431.795385	2444.959615
432.172624	2510.494615
432.549802	2502.932885
432.926920	2482.768269
433.303977	2515.535769
433.680974	2538.220962
434.057910	2465.124231
434.434786	2505.453462
434.811601	2495.371154
435.188355	2467.644808
435.565050	2467.644808
435.941683	2502.932885
436.318257	2472.685962
436.694770	2487.809423
437.071222	2548.303269
437.447614	2402.109808
437.823946	2525.618077
438.200218	2409.671538
438.576429	2457.562500
438.952580	2462.603654
439.328670	2460.083077
439.704700	2457.562500
440.080670	2495.371154
440.456580	2442.439038
440.832429	2485.288846
441.208218	2560.906154
441.583947	2432.356731
441.959616	2472.685962
442.335224	2500.412308
442.710773	2497.891731
443.086261	2455.041923
443.461689	2535.700385
443.837057	2475.206538
444.212365	2530.659231
444.587612	2513.015192
444.962800	2487.809423
445.337927	2513.015192
445.712995	2457.562500
446.088002	2505.453462
446.462949	2480.247692
446.837837	2452.521346
447.212664	2480.247692
447.587431	2437.397885
447.962139	2528.138654
448.336786	2480.247692
448.711374	2545.782692
449.085901	2475.206538
449.460369	2593.673654
449.834776	2518.056346
450.209124	2480.247692
450.583412	2467.644808
450.957640	2502.932885
451.331808	2460.083077
451.705917	2513.015192
452.079965	2515.535769
452.453954	2482.768269
452.827883	2530.659231
453.201752	2495.371154
453.575562	2505.453462
453.949311	2492.850577
454.323001	2535.700385
454.696632	2475.206538
455.070202	2472.685962
455.443713	2502.932885
455.817164	2510.494615
456.190556	2502.932885
456.563888	2497.891731
456.937160	2414.712692
457.310373	2535.700385
457.683526	2545.782692
458.056619	2434.877308
458.429653	2462.603654
458.802628	2492.850577
459.175542	2543.262115
459.548398	2538.220962
459.921194	2422.274423
460.293930	2480.247692
460.666607	2444.959615
461.039224	2555.865000
461.411782	2497.891731
461.784280	2470.165385
462.156719	2555.865000
462.529099	2588.632500
462.901419	2507.974038
463.273680	2437.397885
463.645882	2490.330000
464.018024	2553.344423
464.390106	2437.397885
464.762130	2502.932885
465.134094	2442.439038
465.505999	2540.741538
465.877845	2455.041923
466.249631	2497.891731
466.621358	2581.070769
466.993026	2399.589231
467.364634	2419.753846
467.736184	2452.521346
468.107674	2518.056346
468.479105	2434.877308
468.850477	2485.288846
469.221790	2409.671538
469.593043	2460.083077
469.964238	2442.439038
470.335373	2467.644808
470.706449	2538.220962
471.077467	2581.070769
471.448425	2495.371154
471.819324	2520.576923
472.190164	2492.850577
472.560945	2487.809423
472.931667	2485.288846
473.302330	2518.056346
473.672934	2480.247692
474.043479	2510.494615
474.413965	2563.426731
474.784393	2477.727115
475.154761	2523.097500
475.525070	2560.906154
475.895321	2535.700385
476.265513	2500.412308
476.635645	2462.603654
477.005719	2439.918462
477.375734	2550.823846
477.745691	2523.097500
478.115588	2540.741538
478.485427	2510.494615
478.855207	2520.576923
479.224928	2535.700385
479.594591	2465.124231
479.964194	2480.247692
480.333739	2465.124231
480.703226	2555.865000
481.072653	2563.426731
481.442022	2513.015192
481.811333	2490.330000
482.180584	2432.356731
482.549777	2523.097500
482.918912	2530.659231
483.287988	2525.618077
483.657005	2485.288846
484.025964	2485.288846
484.394864	2515.535769
484.763706	2495.371154
485.132489	2462.603654
485.501213	2528.138654
485.869879	2497.891731
486.238487	2568.467885
486.607036	2497.891731
486.975527	2505.453462
487.343959	2513.015192
487.712333	2502.932885
488.080648	2558.385577
488.448905	2548.303269
488.817104	2497.891731
489.185244	2515.535769
489.553326	2540.741538
489.921350	2422.274423
490.289315	2528.138654
490.657222	2417.233269
491.025070	2477.727115
491.392861	2450.000769
491.760593	2490.330000
492.128267	2502.932885
492.495883	2467.644808
492.863440	2467.644808
493.230939	2540.741538
493.598380	2485.288846
493.965763	2515.535769
494.333088	2492.850577
494.700354	2457.562500
495.067563	2394.548077
495.434713	2543.262115
495.801805	2472.685962
496.168839	2525.618077
496.535815	2533.179808
496.902733	2472.685962
497.269593	2515.535769
497.636395	2591.153077
498.003139	2553.344423
498.369825	2485.288846
498.736453	2419.753846
499.103023	2543.262115
499.469535	2500.412308
499.835989	2500.412308
500.202385	2432.356731
500.568723	2510.494615
500.935003	2450.000769
501.301226	2545.782692
501.667390	2475.206538
502.033497	2495.371154
502.399546	2576.029615
502.765537	2465.124231
503.131470	2427.315577
503.497345	2487.809423
503.863163	2523.097500
504.228923	2487.809423
504.594625	2477.727115
504.960269	2548.303269
505.325856	2487.809423
505.691385	2515.535769
506.056856	2538.220962
506.422270	2538.220962
506.787625	2518.056346
507.152924	2578.550192
507.518164	2523.097500
507.883347	2538.220962
508.248472	2507.974038
508.613540	2497.891731
508.978550	2437.397885
509.343503	2470.165385
509.708398	2492.850577
510.073236	2492.850577
510.438016	2538.220962
510.802738	2437.397885
511.167403	2455.041923
511.532010	2515.535769
511.896561	2520.576923
512.261053	2487.809423
512.625488	2447.480192
512.989866	2442.439038
513.354186	2417.233269
513.718449	2475.206538
514.082655	2437.397885
514.446803	2518.056346
514.810894	2434.877308
515.174927	2497.891731
515.538904	2502.932885
515.902822	2507.974038
516.266684	2427.315577
516.630488	2523.097500
516.994235	2548.303269
517.357925	2460.083077
517.721558	2553.344423
518.085133	2442.439038
518.448651	2530.659231
518.812112	2351.698269
519.175516	2540.741538
519.538863	2444.959615
519.902152	2581.070769
520.265385	2424.795000
520.628560	2394.548077
520.991678	2485.288846
521.354739	2568.467885
521.717743	2465.124231
522.080690	2543.262115
522.443580	2507.974038
522.806413	2518.056346
523.169189	2528.138654
523.531908	2482.768269
523.894569	2475.206538
524.257174	2548.303269
524.619722	2548.303269
524.982213	2467.644808
525.344647	2429.836154
525.707025	2487.809423
526.069345	2583.591346
526.431608	2477.727115
526.793815	2497.891731
527.155964	2505.453462
527.518057	2523.097500
527.880093	2495.371154
528.242072	2502.932885
528.603995	2518.056346
528.965860	2553.344423
529.327669	2545.782692
529.689421	2507.974038
530.051117	2520.576923
530.412755	2548.303269
530.774337	2495.371154
531.135862	2492.850577
531.497331	2543.262115
531.858743	2555.865000
532.220098	2407.150962
532.581396	2482.768269
532.942638	2505.453462
533.303824	2460.083077
533.664953	2477.727115
534.026025	2563.426731
534.387040	2480.247692
534.747999	2497.891731
535.108902	2490.330000
535.469748	2472.685962
535.830537	2434.877308
536.191270	2500.412308
536.551947	2462.603654
536.912567	2500.412308
537.273131	2490.330000
537.633638	2457.562500
537.994089	2485.288846
538.354483	2455.041923
538.714821	2475.206538
539.075103	2505.453462
539.435328	2553.344423
539.795497	2507.974038
540.155609	2533.179808
540.515665	2497.891731
540.875665	2457.562500
541.235609	2429.836154
541.595496	2533.179808
541.955328	2560.906154
542.315102	2487.809423
542.674821	2518.056346
543.034483	2515.535769
543.394090	2495.371154
543.753640	2485.288846
544.113134	2528.138654
544.472571	2467.644808
544.831953	2412.192115
545.191278	2487.809423
545.550548	2452.521346
545.909761	2523.097500
546.268918	2472.685962
546.628019	2485.288846
546.987064	2487.809423
547.346053	2520.576923
547.704986	2465.124231
548.063863	2530.659231
548.422684	2523.097500
548.781449	2467.644808
549.140158	2434.877308
549.498811	2553.344423
549.857408	2480.247692
550.215949	2419.753846
550.574434	2412.192115
550.932864	2492.850577
551.291237	2525.618077
551.649555	2495.371154
552.007817	2434.877308
552.366022	2505.453462
552.724173	2490.330000
553.082267	2588.632500
553.440305	2502.932885
553.798288	2477.727115
554.156215	2482.768269
554.514086	2500.412308
554.871902	2523.097500
555.229661	2555.865000
555.587365	2507.974038
555.945014	2510.494615
556.302606	2495.371154
556.660143	2576.029615
557.017625	2472.685962
557.375050	2538.220962
557.732421	2480.247692
558.089735	2513.015192
558.446994	2497.891731
558.804197	2475.206538
559.161345	2513.015192
559.518437	2470.165385
559.875474	2500.412308
560.232455	2467.644808
560.589381	2492.850577
560.946251	2515.535769
561.303065	2500.412308
561.659825	2460.083077
562.016528	2482.768269
562.373177	2465.124231
562.729770	2482.768269
563.086307	2450.000769
563.442789	2520.576923
563.799216	2495.371154
564.155587	2386.986346
564.511904	2485.288846
564.868164	2555.865000
565.224370	2545.782692
565.580520	2462.603654
565.936615	2477.727115
566.292654	2507.974038
566.648638	2563.426731
567.004567	2397.068654
567.360441	2480.247692
567.716260	2482.768269
568.072023	2472.685962
568.427732	2465.124231
568.783385	2432.356731
569.138982	2460.083077
569.494525	2444.959615
569.850013	2480.247692
570.205445	2523.097500
570.560823	2475.206538
570.916145	2535.700385
571.271412	2492.850577
571.626625	2530.659231
571.981782	2460.083077
572.336884	2502.932885
572.691931	2548.303269
573.046923	2535.700385
573.401860	2560.906154
573.756743	2555.865000
574.111570	2515.535769
574.466342	2518.056346
574.821059	2588.632500
575.175722	2520.576923
575.530330	2518.056346
575.884882	2492.850577
576.239380	2563.426731
576.593823	2427.315577
576.948211	2525.618077
577.302544	2457.562500
577.656823	2505.453462
578.011047	2465.124231
578.365216	2437.397885
578.719330	2502.932885
579.073389	2528.138654
579.427394	2533.179808
579.781344	2412.192115
580.135239	2528.138654
580.489080	2530.659231
580.842866	2563.426731
581.196597	2586.111923
581.550273	2455.041923
581.903895	2578.550192
582.257463	2540.741538
582.610975	2465.124231
582.964434	2523.097500
583.317837	2447.480192
583.671186	2502.932885
584.024481	2485.288846
584.377721	2538.220962
584.730906	2510.494615
585.084037	2492.850577
585.437113	2455.041923
585.790135	2386.986346
586.143103	2497.891731
586.496016	2470.165385
586.848874	2545.782692
587.201679	2502.932885
587.554428	2518.056346
587.907124	2457.562500
588.259765	2485.288846
588.612352	2538.220962
588.964884	2505.453462
589.317362	2523.097500
589.669786	2533.179808
590.022155	2563.426731
590.374470	2487.809423
590.726731	2523.097500
591.078937	2550.823846
591.431090	2510.494615
591.783188	2439.918462
592.135232	2538.220962
592.487222	2394.548077
592.839157	2409.671538
593.191038	2565.947308
593.542866	2520.576923
593.894639	2482.768269
594.246358	2553.344423
594.598022	2525.618077
594.949633	2543.262115
595.301190	2550.823846
595.652692	2505.453462
596.004141	2500.412308
596.355535	2437.397885
596.706876	2424.795000
597.058162	2550.823846
597.409395	2543.262115
597.760573	2510.494615
598.111698	2442.439038
598.462768	2558.385577
598.813785	2525.618077
599.164748	2450.000769
599.515657	2555.865000
599.866511	2460.083077
600.217312	2603.755962
600.568060	2578.550192
600.918753	2465.124231
601.269392	2492.850577
601.619978	2455.041923
601.970510	2500.412308
602.320988	2462.603654
602.671412	2457.562500
603.021783	2626.441154
603.372100	2467.644808
603.722363	2525.618077
604.072572	2470.165385
604.422728	2467.644808
604.772830	2528.138654
605.122878	2502.932885
605.472872	2502.932885
605.822813	2485.288846
606.172701	2543.262115
606.522534	2583.591346
606.872314	2475.206538
607.222041	2545.782692
607.571714	2472.685962
607.921333	2465.124231
608.270899	2525.618077
608.620411	2432.356731
608.969870	2518.056346
609.319276	2394.548077
609.668627	2432.356731
610.017926	2457.562500
610.367171	2515.535769
610.716362	2533.179808
611.065500	2482.768269
611.414585	2475.206538
611.763616	2472.685962
612.112594	2528.138654
612.461518	2545.782692
612.810389	2475.206538
613.159207	2492.850577
613.507971	2525.618077
613.856682	2507.974038
614.205340	2477.727115
614.553945	2467.644808
614.902496	2520.576923
615.250994	2467.644808
615.599439	2548.303269
615.947830	2477.727115
616.296169	2548.303269
616.644454	2606.276538
616.992686	2497.891731
617.340864	2497.891731
617.688990	2538.220962
618.037063	2487.809423
618.385082	2497.891731
618.733048	2573.509038
619.080961	2497.891731
619.428821	2548.303269
619.776628	2442.439038
620.124382	2477.727115
620.472083	2439.918462
620.819731	2492.850577
621.167326	2518.056346
621.514868	2495.371154
621.862357	2402.109808
622.209793	2535.700385
622.557176	2560.906154
622.904506	2477.727115
623.251783	2507.974038
623.599007	2530.659231
623.946179	2397.068654
624.293297	2465.124231
624.640363	2497.891731
624.987376	2497.891731
625.334336	2495.371154
625.681243	2487.809423
626.028097	2477.727115
626.374899	2502.932885
626.721647	2487.809423
627.068343	2548.303269
627.414987	2518.056346
627.761577	2528.138654
628.108115	2550.823846
628.454600	2588.632500
628.801032	2507.974038
629.147412	2482.768269
629.493739	2457.562500
629.840014	2576.029615
630.186236	2492.850577
630.532405	2543.262115
630.878521	2455.041923
631.224585	2457.562500
631.570597	2487.809423
631.916556	2485.288846
632.262462	2419.753846
632.608316	2528.138654
632.954117	2457.562500
633.299866	2467.644808
633.645562	2467.644808
633.991206	2550.823846
634.336797	2457.562500
634.682336	2457.562500
635.027823	2492.850577
635.373257	2528.138654
635.718639	2450.000769
636.063968	2588.632500
636.409245	2497.891731
636.754470	2505.453462
637.099642	2598.714808
637.444762	2444.959615
637.789829	2477.727115
638.134845	2583.591346
638.479808	2447.480192
638.824719	2502.932885
639.169577	2442.439038
639.514383	2467.644808
639.859137	2510.494615
640.203839	2528.138654
640.548489	2515.535769
640.893086	2520.576923
641.237632	2497.891731
641.582125	2520.576923
641.926566	2457.562500
642.270955	2467.644808
642.615292	2495.371154
642.959576	2528.138654
643.303809	2500.412308
643.647990	2593.673654
643.992118	2437.397885
644.336195	2523.097500
644.680219	2497.891731
645.024192	2525.618077
645.368112	2505.453462
645.711981	2462.603654
646.055797	2505.453462
646.399562	2543.262115
646.743274	2538.220962
647.086935	2538.220962
647.430544	2495.371154
647.774101	2523.097500
648.117606	2515.535769
648.461059	2487.809423
648.804460	2518.056346
649.147810	2492.850577
649.491108	2540.741538
649.834354	2538.220962
650.177548	2513.015192
650.520690	2538.220962
650.863781	2591.153077
651.206820	2490.330000
651.549807	2548.303269
651.892742	2525.618077
652.235626	2553.344423
652.578458	2576.029615
652.921238	2470.165385
653.263967	2462.603654
653.606644	2507.974038
653.949269	2510.494615
654.291843	2482.768269
654.634365	2505.453462
654.976836	2409.671538
655.319255	2442.439038
655.661622	2455.041923
656.003938	2505.453462
656.346203	2472.685962
656.688416	2470.165385
657.030577	2450.000769
657.372687	2497.891731
657.714746	2518.056346
658.056753	2500.412308
658.398708	2429.836154
658.740612	2515.535769
659.082465	2528.138654
659.424266	2502.932885
659.766016	2505.453462
660.107715	2495.371154
660.449362	2492.850577
660.790958	2497.891731
661.132503	2505.453462
661.473996	2558.385577
661.815438	2467.644808
662.156829	2555.865000
662.498168	2528.138654
662.839456	2487.809423
663.180693	2558.385577
663.521879	2513.015192
663.863013	2497.891731
664.204097	2523.097500
664.545129	2502.932885
664.886110	2472.685962
665.227040	2450.000769
665.567918	2467.644808
665.908746	2460.083077
666.249522	2475.206538
666.590248	2419.753846
666.930922	2495.371154
667.271545	2538.220962
667.612118	2444.959615
667.952639	2568.467885
668.293109	2404.630385
668.633528	2518.056346
668.973896	2523.097500
669.314213	2568.467885
669.654480	2538.220962
669.994695	2497.891731
670.334859	2477.727115
670.674973	2444.959615
671.015035	2502.932885
671.355047	2548.303269
671.695008	2472.685962
672.034918	2528.138654
672.374777	2492.850577
672.714585	2535.700385
673.054342	2533.179808
673.394049	2576.029615
673.733705	2452.521346
674.073310	2540.741538
674.412864	2502.932885
674.752368	2505.453462
675.091820	2513.015192
675.431223	2545.782692
675.770574	2576.029615
676.109875	2586.111923
676.449125	2573.509038
676.788324	2475.206538
677.127473	2588.632500
677.466571	2482.768269
677.805619	2457.562500
678.144616	2495.371154
678.483562	2583.591346
678.822458	2467.644808
679.161303	2439.918462
679.500098	2543.262115
679.838842	2482.768269
680.177535	2500.412308
680.516179	2543.262115
680.854771	2450.000769
681.193314	2540.741538
681.531805	2404.630385
681.870247	2530.659231
682.208638	2540.741538
682.546978	2434.877308
682.885268	2470.165385
683.223508	2538.220962
683.561697	2550.823846
683.899836	2490.330000
684.237925	2427.315577
684.575963	2424.795000
684.913951	2598.714808
685.251889	2495.371154
685.589776	2525.618077
685.927614	2457.562500
686.265401	2437.397885
686.603137	2573.509038
686.940824	2497.891731
687.278460	2543.262115
687.616046	2518.056346
687.953582	2477.727115
688.291068	2505.453462
688.628504	2598.714808
688.965889	2389.506923
689.303224	2538.220962
689.640510	2487.809423
689.977745	2598.714808
690.314930	2407.150962
690.652065	2460.083077
690.989150	2492.850577
691.326185	2447.480192
691.663170	2507.974038
692.000105	2513.015192
692.336990	2359.260000
692.673825	2475.206538
693.010610	2457.562500
693.347345	2447.480192
693.684030	2465.124231
694.020665	2450.000769
694.357251	2528.138654
694.693786	2502.932885
695.030272	2502.932885
695.366707	2487.809423
695.703093	2510.494615
696.039429	2558.385577
696.375716	2500.412308
696.711952	2515.535769
697.048139	2568.467885
697.384276	2439.918462
697.720363	2427.315577
698.056400	2419.753846
698.392388	2563.426731
698.728326	2457.562500
699.064214	2510.494615
699.400053	2538.220962
699.735842	2550.823846
700.071581	2565.947308
700.407270	2502.932885
700.742910	2439.918462
701.078501	2447.480192
701.414042	2500.412308
701.749533	2477.727115
702.084974	2520.576923
702.420366	2485.288846
702.755709	2497.891731
703.091002	2525.618077
703.426246	2452.521346
703.761440	2470.165385
704.096584	2422.274423
704.431679	2548.303269
704.766725	2457.562500
705.101721	2505.453462
705.436668	2500.412308
705.771565	2505.453462
706.106413	2568.467885
706.441212	2518.056346
706.775961	2543.262115
707.110661	2540.741538
707.445311	2513.015192
707.779913	2583.591346
708.114465	2447.480192
708.448967	2525.618077
708.783421	2444.959615
709.117825	2530.659231
709.452180	2530.659231
709.786485	2573.509038
710.120742	2578.550192
710.454949	2573.509038
710.789107	2450.000769
711.123216	2480.247692
711.457275	2500.412308
711.791286	2513.015192
712.125247	2510.494615
712.459159	2460.083077
712.793023	2450.000769
713.126837	2465.124231
713.460602	2434.877308
713.794318	2510.494615
714.127985	2429.836154
714.461602	2500.412308
714.795171	2432.356731
715.128691	2518.056346
715.462162	2450.000769
715.795584	2470.165385
716.128957	2530.659231
716.462281	2520.576923
716.795556	2573.509038
717.128782	2530.659231
717.461960	2510.494615
717.795088	2495.371154
718.128167	2485.288846
718.461198	2429.836154
718.794180	2485.288846
719.127113	2495.371154
719.459997	2598.714808
719.792833	2548.303269
720.125619	2505.453462
720.458357	2523.097500
720.791046	2442.439038
721.123686	2477.727115
721.456278	2502.932885
721.788821	2553.344423
722.121315	2455.041923
722.453761	2520.576923
722.786158	2457.562500
723.118506	2404.630385
723.450805	2520.576923
723.783056	2487.809423
724.115259	2505.453462
724.447412	2588.632500
724.779518	2457.562500
725.111574	2490.330000
725.443582	2492.850577
725.775542	2487.809423
726.107453	2497.891731
726.439315	2528.138654
726.771129	2450.000769
727.102895	2465.124231
727.434612	2507.974038
727.766281	2492.850577
728.097901	2513.015192
728.429473	2596.194231
728.760996	2487.809423
729.092471	2477.727115
729.423897	2424.795000
729.755276	2475.206538
730.086606	2381.945192
730.417887	2608.797115
730.749120	2518.056346
731.080305	2558.385577
731.411442	2497.891731
731.742530	2530.659231
732.073570	2497.891731
732.404562	2381.945192
732.735506	2502.932885
733.066401	2467.644808
733.397249	2560.906154
733.728048	2482.768269
734.058798	2490.330000
734.389501	2465.124231
734.720156	2497.891731
735.050762	2495.371154
735.381320	2520.576923
735.711831	2455.041923
736.042293	2533.179808
736.372707	2543.262115
736.703073	2477.727115
737.033391	2565.947308
737.363661	2502.932885
737.693883	2434.877308
738.024056	2505.453462
738.354182	2412.192115
738.684260	2528.138654
739.014290	2450.000769
739.344272	2417.233269
739.674207	2472.685962
740.004093	2515.535769
740.333931	2568.467885
740.663722	2384.465769
740.993464	2457.562500
741.323159	2480.247692
741.652806	2482.768269
741.982405	2462.603654
742.311956	2513.015192
742.641460	2513.015192
742.970915	2505.453462
743.300323	2460.083077
743.629683	2475.206538
743.958996	2495.371154
744.288260	2500.412308
744.617477	2467.644808
744.946647	2444.959615
745.275768	2467.644808
745.604842	2568.467885
745.933869	2404.630385
746.262847	2543.262115
746.591778	2502.932885
746.920662	2422.274423
747.249498	2523.097500
747.578286	2477.727115
747.907027	2510.494615
748.235720	2505.453462
748.564365	2470.165385
748.892963	2540.741538
749.221514	2492.850577
749.550017	2505.453462
749.878473	2457.562500
750.206881	2450.000769
750.535242	2485.288846
750.863555	2460.083077
751.191821	2497.891731
751.520039	2558.385577
751.848210	2505.453462
752.176334	2457.562500
752.504411	2530.659231
752.832440	2437.397885
753.160421	2518.056346
753.488356	2472.685962
753.816243	2442.439038
754.144082	2530.659231
754.471875	2538.220962
754.799620	2472.685962
755.127318	2545.782692
755.454969	2530.659231
755.782572	2520.576923
756.110129	2417.233269
756.437638	2460.083077
756.765100	2543.262115
757.092515	2500.412308
757.419882	2455.041923
757.747203	2528.138654
758.074477	2409.671538
758.401703	2480.247692
758.728882	2455.041923
759.056014	2593.673654
759.383099	2467.644808
759.710138	2510.494615
760.037129	2495.371154
760.364073	2518.056346
760.690970	2455.041923
761.017820	2553.344423
761.344623	2389.506923
761.671379	2442.439038
761.998088	2427.315577
762.324751	2452.521346
762.651366	2470.165385
762.977935	2555.865000
763.304456	2414.712692
763.630931	2548.303269
763.957359	2555.865000
764.283740	2510.494615
764.610074	2492.850577
764.936362	2472.685962
765.262602	2447.480192
765.588796	2442.439038
765.914943	2535.700385
766.241044	2475.206538
766.567097	2540.741538
766.893104	2502.932885
767.219064	2540.741538
767.544978	2467.644808
767.870845	2523.097500
768.196665	2520.576923
768.522438	2500.412308
768.848165	2591.153077
769.173846	2553.344423
769.499479	2485.288846
769.825066	2515.535769
770.150607	2535.700385
770.476101	2520.576923
770.801548	2540.741538
771.126949	2437.397885
771.452303	2482.768269
771.777611	2593.673654
772.102872	2540.741538
772.428087	2490.330000
772.753256	2457.562500
773.078378	2480.247692
773.403453	2535.700385
773.728482	2505.453462
774.053465	2450.000769
774.378401	2462.603654
774.703291	2550.823846
775.028135	2518.056346
775.352932	2507.974038
775.677683	2581.070769
776.002388	2505.453462
776.327046	2555.865000
776.651658	2402.109808
776.976224	2482.768269
777.300743	2500.412308
777.625216	2523.097500
777.949643	2462.603654
778.274024	2414.712692
778.598359	2565.947308
778.922647	2505.453462
779.246889	2450.000769
779.571086	2465.124231
779.895236	2573.509038
780.219339	2467.644808
780.543397	2513.015192
780.867409	2535.700385
781.191374	2417.233269
781.515294	2460.083077
781.839167	2442.439038
782.162995	2500.412308
782.486776	2472.685962
782.810511	2518.056346
783.134201	2434.877308
783.457844	2424.795000
783.781441	2465.124231
784.104993	2591.153077
784.428498	2442.439038
784.751958	2467.644808
785.075372	2538.220962
785.398739	2492.850577
785.722061	2550.823846
786.045337	2510.494615
786.368568	2482.768269
786.691752	2507.974038
787.014891	2510.494615
787.337983	2581.070769
787.661030	2570.988462
787.984031	2611.317692
788.306987	2507.974038
788.629897	2465.124231
788.952760	2530.659231
789.275579	2520.576923
789.598351	2616.358846
789.921078	2442.439038
790.243759	2533.179808
790.566395	2560.906154
790.888984	2475.206538
791.211529	2523.097500
791.534027	2530.659231
791.856480	2515.535769
792.178888	2591.153077
792.501249	2457.562500
792.823566	2530.659231
793.145836	2409.671538
793.468062	2538.220962
793.790241	2460.083077
794.112375	2538.220962
794.434464	2545.782692
794.756507	2530.659231
795.078505	2507.974038
795.400457	2500.412308
795.722364	2482.768269
796.044226	2528.138654
796.366042	2500.412308
796.687812	2487.809423
797.009538	2596.194231
797.331218	2414.712692
797.652852	2553.344423
797.974442	2530.659231
798.295986	2487.809423
798.617484	2528.138654
798.938938	2538.220962
799.260346	2475.206538
799.581709	2530.659231
799.903026	2513.015192
800.224299	2558.385577
800.545526	2447.480192
800.866708	2568.467885
801.187845	2450.000769
801.508936	2525.618077
801.829983	2487.809423
802.150984	2507.974038
802.471940	2543.262115
802.792851	2545.782692
803.113717	2487.809423
803.434538	2548.303269
803.755314	2533.179808
804.076045	2495.371154
804.396731	2452.521346
804.717372	2513.015192
805.037967	2543.262115
805.358518	2465.124231
805.679024	2593.673654
805.999485	2520.576923
806.319901	2455.041923
806.640272	2439.918462
806.960598	2523.097500
807.280879	2485.288846
807.601115	2560.906154
807.921306	2543.262115
808.241453	2500.412308
808.561554	2515.535769
808.881611	2518.056346
809.201623	2490.330000
809.521590	2510.494615
809.841513	2384.465769
810.161390	2467.644808
810.481223	2492.850577
810.801011	2439.918462
811.120755	2545.782692
811.440453	2482.768269
811.760107	2447.480192
812.079716	2450.000769
812.399281	2550.823846
812.718801	2487.809423
813.038276	2455.041923
813.357707	2588.632500
813.677093	2455.041923
813.996434	2616.358846
814.315731	2518.056346
814.634983	2507.974038
814.954191	2507.974038
815.273354	2563.426731
815.592473	2553.344423
815.911547	2432.356731
816.230577	2528.138654
816.549562	2412.192115
816.868502	2515.535769
817.187399	2540.741538
817.506250	2475.206538
817.825058	2523.097500
818.143821	2455.041923
818.462539	2477.727115
818.781213	2399.589231
819.099843	2482.768269
819.418429	2505.453462
819.736970	2447.480192
820.055466	2422.274423
820.373919	2510.494615
820.692327	2505.453462
821.010691	2487.809423
821.329011	2417.233269
821.647286	2495.371154
821.965517	2455.041923
822.283704	2563.426731
822.601847	2583.591346
822.919945	2482.768269
823.237999	2432.356731
823.556010	2538.220962
823.873976	2490.330000
824.191897	2460.083077
824.509775	2530.659231
824.827609	2540.741538
825.145398	2472.685962
825.463144	2515.535769
825.780845	2455.041923
826.098502	2540.741538
826.416116	2586.111923
826.733685	2409.671538
827.051210	2528.138654
827.368692	2442.439038
827.686129	2515.535769
828.003522	2432.356731
828.320872	2439.918462
828.638177	2437.397885
828.955439	2545.782692
829.272656	2462.603654
829.589830	2480.247692
829.906960	2530.659231
830.224046	2497.891731
830.541088	2492.850577
830.858086	2495.371154
831.175041	2525.618077
831.491952	2460.083077
831.808819	2467.644808
832.125642	2596.194231
832.442421	2553.344423
832.759157	2422.274423
833.075849	2505.453462
833.392497	2518.056346
833.709101	2492.850577
834.025662	2399.589231
834.342179	2429.836154
834.658653	2543.262115
834.975083	2462.603654
835.291469	2495.371154
835.607811	2434.877308
835.924110	2530.659231
836.240366	2465.124231
836.556578	2470.165385
836.872746	2523.097500
837.188871	2513.015192
837.504952	2414.712692
837.820990	2482.768269
838.136984	2455.041923
838.452935	2555.865000
838.768842	2455.041923
839.084706	2477.727115
839.400526	2394.548077
839.716303	2492.850577
840.032037	2427.315577
840.347727	2583.591346
840.663373	2487.809423
840.978977	2472.685962
841.294537	2470.165385
841.610054	2558.385577
841.925527	2465.124231
842.240957	2513.015192
842.556344	2581.070769
842.871687	2525.618077
843.186987	2467.644808
843.502244	2523.097500
843.817458	2444.959615
844.132629	2520.576923
844.447756	2502.932885
844.762840	2447.480192
845.077881	2591.153077
845.392879	2538.220962
845.707833	2460.083077
846.022745	2525.618077
846.337613	2487.809423
846.652438	2450.000769
846.967221	2477.727115
847.281960	2500.412308
847.596656	2442.439038
847.911309	2492.850577
848.225919	2515.535769
848.540485	2538.220962
848.855009	2450.000769
849.169490	2576.029615
849.483928	2470.165385
849.798323	2477.727115
850.112675	2462.603654
850.426984	2505.453462
850.741251	2467.644808
851.055474	2540.741538
851.369654	2457.562500
851.683792	2525.618077
851.997887	2477.727115
852.311938	2482.768269
852.625947	2581.070769
852.939914	2412.192115
853.253837	2497.891731
853.567718	2457.562500
853.881555	2525.618077
854.195350	2510.494615
854.509103	2505.453462
854.822812	2442.439038
855.136479	2492.850577
855.450103	2563.426731
855.763685	2545.782692
856.077224	2457.562500
856.390720	2581.070769
856.704173	2480.247692
857.017584	2490.330000
857.330953	2442.439038
857.644278	2518.056346
857.957561	2465.124231
858.270802	2455.041923
858.584000	2475.206538
858.897155	2550.823846
859.210268	2492.850577
859.523339	2654.167500
859.836367	2563.426731
860.149352	2492.850577
860.462295	2591.153077
860.775195	2500.412308
861.088054	2490.330000
861.400869	2505.453462
861.713642	2560.906154
862.026373	2465.124231
862.339062	2500.412308
862.651708	2419.753846
862.964312	2533.179808
863.276873	2525.618077
863.589392	2523.097500
863.901869	2470.165385
864.214303	2495.371154
864.526696	2530.659231
864.839045	2502.932885
865.151353	2450.000769
865.463619	2535.700385
865.775842	2573.509038
866.088023	2530.659231
866.400162	2460.083077
866.712258	2444.959615
867.024313	2507.974038
867.336325	2515.535769
867.648296	2475.206538
867.960224	2586.111923
868.272110	2533.179808
868.583954	2477.727115
868.895755	2533.179808
869.207515	2442.439038
869.519233	2528.138654
869.830909	2439.918462
870.142542	2533.179808
870.454134	2455.041923
870.765684	2475.206538
871.077191	2497.891731
871.388657	2505.453462
871.700081	2565.947308
872.011463	2472.685962
872.322803	2482.768269
872.634101	2467.644808
872.945357	2497.891731
873.256571	2492.850577
873.567744	2379.424615
873.878874	2510.494615
874.189963	2452.521346
874.501010	2487.809423
874.812015	2455.041923
875.122979	2480.247692
875.433900	2475.206538
875.744780	2510.494615
876.055618	2467.644808
876.366415	2497.891731
876.677169	2424.795000
876.987882	2528.138654
877.298554	2465.124231
877.609183	2523.097500
877.919771	2442.439038
878.230317	2548.303269
878.540822	2467.644808
878.851285	2543.262115
879.161707	2429.836154
879.472087	2565.947308
879.782425	2452.521346
880.092722	2518.056346
880.402977	2520.576923
880.713191	2540.741538
881.023363	2457.562500
881.333494	2500.412308
881.643583	2502.932885
881.953631	2485.288846
882.263637	2555.865000
882.573602	2472.685962
882.883526	2510.494615
883.193408	2555.865000
883.503248	2422.274423
883.813048	2538.220962
884.122806	2404.630385
884.432522	2480.247692
884.742197	2563.426731
885.051831	2465.124231
885.361424	2533.179808
885.670975	2497.891731
885.980485	2540.741538
886.289954	2555.865000
886.599382	2437.397885
886.908768	2450.000769
887.218113	2502.932885
887.527417	2485.288846
887.836680	2417.233269
888.145901	2588.632500
888.455082	2475.206538
888.764221	2535.700385
889.073319	2462.603654
889.382376	2366.821731
889.691392	2482.768269
890.000366	2487.809423
890.309300	2437.397885
890.618193	2470.165385
890.927044	2457.562500
891.235855	2485.288846
891.544625	2462.603654
891.853353	2467.644808
892.162041	2475.206538
892.470687	2533.179808
892.779293	2513.015192
893.087858	2460.083077
893.396381	2518.056346
893.704864	2467.644808
894.013306	2560.906154
894.321707	2475.206538
894.630068	2470.165385
894.938387	2513.015192
895.246665	2477.727115
895.554903	2515.535769
895.863100	2392.027500
896.171256	2455.041923
896.479371	2560.906154
896.787446	2432.356731
897.095480	2518.056346
897.403473	2505.453462
897.711425	2487.809423
898.019336	2465.124231
898.327207	2525.618077
898.635038	2447.480192
898.942827	2477.727115
899.250576	2457.562500
899.558284	2492.850577
899.865952	2523.097500
900.173579	2472.685962
900.481165	2442.439038
900.788711	2558.385577
901.096216	2505.453462
901.403681	2550.823846
901.711105	2606.276538
902.018489	2515.535769
902.325832	2553.344423
902.633135	2467.644808
902.940397	2485.288846
903.247619	2422.274423
903.554800	2487.809423
903.861941	2404.630385
904.169041	2502.932885
904.476101	2502.932885
904.783121	2404.630385
905.090100	2608.797115
905.397039	2548.303269
905.703938	2515.535769
906.010796	2535.700385
906.317614	2543.262115
906.624391	2543.262115
906.931129	2492.850577
907.237826	2477.727115
907.544483	2462.603654
907.851099	2540.741538
908.157675	2485.288846
908.464211	2475.206538
908.770707	2497.891731
909.077163	2414.712692
909.383578	2545.782692
909.689954	2528.138654
909.996289	2386.986346
910.302584	2518.056346
910.608839	2507.974038
910.915054	2457.562500
911.221229	2462.603654
911.527363	2447.480192
911.833458	2492.850577
912.139513	2472.685962
912.445527	2548.303269
912.751502	2485.288846
913.057436	2523.097500
913.363331	2439.918462
913.669186	2601.235385
913.975000	2593.673654
914.280775	2507.974038
914.586510	2495.371154
914.892205	2444.959615
915.197859	2470.165385
915.503475	2530.659231
915.809050	2457.562500
916.114585	2518.056346
916.420081	2467.644808
916.725536	2465.124231
917.030952	2485.288846
917.336328	2528.138654
917.641665	2518.056346
917.946961	2513.015192
918.252218	2397.068654
918.557435	2563.426731
918.862612	2507.974038
919.167750	2528.138654
919.472848	2480.247692
919.777906	2477.727115
920.082925	2470.165385
920.387904	2492.850577
920.692843	2467.644808
920.997743	2520.576923
921.302603	2452.521346
921.607423	2470.165385
921.912204	2550.823846
922.216946	2553.344423
922.521647	2455.041923
922.826310	2540.741538
923.130932	2530.659231
923.435516	2465.124231
923.740059	2565.947308
924.044564	2528.138654
924.349028	2525.618077
924.653454	2591.153077
924.957840	2437.397885
925.262186	2573.509038
925.566493	2452.521346
925.870761	2467.644808
926.174989	2555.865000
926.479178	2467.644808
926.783328	2530.659231
927.087438	2505.453462
927.391509	2487.809423
927.695541	2518.056346
927.999533	2487.809423
928.303486	2470.165385
928.607400	2578.550192
928.911275	2487.809423
929.215110	2502.932885
929.518906	2538.220962
929.822663	2515.535769
930.126381	2538.220962
930.430060	2523.097500
930.733699	2480.247692
931.037299	2518.056346
931.340861	2502.932885
931.644383	2457.562500
931.947866	2540.741538
932.251309	2495.371154
932.554714	2417.233269
932.858080	2470.165385
933.161407	2482.768269
933.464694	2470.165385
933.767943	2528.138654
934.071153	2538.220962
934.374323	2520.576923
934.677455	2455.041923
934.980548	2439.918462
935.283602	2507.974038
935.586617	2497.891731
935.889593	2495.371154
936.192530	2507.974038
936.495428	2525.618077
936.798287	2553.344423
937.101108	2432.356731
937.403890	2502.932885
937.706632	2477.727115
938.009336	2467.644808
938.312002	2429.836154
938.614628	2429.836154
938.917216	2460.083077
939.219765	2477.727115
939.522275	2528.138654
939.824747	2470.165385
940.127179	2460.083077
940.429573	2429.836154
940.731929	2472.685962
941.034246	2528.138654
941.336524	2535.700385
941.638763	2460.083077
941.940964	2510.494615
942.243126	2515.535769
942.545250	2432.356731
942.847335	2447.480192
943.149381	2535.700385
943.451389	2510.494615
943.753359	2513.015192
944.055290	2570.988462
944.357182	2502.932885
944.659036	2513.015192
944.960851	2525.618077
945.262628	2460.083077
945.564367	2540.741538
945.866067	2439.918462
946.167729	2550.823846
946.469352	2497.891731
946.770937	2530.659231
947.072484	2530.659231
947.373992	2565.947308
947.675462	2450.000769
947.976893	2452.521346
948.278286	2535.700385
948.579641	2470.165385
948.880958	2447.480192
949.182236	2485.288846
949.483476	2540.741538
949.784678	2487.809423
950.085841	2535.700385
950.386967	2452.521346
950.688054	2523.097500
950.989103	2505.453462
951.290114	2528.138654
951.591087	2442.439038
951.892021	2525.618077
952.192917	2525.618077
952.493776	2513.015192
952.794596	2548.303269
953.095378	2570.988462
953.396122	2427.315577
953.696828	2376.904038
953.997496	2485.288846
954.298126	2507.974038
954.598718	2475.206538
954.899272	2437.397885
955.199788	2497.891731
955.500266	2462.603654
955.800706	2447.480192
956.101108	2497.891731
956.401472	2528.138654
956.701798	2568.467885
957.002087	2535.700385
957.302337	2482.768269
957.602550	2477.727115
957.902724	2502.932885
958.202861	2487.809423
958.502960	2518.056346
958.803022	2495.371154
959.103045	2467.644808
959.403031	2475.206538
959.702979	2502.932885
960.002889	2482.768269
960.302762	2507.974038
960.602596	2502.932885
960.902393	2538.220962
961.202153	2434.877308
961.501875	2525.618077
961.801559	2558.385577
962.101205	2470.165385
962.400814	2477.727115
962.700385	2538.220962
962.999918	2482.768269
963.299414	2588.632500
963.598873	2535.700385
963.898293	2513.015192
964.197677	2538.220962
964.497022	2500.412308
964.796331	2442.439038
965.095601	2518.056346
965.394835	2450.000769
965.694030	2487.809423
965.993189	2505.453462
966.292309	2409.671538
966.591393	2492.850577
966.890439	2505.453462
967.189447	2437.397885
967.488419	2523.097500
967.787353	2434.877308
968.086249	2419.753846
968.385108	2437.397885
968.683930	2543.262115
968.982714	2565.947308
969.281462	2437.397885
969.580172	2505.453462
969.878844	2518.056346
970.177480	2515.535769
970.476078	2528.138654
970.774639	2568.467885
971.073162	2482.768269
971.371649	2457.562500
971.670098	2558.385577
971.968510	2457.562500
972.266885	2482.768269
972.565223	2465.124231
972.863524	2608.797115
973.161788	2472.685962
973.460014	2437.397885
973.758204	2480.247692
974.056356	2507.974038
974.354471	2497.891731
974.652550	2560.906154
974.950591	2472.685962
975.248595	2490.330000
975.546563	2452.521346
975.844493	2467.644808
976.142386	2399.589231
976.440243	2455.041923
976.738062	2586.111923
977.035845	2475.206538
977.333590	2497.891731
977.631299	2510.494615
977.928971	2558.385577
978.226606	2538.220962
978.524204	2462.603654
978.821765	2543.262115
979.119290	2455.041923
979.416777	2528.138654
979.714228	2538.220962
980.011642	2485.288846
980.309020	2450.000769
980.606360	2452.521346
980.903664	2528.138654
981.200931	2487.809423
981.498162	2502.932885
981.795356	2460.083077
982.092513	2545.782692
982.389633	2502.932885
982.686717	2497.891731
982.983764	2480.247692
983.280775	2434.877308
983.577749	2381.945192
983.874686	2565.947308
984.171587	2422.274423
984.468451	2565.947308
984.765279	2467.644808
985.062070	2384.465769
985.358824	2482.768269
985.655543	2465.124231
985.952224	2543.262115
986.248869	2492.850577
986.545478	2528.138654
986.842050	2530.659231
987.138586	2472.685962
987.435086	2485.288846
987.731549	2510.494615
988.027975	2447.480192
988.324366	2581.070769
988.620719	2444.959615
988.917037	2507.974038
989.213318	2450.000769
989.509563	2583.591346
989.805772	2419.753846
990.101944	2513.015192
990.398080	2523.097500
990.694180	2429.836154
990.990244	2480.247692
991.286271	2586.111923
991.582262	2450.000769
991.878217	2419.753846
992.174136	2394.548077
992.470019	2570.988462
992.765865	2507.974038
993.061676	2434.877308
993.357450	2515.535769
993.653188	2467.644808
993.948890	2515.535769
994.244556	2507.974038
994.540186	2472.685962
994.835780	2452.521346
995.131337	2553.344423
995.426859	2407.150962
995.722345	2497.891731
996.017795	2520.576923
996.313208	2450.000769
996.608586	2565.947308
996.903928	2507.974038
997.199234	2447.480192
997.494504	2505.453462
997.789738	2490.330000
998.084936	2518.056346
998.380099	2457.562500
998.675225	2437.397885
998.970316	2507.974038
999.265371	2460.083077
999.560390	2386.986346
999.855373	2523.097500
1000.150320	2507.974038
1000.445232	2578.550192
1000.740108	2525.618077
1001.034948	2513.015192
1001.329752	2560.906154
1001.624521	2502.932885
1001.919254	2422.274423
1002.213951	2543.262115
1002.508613	2394.548077
1002.803239	2530.659231
1003.097829	2505.453462
1003.392384	2510.494615
1003.686903	2510.494615
1003.981386	2497.891731
1004.275834	2450.000769
1004.570246	2548.303269
1004.864623	2505.453462
1005.158964	2550.823846
1005.453270	2548.303269
1005.747540	2429.836154
1006.041775	2437.397885
1006.335974	2502.932885
1006.630138	2520.576923
1006.924266	2477.727115
1007.218359	2480.247692
1007.512416	2472.685962
1007.806438	2510.494615
1008.100425	2550.823846
1008.394376	2477.727115
1008.688292	2434.877308
1008.982172	2439.918462
1009.276017	2525.618077
1009.569827	2470.165385
1009.863602	2442.439038
1010.157341	2467.644808
1010.451045	2424.795000
1010.744714	2497.891731
1011.038347	2450.000769
1011.331945	2505.453462
1011.625508	2417.233269
1011.919036	2507.974038
1012.212528	2472.685962
1012.505986	2500.412308
1012.799408	2553.344423
1013.092795	2447.480192
1013.386147	2467.644808
1013.679464	2545.782692
1013.972745	2414.712692
1014.265992	2399.589231
1014.559204	2588.632500
1014.852380	2462.603654
1015.145521	2593.673654
1015.438628	2457.562500
1015.731699	2505.453462
1016.024736	2482.768269
1016.317737	2444.959615
1016.610703	2545.782692
1016.903635	2513.015192
1017.196531	2472.685962
1017.489393	2540.741538
1017.782219	2558.385577
1018.075011	2447.480192
1018.367768	2550.823846
1018.660490	2419.753846
1018.953177	2419.753846
1019.245829	2419.753846
