Dividing Wavelength (nm)	Counts (n)	Blue Motor Position (mm): 1.100000	Red Motor Position (mm): 0.000000	
326.493990	2076.955385
326.888308	2076.955385
327.282561	2076.955385
327.676750	2102.161154
328.070874	2117.284615
328.464933	2021.502692
328.858929	2059.311346
329.252859	2089.558269
329.646726	2054.270192
330.040528	2117.284615
330.434265	2114.764038
330.827938	2122.325769
331.221547	2132.408077
331.615091	2139.969808
332.008571	2127.366923
332.401986	2175.257885
332.795338	2190.381346
333.188625	2255.916346
333.581847	2323.971923
333.975006	2243.313462
334.368100	2276.080962
334.761129	2318.930769
335.154095	2326.492500
335.546996	2422.274423
335.939833	2321.451346
336.332606	2371.862885
336.725315	2490.330000
337.117960	2346.657115
337.510540	2379.424615
337.903056	2334.054231
338.295508	2414.712692
338.687896	2384.465769
339.080220	2412.192115
339.472480	2424.795000
339.864676	2422.274423
340.256807	2472.685962
340.648875	2462.603654
341.040879	2475.206538
341.432818	2427.315577
341.824694	2439.918462
342.216506	2485.288846
342.608253	2439.918462
342.999937	2507.974038
343.391557	2492.850577
343.783113	2555.865000
344.174605	2553.344423
344.566033	2444.959615
344.957397	2442.439038
345.348697	2424.795000
345.739934	2482.768269
346.131106	2414.712692
346.522215	2402.109808
346.913260	2525.618077
347.304241	2432.356731
347.695159	2470.165385
348.086012	2457.562500
348.476802	2540.741538
348.867528	2386.986346
349.258191	2470.165385
349.648789	2500.412308
350.039324	2513.015192
350.429796	2334.054231
350.820203	2528.138654
351.210548	2369.342308
351.600828	2510.494615
351.991045	2439.918462
352.381198	2442.439038
352.771288	2422.274423
353.161314	2429.836154
353.551276	2439.918462
353.941175	2450.000769
354.331010	2409.671538
354.720782	2369.342308
355.110490	2470.165385
355.500135	2500.412308
355.889717	2419.753846
356.279235	2485.288846
356.668689	2313.889615
357.058080	2394.548077
357.447408	2450.000769
357.836672	2520.576923
358.225873	2397.068654
358.615010	2392.027500
359.004084	2442.439038
359.393095	2550.823846
359.782043	2404.630385
360.170927	2482.768269
360.559748	2419.753846
360.948505	2495.371154
361.337199	2455.041923
361.725830	2467.644808
362.114398	2404.630385
362.502903	2344.136538
362.891344	2477.727115
363.279722	2397.068654
363.668037	2397.068654
364.056289	2518.056346
364.444478	2467.644808
364.832603	2422.274423
365.220665	2412.192115
365.608665	2472.685962
365.996601	2452.521346
366.384474	2523.097500
366.772284	2424.795000
367.160031	2475.206538
367.547715	2404.630385
367.935336	2419.753846
368.322893	2480.247692
368.710388	2427.315577
369.097820	2477.727115
369.485189	2467.644808
369.872495	2520.576923
370.259738	2460.083077
370.646918	2417.233269
371.034035	2437.397885
371.421090	2467.644808
371.808081	2455.041923
372.195010	2485.288846
372.581875	2467.644808
372.968678	2457.562500
373.355418	2392.027500
373.742096	2523.097500
374.128710	2462.603654
374.515262	2528.138654
374.901751	2457.562500
375.288177	2450.000769
375.674540	2399.589231
376.060841	2439.918462
376.447079	2543.262115
376.833254	2432.356731
377.219367	2505.453462
377.605417	2490.330000
377.991404	2490.330000
378.377329	2500.412308
378.763191	2409.671538
379.148991	2457.562500
379.534727	2429.836154
379.920402	2439.918462
380.306013	2434.877308
380.691563	2505.453462
381.077049	2437.397885
381.462474	2485.288846
381.847835	2490.330000
382.233134	2442.439038
382.618371	2422.274423
383.003545	2442.439038
383.388657	2381.945192
383.773706	2475.206538
384.158693	2450.000769
384.543618	2500.412308
384.928480	2404.630385
385.313280	2515.535769
385.698017	2492.850577
386.082692	2495.371154
386.467305	2505.453462
386.851856	2492.850577
387.236344	2437.397885
387.620770	2460.083077
388.005133	2447.480192
388.389435	2457.562500
388.773674	2485.288846
389.157851	2432.356731
389.541965	2470.165385
389.926018	2417.233269
390.310008	2472.685962
390.693936	2502.932885
391.077802	2439.918462
391.461606	2455.041923
391.845348	2386.986346
392.229027	2530.659231
392.612645	2434.877308
392.996200	2444.959615
393.379694	2497.891731
393.763125	2422.274423
394.146494	2505.453462
394.529801	2417.233269
394.913047	2427.315577
395.296230	2457.562500
395.679351	2465.124231
396.062410	2513.015192
396.445408	2513.015192
396.828343	2447.480192
397.211217	2492.850577
397.594028	2523.097500
397.976778	2439.918462
398.359466	2455.041923
398.742092	2477.727115
399.124656	2444.959615
399.507158	2510.494615
399.889598	2641.564615
400.271977	2442.439038
400.654294	2417.233269
401.036549	2437.397885
401.418742	2414.712692
401.800874	2490.330000
402.182944	2429.836154
402.564952	2538.220962
402.946898	2507.974038
403.328783	2472.685962
403.710606	2505.453462
404.092367	2414.712692
404.474067	2412.192115
404.855705	2462.603654
405.237282	2475.206538
405.618797	2507.974038
406.000250	2497.891731
406.381642	2429.836154
406.762972	2429.836154
407.144240	2402.109808
407.525447	2452.521346
407.906593	2492.850577
408.287677	2480.247692
408.668700	2510.494615
409.049661	2470.165385
409.430560	2450.000769
409.811399	2550.823846
410.192176	2470.165385
410.572891	2490.330000
410.953545	2465.124231
411.334138	2480.247692
411.714669	2465.124231
412.095139	2555.865000
412.475547	2364.301154
412.855894	2447.480192
413.236180	2510.494615
413.616405	2447.480192
413.996568	2533.179808
414.376670	2462.603654
414.756711	2472.685962
415.136691	2470.165385
415.516609	2573.509038
415.896466	2525.618077
416.276262	2495.371154
416.655997	2475.206538
417.035670	2485.288846
417.415283	2455.041923
417.794834	2507.974038
418.174324	2447.480192
418.553753	2497.891731
418.933121	2518.056346
419.312428	2462.603654
419.691674	2487.809423
420.070859	2553.344423
420.449983	2457.562500
420.829045	2482.768269
421.208047	2394.548077
421.586988	2492.850577
421.965867	2394.548077
422.344686	2533.179808
422.723444	2404.630385
423.102141	2533.179808
423.480777	2525.618077
423.859352	2487.809423
424.237866	2500.412308
424.616319	2492.850577
424.994712	2540.741538
425.373044	2437.397885
425.751314	2507.974038
426.129524	2485.288846
426.507673	2515.535769
426.885762	2424.795000
427.263789	2568.467885
427.641756	2502.932885
428.019662	2507.974038
428.397508	2553.344423
428.775292	2422.274423
429.153016	2492.850577
429.530679	2540.741538
429.908282	2371.862885
430.285824	2550.823846
430.663305	2500.412308
431.040726	2490.330000
431.418086	2470.165385
431.795385	2419.753846
432.172624	2525.618077
432.549802	2444.959615
432.926920	2500.412308
433.303977	2429.836154
433.680974	2399.589231
434.057910	2462.603654
434.434786	2482.768269
434.811601	2535.700385
435.188355	2384.465769
435.565050	2465.124231
435.941683	2450.000769
436.318257	2495.371154
436.694770	2442.439038
437.071222	2518.056346
437.447614	2442.439038
437.823946	2424.795000
438.200218	2497.891731
438.576429	2495.371154
438.952580	2528.138654
439.328670	2444.959615
439.704700	2497.891731
440.080670	2497.891731
440.456580	2553.344423
440.832429	2523.097500
441.208218	2548.303269
441.583947	2442.439038
441.959616	2523.097500
442.335224	2465.124231
442.710773	2444.959615
443.086261	2492.850577
443.461689	2510.494615
443.837057	2450.000769
444.212365	2442.439038
444.587612	2437.397885
444.962800	2439.918462
445.337927	2570.988462
445.712995	2450.000769
446.088002	2429.836154
446.462949	2477.727115
446.837837	2530.659231
447.212664	2475.206538
447.587431	2515.535769
447.962139	2455.041923
448.336786	2447.480192
448.711374	2470.165385
449.085901	2502.932885
449.460369	2447.480192
449.834776	2477.727115
450.209124	2386.986346
450.583412	2475.206538
450.957640	2520.576923
451.331808	2477.727115
451.705917	2442.439038
452.079965	2432.356731
452.453954	2467.644808
452.827883	2500.412308
453.201752	2497.891731
453.575562	2555.865000
453.949311	2490.330000
454.323001	2386.986346
454.696632	2490.330000
455.070202	2437.397885
455.443713	2523.097500
455.817164	2465.124231
456.190556	2553.344423
456.563888	2444.959615
456.937160	2502.932885
457.310373	2480.247692
457.683526	2467.644808
458.056619	2490.330000
458.429653	2523.097500
458.802628	2505.453462
459.175542	2490.330000
459.548398	2477.727115
459.921194	2550.823846
460.293930	2525.618077
460.666607	2588.632500
461.039224	2505.453462
461.411782	2452.521346
461.784280	2505.453462
462.156719	2507.974038
462.529099	2558.385577
462.901419	2502.932885
463.273680	2480.247692
463.645882	2482.768269
464.018024	2492.850577
464.390106	2422.274423
464.762130	2470.165385
465.134094	2450.000769
465.505999	2444.959615
465.877845	2475.206538
466.249631	2455.041923
466.621358	2434.877308
466.993026	2414.712692
467.364634	2457.562500
467.736184	2412.192115
468.107674	2492.850577
468.479105	2452.521346
468.850477	2507.974038
469.221790	2422.274423
469.593043	2581.070769
469.964238	2455.041923
470.335373	2525.618077
470.706449	2402.109808
471.077467	2470.165385
471.448425	2470.165385
471.819324	2432.356731
472.190164	2568.467885
472.560945	2444.959615
472.931667	2455.041923
473.302330	2535.700385
473.672934	2439.918462
474.043479	2513.015192
474.413965	2492.850577
474.784393	2457.562500
475.154761	2447.480192
475.525070	2495.371154
475.895321	2439.918462
476.265513	2460.083077
476.635645	2492.850577
477.005719	2563.426731
477.375734	2467.644808
477.745691	2455.041923
478.115588	2505.453462
478.485427	2470.165385
478.855207	2465.124231
479.224928	2533.179808
479.594591	2492.850577
479.964194	2497.891731
480.333739	2490.330000
480.703226	2452.521346
481.072653	2520.576923
481.442022	2465.124231
481.811333	2523.097500
482.180584	2460.083077
482.549777	2550.823846
482.918912	2500.412308
483.287988	2613.838269
483.657005	2460.083077
484.025964	2429.836154
484.394864	2540.741538
484.763706	2480.247692
485.132489	2485.288846
485.501213	2530.659231
485.869879	2470.165385
486.238487	2550.823846
486.607036	2530.659231
486.975527	2568.467885
487.343959	2460.083077
487.712333	2455.041923
488.080648	2485.288846
488.448905	2485.288846
488.817104	2457.562500
489.185244	2460.083077
489.553326	2543.262115
489.921350	2497.891731
490.289315	2487.809423
490.657222	2492.850577
491.025070	2525.618077
491.392861	2586.111923
491.760593	2447.480192
492.128267	2518.056346
492.495883	2515.535769
492.863440	2558.385577
493.230939	2523.097500
493.598380	2447.480192
493.965763	2518.056346
494.333088	2472.685962
494.700354	2548.303269
495.067563	2510.494615
495.434713	2477.727115
495.801805	2472.685962
496.168839	2505.453462
496.535815	2472.685962
496.902733	2525.618077
497.269593	2462.603654
497.636395	2490.330000
498.003139	2507.974038
498.369825	2530.659231
498.736453	2467.644808
499.103023	2505.453462
499.469535	2545.782692
499.835989	2513.015192
500.202385	2424.795000
500.568723	2548.303269
500.935003	2507.974038
501.301226	2402.109808
501.667390	2475.206538
502.033497	2528.138654
502.399546	2538.220962
502.765537	2467.644808
503.131470	2540.741538
503.497345	2472.685962
503.863163	2533.179808
504.228923	2432.356731
504.594625	2523.097500
504.960269	2500.412308
505.325856	2439.918462
505.691385	2475.206538
506.056856	2515.535769
506.422270	2495.371154
506.787625	2480.247692
507.152924	2515.535769
507.518164	2452.521346
507.883347	2472.685962
508.248472	2447.480192
508.613540	2515.535769
508.978550	2553.344423
509.343503	2470.165385
509.708398	2505.453462
510.073236	2588.632500
510.438016	2432.356731
510.802738	2495.371154
511.167403	2450.000769
511.532010	2492.850577
511.896561	2492.850577
512.261053	2465.124231
512.625488	2538.220962
512.989866	2505.453462
513.354186	2535.700385
513.718449	2490.330000
514.082655	2533.179808
514.446803	2533.179808
514.810894	2402.109808
515.174927	2528.138654
515.538904	2480.247692
515.902822	2465.124231
516.266684	2455.041923
516.630488	2460.083077
516.994235	2548.303269
517.357925	2520.576923
517.721558	2528.138654
518.085133	2523.097500
518.448651	2555.865000
518.812112	2437.397885
519.175516	2530.659231
519.538863	2588.632500
519.902152	2439.918462
520.265385	2472.685962
520.628560	2472.685962
520.991678	2520.576923
521.354739	2447.480192
521.717743	2510.494615
522.080690	2439.918462
522.443580	2490.330000
522.806413	2565.947308
523.169189	2442.439038
523.531908	2475.206538
523.894569	2419.753846
524.257174	2455.041923
524.619722	2477.727115
524.982213	2515.535769
525.344647	2492.850577
525.707025	2530.659231
526.069345	2492.850577
526.431608	2462.603654
526.793815	2477.727115
527.155964	2485.288846
527.518057	2545.782692
527.880093	2409.671538
528.242072	2505.453462
528.603995	2472.685962
528.965860	2487.809423
529.327669	2513.015192
529.689421	2515.535769
530.051117	2487.809423
530.412755	2490.330000
530.774337	2533.179808
531.135862	2455.041923
531.497331	2492.850577
531.858743	2462.603654
532.220098	2460.083077
532.581396	2465.124231
532.942638	2452.521346
533.303824	2530.659231
533.664953	2550.823846
534.026025	2570.988462
534.387040	2487.809423
534.747999	2530.659231
535.108902	2470.165385
535.469748	2470.165385
535.830537	2530.659231
536.191270	2457.562500
536.551947	2510.494615
536.912567	2560.906154
537.273131	2470.165385
537.633638	2460.083077
537.994089	2437.397885
538.354483	2535.700385
538.714821	2480.247692
539.075103	2455.041923
539.435328	2475.206538
539.795497	2487.809423
540.155609	2452.521346
540.515665	2480.247692
540.875665	2487.809423
541.235609	2507.974038
541.595496	2452.521346
541.955328	2495.371154
542.315102	2470.165385
542.674821	2487.809423
543.034483	2497.891731
543.394090	2500.412308
543.753640	2497.891731
544.113134	2439.918462
544.472571	2518.056346
544.831953	2568.467885
545.191278	2500.412308
545.550548	2518.056346
545.909761	2490.330000
546.268918	2502.932885
546.628019	2558.385577
546.987064	2525.618077
547.346053	2487.809423
547.704986	2470.165385
548.063863	2490.330000
548.422684	2422.274423
548.781449	2477.727115
549.140158	2502.932885
549.498811	2495.371154
549.857408	2555.865000
550.215949	2530.659231
550.574434	2482.768269
550.932864	2485.288846
551.291237	2457.562500
551.649555	2437.397885
552.007817	2460.083077
552.366022	2460.083077
552.724173	2487.809423
553.082267	2528.138654
553.440305	2477.727115
553.798288	2470.165385
554.156215	2525.618077
554.514086	2487.809423
554.871902	2492.850577
555.229661	2502.932885
555.587365	2470.165385
555.945014	2462.603654
556.302606	2472.685962
556.660143	2500.412308
557.017625	2555.865000
557.375050	2470.165385
557.732421	2495.371154
558.089735	2505.453462
558.446994	2510.494615
558.804197	2578.550192
559.161345	2570.988462
559.518437	2482.768269
559.875474	2543.262115
560.232455	2450.000769
560.589381	2437.397885
560.946251	2540.741538
561.303065	2450.000769
561.659825	2460.083077
562.016528	2515.535769
562.373177	2497.891731
562.729770	2475.206538
563.086307	2530.659231
563.442789	2480.247692
563.799216	2548.303269
564.155587	2518.056346
564.511904	2538.220962
564.868164	2601.235385
565.224370	2404.630385
565.580520	2452.521346
565.936615	2447.480192
566.292654	2538.220962
566.648638	2434.877308
567.004567	2543.262115
567.360441	2444.959615
567.716260	2502.932885
568.072023	2447.480192
568.427732	2502.932885
568.783385	2465.124231
569.138982	2487.809423
569.494525	2409.671538
569.850013	2523.097500
570.205445	2460.083077
570.560823	2472.685962
570.916145	2442.439038
571.271412	2560.906154
571.626625	2485.288846
571.981782	2419.753846
572.336884	2480.247692
572.691931	2510.494615
573.046923	2586.111923
573.401860	2442.439038
573.756743	2500.412308
574.111570	2515.535769
574.466342	2510.494615
574.821059	2502.932885
575.175722	2485.288846
575.530330	2510.494615
575.884882	2553.344423
576.239380	2460.083077
576.593823	2540.741538
576.948211	2427.315577
577.302544	2424.795000
577.656823	2500.412308
578.011047	2520.576923
578.365216	2555.865000
578.719330	2507.974038
579.073389	2548.303269
579.427394	2450.000769
579.781344	2535.700385
580.135239	2497.891731
580.489080	2432.356731
580.842866	2422.274423
581.196597	2535.700385
581.550273	2457.562500
581.903895	2477.727115
582.257463	2475.206538
582.610975	2545.782692
582.964434	2487.809423
583.317837	2548.303269
583.671186	2417.233269
584.024481	2492.850577
584.377721	2447.480192
584.730906	2573.509038
585.084037	2543.262115
585.437113	2427.315577
585.790135	2520.576923
586.143103	2427.315577
586.496016	2480.247692
586.848874	2520.576923
587.201679	2472.685962
587.554428	2505.453462
587.907124	2457.562500
588.259765	2505.453462
588.612352	2480.247692
588.964884	2424.795000
589.317362	2452.521346
589.669786	2533.179808
590.022155	2477.727115
590.374470	2555.865000
590.726731	2407.150962
591.078937	2404.630385
591.431090	2444.959615
591.783188	2492.850577
592.135232	2427.315577
592.487222	2523.097500
592.839157	2487.809423
593.191038	2528.138654
593.542866	2444.959615
593.894639	2492.850577
594.246358	2480.247692
594.598022	2487.809423
594.949633	2452.521346
595.301190	2502.932885
595.652692	2490.330000
596.004141	2480.247692
596.355535	2432.356731
596.706876	2545.782692
597.058162	2470.165385
597.409395	2374.383462
597.760573	2465.124231
598.111698	2540.741538
598.462768	2502.932885
598.813785	2495.371154
599.164748	2497.891731
599.515657	2513.015192
599.866511	2545.782692
600.217312	2530.659231
600.568060	2573.509038
600.918753	2457.562500
601.269392	2460.083077
601.619978	2442.439038
601.970510	2510.494615
602.320988	2465.124231
602.671412	2497.891731
603.021783	2434.877308
603.372100	2520.576923
603.722363	2485.288846
604.072572	2507.974038
604.422728	2482.768269
604.772830	2548.303269
605.122878	2490.330000
605.472872	2518.056346
605.822813	2407.150962
606.172701	2450.000769
606.522534	2467.644808
606.872314	2409.671538
607.222041	2507.974038
607.571714	2507.974038
607.921333	2490.330000
608.270899	2397.068654
608.620411	2475.206538
608.969870	2477.727115
609.319276	2457.562500
609.668627	2490.330000
610.017926	2573.509038
610.367171	2513.015192
610.716362	2462.603654
611.065500	2472.685962
611.414585	2505.453462
611.763616	2535.700385
612.112594	2434.877308
612.461518	2465.124231
612.810389	2389.506923
613.159207	2472.685962
613.507971	2477.727115
613.856682	2477.727115
614.205340	2487.809423
614.553945	2581.070769
614.902496	2480.247692
615.250994	2507.974038
615.599439	2518.056346
615.947830	2518.056346
616.296169	2565.947308
616.644454	2530.659231
616.992686	2477.727115
617.340864	2452.521346
617.688990	2523.097500
618.037063	2523.097500
618.385082	2555.865000
618.733048	2588.632500
619.080961	2540.741538
619.428821	2470.165385
619.776628	2480.247692
620.124382	2578.550192
620.472083	2513.015192
620.819731	2470.165385
621.167326	2485.288846
621.514868	2460.083077
621.862357	2402.109808
622.209793	2510.494615
622.557176	2490.330000
622.904506	2447.480192
623.251783	2460.083077
623.599007	2439.918462
623.946179	2455.041923
624.293297	2540.741538
624.640363	2447.480192
624.987376	2500.412308
625.334336	2475.206538
625.681243	2402.109808
626.028097	2500.412308
626.374899	2462.603654
626.721647	2444.959615
627.068343	2412.192115
627.414987	2510.494615
627.761577	2450.000769
628.108115	2475.206538
628.454600	2487.809423
628.801032	2505.453462
629.147412	2475.206538
629.493739	2475.206538
629.840014	2482.768269
630.186236	2578.550192
630.532405	2452.521346
630.878521	2497.891731
631.224585	2518.056346
631.570597	2555.865000
631.916556	2497.891731
632.262462	2470.165385
632.608316	2472.685962
632.954117	2442.439038
633.299866	2502.932885
633.645562	2477.727115
633.991206	2560.906154
634.336797	2601.235385
634.682336	2515.535769
635.027823	2485.288846
635.373257	2462.603654
635.718639	2530.659231
636.063968	2510.494615
636.409245	2523.097500
636.754470	2507.974038
637.099642	2414.712692
637.444762	2480.247692
637.789829	2505.453462
638.134845	2560.906154
638.479808	2513.015192
638.824719	2548.303269
639.169577	2510.494615
639.514383	2507.974038
639.859137	2470.165385
640.203839	2470.165385
640.548489	2523.097500
640.893086	2434.877308
641.237632	2533.179808
641.582125	2525.618077
641.926566	2565.947308
642.270955	2636.523462
642.615292	2462.603654
642.959576	2505.453462
643.303809	2482.768269
643.647990	2432.356731
643.992118	2528.138654
644.336195	2510.494615
644.680219	2492.850577
645.024192	2465.124231
645.368112	2434.877308
645.711981	2462.603654
646.055797	2414.712692
646.399562	2525.618077
646.743274	2487.809423
647.086935	2523.097500
647.430544	2470.165385
647.774101	2417.233269
648.117606	2543.262115
648.461059	2543.262115
648.804460	2555.865000
649.147810	2560.906154
649.491108	2477.727115
649.834354	2490.330000
650.177548	2500.412308
650.520690	2507.974038
650.863781	2510.494615
651.206820	2507.974038
651.549807	2444.959615
651.892742	2434.877308
652.235626	2528.138654
652.578458	2545.782692
652.921238	2543.262115
653.263967	2497.891731
653.606644	2487.809423
653.949269	2507.974038
654.291843	2502.932885
654.634365	2480.247692
654.976836	2482.768269
655.319255	2447.480192
655.661622	2507.974038
656.003938	2485.288846
656.346203	2505.453462
656.688416	2535.700385
657.030577	2513.015192
657.372687	2422.274423
657.714746	2518.056346
658.056753	2528.138654
658.398708	2477.727115
658.740612	2550.823846
659.082465	2505.453462
659.424266	2523.097500
659.766016	2447.480192
660.107715	2397.068654
660.449362	2399.589231
660.790958	2477.727115
661.132503	2424.795000
661.473996	2543.262115
661.815438	2613.838269
662.156829	2490.330000
662.498168	2523.097500
662.839456	2513.015192
663.180693	2460.083077
663.521879	2530.659231
663.863013	2475.206538
664.204097	2555.865000
664.545129	2490.330000
664.886110	2470.165385
665.227040	2475.206538
665.567918	2462.603654
665.908746	2432.356731
666.249522	2450.000769
666.590248	2525.618077
666.930922	2533.179808
667.271545	2480.247692
667.612118	2444.959615
667.952639	2525.618077
668.293109	2497.891731
668.633528	2495.371154
668.973896	2475.206538
669.314213	2523.097500
669.654480	2462.603654
669.994695	2548.303269
670.334859	2538.220962
670.674973	2467.644808
671.015035	2444.959615
671.355047	2500.412308
671.695008	2492.850577
672.034918	2507.974038
672.374777	2502.932885
672.714585	2578.550192
673.054342	2434.877308
673.394049	2505.453462
673.733705	2472.685962
674.073310	2460.083077
674.412864	2507.974038
674.752368	2518.056346
675.091820	2437.397885
675.431223	2379.424615
675.770574	2540.741538
676.109875	2518.056346
676.449125	2457.562500
676.788324	2482.768269
677.127473	2480.247692
677.466571	2465.124231
677.805619	2523.097500
678.144616	2533.179808
678.483562	2485.288846
678.822458	2490.330000
679.161303	2462.603654
679.500098	2384.465769
679.838842	2424.795000
680.177535	2513.015192
680.516179	2515.535769
680.854771	2439.918462
681.193314	2533.179808
681.531805	2523.097500
681.870247	2505.453462
682.208638	2482.768269
682.546978	2500.412308
682.885268	2470.165385
683.223508	2540.741538
683.561697	2518.056346
683.899836	2500.412308
684.237925	2515.535769
684.575963	2530.659231
684.913951	2465.124231
685.251889	2497.891731
685.589776	2455.041923
685.927614	2477.727115
686.265401	2515.535769
686.603137	2518.056346
686.940824	2487.809423
687.278460	2502.932885
687.616046	2588.632500
687.953582	2518.056346
688.291068	2472.685962
688.628504	2507.974038
688.965889	2470.165385
689.303224	2563.426731
689.640510	2487.809423
689.977745	2505.453462
690.314930	2523.097500
690.652065	2555.865000
690.989150	2369.342308
691.326185	2487.809423
691.663170	2492.850577
692.000105	2429.836154
692.336990	2482.768269
692.673825	2505.453462
693.010610	2472.685962
693.347345	2535.700385
693.684030	2444.959615
694.020665	2545.782692
694.357251	2457.562500
694.693786	2510.494615
695.030272	2467.644808
695.366707	2507.974038
695.703093	2467.644808
696.039429	2528.138654
696.375716	2480.247692
696.711952	2467.644808
697.048139	2457.562500
697.384276	2492.850577
697.720363	2437.397885
698.056400	2455.041923
698.392388	2492.850577
698.728326	2482.768269
699.064214	2591.153077
699.400053	2427.315577
699.735842	2462.603654
700.071581	2581.070769
700.407270	2455.041923
700.742910	2460.083077
701.078501	2497.891731
701.414042	2581.070769
701.749533	2455.041923
702.084974	2513.015192
702.420366	2525.618077
702.755709	2457.562500
703.091002	2450.000769
703.426246	2427.315577
703.761440	2500.412308
704.096584	2417.233269
704.431679	2447.480192
704.766725	2485.288846
705.101721	2518.056346
705.436668	2525.618077
705.771565	2477.727115
706.106413	2502.932885
706.441212	2432.356731
706.775961	2502.932885
707.110661	2538.220962
707.445311	2558.385577
707.779913	2515.535769
708.114465	2495.371154
708.448967	2480.247692
708.783421	2412.192115
709.117825	2513.015192
709.452180	2533.179808
709.786485	2563.426731
710.120742	2535.700385
710.454949	2434.877308
710.789107	2475.206538
711.123216	2490.330000
711.457275	2490.330000
711.791286	2507.974038
712.125247	2482.768269
712.459159	2518.056346
712.793023	2475.206538
713.126837	2535.700385
713.460602	2573.509038
713.794318	2470.165385
714.127985	2462.603654
714.461602	2583.591346
714.795171	2492.850577
715.128691	2500.412308
715.462162	2525.618077
715.795584	2460.083077
716.128957	2500.412308
716.462281	2450.000769
716.795556	2455.041923
717.128782	2437.397885
717.461960	2480.247692
717.795088	2510.494615
718.128167	2470.165385
718.461198	2492.850577
718.794180	2523.097500
719.127113	2535.700385
719.459997	2596.194231
719.792833	2520.576923
720.125619	2495.371154
720.458357	2490.330000
720.791046	2502.932885
721.123686	2452.521346
721.456278	2540.741538
721.788821	2457.562500
722.121315	2495.371154
722.453761	2565.947308
722.786158	2520.576923
723.118506	2465.124231
723.450805	2518.056346
723.783056	2371.862885
724.115259	2452.521346
724.447412	2480.247692
724.779518	2457.562500
725.111574	2462.603654
725.443582	2540.741538
725.775542	2495.371154
726.107453	2414.712692
726.439315	2543.262115
726.771129	2530.659231
727.102895	2455.041923
727.434612	2507.974038
727.766281	2573.509038
728.097901	2515.535769
728.429473	2591.153077
728.760996	2447.480192
729.092471	2412.192115
729.423897	2520.576923
729.755276	2553.344423
730.086606	2540.741538
730.417887	2487.809423
730.749120	2455.041923
731.080305	2495.371154
731.411442	2439.918462
731.742530	2611.317692
732.073570	2593.673654
732.404562	2477.727115
732.735506	2507.974038
733.066401	2505.453462
733.397249	2480.247692
733.728048	2586.111923
734.058798	2502.932885
734.389501	2507.974038
734.720156	2472.685962
735.050762	2565.947308
735.381320	2487.809423
735.711831	2470.165385
736.042293	2502.932885
736.372707	2540.741538
736.703073	2427.315577
737.033391	2462.603654
737.363661	2475.206538
737.693883	2490.330000
738.024056	2450.000769
738.354182	2492.850577
738.684260	2480.247692
739.014290	2533.179808
739.344272	2470.165385
739.674207	2439.918462
740.004093	2510.494615
740.333931	2510.494615
740.663722	2621.400000
740.993464	2515.535769
741.323159	2510.494615
741.652806	2601.235385
741.982405	2530.659231
742.311956	2500.412308
742.641460	2528.138654
742.970915	2565.947308
743.300323	2460.083077
743.629683	2470.165385
743.958996	2429.836154
744.288260	2518.056346
744.617477	2422.274423
744.946647	2540.741538
745.275768	2515.535769
745.604842	2540.741538
745.933869	2487.809423
746.262847	2475.206538
746.591778	2555.865000
746.920662	2518.056346
747.249498	2485.288846
747.578286	2467.644808
747.907027	2558.385577
748.235720	2482.768269
748.564365	2477.727115
748.892963	2497.891731
749.221514	2523.097500
749.550017	2538.220962
749.878473	2510.494615
750.206881	2523.097500
750.535242	2518.056346
750.863555	2450.000769
751.191821	2533.179808
751.520039	2439.918462
751.848210	2434.877308
752.176334	2477.727115
752.504411	2465.124231
752.832440	2515.535769
753.160421	2480.247692
753.488356	2437.397885
753.816243	2502.932885
754.144082	2507.974038
754.471875	2558.385577
754.799620	2465.124231
755.127318	2477.727115
755.454969	2450.000769
755.782572	2417.233269
756.110129	2427.315577
756.437638	2497.891731
756.765100	2437.397885
757.092515	2450.000769
757.419882	2487.809423
757.747203	2467.644808
758.074477	2558.385577
758.401703	2427.315577
758.728882	2480.247692
759.056014	2442.439038
759.383099	2462.603654
759.710138	2543.262115
760.037129	2528.138654
760.364073	2500.412308
760.690970	2485.288846
761.017820	2490.330000
761.344623	2480.247692
761.671379	2487.809423
761.998088	2480.247692
762.324751	2457.562500
762.651366	2480.247692
762.977935	2495.371154
763.304456	2507.974038
763.630931	2480.247692
763.957359	2447.480192
764.283740	2510.494615
764.610074	2437.397885
764.936362	2548.303269
765.262602	2470.165385
765.588796	2518.056346
765.914943	2409.671538
766.241044	2502.932885
766.567097	2603.755962
766.893104	2485.288846
767.219064	2543.262115
767.544978	2515.535769
767.870845	2520.576923
768.196665	2419.753846
768.522438	2497.891731
768.848165	2434.877308
769.173846	2497.891731
769.499479	2480.247692
769.825066	2540.741538
770.150607	2543.262115
770.476101	2427.315577
770.801548	2487.809423
771.126949	2555.865000
771.452303	2470.165385
771.777611	2429.836154
772.102872	2497.891731
772.428087	2507.974038
772.753256	2507.974038
773.078378	2480.247692
773.403453	2485.288846
773.728482	2502.932885
774.053465	2502.932885
774.378401	2427.315577
774.703291	2500.412308
775.028135	2482.768269
775.352932	2495.371154
775.677683	2414.712692
776.002388	2492.850577
776.327046	2480.247692
776.651658	2560.906154
776.976224	2432.356731
777.300743	2603.755962
777.625216	2450.000769
777.949643	2429.836154
778.274024	2550.823846
778.598359	2540.741538
778.922647	2530.659231
779.246889	2485.288846
779.571086	2591.153077
779.895236	2510.494615
780.219339	2550.823846
780.543397	2455.041923
780.867409	2553.344423
781.191374	2444.959615
781.515294	2475.206538
781.839167	2555.865000
782.162995	2477.727115
782.486776	2565.947308
782.810511	2452.521346
783.134201	2497.891731
783.457844	2432.356731
783.781441	2492.850577
784.104993	2507.974038
784.428498	2586.111923
784.751958	2447.480192
785.075372	2535.700385
785.398739	2485.288846
785.722061	2518.056346
786.045337	2497.891731
786.368568	2613.838269
786.691752	2518.056346
787.014891	2568.467885
787.337983	2513.015192
787.661030	2513.015192
787.984031	2525.618077
788.306987	2452.521346
788.629897	2507.974038
788.952760	2419.753846
789.275579	2485.288846
789.598351	2447.480192
789.921078	2500.412308
790.243759	2518.056346
790.566395	2540.741538
790.888984	2467.644808
791.211529	2548.303269
791.534027	2611.317692
791.856480	2482.768269
792.178888	2545.782692
792.501249	2507.974038
792.823566	2538.220962
793.145836	2636.523462
793.468062	2460.083077
793.790241	2417.233269
794.112375	2477.727115
794.434464	2538.220962
794.756507	2432.356731
795.078505	2424.795000
795.400457	2477.727115
795.722364	2523.097500
796.044226	2553.344423
796.366042	2490.330000
796.687812	2528.138654
797.009538	2528.138654
797.331218	2475.206538
797.652852	2500.412308
797.974442	2530.659231
798.295986	2528.138654
798.617484	2457.562500
798.938938	2452.521346
799.260346	2555.865000
799.581709	2500.412308
799.903026	2523.097500
800.224299	2578.550192
800.545526	2439.918462
800.866708	2477.727115
801.187845	2495.371154
801.508936	2540.741538
801.829983	2412.192115
802.150984	2535.700385
802.471940	2477.727115
802.792851	2507.974038
803.113717	2480.247692
803.434538	2540.741538
803.755314	2533.179808
804.076045	2523.097500
804.396731	2482.768269
804.717372	2520.576923
805.037967	2530.659231
805.358518	2505.453462
805.679024	2520.576923
805.999485	2515.535769
806.319901	2465.124231
806.640272	2490.330000
806.960598	2397.068654
807.280879	2495.371154
807.601115	2457.562500
807.921306	2452.521346
808.241453	2545.782692
808.561554	2538.220962
808.881611	2442.439038
809.201623	2538.220962
809.521590	2439.918462
809.841513	2472.685962
810.161390	2593.673654
810.481223	2500.412308
810.801011	2502.932885
811.120755	2586.111923
811.440453	2485.288846
811.760107	2535.700385
812.079716	2434.877308
812.399281	2510.494615
812.718801	2487.809423
813.038276	2482.768269
813.357707	2507.974038
813.677093	2487.809423
813.996434	2444.959615
814.315731	2518.056346
814.634983	2460.083077
814.954191	2402.109808
815.273354	2548.303269
815.592473	2507.974038
815.911547	2507.974038
816.230577	2424.795000
816.549562	2530.659231
816.868502	2477.727115
817.187399	2482.768269
817.506250	2487.809423
817.825058	2538.220962
818.143821	2399.589231
818.462539	2472.685962
818.781213	2530.659231
819.099843	2447.480192
819.418429	2472.685962
819.736970	2505.453462
820.055466	2570.988462
820.373919	2500.412308
820.692327	2518.056346
821.010691	2460.083077
821.329011	2528.138654
821.647286	2500.412308
821.965517	2450.000769
822.283704	2578.550192
822.601847	2520.576923
822.919945	2563.426731
823.237999	2465.124231
823.556010	2439.918462
823.873976	2487.809423
824.191897	2450.000769
824.509775	2550.823846
824.827609	2518.056346
825.145398	2525.618077
825.463144	2513.015192
825.780845	2460.083077
826.098502	2470.165385
826.416116	2427.315577
826.733685	2523.097500
827.051210	2591.153077
827.368692	2525.618077
827.686129	2515.535769
828.003522	2457.562500
828.320872	2429.836154
828.638177	2490.330000
828.955439	2437.397885
829.272656	2528.138654
829.589830	2447.480192
829.906960	2576.029615
830.224046	2495.371154
830.541088	2497.891731
830.858086	2523.097500
831.175041	2533.179808
831.491952	2578.550192
831.808819	2528.138654
832.125642	2422.274423
832.442421	2565.947308
832.759157	2419.753846
833.075849	2432.356731
833.392497	2502.932885
833.709101	2455.041923
834.025662	2457.562500
834.342179	2545.782692
834.658653	2500.412308
834.975083	2470.165385
835.291469	2482.768269
835.607811	2513.015192
835.924110	2417.233269
836.240366	2520.576923
836.556578	2490.330000
836.872746	2475.206538
837.188871	2565.947308
837.504952	2457.562500
837.820990	2510.494615
838.136984	2530.659231
838.452935	2518.056346
838.768842	2492.850577
839.084706	2507.974038
839.400526	2515.535769
839.716303	2480.247692
840.032037	2487.809423
840.347727	2419.753846
840.663373	2533.179808
840.978977	2492.850577
841.294537	2510.494615
841.610054	2472.685962
841.925527	2409.671538
842.240957	2500.412308
842.556344	2465.124231
842.871687	2429.836154
843.186987	2424.795000
843.502244	2576.029615
843.817458	2465.124231
844.132629	2492.850577
844.447756	2470.165385
844.762840	2432.356731
845.077881	2432.356731
845.392879	2518.056346
845.707833	2465.124231
846.022745	2490.330000
846.337613	2475.206538
846.652438	2525.618077
846.967221	2457.562500
847.281960	2492.850577
847.596656	2535.700385
847.911309	2533.179808
848.225919	2538.220962
848.540485	2487.809423
848.855009	2545.782692
849.169490	2487.809423
849.483928	2500.412308
849.798323	2417.233269
850.112675	2452.521346
850.426984	2598.714808
850.741251	2543.262115
851.055474	2480.247692
851.369654	2452.521346
851.683792	2560.906154
851.997887	2397.068654
852.311938	2490.330000
852.625947	2560.906154
852.939914	2434.877308
853.253837	2545.782692
853.567718	2518.056346
853.881555	2510.494615
854.195350	2500.412308
854.509103	2518.056346
854.822812	2583.591346
855.136479	2472.685962
855.450103	2404.630385
855.763685	2540.741538
856.077224	2447.480192
856.390720	2540.741538
856.704173	2525.618077
857.017584	2422.274423
857.330953	2520.576923
857.644278	2502.932885
857.957561	2505.453462
858.270802	2452.521346
858.584000	2455.041923
858.897155	2439.918462
859.210268	2485.288846
859.523339	2467.644808
859.836367	2434.877308
860.149352	2472.685962
860.462295	2439.918462
860.775195	2432.356731
861.088054	2482.768269
861.400869	2528.138654
861.713642	2545.782692
862.026373	2465.124231
862.339062	2555.865000
862.651708	2455.041923
862.964312	2543.262115
863.276873	2472.685962
863.589392	2523.097500
863.901869	2462.603654
864.214303	2558.385577
864.526696	2520.576923
864.839045	2510.494615
865.151353	2444.959615
865.463619	2520.576923
865.775842	2502.932885
866.088023	2530.659231
866.400162	2434.877308
866.712258	2502.932885
867.024313	2399.589231
867.336325	2510.494615
867.648296	2429.836154
867.960224	2477.727115
868.272110	2500.412308
868.583954	2480.247692
868.895755	2500.412308
869.207515	2495.371154
869.519233	2548.303269
869.830909	2510.494615
870.142542	2470.165385
870.454134	2490.330000
870.765684	2558.385577
871.077191	2472.685962
871.388657	2606.276538
871.700081	2475.206538
872.011463	2475.206538
872.322803	2437.397885
872.634101	2485.288846
872.945357	2543.262115
873.256571	2523.097500
873.567744	2497.891731
873.878874	2518.056346
874.189963	2502.932885
874.501010	2555.865000
874.812015	2490.330000
875.122979	2477.727115
875.433900	2457.562500
875.744780	2500.412308
876.055618	2593.673654
876.366415	2510.494615
876.677169	2518.056346
876.987882	2402.109808
877.298554	2480.247692
877.609183	2490.330000
877.919771	2414.712692
878.230317	2523.097500
878.540822	2545.782692
878.851285	2530.659231
879.161707	2495.371154
879.472087	2487.809423
879.782425	2500.412308
880.092722	2543.262115
880.402977	2455.041923
880.713191	2533.179808
881.023363	2447.480192
881.333494	2485.288846
881.643583	2510.494615
881.953631	2603.755962
882.263637	2535.700385
882.573602	2518.056346
882.883526	2533.179808
883.193408	2530.659231
883.503248	2399.589231
883.813048	2518.056346
884.122806	2467.644808
884.432522	2490.330000
884.742197	2490.330000
885.051831	2515.535769
885.361424	2482.768269
885.670975	2492.850577
885.980485	2510.494615
886.289954	2545.782692
886.599382	2538.220962
886.908768	2530.659231
887.218113	2444.959615
887.527417	2424.795000
887.836680	2513.015192
888.145901	2507.974038
888.455082	2495.371154
888.764221	2502.932885
889.073319	2457.562500
889.382376	2520.576923
889.691392	2538.220962
890.000366	2583.591346
890.309300	2439.918462
890.618193	2462.603654
890.927044	2429.836154
891.235855	2407.150962
891.544625	2490.330000
891.853353	2455.041923
892.162041	2475.206538
892.470687	2525.618077
892.779293	2502.932885
893.087858	2470.165385
893.396381	2472.685962
893.704864	2467.644808
894.013306	2497.891731
894.321707	2525.618077
894.630068	2404.630385
894.938387	2444.959615
895.246665	2376.904038
895.554903	2497.891731
895.863100	2457.562500
896.171256	2472.685962
896.479371	2533.179808
896.787446	2513.015192
897.095480	2507.974038
897.403473	2452.521346
897.711425	2525.618077
898.019336	2540.741538
898.327207	2495.371154
898.635038	2492.850577
898.942827	2565.947308
899.250576	2462.603654
899.558284	2439.918462
899.865952	2502.932885
900.173579	2490.330000
900.481165	2452.521346
900.788711	2409.671538
901.096216	2480.247692
901.403681	2505.453462
901.711105	2505.453462
902.018489	2535.700385
902.325832	2424.795000
902.633135	2434.877308
902.940397	2543.262115
903.247619	2482.768269
903.554800	2422.274423
903.861941	2523.097500
904.169041	2548.303269
904.476101	2570.988462
904.783121	2530.659231
905.090100	2460.083077
905.397039	2591.153077
905.703938	2482.768269
906.010796	2550.823846
906.317614	2475.206538
906.624391	2450.000769
906.931129	2434.877308
907.237826	2444.959615
907.544483	2525.618077
907.851099	2437.397885
908.157675	2520.576923
908.464211	2533.179808
908.770707	2482.768269
909.077163	2497.891731
909.383578	2427.315577
909.689954	2581.070769
909.996289	2460.083077
910.302584	2550.823846
910.608839	2447.480192
910.915054	2533.179808
911.221229	2455.041923
911.527363	2515.535769
911.833458	2550.823846
912.139513	2467.644808
912.445527	2525.618077
912.751502	2497.891731
913.057436	2523.097500
913.363331	2455.041923
913.669186	2513.015192
913.975000	2568.467885
914.280775	2583.591346
914.586510	2394.548077
914.892205	2543.262115
915.197859	2470.165385
915.503475	2432.356731
915.809050	2530.659231
916.114585	2563.426731
916.420081	2404.630385
916.725536	2460.083077
917.030952	2460.083077
917.336328	2460.083077
917.641665	2525.618077
917.946961	2533.179808
918.252218	2424.795000
918.557435	2505.453462
918.862612	2434.877308
919.167750	2507.974038
919.472848	2510.494615
919.777906	2603.755962
920.082925	2487.809423
920.387904	2492.850577
920.692843	2452.521346
920.997743	2510.494615
921.302603	2419.753846
921.607423	2513.015192
921.912204	2444.959615
922.216946	2450.000769
922.521647	2414.712692
922.826310	2434.877308
923.130932	2540.741538
923.435516	2457.562500
923.740059	2455.041923
924.044564	2533.179808
924.349028	2452.521346
924.653454	2525.618077
924.957840	2543.262115
925.262186	2507.974038
925.566493	2530.659231
925.870761	2545.782692
926.174989	2533.179808
926.479178	2570.988462
926.783328	2417.233269
927.087438	2485.288846
927.391509	2528.138654
927.695541	2510.494615
927.999533	2555.865000
928.303486	2568.467885
928.607400	2472.685962
928.911275	2397.068654
929.215110	2560.906154
929.518906	2467.644808
929.822663	2457.562500
930.126381	2565.947308
930.430060	2558.385577
930.733699	2495.371154
931.037299	2412.192115
931.340861	2588.632500
931.644383	2467.644808
931.947866	2502.932885
932.251309	2402.109808
932.554714	2490.330000
932.858080	2472.685962
933.161407	2487.809423
933.464694	2455.041923
933.767943	2500.412308
934.071153	2460.083077
934.374323	2439.918462
934.677455	2487.809423
934.980548	2497.891731
935.283602	2505.453462
935.586617	2535.700385
935.889593	2500.412308
936.192530	2452.521346
936.495428	2487.809423
936.798287	2432.356731
937.101108	2528.138654
937.403890	2485.288846
937.706632	2490.330000
938.009336	2518.056346
938.312002	2515.535769
938.614628	2558.385577
938.917216	2442.439038
939.219765	2601.235385
939.522275	2467.644808
939.824747	2482.768269
940.127179	2553.344423
940.429573	2505.453462
940.731929	2520.576923
941.034246	2523.097500
941.336524	2470.165385
941.638763	2450.000769
941.940964	2543.262115
942.243126	2475.206538
942.545250	2510.494615
942.847335	2470.165385
943.149381	2475.206538
943.451389	2465.124231
943.753359	2492.850577
944.055290	2444.959615
944.357182	2535.700385
944.659036	2467.644808
944.960851	2437.397885
945.262628	2439.918462
945.564367	2523.097500
945.866067	2482.768269
946.167729	2538.220962
946.469352	2477.727115
946.770937	2465.124231
947.072484	2545.782692
947.373992	2465.124231
947.675462	2447.480192
947.976893	2462.603654
948.278286	2497.891731
948.579641	2487.809423
948.880958	2583.591346
949.182236	2487.809423
949.483476	2505.453462
949.784678	2477.727115
950.085841	2412.192115
950.386967	2485.288846
950.688054	2457.562500
950.989103	2477.727115
951.290114	2482.768269
951.591087	2515.535769
951.892021	2442.439038
952.192917	2492.850577
952.493776	2432.356731
952.794596	2389.506923
953.095378	2513.015192
953.396122	2490.330000
953.696828	2495.371154
953.997496	2485.288846
954.298126	2515.535769
954.598718	2429.836154
954.899272	2455.041923
955.199788	2518.056346
955.500266	2507.974038
955.800706	2497.891731
956.101108	2485.288846
956.401472	2513.015192
956.701798	2442.439038
957.002087	2518.056346
957.302337	2477.727115
957.602550	2563.426731
957.902724	2560.906154
958.202861	2455.041923
958.502960	2472.685962
958.803022	2447.480192
959.103045	2500.412308
959.403031	2455.041923
959.702979	2447.480192
960.002889	2475.206538
960.302762	2462.603654
960.602596	2550.823846
960.902393	2472.685962
961.202153	2462.603654
961.501875	2528.138654
961.801559	2495.371154
962.101205	2490.330000
962.400814	2505.453462
962.700385	2485.288846
962.999918	2513.015192
963.299414	2472.685962
963.598873	2535.700385
963.898293	2472.685962
964.197677	2558.385577
964.497022	2460.083077
964.796331	2465.124231
965.095601	2518.056346
965.394835	2500.412308
965.694030	2513.015192
965.993189	2581.070769
966.292309	2457.562500
966.591393	2432.356731
966.890439	2490.330000
967.189447	2490.330000
967.488419	2470.165385
967.787353	2507.974038
968.086249	2480.247692
968.385108	2510.494615
968.683930	2485.288846
968.982714	2414.712692
969.281462	2528.138654
969.580172	2505.453462
969.878844	2490.330000
970.177480	2507.974038
970.476078	2447.480192
970.774639	2482.768269
971.073162	2432.356731
971.371649	2550.823846
971.670098	2487.809423
971.968510	2497.891731
972.266885	2470.165385
972.565223	2550.823846
972.863524	2439.918462
973.161788	2457.562500
973.460014	2477.727115
973.758204	2480.247692
974.056356	2485.288846
974.354471	2520.576923
974.652550	2397.068654
974.950591	2467.644808
975.248595	2485.288846
975.546563	2442.439038
975.844493	2490.330000
976.142386	2497.891731
976.440243	2492.850577
976.738062	2417.233269
977.035845	2434.877308
977.333590	2515.535769
977.631299	2442.439038
977.928971	2500.412308
978.226606	2412.192115
978.524204	2563.426731
978.821765	2507.974038
979.119290	2490.330000
979.416777	2490.330000
979.714228	2591.153077
980.011642	2570.988462
980.309020	2417.233269
980.606360	2465.124231
980.903664	2470.165385
981.200931	2419.753846
981.498162	2424.795000
981.795356	2472.685962
982.092513	2492.850577
982.389633	2419.753846
982.686717	2465.124231
982.983764	2568.467885
983.280775	2520.576923
983.577749	2485.288846
983.874686	2409.671538
984.171587	2472.685962
984.468451	2513.015192
984.765279	2500.412308
985.062070	2487.809423
985.358824	2419.753846
985.655543	2485.288846
985.952224	2535.700385
986.248869	2530.659231
986.545478	2548.303269
986.842050	2409.671538
987.138586	2492.850577
987.435086	2558.385577
987.731549	2470.165385
988.027975	2457.562500
988.324366	2505.453462
988.620719	2495.371154
988.917037	2523.097500
989.213318	2480.247692
989.509563	2502.932885
989.805772	2487.809423
990.101944	2528.138654
990.398080	2560.906154
990.694180	2414.712692
990.990244	2560.906154
991.286271	2588.632500
991.582262	2462.603654
991.878217	2455.041923
992.174136	2523.097500
992.470019	2434.877308
992.765865	2538.220962
993.061676	2495.371154
993.357450	2442.439038
993.653188	2424.795000
993.948890	2528.138654
994.244556	2548.303269
994.540186	2543.262115
994.835780	2505.453462
995.131337	2402.109808
995.426859	2371.862885
995.722345	2492.850577
996.017795	2480.247692
996.313208	2482.768269
996.608586	2470.165385
996.903928	2525.618077
997.199234	2424.795000
997.494504	2490.330000
997.789738	2460.083077
998.084936	2490.330000
998.380099	2533.179808
998.675225	2523.097500
998.970316	2429.836154
999.265371	2404.630385
999.560390	2570.988462
999.855373	2490.330000
1000.150320	2596.194231
1000.445232	2434.877308
1000.740108	2472.685962
1001.034948	2429.836154
1001.329752	2505.453462
1001.624521	2462.603654
1001.919254	2417.233269
1002.213951	2460.083077
1002.508613	2455.041923
1002.803239	2518.056346
1003.097829	2465.124231
1003.392384	2452.521346
1003.686903	2480.247692
1003.981386	2507.974038
1004.275834	2452.521346
1004.570246	2613.838269
1004.864623	2505.453462
1005.158964	2485.288846
1005.453270	2487.809423
1005.747540	2460.083077
1006.041775	2515.535769
1006.335974	2427.315577
1006.630138	2538.220962
1006.924266	2482.768269
1007.218359	2545.782692
1007.512416	2492.850577
1007.806438	2538.220962
1008.100425	2507.974038
1008.394376	2419.753846
1008.688292	2502.932885
1008.982172	2490.330000
1009.276017	2538.220962
1009.569827	2502.932885
1009.863602	2581.070769
1010.157341	2419.753846
1010.451045	2414.712692
1010.744714	2407.150962
1011.038347	2485.288846
1011.331945	2485.288846
1011.625508	2530.659231
1011.919036	2533.179808
1012.212528	2452.521346
1012.505986	2487.809423
1012.799408	2487.809423
1013.092795	2510.494615
1013.386147	2500.412308
1013.679464	2465.124231
1013.972745	2482.768269
1014.265992	2472.685962
1014.559204	2535.700385
1014.852380	2505.453462
1015.145521	2482.768269
1015.438628	2510.494615
1015.731699	2500.412308
1016.024736	2538.220962
1016.317737	2528.138654
1016.610703	2470.165385
1016.903635	2510.494615
1017.196531	2470.165385
1017.489393	2462.603654
1017.782219	2477.727115
1018.075011	2520.576923
1018.367768	2510.494615
1018.660490	2480.247692
1018.953177	2480.247692
1019.245829	2480.247692
