Dividing Wavelength (nm)	Counts (n)	Blue Motor Position (mm): 2.500000	Red Motor Position (mm): 0.000000	
326.493990	2141.865282
326.888308	2141.865282
327.282561	2141.865282
327.676750	2111.779675
328.070874	2110.539552
328.464933	2113.738164
328.858929	2119.139760
329.252859	2127.913888
329.646726	2139.306896
330.040528	2151.350213
330.434265	2169.687410
330.827938	2188.879082
331.221547	2204.889787
331.615091	2224.313353
332.008571	2246.862434
332.401986	2261.958169
332.795338	2281.296035
333.188625	2305.034829
333.581847	2321.327838
333.975006	2336.960456
334.368100	2358.587006
334.761129	2376.649460
335.154095	2393.134033
335.546996	2409.122053
335.939833	2422.221491
336.332606	2438.920313
336.725315	2451.694597
337.117960	2459.430247
337.510540	2467.070116
337.903056	2481.127374
338.295508	2485.918990
338.687896	2496.255876
339.080220	2506.086126
339.472480	2509.493946
339.864676	2513.567199
340.256807	2519.921573
340.648875	2521.827129
341.040879	2525.464322
341.432818	2527.032121
341.824694	2528.443644
342.216506	2529.973634
342.608253	2529.489683
342.999937	2528.521782
343.391557	2528.683098
343.783113	2528.390712
344.174605	2526.709487
344.566033	2522.885772
344.957397	2525.509692
345.348697	2521.696059
345.739934	2521.166738
346.131106	2518.636079
346.522215	2515.825636
346.913260	2514.146931
347.304241	2514.111643
347.695159	2511.235665
348.086012	2509.831704
348.476802	2508.614265
348.867528	2507.739625
349.258191	2505.773575
349.648789	2503.537823
350.039324	2502.834582
350.429796	2501.523882
350.820203	2498.473984
351.210548	2501.221413
351.600828	2499.426762
351.991045	2498.098418
352.381198	2493.979795
352.771288	2493.952069
353.161314	2494.882162
353.551276	2496.916268
353.941175	2495.313181
354.331010	2494.715804
354.720782	2495.045999
355.110490	2494.778818
355.500135	2492.691781
355.889717	2496.719663
356.279235	2494.925012
356.668689	2495.688747
357.058080	2496.059271
357.447408	2494.945176
357.836672	2493.384939
358.225873	2493.490803
358.615010	2493.843684
359.004084	2497.584220
359.393095	2496.689416
359.782043	2497.422903
360.170927	2499.056237
360.559748	2498.680671
360.948505	2499.673779
361.337199	2498.229488
361.725830	2501.627226
362.114398	2502.653101
362.502903	2504.283914
362.891344	2502.776609
363.279722	2502.297699
363.668037	2504.394819
364.056289	2503.736949
364.444478	2504.697288
364.832603	2503.628564
365.220665	2507.684172
365.608665	2506.587721
365.996601	2506.743997
366.384474	2509.456138
366.772284	2507.921106
367.160031	2506.822135
367.547715	2507.742145
367.935336	2511.228103
368.322893	2508.861282
368.710388	2506.360869
369.097820	2510.131652
369.485189	2509.418329
369.872495	2509.239368
370.259738	2511.238186
370.646918	2511.593587
371.034035	2509.980418
371.421090	2511.588546
371.808081	2510.592918
372.195010	2514.220028
372.581875	2508.823473
372.968678	2511.321365
373.355418	2512.410254
373.742096	2510.691220
374.128710	2513.731036
374.515262	2514.330933
374.901751	2513.063083
375.288177	2512.382528
375.674540	2513.305059
376.060841	2514.956037
376.447079	2513.473937
376.833254	2517.776562
377.219367	2507.066631
377.605417	2511.197856
377.991404	2510.466889
378.377329	2510.943278
378.763191	2508.505880
379.148991	2515.341685
379.534727	2512.904287
379.920402	2515.568537
380.306013	2514.126767
380.691563	2515.984432
381.077049	2514.489730
381.462474	2516.657426
381.847835	2514.910666
382.233134	2520.418127
382.618371	2515.959226
383.003545	2516.130625
383.388657	2517.025430
383.773706	2517.005266
384.158693	2517.993332
384.543618	2520.292098
384.928480	2518.396624
385.313280	2520.783610
385.698017	2515.223218
386.082692	2518.678929
386.467305	2519.316635
386.851856	2518.565503
387.236344	2518.535256
387.620770	2519.982067
388.005133	2516.735564
388.389435	2519.160359
388.773674	2520.587005
389.157851	2517.582478
389.541965	2519.750174
389.926018	2519.130112
390.310008	2520.571882
390.693936	2521.030627
391.077802	2519.409896
391.461606	2521.010462
391.845348	2522.825278
392.229027	2521.219670
392.612645	2521.799403
392.996200	2524.196472
393.379694	2520.869310
393.763125	2524.032634
394.146494	2520.962571
394.529801	2522.931142
394.913047	2522.401821
395.296230	2524.619928
395.679351	2524.118334
396.062410	2523.778056
396.445408	2522.789990
396.828343	2525.038344
397.211217	2517.763959
397.594028	2520.118178
397.976778	2518.459638
398.359466	2522.033817
398.742092	2517.572395
399.124656	2524.599764
399.507158	2525.106400
399.889598	2526.807789
400.271977	2524.367871
400.654294	2526.258303
401.036549	2525.403828
401.418742	2526.263345
401.800874	2526.507841
402.182944	2526.535567
402.564952	2525.923067
402.946898	2526.777542
403.328783	2525.555063
403.710606	2527.072450
404.092367	2526.936339
404.474067	2527.977337
404.855705	2525.890299
405.237282	2528.393232
405.618797	2527.765608
406.000250	2524.841739
406.381642	2525.930628
406.762972	2528.909950
407.144240	2529.666123
407.525447	2528.859539
407.906593	2528.993129
408.287677	2529.540095
408.668700	2529.580424
409.049661	2529.678726
409.430560	2528.529343
409.811399	2527.579086
410.192176	2526.129754
410.572891	2528.781401
410.953545	2529.093952
411.334138	2530.414735
411.714669	2530.182842
412.095139	2530.573531
412.475547	2527.329549
412.855894	2529.769467
413.236180	2531.155784
413.616405	2530.281144
413.996568	2529.645959
414.376670	2532.423635
414.756711	2529.517409
415.136691	2532.418593
415.516609	2532.322812
415.896466	2531.274252
416.276262	2532.239633
416.655997	2529.766947
417.035670	2528.869621
417.415283	2529.071267
417.794834	2528.453726
418.174324	2529.903058
418.553753	2534.369520
418.933121	2534.172915
419.312428	2534.382123
419.691674	2533.724252
420.070859	2533.583100
420.449983	2532.728624
420.829045	2532.963038
421.208047	2534.616537
421.586988	2531.957328
421.965867	2532.713501
422.344686	2533.852802
422.723444	2535.213913
423.102141	2535.929757
423.480777	2534.465302
423.859352	2534.122503
424.237866	2535.360107
424.616319	2535.874304
424.994712	2535.589479
425.373044	2534.646783
425.751314	2533.968748
426.129524	2536.484284
426.507673	2534.248532
426.885762	2537.585776
427.263789	2536.287679
427.641756	2533.636032
428.019662	2537.812628
428.397508	2535.670138
428.775292	2534.792977
429.153016	2535.786084
429.530679	2537.686599
429.908282	2536.925385
430.285824	2535.370189
430.663305	2534.432534
431.040726	2535.181146
431.418086	2534.102339
431.795385	2535.707946
432.172624	2537.200128
432.549802	2536.779192
432.926920	2538.525951
433.303977	2538.790612
433.680974	2538.319264
434.057910	2538.422608
434.434786	2536.363296
434.811601	2539.057793
435.188355	2535.486136
435.565050	2538.538554
435.941683	2539.947557
436.318257	2538.830941
436.694770	2533.676361
437.071222	2537.104346
437.447614	2532.589993
437.823946	2534.430014
438.200218	2535.816331
438.576429	2542.221117
438.952580	2540.612989
439.328670	2539.929913
439.704700	2541.172557
440.080670	2539.486291
440.456580	2538.510828
440.832429	2538.997299
441.208218	2538.513348
441.583947	2538.243647
441.959616	2535.410518
442.335224	2541.848072
442.710773	2539.251878
443.086261	2539.216589
443.461689	2537.396733
443.837057	2540.527289
444.212365	2539.645088
444.587612	2540.224820
444.962800	2541.863195
445.337927	2541.311189
445.712995	2539.481250
446.088002	2539.811446
446.462949	2541.888401
446.837837	2538.914120
447.212664	2543.678011
447.587431	2541.593493
447.962139	2541.659028
448.336786	2544.766900
448.711374	2543.073072
449.085901	2542.125335
449.460369	2540.746580
449.834776	2540.418905
450.209124	2540.426466
450.583412	2540.905376
450.957640	2541.280942
451.331808	2543.786395
451.705917	2538.372196
452.079965	2542.329502
452.453954	2542.601724
452.827883	2543.045346
453.201752	2542.631971
453.575562	2543.400747
453.949311	2541.953936
454.323001	2541.638864
454.696632	2543.047866
455.070202	2543.385624
455.443713	2541.835469
455.817164	2541.691796
456.190556	2540.592824
456.563888	2543.095757
456.937160	2538.173071
457.310373	2544.343443
457.683526	2540.930582
458.056619	2542.755479
458.429653	2540.504604
458.802628	2543.718340
459.175542	2544.925696
459.548398	2544.308155
459.921194	2548.003321
460.293930	2546.937117
460.666607	2544.149358
461.039224	2547.113557
461.411782	2545.510470
461.784280	2546.622044
462.156719	2544.499719
462.529099	2546.589277
462.901419	2543.826725
463.273680	2547.320244
463.645882	2544.351005
464.018024	2542.868905
464.390106	2546.226314
464.762130	2543.267157
465.134094	2544.361087
465.505999	2543.720860
465.877845	2543.773792
466.249631	2545.722198
466.621358	2544.262784
466.993026	2547.169010
467.364634	2548.552806
467.736184	2545.316386
468.107674	2543.110881
468.479105	2544.678680
468.850477	2544.615665
469.221790	2546.233876
469.593043	2544.013247
469.964238	2547.095913
470.335373	2543.279759
470.706449	2547.542055
471.077467	2544.812270
471.448425	2545.563402
471.819324	2545.414688
472.190164	2547.153886
472.560945	2546.483413
472.931667	2545.142466
473.302330	2546.639688
473.672934	2546.201108
474.043479	2545.633978
474.413965	2546.170861
474.784393	2542.992414
475.154761	2545.512991
475.525070	2541.979142
475.895321	2543.554502
476.265513	2541.462423
476.635645	2547.922662
477.005719	2546.044832
477.375734	2548.094061
477.745691	2543.988042
478.115588	2548.635985
478.485427	2547.289997
478.855207	2550.546583
479.224928	2546.856458
479.594591	2545.505429
479.964194	2546.019627
480.333739	2547.065666
480.703226	2547.060625
481.072653	2548.913249
481.442022	2546.881664
481.811333	2545.581046
482.180584	2547.292518
482.549777	2549.997097
482.918912	2545.528114
483.287988	2547.809236
483.657005	2548.255378
484.025964	2547.368135
484.394864	2550.297046
484.763706	2547.552137
485.132489	2547.123639
485.501213	2550.861655
485.869879	2548.467107
486.238487	2547.274874
486.607036	2544.817311
486.975527	2548.348640
487.343959	2547.879812
487.712333	2547.360573
488.080648	2545.686910
488.448905	2548.663712
488.817104	2550.418033
489.185244	2548.998948
489.553326	2547.912580
489.921350	2546.138094
490.289315	2549.682025
490.657222	2550.717982
491.025070	2546.107847
491.392861	2549.127498
491.760593	2549.067004
492.128267	2550.102961
492.495883	2548.855276
492.863440	2549.046839
493.230939	2548.487271
493.598380	2548.777138
493.965763	2544.489636
494.333088	2545.465100
494.700354	2542.863864
495.067563	2549.041798
495.434713	2546.327137
495.801805	2548.235214
496.168839	2550.133208
496.535815	2547.458876
496.902733	2548.436860
497.269593	2548.918290
497.636395	2548.948537
498.003139	2548.605738
498.369825	2547.831921
498.736453	2551.950544
499.103023	2548.872920
499.469535	2550.546583
499.835989	2546.964843
500.202385	2547.927703
500.568723	2551.459032
500.935003	2549.588763
501.301226	2550.181099
501.667390	2547.932744
502.033497	2549.608928
502.399546	2548.819988
502.765537	2547.985677
503.131470	2550.476007
503.497345	2549.225800
503.863163	2548.633465
504.228923	2550.433157
504.594625	2552.484906
504.960269	2548.101623
505.325856	2549.200595
505.691385	2550.528939
506.056856	2549.162786
506.422270	2549.853424
506.787625	2550.589432
507.152924	2549.755122
507.518164	2550.680173
507.883347	2551.297715
508.248472	2549.077086
508.613540	2550.249155
508.978550	2551.078424
509.343503	2550.869217
509.708398	2552.923487
510.073236	2550.586912
510.438016	2551.464073
510.802738	2549.566078
511.167403	2548.580533
511.532010	2549.707231
511.896561	2551.713610
512.261053	2549.989535
512.625488	2545.134904
512.989866	2546.576674
513.354186	2549.278733
513.718449	2545.666746
514.082655	2550.297046
514.446803	2551.128836
514.810894	2548.394010
515.174927	2554.350133
515.538904	2553.233518
515.902822	2548.114226
516.266684	2552.126984
516.630488	2549.969371
516.994235	2552.666388
517.357925	2549.929041
517.721558	2551.053219
518.085133	2551.955585
518.448651	2551.872406
518.812112	2550.995245
519.175516	2550.944834
519.538863	2553.452808
519.902152	2548.787220
520.265385	2552.313507
520.628560	2552.094217
520.991678	2547.975594
521.354739	2552.492468
521.717743	2553.402396
522.080690	2550.733105
522.443580	2551.953065
522.806413	2552.628579
523.169189	2548.394010
523.531908	2549.984494
523.894569	2551.769062
524.257174	2553.964485
524.619722	2552.615976
524.982213	2552.316028
525.344647	2551.055739
525.707025	2551.958106
526.069345	2550.546583
526.431608	2555.071018
526.793815	2551.300235
527.155964	2550.533980
527.518057	2551.174206
527.880093	2550.113043
528.242072	2552.903322
528.603995	2551.663198
528.965860	2551.378373
529.327669	2554.738302
529.689421	2549.087169
530.051117	2549.397200
530.412755	2551.786707
530.774337	2552.691594
531.135862	2548.832590
531.497331	2550.594474
531.858743	2545.805378
532.220098	2548.575492
532.581396	2547.658002
532.942638	2548.235214
533.303824	2552.754608
533.664953	2550.065153
534.026025	2552.709238
534.387040	2551.466593
534.747999	2551.612787
535.108902	2552.444577
535.469748	2550.481048
535.830537	2552.237890
536.191270	2553.954403
536.551947	2552.079093
536.912567	2556.454815
537.273131	2551.564896
537.633638	2553.853580
537.994089	2553.127653
538.354483	2551.517005
538.714821	2551.363250
539.075103	2551.111192
539.435328	2550.407951
539.795497	2553.510781
540.155609	2552.628579
540.515665	2552.343754
540.875665	2553.006666
541.235609	2552.063970
541.595496	2552.565565
541.955328	2549.969371
542.315102	2553.155380
542.674821	2554.710576
543.034483	2553.246121
543.394090	2549.959288
543.753640	2554.836605
544.113134	2551.007848
544.472571	2554.342572
544.831953	2549.571119
545.191278	2554.186296
545.550548	2552.830225
545.909761	2551.297715
546.268918	2549.853424
546.628019	2554.634958
546.987064	2555.280226
547.346053	2553.646892
547.704986	2551.983312
548.063863	2552.210163
548.422684	2553.389793
548.781449	2551.665719
549.140158	2552.341233
549.498811	2551.958106
549.857408	2552.217725
550.215949	2552.731923
550.574434	2547.947868
550.932864	2549.951727
551.291237	2548.746891
551.649555	2552.376522
552.007817	2554.771070
552.366022	2551.960626
552.724173	2549.072045
553.082267	2554.939948
553.440305	2551.640513
553.798288	2553.447767
554.156215	2552.661347
554.514086	2551.998435
554.871902	2552.391645
555.229661	2553.336861
555.587365	2553.394835
555.945014	2552.260575
556.302606	2552.401727
556.660143	2555.078580
557.017625	2551.973229
557.375050	2555.774259
557.732421	2552.837787
558.089735	2551.940462
558.446994	2552.101779
558.804197	2555.242417
559.161345	2551.658157
559.518437	2553.266285
559.875474	2553.808209
560.232455	2553.719989
560.589381	2554.118240
560.946251	2556.603529
561.303065	2551.804351
561.659825	2554.181255
562.016528	2553.409958
562.373177	2553.238559
562.729770	2553.094886
563.086307	2552.820143
563.442789	2553.127653
563.799216	2552.870555
564.155587	2551.133877
564.511904	2551.948023
564.868164	2553.324258
565.224370	2554.524053
565.580520	2551.814433
565.936615	2551.128836
566.292654	2551.390976
566.648638	2554.634958
567.004567	2552.749567
567.360441	2553.238559
567.716260	2553.316697
568.072023	2554.559341
568.427732	2549.281253
568.783385	2551.683363
569.138982	2547.627755
569.494525	2551.033054
569.850013	2547.428629
570.205445	2552.893240
570.560823	2553.815771
570.916145	2551.085986
571.271412	2550.763352
571.626625	2555.141594
571.981782	2552.353836
572.336884	2553.914073
572.691931	2553.838456
573.046923	2554.219063
573.401860	2551.683363
573.756743	2552.126984
574.111570	2552.379042
574.466342	2551.622869
574.821059	2550.760832
575.175722	2553.316697
575.530330	2552.600853
575.884882	2550.405430
576.239380	2553.248641
576.593823	2555.224773
576.948211	2553.006666
577.302544	2552.540359
577.656823	2551.877447
578.011047	2554.012376
578.365216	2553.667057
578.719330	2556.074208
579.073389	2554.803837
579.427394	2551.620348
579.781344	2553.054557
580.135239	2553.702345
580.489080	2550.448280
580.842866	2551.176727
581.196597	2554.239228
581.550273	2552.857952
581.903895	2551.882488
582.257463	2555.844835
582.610975	2553.641851
582.964434	2554.095555
583.317837	2553.460370
583.671186	2550.826367
584.024481	2554.546738
584.377721	2552.963816
584.730906	2553.581357
585.084037	2554.753426
585.437113	2551.867365
585.790135	2556.210319
586.143103	2551.471634
586.496016	2553.311656
586.848874	2551.993394
587.201679	2553.102448
587.554428	2550.415513
587.907124	2552.847869
588.259765	2548.063814
588.612352	2557.082439
588.964884	2555.338199
589.317362	2553.334341
589.669786	2552.361398
590.022155	2554.950031
590.374470	2553.004145
590.726731	2554.897098
591.078937	2550.672612
591.431090	2557.117727
591.783188	2552.918446
592.135232	2555.565051
592.487222	2553.558672
592.839157	2553.984650
593.191038	2553.523384
593.542866	2553.992211
593.894639	2553.631769
594.246358	2553.725030
594.598022	2552.827705
594.949633	2554.370298
595.301190	2554.022458
595.652692	2553.518343
596.004141	2552.253013
596.355535	2556.442212
596.706876	2552.714279
597.058162	2552.540359
597.409395	2551.794268
597.760573	2552.149670
598.111698	2556.205278
598.462768	2553.455328
598.813785	2554.829043
599.164748	2555.985988
599.515657	2552.832746
599.866511	2554.738302
600.217312	2553.914073
600.568060	2553.064639
600.918753	2554.297201
601.269392	2551.509443
601.619978	2553.193188
601.970510	2554.266954
602.320988	2553.147818
602.671412	2551.154042
603.021783	2553.556152
603.372100	2553.046995
603.722363	2552.830225
604.072572	2554.075390
604.422728	2555.096224
604.772830	2551.983312
605.122878	2549.770245
605.472872	2548.167158
605.822813	2551.186809
606.172701	2550.443239
606.522534	2554.224104
606.872314	2551.406099
607.222041	2553.256203
607.571714	2554.271995
607.921333	2553.823333
608.270899	2552.048847
608.620411	2552.363919
608.969870	2557.841132
609.319276	2555.847356
609.668627	2556.051523
610.017926	2559.630742
610.367171	2561.266596
610.716362	2561.349775
611.065500	2558.657799
611.414585	2556.558159
611.763616	2555.164280
612.112594	2555.045813
612.461518	2555.617983
612.810389	2557.090000
613.159207	2556.911039
613.507971	2551.605225
613.856682	2555.383570
614.205340	2554.067829
614.553945	2554.491286
614.902496	2555.663354
615.250994	2553.472973
615.599439	2555.872562
615.947830	2555.615463
616.296169	2552.449618
616.644454	2556.439692
616.992686	2551.597663
617.340864	2553.861141
617.688990	2553.495658
618.037063	2553.858621
618.385082	2552.537838
618.733048	2555.870041
619.080961	2552.860472
619.428821	2553.228477
619.776628	2553.140256
620.124382	2554.445915
620.472083	2553.112530
620.819731	2553.107489
621.167326	2553.586398
621.514868	2552.258054
621.862357	2550.334854
622.209793	2554.471121
622.557176	2555.877603
622.904506	2549.437529
623.251783	2551.242262
623.599007	2553.790565
623.946179	2549.371994
624.293297	2553.392314
624.640363	2555.028168
624.987376	2552.714279
625.334336	2550.435677
625.681243	2552.762170
626.028097	2554.834084
626.374899	2555.204609
626.721647	2554.161090
627.068343	2553.057077
627.414987	2554.279557
627.761577	2554.521533
628.108115	2553.546069
628.454600	2553.810730
628.801032	2552.232849
629.147412	2551.879968
629.493739	2553.984650
629.840014	2556.023796
630.186236	2553.687222
630.532405	2553.505740
630.878521	2552.368960
631.224585	2554.231666
631.570597	2553.974567
631.916556	2556.507747
632.262462	2554.445915
632.608316	2554.766028
632.954117	2553.846018
633.299866	2555.237376
633.645562	2553.644372
633.991206	2556.434650
634.336797	2554.909701
634.682336	2555.408776
635.027823	2552.273178
635.373257	2554.486244
635.718639	2552.633620
636.063968	2554.206460
636.409245	2552.497509
636.754470	2552.066491
637.099642	2552.021120
637.444762	2554.307283
637.789829	2554.778631
638.134845	2553.954403
638.479808	2549.432488
638.824719	2551.650595
639.169577	2552.033723
639.514383	2552.663867
639.859137	2552.137067
640.203839	2554.831563
640.548489	2550.042467
640.893086	2550.430636
641.237632	2550.029864
641.582125	2549.767724
641.926566	2550.410472
642.270955	2554.277037
642.615292	2552.807540
642.959576	2552.376522
643.303809	2550.307128
643.647990	2554.506409
643.992118	2555.494475
644.336195	2555.121430
644.680219	2551.406099
645.024192	2555.365926
645.368112	2555.693601
645.711981	2553.770401
646.055797	2551.600184
646.399562	2553.689742
646.743274	2552.875596
647.086935	2551.292673
647.430544	2553.568754
647.774101	2551.988353
648.117606	2550.400389
648.461059	2552.600853
648.804460	2555.857438
649.147810	2550.831408
649.491108	2553.949362
649.834354	2553.856100
650.177548	2555.285267
650.520690	2550.289484
650.863781	2553.573796
651.206820	2554.065308
651.549807	2553.321738
651.892742	2555.870041
652.235626	2551.958106
652.578458	2549.404761
652.921238	2553.674619
653.263967	2552.850390
653.606644	2552.991542
653.949269	2551.542211
654.291843	2552.459701
654.634365	2551.196892
654.976836	2553.818292
655.319255	2552.270657
655.661622	2552.704197
656.003938	2552.497509
656.346203	2554.582026
656.688416	2552.167314
657.030577	2550.302087
657.372687	2552.013558
657.714746	2551.698486
658.056753	2551.892571
658.398708	2547.925183
658.740612	2548.721685
659.082465	2550.231511
659.424266	2548.179761
659.766016	2548.051212
660.107715	2552.457180
660.449362	2552.525236
660.790958	2555.360885
661.132503	2549.843342
661.473996	2553.672098
661.815438	2551.900132
662.156829	2552.689073
662.498168	2553.609084
662.839456	2552.197561
663.180693	2554.962633
663.521879	2551.111192
663.863013	2551.229659
664.204097	2552.641182
664.545129	2553.256203
664.886110	2551.885009
665.227040	2551.519525
665.567918	2551.295194
665.908746	2554.564382
666.249522	2551.915256
666.590248	2553.493137
666.930922	2548.567930
667.271545	2551.988353
667.612118	2553.281409
667.952639	2551.862324
668.293109	2553.919115
668.633528	2552.716799
668.973896	2548.608259
669.314213	2551.774104
669.654480	2552.812581
669.994695	2554.345092
670.334859	2554.014897
670.674973	2552.351316
671.015035	2552.162272
671.355047	2549.790410
671.695008	2553.009186
672.034918	2551.073383
672.374777	2550.859134
672.714585	2554.350133
673.054342	2554.448436
673.394049	2552.626059
673.733705	2554.904660
674.073310	2553.702345
674.412864	2553.034392
674.752368	2551.718651
675.091820	2552.310987
675.431223	2551.723692
675.770574	2555.078580
676.109875	2545.127342
676.449125	2549.440049
676.788324	2545.321427
677.127473	2549.644216
677.466571	2549.734957
677.805619	2553.997252
678.144616	2550.745708
678.483562	2553.838456
678.822458	2554.145967
679.161303	2556.169990
679.500098	2552.689073
679.838842	2554.977757
680.177535	2549.881150
680.516179	2555.560010
680.854771	2550.740667
681.193314	2554.327448
681.531805	2551.423743
681.870247	2556.686708
682.208638	2549.871068
682.546978	2552.789896
682.885268	2549.755122
683.223508	2550.957437
683.561697	2550.924669
683.899836	2550.884340
684.237925	2551.350647
684.575963	2553.097407
684.913951	2551.890050
685.251889	2555.083621
685.589776	2552.479865
685.927614	2551.096068
686.265401	2552.076573
686.603137	2549.855945
686.940824	2552.855431
687.278460	2551.716130
687.616046	2552.570606
687.953582	2553.377191
688.291068	2554.143446
688.628504	2553.092365
688.965889	2553.014227
689.303224	2553.881306
689.640510	2550.596994
689.977745	2549.820657
690.314930	2552.971378
690.652065	2552.484906
690.989150	2550.692776
691.326185	2552.905843
691.663170	2552.663867
692.000105	2553.167983
692.336990	2551.713610
692.673825	2551.123795
693.010610	2552.530277
693.347345	2549.440049
693.684030	2546.939637
694.020665	2547.186654
694.357251	2546.206149
694.693786	2550.201264
695.030272	2551.859803
695.366707	2550.977601
695.703093	2551.184289
696.039429	2550.145811
696.375716	2552.537838
696.711952	2550.183620
697.048139	2551.645554
697.384276	2551.118754
697.720363	2551.814433
698.056400	2550.579350
698.392388	2551.237221
698.728326	2551.559855
699.064214	2551.390976
699.400053	2551.015410
699.735842	2551.718651
700.071581	2552.575647
700.407270	2551.471634
700.742910	2553.228477
701.078501	2552.275698
701.414042	2553.263765
701.749533	2550.372663
702.084974	2549.629093
702.420366	2552.023641
702.755709	2552.585729
703.091002	2550.178578
703.426246	2548.530121
703.761440	2552.494989
704.096584	2549.984494
704.431679	2549.344267
704.766725	2549.974412
705.101721	2553.926676
705.436668	2550.846531
705.771565	2549.752601
706.106413	2551.446429
706.441212	2550.203784
706.775961	2552.558003
707.110661	2553.150339
707.445311	2549.361912
707.779913	2553.851059
708.114465	2552.101779
708.448967	2551.552293
708.783421	2551.769062
709.117825	2551.562375
709.452180	2551.519525
709.786485	2551.479196
710.120742	2549.124977
710.454949	2552.799978
710.789107	2550.218908
711.123216	2548.283105
711.457275	2551.985832
711.791286	2546.304452
712.125247	2549.492982
712.459159	2551.464073
712.793023	2552.437015
713.126837	2551.363250
713.460602	2551.474155
713.794318	2548.038609
714.127985	2550.972560
714.461602	2549.906356
714.795171	2553.077242
715.128691	2550.004659
715.462162	2550.798640
715.795584	2551.456511
716.128957	2551.680842
716.462281	2552.391645
716.795556	2550.901984
717.128782	2551.844680
717.461960	2548.910728
717.795088	2550.450801
718.128167	2552.507592
718.461198	2550.929710
718.794180	2550.841490
719.127113	2549.621531
719.459997	2550.556665
719.792833	2548.704041
720.125619	2549.863506
720.458357	2550.798640
720.791046	2551.973229
721.123686	2552.298384
721.456278	2553.800647
721.788821	2550.193702
722.121315	2553.407438
722.453761	2550.808723
722.786158	2551.005328
723.118506	2549.561037
723.450805	2551.658157
723.783056	2551.166645
724.115259	2552.437015
724.447412	2552.384083
724.779518	2549.863506
725.111574	2551.789227
725.443582	2550.614638
725.775542	2550.473486
726.107453	2551.305276
726.439315	2551.214536
726.771129	2553.031872
727.102895	2550.959957
727.434612	2551.942982
727.766281	2550.037426
728.097901	2547.549617
728.429473	2547.269833
728.760996	2549.107333
729.092471	2547.385779
729.423897	2550.970040
729.755276	2550.675132
730.086606	2553.162942
730.417887	2551.842159
730.749120	2551.390976
731.080305	2549.775286
731.411442	2552.802499
731.742530	2550.586912
732.073570	2552.530277
732.404562	2549.631613
732.735506	2550.440718
733.066401	2551.166645
733.397249	2548.908208
733.728048	2551.736295
734.058798	2554.405586
734.389501	2550.982642
734.720156	2550.831408
735.050762	2550.899463
735.381320	2552.797458
735.711831	2551.096068
736.042293	2547.589946
736.372707	2549.863506
736.703073	2551.640513
737.033391	2549.346788
737.363661	2549.689587
737.693883	2549.860986
738.024056	2554.897098
738.354182	2551.670760
738.684260	2550.029864
739.014290	2551.577499
739.344272	2549.525749
739.674207	2550.773435
740.004093	2551.872406
740.333931	2550.513815
740.663722	2550.508774
740.993464	2551.156562
741.323159	2551.940462
741.652806	2549.777807
741.982405	2552.605894
742.311956	2549.646737
742.641460	2548.772097
742.970915	2549.797971
743.300323	2547.221942
743.629683	2549.855945
743.958996	2550.975081
744.288260	2550.952396
744.617477	2550.634803
744.946647	2548.429298
745.275768	2548.968702
745.604842	2546.261602
745.933869	2550.947354
746.262847	2546.848896
746.591778	2548.799823
746.920662	2549.419885
747.249498	2551.542211
747.578286	2548.308310
747.907027	2551.537169
748.235720	2551.650595
748.564365	2554.307283
748.892963	2551.605225
749.221514	2552.142108
749.550017	2548.988866
749.878473	2550.856614
750.206881	2550.828887
750.535242	2550.486089
750.863555	2549.482899
751.191821	2551.713610
751.520039	2548.383928
751.848210	2549.046839
752.176334	2550.793599
752.504411	2547.857127
752.832440	2552.111861
753.160421	2551.194371
753.488356	2550.412992
753.816243	2552.343754
754.144082	2549.079607
754.471875	2548.767055
754.799620	2547.358053
755.127318	2548.005841
755.454969	2550.760832
755.782572	2551.403579
756.110129	2547.332847
756.437638	2548.598177
756.765100	2549.402241
757.092515	2550.609597
757.419882	2547.620193
757.747203	2551.428785
758.074477	2549.722354
758.401703	2548.714123
758.728882	2550.355019
759.056014	2550.448280
759.383099	2550.574309
759.710138	2551.809392
760.037129	2548.832590
760.364073	2550.665050
760.690970	2547.199257
761.017820	2548.686397
761.344623	2548.462066
761.671379	2549.253527
761.998088	2546.271684
762.324751	2546.705223
762.651366	2546.591798
762.977935	2548.764535
763.304456	2545.901159
763.630931	2550.652447
763.957359	2551.388455
764.283740	2549.009031
764.610074	2550.838970
764.936362	2552.305945
765.262602	2550.249155
765.588796	2547.390820
765.914943	2547.975594
766.241044	2548.005841
766.567097	2550.183620
766.893104	2550.206305
767.219064	2544.419060
767.544978	2550.198743
767.870845	2550.256716
768.196665	2547.955430
768.522438	2551.141439
768.848165	2553.856100
769.173846	2547.597508
769.499479	2551.058260
769.825066	2551.428785
770.150607	2547.670604
770.476101	2548.401572
770.801548	2550.876778
771.126949	2549.329144
771.452303	2549.808054
771.777611	2549.709751
772.102872	2548.036088
772.428087	2550.778476
772.753256	2550.859134
773.078378	2550.299566
773.403453	2549.003990
773.728482	2548.706562
774.053465	2550.932231
774.378401	2546.954761
774.703291	2550.244113
775.028135	2547.859648
775.352932	2550.549103
775.677683	2548.333516
776.002388	2549.160265
776.327046	2550.980122
776.651658	2551.048177
776.976224	2549.470296
777.300743	2549.777807
777.625216	2547.889895
777.949643	2550.760832
778.274024	2548.520039
778.598359	2544.668597
778.922647	2547.594987
779.246889	2547.529452
779.571086	2544.746735
779.895236	2546.821170
780.219339	2548.323434
780.543397	2550.218908
780.867409	2549.014072
781.191374	2548.825029
781.515294	2550.523898
781.839167	2545.631458
782.162995	2551.587581
782.486776	2547.375697
782.810511	2550.299566
783.134201	2549.366953
783.457844	2550.705379
783.781441	2552.000956
784.104993	2549.924000
784.428498	2548.562889
784.751958	2550.549103
785.075372	2546.488454
785.398739	2549.858465
785.722061	2549.835780
786.045337	2547.693290
786.368568	2547.559699
786.691752	2548.925852
787.014891	2548.779658
787.337983	2549.808054
787.661030	2549.682025
787.984031	2547.199257
788.306987	2549.177909
788.629897	2549.238403
788.952760	2551.539690
789.275579	2549.714792
789.598351	2553.175544
789.921078	2548.051212
790.243759	2548.502395
790.566395	2549.067004
790.888984	2549.162786
791.211529	2549.666901
791.534027	2548.394010
791.856480	2550.476007
792.178888	2551.824515
792.501249	2548.298228
792.823566	2551.915256
793.145836	2547.053063
793.468062	2551.373332
793.790241	2549.616490
794.112375	2548.210008
794.434464	2549.427447
794.756507	2548.762014
795.078505	2547.952909
795.400457	2548.414175
795.722364	2543.972918
796.044226	2547.859648
796.366042	2543.083154
796.687812	2548.646068
797.009538	2548.262940
797.331218	2549.732436
797.652852	2548.202446
797.974442	2548.557847
798.295986	2548.953578
798.617484	2549.500543
798.938938	2547.378218
799.260346	2547.194215
799.581709	2547.658002
799.903026	2549.984494
800.224299	2548.068856
800.545526	2548.782179
800.866708	2550.612118
801.187845	2548.552806
801.508936	2548.590615
801.829983	2549.944165
802.150984	2547.184133
802.471940	2548.383928
802.792851	2549.588763
803.113717	2550.952396
803.434538	2545.901159
803.755314	2550.622200
804.076045	2549.997097
804.396731	2549.447611
804.717372	2547.410985
805.037967	2547.726057
805.358518	2547.786551
805.679024	2547.710934
805.999485	2548.943496
806.319901	2548.883002
806.640272	2547.479041
806.960598	2547.632796
807.280879	2548.683876
807.601115	2549.019113
807.921306	2546.112888
808.241453	2549.795451
808.561554	2549.825698
808.881611	2549.142621
809.201623	2548.986346
809.521590	2549.603887
809.841513	2548.749411
810.161390	2543.562064
810.481223	2544.625747
810.801011	2546.795964
811.120755	2544.943340
811.440453	2546.899308
811.760107	2548.202446
812.079716	2546.894267
812.399281	2545.684390
812.718801	2544.908052
813.038276	2546.037271
813.357707	2546.783361
813.677093	2549.049360
813.996434	2546.206149
814.315731	2549.339226
814.634983	2549.510626
814.954191	2547.514329
815.273354	2549.954247
815.592473	2547.668084
815.911547	2550.037426
816.230577	2548.920811
816.549562	2547.985677
816.868502	2546.901828
817.187399	2546.362425
817.506250	2548.910728
817.825058	2547.070707
818.143821	2550.692776
818.462539	2548.635985
818.781213	2546.367466
819.099843	2549.775286
819.418429	2551.832077
819.736970	2548.794782
820.055466	2548.091541
820.373919	2548.111705
820.692327	2548.865358
821.010691	2548.477189
821.329011	2548.696479
821.647286	2549.087169
821.965517	2547.544576
822.283704	2546.473330
822.601847	2546.496016
822.919945	2545.306303
823.237999	2550.118085
823.556010	2548.267981
823.873976	2546.266643
824.191897	2549.571119
824.509775	2546.712785
824.827609	2549.581202
825.145398	2547.476520
825.463144	2548.754452
825.780845	2546.778320
826.098502	2546.841335
826.416116	2548.081458
826.733685	2546.279246
827.051210	2546.750594
827.368692	2547.320244
827.686129	2550.672612
828.003522	2547.806716
828.320872	2545.878474
828.638177	2547.617672
828.955439	2545.308824
829.272656	2545.707075
829.589830	2543.831766
829.906960	2548.605738
830.224046	2546.901828
830.541088	2548.139432
830.858086	2545.628937
831.175041	2551.380894
831.491952	2548.119267
831.808819	2548.633465
832.125642	2551.743857
832.442421	2547.279915
832.759157	2546.009544
833.075849	2548.005841
833.392497	2548.774617
833.709101	2547.209339
834.025662	2545.424770
834.342179	2548.278063
834.658653	2548.330996
834.975083	2543.798998
835.291469	2551.519525
835.607811	2549.306459
835.924110	2548.910728
836.240366	2550.022303
836.556578	2548.933413
836.872746	2547.995759
837.188871	2546.039791
837.504952	2547.055584
837.820990	2545.265974
838.136984	2546.874102
838.452935	2545.777651
838.768842	2549.245965
839.084706	2546.589277
839.400526	2549.288815
839.716303	2546.717826
840.032037	2548.734288
840.347727	2546.218752
840.663373	2545.535676
840.978977	2545.691952
841.294537	2546.758156
841.610054	2547.378218
841.925527	2547.821839
842.240957	2549.371994
842.556344	2548.935934
842.871687	2550.037426
843.186987	2549.492982
843.502244	2547.910059
843.817458	2546.541386
844.132629	2546.362425
844.447756	2550.962478
844.762840	2544.509801
845.077881	2544.988711
845.392879	2541.364121
845.707833	2544.575336
846.022745	2543.693134
846.337613	2547.766386
846.652438	2547.443753
846.967221	2546.440563
847.281960	2546.145655
847.596656	2546.647250
847.911309	2545.865871
848.225919	2547.456355
848.540485	2546.652291
848.855009	2548.290666
849.169490	2546.289328
849.483928	2547.325285
849.798323	2546.627086
850.112675	2547.017775
850.426984	2549.424926
850.741251	2548.336037
851.055474	2549.608928
851.369654	2545.250851
851.683792	2545.959133
851.997887	2548.522559
852.311938	2547.189174
852.625947	2546.659853
852.939914	2548.751932
853.253837	2545.581046
853.567718	2545.676828
853.881555	2547.743701
854.195350	2548.164637
854.509103	2548.590615
854.822812	2547.864689
855.136479	2547.012734
855.450103	2545.520552
855.763685	2544.184647
856.077224	2546.939637
856.390720	2546.939637
856.704173	2546.362425
857.017584	2545.719678
857.330953	2547.015254
857.644278	2547.773948
857.957561	2550.415513
858.270802	2548.152035
858.584000	2547.957950
858.897155	2549.087169
859.210268	2546.622044
859.523339	2548.686397
859.836367	2548.381407
860.149352	2544.900490
860.462295	2549.881150
860.775195	2541.648946
861.088054	2543.874616
861.400869	2546.120450
861.713642	2542.465613
862.026373	2544.282949
862.339062	2547.587425
862.651708	2547.804195
862.964312	2545.003834
863.276873	2546.748073
863.589392	2546.664894
863.901869	2546.896787
864.214303	2543.766231
864.526696	2547.108516
864.839045	2547.499205
865.151353	2551.012889
865.463619	2546.642209
865.775842	2545.442414
866.088023	2545.896118
866.400162	2545.830583
866.712258	2549.271171
867.024313	2547.761345
867.336325	2547.970553
867.648296	2548.618341
867.960224	2548.305790
868.272110	2545.434853
868.583954	2545.908721
868.895755	2546.942158
869.207515	2547.431150
869.519233	2547.103475
869.830909	2547.295038
870.142542	2546.364946
870.454134	2546.367466
870.765684	2547.842004
871.077191	2545.865871
871.388657	2548.066335
871.700081	2544.635830
872.011463	2547.226983
872.322803	2545.316386
872.634101	2547.098433
872.945357	2544.618186
873.256571	2548.031047
873.567744	2546.299411
873.878874	2546.528783
874.189963	2545.144986
874.501010	2547.892415
874.812015	2547.103475
875.122979	2547.773948
875.433900	2547.615152
875.744780	2546.128011
876.055618	2546.160779
876.366415	2546.191026
876.677169	2544.552651
876.987882	2544.686241
877.298554	2541.875798
877.609183	2544.807229
877.919771	2540.887732
878.230317	2545.989380
878.540822	2547.037940
878.851285	2548.338557
879.161707	2548.895605
879.472087	2546.581715
879.782425	2546.012065
880.092722	2549.561037
880.402977	2545.845707
880.713191	2547.678166
881.023363	2546.949719
881.333494	2545.535676
881.643583	2546.846376
881.953631	2547.206818
882.263637	2547.819318
882.573602	2547.085831
882.883526	2546.901828
883.193408	2543.667928
883.503248	2543.667928
883.813048	2546.798485
884.122806	2544.512322
884.432522	2547.796633
884.742197	2545.225645
885.051831	2547.461397
885.361424	2547.962991
885.670975	2546.841335
885.980485	2543.748587
886.289954	2546.349822
886.599382	2543.758669
886.908768	2546.538865
887.218113	2546.483413
887.527417	2546.798485
887.836680	2545.807898
888.145901	2546.722868
888.455082	2542.581560
888.764221	2547.335368
889.073319	2546.236396
889.382376	2545.381921
889.691392	2544.923176
890.000366	2549.722354
890.309300	2541.840510
890.618193	2545.749925
890.927044	2546.848896
891.235855	2548.141952
891.544625	2544.431663
891.853353	2547.597508
892.162041	2547.426108
892.470687	2546.480892
892.779293	2545.452497
893.087858	2542.531148
893.396381	2543.486447
893.704864	2542.432846
894.013306	2538.732639
894.321707	2547.284956
894.630068	2545.848227
894.938387	2543.471323
895.246665	2547.030378
895.554903	2545.681869
895.863100	2543.678011
896.171256	2545.502908
896.479371	2548.068856
896.787446	2546.294369
897.095480	2545.291180
897.403473	2545.288659
897.711425	2543.710778
898.019336	2543.020140
898.327207	2547.060625
898.635038	2548.179761
898.942827	2547.048022
899.250576	2546.848896
899.558284	2544.550130
899.865952	2546.705223
900.173579	2543.826725
900.481165	2546.538865
900.788711	2547.534493
901.096216	2547.105995
901.403681	2546.324616
901.711105	2547.158927
902.018489	2545.215563
902.325832	2548.454504
902.633135	2544.819832
902.940397	2546.916952
903.247619	2546.007024
903.554800	2543.156251
903.861941	2546.216232
904.169041	2547.443753
904.476101	2544.434184
904.783121	2544.378731
905.090100	2546.274205
905.397039	2546.112888
905.703938	2543.917465
906.010796	2545.772610
906.317614	2550.198743
906.624391	2543.317568
906.931129	2545.689431
907.237826	2546.611962
907.544483	2541.732125
907.851099	2547.610111
908.157675	2544.938299
908.464211	2546.818649
908.770707	2540.923020
909.077163	2542.276570
909.383578	2540.333205
909.689954	2542.281611
909.996289	2540.527289
910.302584	2545.863351
910.608839	2544.482075
910.915054	2545.379400
911.221229	2542.684903
911.527363	2545.114739
911.833458	2544.713968
912.139513	2546.977446
912.445527	2544.741694
912.751502	2548.260419
913.057436	2546.813608
913.363331	2547.239586
913.669186	2545.583567
913.975000	2545.049204
914.280775	2545.578526
914.586510	2545.303783
914.892205	2544.033412
915.197859	2545.258412
915.503475	2543.214224
915.809050	2543.670449
916.114585	2546.848896
916.420081	2545.432332
916.725536	2546.841335
917.030952	2546.407795
917.336328	2541.727084
917.641665	2545.497867
917.946961	2547.116077
918.252218	2545.850748
918.557435	2544.693803
918.862612	2547.237065
919.167750	2543.594832
919.472848	2540.895294
919.777906	2544.403937
920.082925	2543.128525
920.387904	2544.663556
920.692843	2546.004503
920.997743	2544.973587
921.302603	2546.737991
921.607423	2543.557023
921.912204	2542.503422
922.216946	2545.155069
922.521647	2547.179092
922.826310	2545.578526
923.130932	2544.829914
923.435516	2544.930737
923.740059	2546.979966
924.044564	2545.480223
924.349028	2544.862682
924.653454	2542.533669
924.957840	2543.796478
925.262186	2540.209697
925.566493	2542.198432
925.870761	2539.110725
926.174989	2542.755479
926.479178	2546.523742
926.783328	2545.407126
927.087438	2545.079451
927.391509	2546.092723
927.695541	2542.873947
927.999533	2545.089534
928.303486	2545.815460
928.607400	2546.619524
928.911275	2544.219935
929.215110	2543.763710
929.518906	2544.900490
929.822663	2547.045501
930.126381	2544.708927
930.430060	2547.501726
930.733699	2542.117773
931.037299	2543.425953
931.340861	2544.114070
931.644383	2545.631458
931.947866	2545.550799
932.251309	2545.568443
932.554714	2544.272867
932.858080	2547.421067
933.161407	2543.846889
933.464694	2546.070038
933.767943	2546.871582
934.071153	2543.647764
934.374323	2543.975439
934.677455	2543.367980
934.980548	2546.599359
935.283602	2543.811601
935.586617	2541.706919
935.889593	2542.899152
936.192530	2544.920655
936.495428	2545.139945
936.798287	2544.212373
937.101108	2544.446787
937.403890	2545.754966
937.706632	2545.351674
938.009336	2542.687424
938.312002	2546.468289
938.614628	2542.165664
938.917216	2546.012065
939.219765	2541.903524
939.522275	2543.574667
939.824747	2544.560212
940.127179	2543.798998
940.429573	2541.674152
940.731929	2541.757331
941.034246	2539.937474
941.336524	2544.663556
941.638763	2543.637681
941.940964	2545.760007
942.243126	2544.908052
942.545250	2545.374359
942.847335	2543.514173
943.149381	2544.991231
943.451389	2544.383772
943.753359	2544.018288
944.055290	2544.250182
944.357182	2543.398227
944.659036	2541.336395
944.960851	2547.206818
945.262628	2545.313865
945.564367	2546.138094
945.866067	2542.085006
946.167729	2544.671118
946.469352	2543.665408
946.770937	2545.177754
947.072484	2542.793288
947.373992	2540.812115
947.675462	2541.472506
947.976893	2545.328988
948.278286	2543.312527
948.579641	2545.001313
948.880958	2542.599204
949.182236	2545.825542
949.483476	2544.328319
949.784678	2543.914945
950.085841	2541.923689
950.386967	2546.014585
950.688054	2544.809750
950.989103	2544.398896
951.290114	2543.957795
951.591087	2543.436035
951.892021	2543.357897
952.192917	2542.871426
952.493776	2545.051725
952.794596	2547.010213
953.095378	2544.822353
953.396122	2544.827394
953.696828	2545.018957
953.997496	2543.902342
954.298126	2541.210366
954.598718	2544.900490
954.899272	2543.846889
955.199788	2544.033412
955.500266	2544.837476
955.800706	2543.395706
956.101108	2538.344470
956.401472	2540.665921
956.701798	2540.020653
957.002087	2544.555171
957.302337	2544.015768
957.602550	2541.875798
957.902724	2544.860161
958.202861	2545.896118
958.502960	2544.156920
958.803022	2543.839328
959.103045	2545.215563
959.403031	2545.518032
959.702979	2543.529297
960.002889	2542.589121
960.302762	2543.473844
960.602596	2544.882846
960.902393	2542.568957
961.202153	2542.347146
961.501875	2542.495860
961.801559	2544.542568
962.101205	2542.251364
962.400814	2543.773793
962.700385	2541.444779
962.999918	2546.062476
963.299414	2544.323278
963.598873	2544.245140
963.898293	2544.832435
964.197677	2544.396375
964.497022	2544.393854
964.796331	2545.026519
965.095601	2544.963505
965.394835	2542.397558
965.694030	2544.683721
965.993189	2545.863351
966.292309	2544.731612
966.591393	2542.848741
966.890439	2544.444266
967.189447	2544.993752
967.488419	2542.747918
967.787353	2543.945192
968.086249	2544.172044
968.385108	2542.563916
968.683930	2543.952753
968.982714	2543.163813
969.281462	2545.225645
969.580172	2544.527445
969.878844	2546.216232
970.177480	2543.541899
970.476078	2542.954605
970.774639	2545.780172
971.073162	2542.478216
971.371649	2540.668442
971.670098	2536.963194
971.968510	2541.311189
972.266885	2538.775488
972.565223	2542.150541
972.863524	2545.490305
973.161788	2545.616334
973.460014	2545.074410
973.758204	2544.119112
974.056356	2541.946374
974.354471	2541.785057
974.652550	2542.692465
974.950591	2542.382434
975.248595	2542.488298
975.546563	2546.105326
975.844493	2542.868905
976.142386	2546.725388
976.440243	2544.308155
976.738062	2545.490305
977.035845	2540.202135
977.333590	2545.482744
977.631299	2542.808412
977.928971	2542.901673
978.226606	2542.793288
978.524204	2542.054759
978.821765	2542.987373
979.119290	2543.060469
979.416777	2542.016950
979.714228	2544.174564
980.011642	2540.933102
980.309020	2546.493495
980.606360	2541.401930
980.903664	2543.274718
981.200931	2545.550799
981.498162	2542.710109
981.795356	2542.614327
982.092513	2544.683721
982.389633	2541.696837
982.686717	2542.795809
982.983764	2543.557023
983.280775	2544.587939
983.577749	2542.566436
983.874686	2544.996272
984.171587	2540.928061
984.468451	2542.992414
984.765279	2543.501570
985.062070	2544.671118
985.358824	2543.776313
985.655543	2542.092568
985.952224	2544.237579
986.248869	2544.272867
986.545478	2541.351518
986.842050	2540.000489
987.138586	2539.158616
987.435086	2540.492001
987.731549	2535.851619
988.027975	2545.795295
988.324366	2542.979811
988.620719	2542.324461
988.917037	2541.774975
989.213318	2541.684234
989.509563	2541.717002
989.805772	2543.652805
990.101944	2543.551982
990.398080	2543.632640
990.694180	2541.769934
990.990244	2541.701878
991.286271	2542.720191
991.582262	2542.664739
991.878217	2541.928730
992.174136	2543.975439
992.470019	2541.734646
992.765865	2544.121632
993.061676	2541.306148
993.357450	2542.619368
993.653188	2541.601055
993.948890	2541.807743
994.244556	2542.027033
994.540186	2545.654143
994.835780	2540.814635
995.131337	2544.729091
995.426859	2543.017619
995.722345	2541.008720
996.017795	2540.134079
996.313208	2542.740356
996.608586	2544.655994
996.903928	2541.422094
997.199234	2542.120294
997.494504	2540.862526
997.789738	2542.707588
998.084936	2542.518545
998.380099	2542.490819
998.675225	2541.331353
998.970316	2542.090047
999.265371	2546.332178
999.560390	2544.056097
999.855373	2544.187167
1000.150320	2542.944523
1000.445232	2544.030891
1000.740108	2542.049718
1001.034948	2544.870243
1001.329752	2544.527445
1001.624521	2545.631458
1001.919254	2537.237937
1002.213951	2539.463606
1002.508613	2540.658359
1002.803239	2539.451003
1003.097829	2536.968235
1003.392384	2540.744059
1003.686903	2545.162630
1003.981386	2542.911755
1004.275834	2542.722712
1004.570246	2544.401416
1004.864623	2543.604914
1005.158964	2542.344625
1005.453270	2543.715819
1005.747540	2545.787733
1006.041775	2540.088709
1006.335974	2546.700182
1006.630138	2542.102650
1006.924266	2543.413350
1007.218359	2543.141128
1007.512416	2541.381765
1007.806438	2541.374203
1008.100425	2542.377393
1008.394376	2541.885880
1008.688292	2542.760521
1008.982172	2541.127187
1009.276017	2544.774462
1009.569827	2540.696168
1009.863602	2544.749256
1010.157341	2541.134748
1010.451045	2543.720860
1010.744714	2542.226158
1011.038347	2545.036602
1011.331945	2543.037784
1011.625508	2543.983000
1011.919036	2542.899152
1012.212528	2544.487116
1012.505986	2539.261960
1012.799408	2540.539892
1013.092795	2543.221786
1013.386147	2543.229348
1013.679464	2544.502239
1013.972745	2542.269008
1014.265992	2541.883360
1014.559204	2544.373690
1014.852380	2544.744215
1015.145521	2542.168185
1015.438628	2542.304296
1015.731699	2541.069213
1016.024736	2543.274718
1016.317737	2543.955274
1016.610703	2540.187012
1016.903635	2538.760365
1017.196531	2535.612164
1017.489393	2541.129707
1017.782219	2535.798687
1018.075011	2540.234902
1018.367768	2543.156251
1018.660490	2540.870088
1018.953177	2540.870088
1019.245829	2540.870088
