Dividing Wavelength (nm)	Counts (n)	Blue Motor Position (mm): 12.600000	Red Motor Position (mm): 0.000000	
326.493990	2060.823692
326.888308	2060.823692
327.282561	2060.823692
327.676750	2034.445855
328.070874	2039.524817
328.464933	2043.207380
328.858929	2053.516540
329.252859	2063.550957
329.646726	2075.821125
330.040528	2094.095308
330.434265	2111.721702
330.827938	2133.002933
331.221547	2153.459935
331.615091	2172.664211
332.008571	2193.206913
332.401986	2214.407485
332.795338	2232.351473
333.188625	2252.826119
333.581847	2273.542741
333.975006	2290.377674
334.368100	2308.372073
334.761129	2322.888075
335.154095	2342.029336
335.546996	2377.355222
335.939833	2452.158383
336.332606	2460.463684
336.725315	2476.794502
337.117960	2485.853455
337.510540	2496.525578
337.903056	2501.879283
338.295508	2511.016375
338.687896	2516.304545
339.080220	2522.817716
339.472480	2523.752850
339.864676	2531.647297
340.256807	2536.592669
340.648875	2535.919675
341.040879	2537.616023
341.432818	2536.194418
341.824694	2539.327495
342.216506	2536.922864
342.608253	2536.640560
342.999937	2536.837165
343.391557	2536.776671
343.783113	2536.315405
344.174605	2532.050589
344.566033	2532.847092
344.957397	2530.722245
345.348697	2526.840557
345.739934	2525.471883
346.131106	2520.776049
346.522215	2522.371574
346.913260	2520.070287
347.304241	2522.565658
347.695159	2519.848476
348.086012	2514.635923
348.476802	2511.984276
348.867528	2510.502177
349.258191	2507.215345
349.648789	2508.775582
350.039324	2504.480519
350.429796	2507.792557
350.820203	2507.195180
351.210548	2504.291476
351.600828	2503.598317
351.991045	2505.221568
352.381198	2504.009171
352.771288	2503.384068
353.161314	2503.762154
353.551276	2504.311640
353.941175	2500.752586
354.331010	2506.870026
354.720782	2504.460354
355.110490	2506.887670
355.500135	2504.785509
355.889717	2505.534120
356.279235	2506.610406
356.668689	2506.552433
357.058080	2505.413132
357.447408	2505.836589
357.836672	2504.404902
358.225873	2507.583349
358.615010	2505.955056
359.004084	2509.423370
359.393095	2509.851868
359.782043	2512.342198
360.170927	2508.387413
360.559748	2510.718947
360.948505	2510.418998
361.337199	2512.226252
361.725830	2512.992507
362.114398	2510.605521
362.502903	2511.840603
362.891344	2513.158865
363.279722	2514.504853
363.668037	2516.226407
364.056289	2513.597446
364.444478	2513.363032
364.832603	2513.983094
365.220665	2515.765142
365.608665	2513.620131
365.996601	2516.077693
366.384474	2516.130625
366.772284	2516.173475
367.160031	2515.387055
367.547715	2517.897550
367.935336	2514.305728
368.322893	2516.019720
368.710388	2513.864627
369.097820	2515.550893
369.485189	2514.121726
369.872495	2517.090965
370.259738	2518.217663
370.646918	2518.590708
371.034035	2521.547345
371.421090	2519.503157
371.808081	2518.189937
372.195010	2519.543487
372.581875	2518.368898
372.968678	2522.616070
373.355418	2519.402334
373.742096	2518.812519
374.128710	2522.038858
374.515262	2523.226049
374.901751	2519.319155
375.288177	2522.348889
375.674540	2521.045750
376.060841	2522.580782
376.447079	2523.044568
376.833254	2522.111954
377.219367	2521.212108
377.605417	2525.325690
377.991404	2522.258148
378.377329	2524.509023
378.763191	2523.213447
379.148991	2522.217819
379.534727	2524.493900
379.920402	2522.921060
380.306013	2527.455578
380.691563	2523.231091
381.077049	2524.201513
381.462474	2522.270751
381.847835	2526.066740
382.233134	2522.180010
382.618371	2526.961544
383.003545	2526.205371
383.388657	2526.301153
383.773706	2527.803417
384.158693	2524.279651
384.543618	2527.417769
384.928480	2528.889786
385.313280	2525.938190
385.698017	2524.652696
386.082692	2526.376771
386.467305	2525.602953
386.851856	2525.920546
387.236344	2530.039169
387.620770	2526.515402
388.005133	2524.992974
388.389435	2525.728982
388.773674	2524.095648
389.157851	2527.758047
389.541965	2529.530012
389.926018	2528.383150
390.310008	2526.951462
390.693936	2527.962213
391.077802	2530.460105
391.461606	2532.048069
391.845348	2530.565969
392.229027	2530.719725
392.612645	2531.904396
392.996200	2529.900537
393.379694	2529.739220
393.763125	2531.642256
394.146494	2531.906916
394.529801	2534.311547
394.913047	2533.378933
395.296230	2532.632843
395.679351	2532.395908
396.062410	2532.237112
396.445408	2533.326001
396.828343	2530.860877
397.211217	2534.349355
397.594028	2532.910106
397.976778	2530.346679
398.359466	2533.792308
398.742092	2534.863553
399.124656	2532.378264
399.507158	2532.862215
399.889598	2534.682072
400.271977	2531.402801
400.654294	2534.553522
401.036549	2532.007739
401.418742	2534.409849
401.800874	2534.750127
402.182944	2535.866743
402.564952	2534.369520
402.946898	2535.972607
403.328783	2537.956301
403.710606	2532.852133
404.092367	2535.549150
404.474067	2534.487987
404.855705	2535.420601
405.237282	2536.963194
405.618797	2535.377751
406.000250	2535.430683
406.381642	2536.748945
406.762972	2534.820703
407.144240	2532.249715
407.525447	2536.597710
407.906593	2530.878521
408.287677	2539.042670
408.668700	2539.110725
409.049661	2539.161137
409.430560	2538.485622
409.811399	2539.130890
410.192176	2541.336395
410.572891	2536.892617
410.953545	2539.546785
411.334138	2541.147351
411.714669	2540.996117
412.095139	2541.245654
412.475547	2540.650798
412.855894	2541.447300
413.236180	2537.825231
413.616405	2538.677186
413.996568	2541.243133
414.376670	2541.159954
414.756711	2540.229861
415.136691	2536.842206
415.516609	2541.633823
415.896466	2538.795653
416.276262	2543.075593
416.655997	2540.774306
417.035670	2539.403112
417.415283	2541.820345
417.794834	2541.132228
418.174324	2539.985365
418.553753	2541.061652
418.933121	2539.219110
419.312428	2541.096940
419.691674	2540.744059
420.070859	2540.232382
420.449983	2540.907897
420.829045	2543.632640
421.208047	2540.572660
421.586988	2542.573998
421.965867	2544.046015
422.344686	2541.318751
422.723444	2543.521735
423.102141	2543.020140
423.480777	2542.808412
423.859352	2541.094419
424.237866	2541.056611
424.616319	2543.209183
424.994712	2545.281098
425.373044	2540.658359
425.751314	2540.368493
426.129524	2537.202648
426.507673	2540.083668
426.885762	2536.045704
427.263789	2539.831610
427.641756	2542.236241
428.019662	2541.054090
428.397508	2542.284132
428.775292	2543.723381
429.153016	2543.705737
429.530679	2541.979142
429.908282	2540.799512
430.285824	2544.033412
430.663305	2542.395037
431.040726	2544.527445
431.418086	2545.220604
431.795385	2543.753628
432.172624	2542.392516
432.549802	2541.878319
432.926920	2540.411343
433.303977	2541.117104
433.680974	2543.811601
434.057910	2542.528628
434.434786	2545.069369
434.811601	2545.318906
435.188355	2543.894780
435.565050	2541.096940
435.941683	2543.665408
436.318257	2540.265149
436.694770	2541.893442
437.071222	2543.438556
437.447614	2543.473844
437.823946	2542.226158
438.200218	2541.089378
438.576429	2542.097609
438.952580	2542.130376
439.328670	2543.310006
439.704700	2542.493339
440.080670	2542.387475
440.456580	2543.148689
440.832429	2545.092054
441.208218	2542.581560
441.583947	2544.608103
441.959616	2543.829245
442.335224	2541.618699
442.710773	2543.604914
443.086261	2541.568288
443.461689	2544.557692
443.837057	2545.691952
444.212365	2543.483926
444.587612	2542.959646
444.962800	2538.770447
445.337927	2541.412012
445.712995	2538.677186
446.088002	2545.197918
446.462949	2542.994934
446.837837	2541.568288
447.212664	2543.710778
447.587431	2542.725232
447.962139	2543.874616
448.336786	2543.226827
448.711374	2543.962836
449.085901	2547.015254
449.460369	2543.990562
449.834776	2545.356715
450.209124	2544.388813
450.583412	2543.564585
450.957640	2542.697506
451.331808	2540.784388
451.705917	2545.777651
452.079965	2544.719009
452.453954	2544.250182
452.827883	2545.465100
453.201752	2543.993083
453.575562	2541.497712
453.949311	2545.170192
454.323001	2543.725902
454.696632	2545.187836
455.070202	2544.524924
455.443713	2544.411498
455.817164	2543.224307
456.190556	2544.998793
456.563888	2543.181457
456.937160	2544.787064
457.310373	2545.500388
457.683526	2547.332847
458.056619	2544.600542
458.429653	2544.401416
458.802628	2545.180274
459.175542	2544.948381
459.548398	2547.365615
459.921194	2545.737322
460.293930	2547.567261
460.666607	2547.403423
461.039224	2545.646581
461.411782	2545.732281
461.784280	2542.102650
462.156719	2545.412167
462.529099	2547.678166
462.901419	2544.663556
463.273680	2544.542568
463.645882	2539.435880
464.018024	2544.091385
464.390106	2538.906558
464.762130	2549.881150
465.134094	2543.342774
465.505999	2546.783361
465.877845	2550.196222
466.249631	2548.126829
466.621358	2548.318393
466.993026	2546.609442
467.364634	2549.503064
467.736184	2549.629093
468.107674	2552.525236
468.479105	2547.403423
468.850477	2548.688918
469.221790	2547.758825
469.593043	2551.030533
469.964238	2548.184802
470.335373	2544.499719
470.706449	2547.864689
471.077467	2549.966850
471.448425	2550.150852
471.819324	2550.168496
472.190164	2549.187992
472.560945	2548.504915
472.931667	2549.130018
473.302330	2548.351160
473.672934	2548.956099
474.043479	2548.154555
474.413965	2548.010882
474.784393	2547.206818
475.154761	2548.144473
475.525070	2550.239072
475.895321	2547.259750
476.265513	2545.724719
476.635645	2547.993238
477.005719	2549.374514
477.375734	2548.986346
477.745691	2549.329144
478.115588	2549.795451
478.485427	2552.686553
478.855207	2549.543393
479.224928	2554.476162
479.594591	2549.508105
479.964194	2550.596994
480.333739	2550.947354
480.703226	2551.915256
481.072653	2554.801317
481.442022	2552.915925
481.811333	2549.379556
482.180584	2548.220090
482.549777	2551.053219
482.918912	2547.879812
483.287988	2554.503888
483.657005	2551.297715
484.025964	2551.396017
484.394864	2549.674463
484.763706	2552.076573
485.132489	2551.118754
485.501213	2551.907694
485.869879	2551.146480
486.238487	2553.064639
486.607036	2552.885678
486.975527	2551.254865
487.343959	2553.407437
487.712333	2553.659495
488.080648	2551.580019
488.448905	2554.771070
488.817104	2553.099927
489.185244	2553.127653
489.553326	2553.014228
489.921350	2558.279713
490.289315	2557.153015
490.657222	2557.294167
491.025070	2558.786349
491.392861	2558.141081
491.760593	2557.178221
492.128267	2555.580175
492.495883	2553.873744
492.863440	2554.093034
493.230939	2554.317366
493.598380	2555.421378
493.965763	2555.600339
494.333088	2554.715617
494.700354	2554.670247
495.067563	2555.433981
495.434713	2555.668395
495.801805	2555.791903
496.168839	2557.087480
496.535815	2555.892726
496.902733	2556.565720
497.269593	2559.388767
497.636395	2556.996739
498.003139	2557.329455
498.369825	2556.210319
498.736453	2559.177038
499.103023	2558.715772
499.469535	2562.121072
499.835989	2556.348951
500.202385	2555.688560
500.568723	2553.704866
500.935003	2559.363561
501.301226	2552.444577
501.667390	2561.480845
502.033497	2560.306257
502.399546	2559.802141
502.765537	2561.208623
503.131470	2562.771381
503.497345	2561.143088
503.863163	2561.493448
504.228923	2563.840105
504.594625	2565.722976
504.960269	2563.388922
505.325856	2567.321022
505.691385	2565.100394
506.056856	2565.017215
506.422270	2565.239026
506.787625	2566.418656
507.152924	2566.416135
507.518164	2565.057544
507.883347	2567.994016
508.248472	2567.033676
508.613540	2567.532751
508.978550	2568.462843
509.343503	2570.179356
509.708398	2569.942422
510.073236	2571.991651
510.438016	2571.656414
510.802738	2573.695561
511.167403	2576.054821
511.532010	2576.009451
511.896561	2575.885943
512.261053	2578.756880
512.625488	2576.354770
512.989866	2578.918197
513.354186	2579.606314
513.718449	2578.295614
514.082655	2582.351222
514.446803	2582.245358
514.810894	2585.464135
515.174927	2586.129567
515.538904	2588.844228
515.902822	2588.307346
516.266684	2586.815164
516.630488	2587.352047
516.994235	2588.587130
517.357925	2591.228694
517.721558	2596.910075
518.085133	2594.026535
518.448651	2591.430340
518.812112	2593.535022
519.175516	2594.807913
519.538863	2595.012080
519.902152	2598.152719
520.265385	2602.409973
520.628560	2604.292844
520.991678	2605.195211
521.354739	2605.452310
521.717743	2607.556992
522.080690	2608.933227
522.443580	2611.179061
522.806413	2611.685697
523.169189	2612.671242
523.531908	2614.997735
523.894569	2615.249792
524.257174	2618.466048
524.619722	2618.607201
524.982213	2623.146760
525.344647	2622.320011
525.707025	2623.759260
526.069345	2626.925105
526.431608	2627.615743
526.793815	2628.137502
527.155964	2631.351238
527.518057	2634.620426
527.880093	2630.680764
528.242072	2635.106897
528.603995	2636.609161
528.965860	2636.105046
529.327669	2639.611168
529.689421	2639.490181
530.051117	2643.054276
530.412755	2641.478916
530.774337	2646.963691
531.135862	2645.589977
531.497331	2648.962509
531.858743	2651.576347
532.220098	2651.140287
532.581396	2654.091883
532.942638	2654.749753
533.303824	2656.231852
533.664953	2657.635814
534.026025	2656.468787
534.387040	2663.803666
534.747999	2663.440703
535.108902	2665.177380
535.469748	2664.489262
535.830537	2668.537309
536.191270	2668.978410
536.551947	2668.023111
536.912567	2668.847340
537.273131	2672.464368
537.633638	2671.098215
537.994089	2675.332784
538.354483	2675.035356
538.714821	2681.699762
539.075103	2681.581295
539.435328	2684.502643
539.795497	2683.058353
540.155609	2685.352078
540.515665	2687.940710
540.875665	2687.300484
541.235609	2690.201668
541.595496	2694.239632
541.955328	2695.998995
542.315102	2694.385825
542.674821	2697.160981
543.034483	2697.433203
543.394090	2696.432534
543.753640	2700.712473
544.113134	2703.802701
544.472571	2703.192721
544.831953	2710.106664
545.191278	2706.960984
545.550548	2704.669779
545.909761	2709.552137
546.268918	2712.312168
546.628019	2711.208156
546.987064	2714.235369
547.346053	2710.552806
547.704986	2717.527242
548.063863	2715.840976
548.422684	2713.844679
548.781449	2715.914073
549.140158	2718.653940
549.498811	2718.283415
549.857408	2717.058415
550.215949	2722.913715
550.574434	2720.940103
550.932864	2723.238869
551.291237	2724.647872
551.649555	2726.893706
552.007817	2725.431771
552.366022	2727.556618
552.724173	2727.034858
553.082267	2729.938563
553.440305	2734.094994
553.798288	2730.167935
554.156215	2735.761096
554.514086	2737.482650
554.871902	2732.900241
555.229661	2738.006930
555.587365	2734.087432
555.945014	2742.284349
556.302606	2743.370717
556.660143	2745.830800
557.017625	2748.537900
557.375050	2749.009248
557.732421	2752.127202
558.089735	2751.018148
558.446994	2758.458891
558.804197	2760.308994
559.161345	2765.052720
559.518437	2760.147677
559.875474	2765.531630
560.232455	2769.161260
560.589381	2772.407763
560.946251	2772.327105
561.303065	2778.915893
561.659825	2782.139711
562.016528	2782.485030
562.373177	2783.704989
562.729770	2791.367543
563.086307	2792.781587
563.442789	2795.261834
563.799216	2801.432207
564.155587	2804.000675
564.511904	2811.312868
564.868164	2813.520894
565.224370	2822.010197
565.580520	2822.955413
565.936615	2829.403049
566.292654	2831.790035
566.648638	2842.923423
567.004567	2846.795030
567.360441	2855.445650
567.716260	2858.182996
568.072023	2867.604913
568.427732	2872.514997
568.783385	2879.905328
569.138982	2888.767677
569.494525	2899.139851
569.850013	2905.816859
570.205445	2911.689803
570.560823	2919.581729
570.916145	2929.164963
571.271412	2938.052517
571.626625	2945.200873
571.981782	2959.134623
572.336884	2962.706280
572.691931	2973.348156
573.046923	2983.357367
573.401860	2990.954386
573.756743	3006.173629
574.111570	3022.232225
574.466342	3032.435520
574.821059	3041.988507
575.175722	3052.900084
575.530330	3067.703432
575.884882	3074.221644
576.239380	3089.854262
576.593823	3105.431428
576.948211	3120.368367
577.302544	3126.722741
577.656823	3142.146151
578.011047	3163.934018
578.365216	3175.780730
578.719330	3190.553831
579.073389	3208.933878
579.427394	3230.860377
579.781344	3246.059455
580.135239	3262.188627
580.489080	3282.111267
580.842866	3294.444450
581.196597	3325.944100
581.550273	3347.258098
581.903895	3373.048641
582.257463	3400.104514
582.610975	3414.537338
582.964434	3447.874488
583.317837	3464.996767
583.671186	3486.295642
584.024481	3520.588091
584.377721	3533.924463
584.730906	3567.024680
585.084037	3598.776387
585.437113	3619.624079
585.790135	3649.044253
586.143103	3663.494720
586.496016	3700.012839
586.848874	3730.537025
587.201679	3764.814351
587.554428	3782.521404
587.907124	3818.810150
588.259765	3847.577494
588.612352	3891.065008
588.964884	3905.195362
589.317362	3949.411322
589.669786	3987.555213
590.022155	4010.560518
590.374470	4067.333993
590.726731	4086.666818
591.078937	4092.335596
591.431090	4148.776354
591.783188	4164.814785
592.135232	4190.237324
592.487222	4245.453082
592.839157	4287.753404
593.191038	4315.338598
593.542866	4343.004450
593.894639	4358.334599
594.246358	4407.816044
594.598022	4450.857416
594.949633	4474.500427
595.301190	4510.360675
595.652692	4550.843661
596.004141	4609.583186
596.355535	4605.625880
596.706876	4641.128206
597.058162	4667.788348
597.409395	4737.472218
597.760573	4797.615704
598.111698	4821.162933
598.462768	4861.600549
598.813785	4901.707969
599.164748	4925.981125
599.515657	4991.059900
599.866511	5000.086086
600.217312	5096.871199
600.568060	5074.208692
600.918753	5178.061502
601.269392	5223.809973
601.619978	5254.566053
601.970510	5316.796577
602.320988	5378.626329
602.671412	5451.264314
603.021783	5494.235110
603.372100	5509.794631
603.722363	5571.473148
604.072572	5627.755111
604.422728	5686.958421
604.772830	5722.213731
605.122878	5797.145442
605.472872	5833.966029
605.822813	5914.001908
606.172701	5951.198062
606.522534	6034.424991
606.872314	6113.702177
607.222041	6156.410832
607.571714	6244.936014
607.921333	6256.208034
608.270899	6341.005283
608.620411	6442.652589
608.969870	6481.010728
609.319276	6549.915740
609.668627	6617.827644
610.017926	6725.859571
610.367171	6806.583567
610.716362	6879.859259
611.065500	6937.083917
611.414585	7027.139089
611.763616	7121.174252
612.112594	7182.749426
612.461518	7269.384175
612.810389	7393.656179
613.159207	7443.412368
613.507971	7513.948192
613.856682	7656.212075
614.205340	7713.572844
614.553945	7878.239613
614.902496	7870.725774
615.250994	8011.721806
615.599439	8100.667924
615.947830	8201.990075
616.296169	8288.955020
616.644454	8379.443732
616.992686	8489.847522
617.340864	8651.396338
617.688990	8671.762599
618.037063	8863.223102
618.385082	8936.274462
618.733048	9086.417668
619.080961	9150.440322
619.428821	9247.563192
619.776628	9343.566925
620.124382	9394.505264
620.472083	9502.038117
620.819731	9597.908260
621.167326	9619.633113
621.514868	9690.899905
621.862357	9684.374131
622.209793	9776.710426
622.557176	9785.517321
622.904506	9828.011728
623.251783	9837.133696
623.599007	9867.307522
623.946179	9930.508468
624.293297	9967.495413
624.640363	9946.078071
624.987376	10000.028500
625.334336	10054.120081
625.681243	10052.995903
626.028097	10124.025761
626.374899	10180.746303
626.721647	10259.466441
627.068343	10303.137957
627.414987	10337.006949
627.761577	10372.005160
628.108115	10529.188337
628.454600	10465.707607
628.801032	10606.552404
629.147412	10676.150574
629.493739	10749.761503
629.840014	10749.494322
630.186236	10942.394073
630.532405	10907.418548
630.878521	11059.026209
631.224585	11101.707138
631.570597	11116.656680
631.916556	11247.648542
632.262462	11318.547329
632.608316	11395.016592
632.954117	11458.015892
633.299866	11535.173272
633.645562	11603.637182
633.991206	11565.120246
634.336797	11546.273893
634.682336	11604.191709
635.027823	11619.622681
635.373257	11674.898933
635.718639	11671.299549
636.063968	11731.450597
636.409245	11635.807306
636.754470	11701.221318
637.099642	11730.276008
637.444762	11651.276086
637.789829	11785.753906
638.134845	11758.133424
638.479808	11820.623567
638.824719	11878.977444
639.169577	11823.436531
639.514383	11939.930035
639.859137	11910.240159
640.203839	12040.415354
640.548489	12044.355016
640.893086	12132.255095
641.237632	12124.925257
641.582125	12241.126374
641.926566	12269.245930
642.270955	12354.774147
642.615292	12425.458685
642.959576	12477.198568
643.303809	12558.093963
643.647990	12689.537009
643.992118	12766.462496
644.336195	12800.092033
644.680219	12926.370417
645.024192	13087.392432
645.368112	13357.351262
645.711981	13461.761120
646.055797	13811.481085
646.399562	13847.492568
646.743274	14243.916303
647.086935	14493.899561
647.430544	14577.905349
647.774101	14688.629252
648.117606	14893.960489
648.461059	15044.176791
648.804460	14988.106558
649.147810	14876.883580
649.491108	14837.323126
649.834354	14866.536612
650.177548	14640.985307
650.520690	14533.394481
650.863781	14604.550367
651.206820	14635.651766
651.549807	14556.545980
651.892742	14409.314041
652.235626	14449.968426
652.578458	14486.935207
652.921238	14292.649138
653.263967	14497.950128
653.606644	14461.484942
653.949269	14505.894987
654.291843	14419.494651
654.634365	14651.203726
654.976836	14546.526687
655.319255	14654.273788
655.661622	14686.322924
656.003938	14707.697416
656.346203	14701.484194
656.688416	14883.484971
657.030577	14869.029463
657.372687	14877.390216
657.714746	15023.845818
658.056753	15195.587847
658.398708	14991.350540
658.740612	15102.777684
659.082465	15257.457928
659.424266	15300.332942
659.766016	15377.129879
660.107715	15392.344082
660.449362	15512.454613
660.790958	15589.032261
661.132503	15632.091276
661.473996	15742.883235
661.815438	15862.983684
662.156829	16012.191756
662.498168	15987.248127
662.839456	16052.301696
663.180693	16201.827361
663.521879	16321.148952
663.863013	16374.378495
664.204097	16446.625791
664.545129	16730.183133
664.886110	16783.997451
665.227040	16910.711894
665.567918	16986.740056
665.908746	17096.312055
666.249522	17227.162765
666.590248	17317.659038
666.930922	17453.452599
667.271545	17520.129421
667.612118	17640.751629
667.952639	17617.738762
668.293109	17712.731744
668.633528	17720.548053
668.973896	17772.222401
669.314213	17843.295108
669.654480	17813.655644
669.994695	17886.099546
670.334859	17920.170184
670.674973	17903.030261
671.015035	18089.525227
671.355047	18129.942678
671.695008	18160.333274
672.034918	18179.802210
672.374777	18315.499989
672.714585	18304.316189
673.054342	18454.693809
673.394049	18444.014124
673.733705	18642.315473
674.073310	18549.956493
674.412864	18643.669022
674.752368	18540.219504
675.091820	18754.438296
675.431223	18588.317153
675.770574	18541.389052
676.109875	18520.402728
676.449125	18455.147512
676.788324	18475.846490
677.127473	18250.854753
677.466571	18258.759282
677.805619	18146.054206
678.144616	18177.725255
678.483562	18213.824957
678.822458	18066.638388
679.161303	18102.544007
679.500098	18113.233773
679.838842	18125.713150
680.177535	18242.511643
680.516179	18465.134038
680.854771	18610.498230
681.193314	19152.754985
681.531805	19869.002123
681.870247	20396.311857
682.208638	20939.478539
682.546978	21171.270793
682.885268	21341.124910
683.223508	21108.435331
683.561697	20994.101962
683.899836	20949.465065
684.237925	20731.667054
684.575963	20699.438958
684.913951	20506.314875
685.251889	20682.765342
685.589776	20749.971484
685.927614	20813.137142
686.265401	20983.402113
686.603137	21109.854416
686.940824	21491.799958
687.278460	21753.907190
687.616046	21916.209659
687.953582	22420.998038
688.291068	22395.388976
688.628504	22686.354294
688.965889	22747.448037
689.303224	22626.654429
689.640510	22504.096417
689.977745	22126.907204
690.314930	21684.951767
690.652065	21451.538782
690.989150	21064.872200
691.326185	20534.709174
691.663170	20153.582819
692.000105	19689.892447
692.336990	19318.011569
692.673825	19066.659639
693.010610	18761.586652
693.347345	18454.356051
693.684030	18034.826187
694.020665	17931.999252
694.357251	17484.972414
694.693786	17535.371349
695.030272	17403.547697
695.366707	17084.871156
695.703093	16917.567863
696.039429	16998.415368
696.375716	16857.794902
696.711952	16886.476547
697.048139	16821.977504
697.384276	16734.558855
697.720363	16850.964138
698.056400	16811.265052
698.392388	16710.633539
698.728326	16746.665186
699.064214	16667.561920
699.400053	16702.008125
699.735842	16449.768951
700.071581	16337.991447
700.407270	16187.878488
700.742910	16098.445898
701.078501	15946.248422
701.414042	15823.541697
701.749533	15620.872188
702.084974	15420.004893
702.420366	15627.161028
702.755709	15345.226937
703.091002	15149.902390
703.426246	15224.818978
703.761440	15204.651842
704.096584	15053.114757
704.431679	15026.996539
704.766725	15011.048849
705.101721	14987.483975
705.436668	15101.759371
705.771565	14912.947995
706.106413	15176.310475
706.441212	15258.206540
706.775961	15368.265010
707.110661	15443.521876
707.445311	15762.468118
707.779913	15680.209090
708.114465	15947.493587
708.448967	16212.476798
708.783421	16734.551293
709.117825	17045.401442
709.452180	17239.180876
709.786485	17619.404863
710.120742	18256.105115
710.454949	18364.215179
710.789107	18755.534747
711.123216	19322.518361
711.457275	19512.090951
711.791286	19965.371341
712.125247	20108.393916
712.459159	19908.439070
712.793023	20557.253214
713.126837	19761.827192
713.460602	20010.683752
713.794318	19789.578744
714.127985	19614.766652
714.461602	18925.913144
714.795171	18959.436817
715.128691	18189.377882
715.462162	17789.967263
715.795584	17459.900235
716.128957	17271.673633
716.462281	16987.881877
716.795556	16775.571162
717.128782	16407.695481
717.461960	15942.084429
717.795088	15926.915597
718.128167	15664.256358
718.461198	15313.434901
718.794180	15231.685029
719.127113	14977.963756
719.459997	14830.157125
719.792833	14540.459658
720.125619	14589.013531
720.458357	14322.374301
720.791046	14216.225245
721.123686	14111.119708
721.456278	13939.102936
721.788821	13941.310962
722.121315	13731.079723
722.453761	13826.586903
722.786158	13746.271240
723.118506	13823.998270
723.450805	13732.806318
723.783056	13895.685999
724.115259	13821.938959
724.447412	13823.353003
724.779518	14013.429708
725.111574	14074.208380
725.443582	14305.846878
725.775542	14279.186736
726.107453	14732.434358
726.439315	14666.733000
726.771129	15031.800759
727.102895	15394.718465
727.434612	15620.564678
727.766281	15764.401400
728.097901	16046.413629
728.429473	16129.144004
728.760996	16160.968809
729.092471	16285.679393
729.423897	16212.408743
729.755276	16123.734846
730.086606	16232.800210
730.417887	16754.441166
730.749120	17254.221158
731.080305	17466.252089
731.411442	17845.808124
731.742530	17972.184809
732.073570	18129.015106
732.404562	18422.937060
732.735506	18304.903484
733.066401	18138.568092
733.397249	17717.500676
733.728048	17191.100871
734.058798	16451.719877
734.389501	15821.865513
734.720156	15390.325100
735.050762	14900.249328
735.381320	14576.108177
735.711831	14342.357435
736.042293	14034.955435
736.372707	14067.402822
736.703073	13884.552610
737.033391	14062.903592
737.363661	14070.412391
737.693883	14182.139484
738.024056	14358.020300
738.354182	14543.262539
738.684260	14865.936715
739.014290	15101.449340
739.344272	15311.952801
739.674207	15613.711229
740.004093	15785.327230
740.333931	15830.846328
740.663722	15912.999492
740.993464	15968.454705
741.323159	15854.517066
741.652806	15607.745024
741.982405	15476.241485
742.311956	15178.899107
742.641460	15103.924547
742.970915	14823.928780
743.300323	14529.785015
743.629683	14350.629969
743.958996	14075.508997
744.288260	13808.547134
744.617477	13542.943861
744.946647	13519.232794
745.275768	13237.034043
745.604842	13059.769430
745.933869	12895.533678
746.262847	12866.446221
746.591778	12808.236017
746.920662	12702.563350
747.249498	12717.288561
747.578286	12868.581149
747.907027	13032.900080
748.235720	13294.276345
748.564365	13352.889841
748.892963	13286.608750
749.221514	13384.611301
749.550017	13265.294751
749.878473	13252.923760
750.206881	13054.458574
750.535242	12985.210764
750.863555	12923.481835
751.191821	12832.141169
751.520039	12853.530785
751.848210	12791.416207
752.176334	12838.084689
752.504411	12772.658074
752.832440	12611.827622
753.160421	12723.723594
753.488356	12616.780556
753.816243	12540.187785
754.144082	12387.017367
754.471875	12351.789783
754.799620	12318.515648
755.127318	12312.025162
755.454969	12294.267697
755.782572	12275.754060
756.110129	12300.795992
756.437638	12212.737116
756.765100	12224.142727
757.092515	12251.985020
757.419882	12294.237451
757.747203	12295.855661
758.074477	12382.361861
758.401703	12364.949716
758.728882	12540.994370
759.056014	12595.461516
759.383099	12755.263573
759.710138	12880.004404
760.037129	13004.369669
760.364073	13064.132548
760.690970	13086.764808
761.017820	13128.011529
761.344623	13342.621010
761.671379	13701.939333
761.998088	14376.576788
762.324751	16041.420366
762.651366	19204.767089
762.977935	23376.967165
763.304456	26151.502295
763.630931	27145.050704
763.957359	26069.757465
764.283740	23985.893179
764.610074	21888.296790
764.936362	19427.162633
765.262602	17662.834404
765.588796	15873.444078
765.914943	14670.597044
766.241044	13635.716215
766.567097	12890.177452
766.893104	12214.607384
767.219064	11796.617593
767.544978	11350.588903
767.870845	10987.731691
768.196665	10777.954156
768.522438	10561.292925
768.848165	10374.979441
769.173846	10185.023723
769.499479	10068.194982
769.825066	9911.427700
770.150607	9695.237818
770.476101	9625.833732
770.801548	9512.987503
771.126949	9364.782621
771.452303	9261.401159
771.777611	9068.682888
772.102872	9064.990243
772.428087	8941.509700
772.753256	8791.716855
773.078378	8705.608906
773.403453	8539.424749
773.728482	8431.322246
774.053465	8362.603757
774.378401	8261.639528
774.703291	8149.453690
775.028135	8035.337091
775.352932	8003.282914
775.677683	7903.316833
776.002388	7803.922923
776.327046	7810.178995
776.651658	7726.286634
776.976224	7623.865511
777.300743	7627.858105
777.625216	7540.613376
777.949643	7503.094588
778.274024	7521.540170
778.598359	7436.470699
778.922647	7457.063812
779.246889	7405.717140
779.571086	7415.718789
779.895236	7420.649038
780.219339	7431.903414
780.543397	7428.097343
780.867409	7506.557861
781.191374	7516.330138
781.515294	7491.741910
781.839167	7584.015190
782.162995	7560.364617
782.486776	7509.688418
782.810511	7464.827189
783.134201	7382.689149
783.457844	7384.279633
783.781441	7330.886252
784.104993	7266.402333
784.428498	7246.908191
784.751958	7235.782364
785.075372	7210.100206
785.398739	7156.719428
785.722061	7207.582150
786.045337	7207.297325
786.368568	7359.431786
786.691752	7386.522947
787.014891	7712.957823
787.337983	8058.251656
787.661030	8626.813151
787.984031	9233.712621
788.306987	9622.385583
788.629897	9826.721192
788.952760	9782.913565
789.275579	9574.885311
789.598351	9199.742806
789.921078	8862.116568
790.243759	8456.016338
790.566395	8179.125922
790.888984	7936.492667
791.211529	7736.258036
791.534027	7521.855242
791.856480	7332.930440
792.178888	7258.558297
792.501249	7162.221847
792.823566	7013.101996
793.145836	7013.984198
793.468062	6987.641649
793.790241	6941.285718
794.112375	7013.608632
794.434464	7160.606158
794.756507	7194.462547
795.078505	7349.941814
795.400457	7650.702093
795.722364	7990.231367
796.044226	8264.989375
796.366042	8535.916106
796.687812	8487.392480
797.009538	8570.374913
797.331218	8469.839182
797.652852	8391.640803
797.974442	8241.053976
798.295986	8161.983478
798.617484	7977.217628
798.938938	7839.810898
799.260346	7741.210970
799.581709	7543.912811
799.903026	7473.941596
800.224299	7365.975204
800.545526	7198.142589
800.866708	7109.559434
801.187845	7040.664505
801.508936	6939.165913
801.829983	6896.651342
802.150984	6752.401246
802.471940	6710.279885
802.792851	6694.760693
803.113717	6660.274159
803.434538	6629.603779
803.755314	6577.684936
804.076045	6577.372384
804.396731	6527.984200
804.717372	6557.648870
805.037967	6557.767337
805.358518	6597.925168
805.679024	6675.707652
805.999485	6683.413055
806.319901	6729.655559
806.640272	6744.763898
806.960598	6826.975034
807.280879	6824.787174
807.601115	6902.678042
807.921306	6852.140474
808.241453	6872.378187
808.561554	6893.044397
808.881611	6861.141455
809.201623	6865.063472
809.521590	6817.931204
809.841513	6798.684079
810.161390	6836.580953
810.481223	6712.409772
810.801011	6698.256733
811.120755	6675.425347
811.440453	6597.378203
811.760107	6572.482465
812.079716	6543.528598
812.399281	6476.168700
812.718801	6469.161496
813.038276	6424.310350
813.357707	6368.983687
813.677093	6409.365850
813.996434	6314.604760
814.315731	6357.010947
814.634983	6352.625143
814.954191	6365.878336
815.273354	6469.274922
815.592473	6532.659870
815.911547	6657.420866
816.230577	6736.599749
816.549562	6882.677264
816.868502	6982.035886
817.187399	7078.742860
817.506250	7226.373051
817.825058	7264.567353
818.143821	7525.585696
818.462539	7802.408057
818.781213	8158.006008
819.099843	8695.854273
819.418429	9683.280201
819.736970	10635.198761
820.055466	11800.514405
820.373919	13312.588336
820.692327	15636.638397
821.010691	19720.610718
821.329011	28489.586928
821.647286	41009.925170
821.965517	54217.801179
822.283704	59773.452666
822.601847	61883.228483
822.919945	59170.263485
823.237999	54925.919457
823.556010	48777.206467
823.873976	42193.091540
824.191897	35826.910734
824.509775	31106.969129
824.827609	26692.057660
825.145398	24165.607793
825.463144	22832.890554
825.780845	23147.874449
826.098502	24890.828185
826.416116	28588.300283
826.733685	32126.386218
827.051210	33233.705908
827.368692	31466.952884
827.686129	27603.810827
828.003522	23583.238577
828.320872	19969.563060
828.638177	17169.318045
828.955439	15055.526949
829.272656	13271.767593
829.589830	11821.452837
829.906960	10567.279295
830.224046	9650.956322
830.541088	8919.409282
830.858086	8463.610836
831.175041	8094.487469
831.491952	7982.828432
831.808819	8025.456429
832.125642	8432.196886
832.442421	9304.510586
832.759157	11083.238871
833.075849	13950.289257
833.392497	17092.541272
833.709101	19221.738134
834.025662	19067.146110
834.342179	17398.763642
834.658653	15258.166210
834.975083	13365.480122
835.291469	11776.095055
835.607811	10479.530451
835.924110	9579.407226
836.240366	8725.029951
836.556578	7927.055627
836.872746	7292.823020
837.188871	6803.508463
837.504952	6392.372120
837.820990	6082.545325
838.136984	5867.003231
838.452935	5774.651813
838.768842	5805.667512
839.084706	6230.268777
839.400526	7419.532422
839.716303	8969.921643
840.032037	10043.470643
840.347727	9971.934149
840.663373	9012.695834
840.978977	7985.207857
841.294537	7194.177722
841.610054	6603.891374
841.925527	6173.800292
842.240957	5817.090767
842.556344	5484.684644
842.871687	5201.548238
843.186987	4927.831228
843.502244	4703.807392
843.817458	4539.561559
844.132629	4402.716917
844.447756	4318.827076
844.762840	4237.959407
845.077881	4164.729085
845.392879	4101.727265
845.707833	4053.508629
846.022745	4010.510107
846.337613	3977.593893
846.652438	3937.249539
846.967221	3922.226900
847.281960	3889.814802
847.596656	3872.246380
847.911309	3850.856765
848.225919	3826.780214
848.540485	3812.760765
848.855009	3801.513951
849.169490	3778.894293
849.483928	3766.805607
849.798323	3758.890995
850.112675	3740.717635
850.426984	3746.709047
850.741251	3728.974267
851.055474	3725.571489
851.369654	3729.911922
851.683792	3727.983681
851.997887	3734.703539
852.311938	3734.867376
852.625947	3741.388109
852.939914	3724.409503
853.253837	3736.155391
853.567718	3734.945514
853.881555	3728.051736
854.195350	3739.364086
854.509103	3735.830237
854.822812	3737.776122
855.136479	3725.725244
855.450103	3732.671954
855.763685	3719.242320
856.077224	3724.590984
856.390720	3745.415991
856.704173	3763.564145
857.017584	3772.451699
857.330953	3786.851755
857.644278	3804.495793
857.957561	3811.664314
858.270802	3810.567863
858.584000	3816.957526
858.897155	3808.770692
859.210268	3792.883495
859.523339	3770.006739
859.836367	3768.690998
860.149352	3761.162035
860.462295	3753.673401
860.775195	3743.770054
861.088054	3736.626739
861.400869	3734.433837
861.713642	3737.829054
862.026373	3750.469748
862.339062	3754.074173
862.651708	3770.962038
862.964312	3806.539981
863.276873	3815.004078
863.589392	3873.259652
863.901869	3920.248247
864.214303	3962.984629
864.526696	3995.495030
864.839045	4043.189387
865.151353	4069.710897
865.463619	4075.399839
865.775842	4085.683793
866.088023	4105.414869
866.400162	4092.340637
866.712258	4100.134261
867.024313	4100.814816
867.336325	4103.529478
867.648296	4108.386629
867.960224	4107.138944
868.272110	4116.855768
868.583954	4121.695276
868.895755	4135.545846
869.207515	4129.894712
869.519233	4176.008667
869.830909	4185.823794
870.142542	4211.311868
870.454134	4225.205288
870.765684	4255.979011
871.077191	4289.177530
871.388657	4312.805418
871.700081	4353.845451
872.011463	4392.992532
872.322803	4429.906381
872.634101	4457.300011
872.945357	4497.730064
873.256571	4553.152510
873.567744	4581.640070
873.878874	4597.620528
874.189963	4632.636383
874.501010	4644.914113
874.812015	4645.561901
875.122979	4689.858520
875.433900	4686.785937
875.744780	4697.236248
876.055618	4728.998038
876.366415	4728.390579
876.677169	4744.171911
876.987882	4796.988080
877.298554	4846.242674
877.609183	4927.755611
877.919771	5039.414648
878.230317	5178.157284
878.540822	5389.464809
878.851285	5706.482810
879.161707	6169.293501
879.472087	6922.053717
879.782425	8144.147876
880.092722	10295.946751
880.402977	13537.680897
880.713191	17185.817742
881.023363	20785.786362
881.333494	22914.516917
881.643583	24110.492858
881.953631	24136.943792
882.263637	23349.071940
882.573602	21909.986354
882.883526	20403.631612
883.193408	18765.942209
883.503248	17112.289992
883.813048	15600.455515
884.122806	14189.955793
884.432522	12741.445770
884.742197	11503.340906
885.051831	10438.414800
885.361424	9459.694945
885.670975	8645.238568
885.980485	7964.932336
886.289954	7394.613999
886.599382	6926.051352
886.908768	6559.816566
887.218113	6199.631165
887.527417	5914.803452
887.836680	5651.269573
888.145901	5430.318320
888.455082	5268.525008
888.764221	5119.483295
889.073319	4986.555629
889.382376	4918.394188
889.691392	4857.060990
890.000366	4834.688349
890.309300	4818.097912
890.618193	4816.751924
890.927044	4804.809430
891.235855	4825.379859
891.544625	4858.606104
891.853353	4924.572122
892.162041	5040.165780
892.470687	5223.215117
892.779293	5469.984639
893.087858	5839.740671
893.396381	6413.328197
893.704864	7203.576953
894.013306	8340.047114
894.321707	9485.840890
894.630068	10280.601479
894.938387	10488.218879
895.246665	10250.452858
895.554903	9654.212908
895.863100	8968.837795
896.171256	8425.847553
896.479371	7927.733662
896.787446	7435.870802
897.095480	7022.329828
897.403473	6702.445932
897.711425	6385.352313
898.019336	6122.418332
898.327207	5855.343042
898.635038	5628.160923
898.942827	5388.809459
899.250576	5194.104974
899.558284	5009.157643
899.865952	4888.081730
900.173579	4738.500613
900.481165	4631.066063
900.788711	4542.608937
901.096216	4472.168894
901.403681	4404.390580
901.711105	4381.932240
902.018489	4368.734499
902.325832	4435.943162
902.633135	4557.795412
902.940397	4899.779728
903.247619	5685.614954
903.554800	7105.629854
903.861941	8987.046443
904.169041	10475.749585
904.476101	11086.608882
904.783121	10738.736499
905.090100	10018.776551
905.397039	9197.398670
905.703938	8464.036814
906.010796	7774.074252
906.317614	7231.469657
906.624391	6706.065480
906.931129	6283.596623
907.237826	5887.059462
907.544483	5521.810221
907.851099	5148.785001
908.157675	4802.772804
908.464211	4481.016119
908.770707	4249.949791
909.077163	4049.886560
909.383578	3911.025456
909.689954	3791.996252
909.996289	3729.783373
910.302584	3661.944565
910.608839	3628.703197
910.915054	3595.179524
911.221229	3586.251640
911.527363	3598.108434
911.833458	3608.445320
912.139513	3634.588744
912.445527	3668.593847
912.751502	3747.324068
913.057436	3850.922300
913.363331	3982.314933
913.669186	4186.068290
913.975000	4442.345428
914.280775	4862.482751
914.586510	5436.161017
914.892205	6222.649073
915.197859	7242.759321
915.503475	8433.903317
915.809050	9462.865831
916.114585	10098.956103
916.420081	10350.703764
916.725536	10317.109515
917.030952	9888.876099
917.336328	9479.032812
917.641665	9078.810567
917.946961	8608.158361
918.252218	8197.324487
918.557435	7695.898558
918.862612	7279.438757
919.167750	6907.262971
919.472848	6488.600185
919.777906	6121.596624
920.082925	5772.796668
920.387904	5409.684878
920.692843	5149.594107
920.997743	4900.921549
921.302603	4673.767157
921.607423	4514.585162
921.912204	4351.846634
922.216946	4234.871700
922.521647	4116.117239
922.826310	4011.956918
923.130932	3920.275974
923.435516	3819.833504
923.740059	3754.318668
924.044564	3676.841175
924.349028	3618.716671
924.653454	3555.861044
924.957840	3484.778255
925.262186	3439.768313
925.566493	3380.196998
925.870761	3321.787668
926.174989	3289.652833
926.479178	3251.342585
926.783328	3210.821790
927.087438	3184.312882
927.391509	3149.332316
927.695541	3119.196298
927.999533	3091.457349
928.303486	3071.146540
928.607400	3058.087431
928.911275	3043.508414
929.215110	3026.250024
929.518906	3018.370701
929.822663	3014.345339
930.126381	3011.328209
930.430060	3020.729961
930.733699	3022.144004
931.037299	3031.760005
931.340861	3029.751106
931.644383	3038.671427
931.947866	3039.888866
932.251309	3032.576672
932.554714	3029.647762
932.858080	3024.772966
933.161407	3014.481451
933.464694	3011.640760
933.767943	3000.237670
934.071153	2998.294306
934.374323	2990.727534
934.677455	2983.916935
934.980548	2976.677838
935.283602	2970.746920
935.586617	2969.302630
935.889593	2975.621716
936.192530	2984.179075
936.495428	2995.751043
936.798287	3015.300638
937.101108	3049.010834
937.403890	3098.751899
937.706632	3157.269613
938.009336	3237.244998
938.312002	3309.378868
938.614628	3367.795759
938.917216	3418.776948
939.219765	3452.187195
939.522275	3485.284891
939.824747	3490.452073
940.127179	3489.335458
940.429573	3484.798419
940.731929	3482.479488
941.034246	3466.083136
941.336524	3452.199798
941.638763	3438.414763
941.940964	3427.155346
942.243126	3382.891494
942.545250	3361.519523
942.847335	3325.555931
943.149381	3289.783903
943.451389	3259.670571
943.753359	3227.389542
944.055290	3201.893907
944.357182	3174.495235
944.659036	3162.877896
944.960851	3154.877585
945.262628	3138.277066
945.564367	3138.229175
945.866067	3133.311529
946.167729	3129.432361
946.469352	3129.628966
946.770937	3126.765591
947.072484	3110.984259
947.373992	3113.651029
947.675462	3106.280862
947.976893	3091.681681
948.278286	3078.637695
948.579641	3073.853640
948.880958	3066.359965
949.182236	3071.305337
949.483476	3065.283678
949.784678	3064.666137
950.085841	3066.455747
950.386967	3072.880697
950.688054	3094.424068
950.989103	3115.110443
951.290114	3132.320942
951.591087	3157.236845
951.892021	3188.940662
952.192917	3214.731205
952.493776	3239.823548
952.794596	3246.339239
953.095378	3253.495157
953.396122	3248.068355
953.696828	3240.143661
953.997496	3227.283678
954.298126	3208.807849
954.598718	3186.175589
954.899272	3163.724810
955.199788	3137.047024
955.500266	3103.898917
955.800706	3071.849781
956.101108	3031.946528
956.401472	3002.486025
956.701798	2969.970583
957.002087	2927.539191
957.302337	2904.455747
957.602550	2874.115563
957.902724	2846.563137
958.202861	2819.915597
958.502960	2799.687967
958.803022	2779.513270
959.103045	2760.558531
959.403031	2743.290059
959.702979	2731.430744
960.002889	2716.544217
960.302762	2704.261446
960.602596	2692.109744
960.902393	2685.089938
961.202153	2676.608196
961.501875	2670.541168
961.801559	2664.214520
962.101205	2653.749084
962.400814	2655.024496
962.700385	2641.567136
962.999918	2638.000520
963.299414	2630.774026
963.598873	2629.642287
963.898293	2621.556276
964.197677	2627.285547
964.497022	2622.549383
964.796331	2619.252468
965.095601	2614.312138
965.394835	2617.611573
965.694030	2614.254164
965.993189	2612.630913
966.292309	2610.717795
966.591393	2610.374997
966.890439	2609.649070
967.189447	2608.938268
967.488419	2607.262084
967.787353	2608.063627
968.086249	2612.010851
968.385108	2613.707199
968.683930	2615.176696
968.982714	2619.837242
969.281462	2624.386884
969.580172	2630.438789
969.878844	2634.464150
970.177480	2643.704585
970.476078	2649.822025
970.774639	2658.946514
971.073162	2667.183759
971.371649	2673.076868
971.670098	2677.177847
971.968510	2680.772189
972.266885	2684.779907
972.565223	2689.629497
972.863524	2692.603777
973.161788	2694.862214
973.460014	2701.183821
973.758204	2704.624409
974.056356	2702.963349
974.354471	2708.125490
974.652550	2705.912424
974.950591	2706.698844
975.248595	2704.906713
975.546563	2702.691126
975.844493	2699.358924
976.142386	2692.976823
976.440243	2689.508509
976.738062	2683.219670
977.035845	2676.162054
977.333590	2673.331446
977.631299	2666.157884
977.928971	2660.857111
978.226606	2653.570123
978.524204	2652.209012
978.821765	2646.648619
979.119290	2649.948054
979.416777	2649.151552
979.714228	2651.359577
980.011642	2658.245793
980.309020	2663.833912
980.606360	2677.477795
980.903664	2703.096939
981.200931	2737.611199
981.498162	2785.030813
981.795356	2860.605271
982.092513	2942.581994
982.389633	3047.342212
982.686717	3138.347642
982.983764	3212.011502
983.280775	3258.201074
983.577749	3269.851181
983.874686	3252.784355
984.171587	3221.204046
984.468451	3184.481761
984.765279	3142.045328
985.062070	3092.657144
985.358824	3052.395969
985.655543	2996.907988
985.952224	2943.905297
986.248869	2882.463714
986.545478	2823.973726
986.842050	2773.423556
987.138586	2727.425548
987.435086	2691.179652
987.731549	2662.107317
988.027975	2637.264511
988.324366	2617.631737
988.620719	2603.541712
988.917037	2595.196082
989.213318	2585.154104
989.509563	2577.667990
989.805772	2575.084399
990.101944	2568.356979
990.398080	2567.399160
990.694180	2566.511917
990.990244	2564.412276
991.286271	2565.725497
991.582262	2566.988306
991.878217	2566.282544
992.174136	2573.632547
992.470019	2576.138000
992.765865	2578.177147
993.061676	2585.660740
993.357450	2592.615012
993.653188	2598.661876
993.948890	2617.619135
994.244556	2636.127731
994.540186	2659.294353
994.835780	2688.459949
995.131337	2726.566031
995.426859	2765.506424
995.722345	2812.164823
996.017795	2861.709283
996.313208	2899.094480
996.608586	2925.603388
996.903928	2938.680141
997.199234	2938.516303
997.494504	2936.630912
997.789738	2920.496699
998.084936	2896.321846
998.380099	2865.618698
998.675225	2840.153309
998.970316	2808.825059
999.265371	2774.920779
999.560390	2738.969790
999.855373	2706.547609
1000.150320	2680.605831
1000.445232	2657.834939
1000.740108	2635.361476
1001.034948	2616.845317
1001.329752	2603.420725
1001.624521	2591.904209
1001.919254	2577.632702
1002.213951	2571.537947
1002.508613	2565.372616
1002.803239	2556.558159
1003.097829	2551.305276
1003.392384	2551.693445
1003.686903	2542.556354
1003.981386	2541.505273
1004.275834	2536.557381
1004.570246	2533.265507
1004.864623	2532.446320
1005.158964	2528.368026
1005.453270	2527.974816
1005.747540	2525.035824
1006.041775	2524.708149
1006.335974	2524.975330
1006.630138	2522.492562
1006.924266	2523.231091
1007.218359	2521.479290
1007.512416	2517.244720
1007.806438	2516.120543
1008.100425	2516.591891
1008.394376	2512.584174
1008.688292	2521.174300
1008.982172	2514.159534
1009.276017	2517.025430
1009.569827	2514.278001
1009.863602	2515.039216
1010.157341	2514.398989
1010.451045	2512.737929
1010.744714	2509.887156
1011.038347	2514.522497
1011.331945	2511.210459
1011.625508	2513.093330
1011.919036	2510.774399
1012.212528	2510.056035
1012.505986	2506.698627
1012.799408	2508.891528
1013.092795	2505.934892
1013.386147	2510.061076
1013.679464	2506.655777
1013.972745	2507.449758
1014.265992	2506.731394
1014.559204	2505.692916
1014.852380	2502.678306
1015.145521	2508.717609
1015.438628	2507.911024
1015.731699	2506.723832
1016.024736	2506.597803
1016.317737	2510.905469
1016.610703	2510.797085
1016.903635	2512.649709
1017.196531	2510.933196
1017.489393	2513.158865
1017.782219	2516.216325
1018.075011	2512.737929
1018.367768	2515.845800
1018.660490	2518.777231
1018.953177	2518.777231
1019.245829	2518.777231
