Dividing Wavelength (nm)	Counts (n)	Blue Motor Position (mm): 33.800000	Red Motor Position (mm): 0.000000	
326.493990	2131.974538
326.888308	2131.974538
327.282561	2131.974538
327.676750	2095.741244
328.070874	2096.648652
328.464933	2100.361462
328.858929	2104.772472
329.252859	2113.511312
329.646726	2128.022273
330.040528	2140.365538
330.434265	2159.201810
330.827938	2172.969201
331.221547	2192.213806
331.615091	2210.442618
332.008571	2229.961966
332.401986	2250.686149
332.795338	2270.003851
333.188625	2288.429268
333.581847	2307.600776
333.975006	2322.348672
334.368100	2342.533452
334.761129	2361.649507
335.154095	2378.416385
335.546996	2400.189128
335.939833	2423.209557
336.332606	2438.161619
336.725315	2451.346757
337.117960	2459.490741
337.510540	2467.980044
337.903056	2479.889770
338.295508	2486.997797
338.687896	2493.982316
339.080220	2504.664521
339.472480	2510.429080
339.864676	2514.124246
340.256807	2520.639937
340.648875	2523.790659
341.040879	2525.668488
341.432818	2527.523633
341.824694	2531.173428
342.216506	2529.116638
342.608253	2529.860208
342.999937	2528.090763
343.391557	2529.033459
343.783113	2528.839374
344.174605	2524.065402
344.566033	2526.749816
344.957397	2524.148581
345.348697	2522.724455
345.739934	2520.949968
346.131106	2518.505009
346.522215	2517.017868
346.913260	2515.876047
347.304241	2514.542662
347.695159	2510.834893
348.086012	2509.587208
348.476802	2508.263905
348.867528	2505.100581
349.258191	2503.842813
349.648789	2504.571260
350.039324	2502.648059
350.429796	2502.718636
350.820203	2499.237719
351.210548	2497.924498
351.600828	2499.270486
351.991045	2498.010198
352.381198	2498.569766
352.771288	2495.540033
353.161314	2496.586072
353.551276	2495.645897
353.941175	2495.754282
354.331010	2492.172542
354.720782	2494.320073
355.110490	2494.136071
355.500135	2494.642707
355.889717	2493.561380
356.279235	2497.430465
356.668689	2499.734272
357.058080	2494.516678
357.447408	2493.069867
357.836672	2492.979126
358.225873	2495.035917
358.615010	2492.384270
359.004084	2497.271669
359.393095	2495.124137
359.782043	2499.167143
360.170927	2499.802328
360.559748	2501.987668
360.948505	2501.319715
361.337199	2504.314161
361.725830	2503.217710
362.114398	2504.581342
362.502903	2503.691578
362.891344	2504.069665
363.279722	2505.483708
363.668037	2506.456651
364.056289	2505.534120
364.444478	2506.686024
364.832603	2505.501353
365.220665	2505.922289
365.608665	2507.139728
365.996601	2506.895232
366.384474	2506.496980
366.772284	2507.792557
367.160031	2506.023112
367.547715	2511.323885
367.935336	2504.644356
368.322893	2504.467916
368.710388	2510.136693
369.097820	2509.272136
369.485189	2510.015706
369.872495	2509.677948
370.259738	2509.259533
370.646918	2509.511590
371.034035	2511.948988
371.421090	2510.267763
371.808081	2509.980418
372.195010	2511.525531
372.581875	2512.811026
372.968678	2511.263391
373.355418	2512.599297
373.742096	2515.177847
374.128710	2511.840603
374.515262	2514.651047
374.901751	2513.509225
375.288177	2514.761952
375.674540	2516.075173
376.060841	2515.588701
376.447079	2514.671211
376.833254	2516.677591
377.219367	2509.584687
377.605417	2517.219515
377.991404	2511.354132
378.377329	2514.220028
378.763191	2511.853206
379.148991	2515.480317
379.534727	2517.227076
379.920402	2516.896881
380.306013	2516.423012
380.691563	2516.004597
381.077049	2518.487365
381.462474	2516.521315
381.847835	2519.477952
382.233134	2518.658764
382.618371	2518.265554
383.003545	2520.531553
383.388657	2517.491737
383.773706	2519.712365
384.158693	2518.210101
384.543618	2518.936028
384.928480	2518.182375
385.313280	2521.708662
385.698017	2520.581964
386.082692	2522.353930
386.467305	2520.294618
386.851856	2519.838394
387.236344	2521.940555
387.620770	2524.340144
388.005133	2522.132119
388.389435	2524.622449
388.773674	2524.206554
389.157851	2520.801254
389.541965	2520.634896
389.926018	2522.565658
390.310008	2524.665299
390.693936	2525.653365
391.077802	2525.920546
391.461606	2528.501617
391.845348	2524.209074
392.229027	2527.029600
392.612645	2523.215967
392.996200	2525.882738
393.379694	2527.223684
393.763125	2529.973634
394.146494	2526.961544
394.529801	2530.056813
394.913047	2529.719056
395.296230	2530.944056
395.679351	2530.397091
396.062410	2527.788294
396.445408	2529.696370
396.828343	2530.815507
397.211217	2526.190248
397.594028	2527.402645
397.976778	2526.243180
398.359466	2530.918850
398.742092	2527.793335
399.124656	2536.857329
399.507158	2530.888603
399.889598	2533.961187
400.271977	2530.576052
400.654294	2534.818183
401.036549	2534.679551
401.418742	2534.964376
401.800874	2536.171732
402.182944	2535.602082
402.564952	2535.680220
402.946898	2535.614685
403.328783	2537.900848
403.710606	2536.285158
404.092367	2535.990251
404.474067	2538.115097
404.855705	2539.801363
405.237282	2539.577032
405.618797	2538.548637
406.000250	2542.505942
406.381642	2540.923020
406.762972	2541.709440
407.144240	2547.892415
407.525447	2549.787889
407.906593	2552.623538
408.287677	2555.534804
408.668700	2560.210475
409.049661	2564.603840
409.430560	2570.012998
409.811399	2575.230592
410.192176	2583.104875
410.572891	2591.016966
410.953545	2603.201435
411.334138	2607.942640
411.714669	2621.112654
412.095139	2630.337966
412.475547	2643.608803
412.855894	2656.317552
413.236180	2669.812721
413.616405	2683.045750
413.996568	2702.633153
414.376670	2715.420040
414.756711	2726.598798
415.136691	2746.420615
415.516609	2773.574791
415.896466	2795.211423
416.276262	2819.613128
416.655997	2836.717763
417.035670	2884.238200
417.415283	2926.165476
417.794834	2941.845985
418.174324	2963.369192
418.553753	2975.374700
418.933121	3036.551622
419.312428	3081.044846
419.691674	3103.278855
420.070859	3164.881755
420.449983	3180.237110
420.829045	3246.296390
421.208047	3255.544386
421.586988	3318.074859
421.965867	3360.029862
422.344686	3447.098150
422.723444	3439.700257
423.102141	3424.463369
423.480777	3564.231880
423.859352	3532.215512
424.237866	3671.116945
424.616319	3712.562791
424.994712	3797.705359
425.373044	3799.537818
425.751314	3912.411774
426.129524	3877.302658
426.507673	4015.132845
426.885762	4099.680557
427.263789	4123.787354
427.641756	4100.625773
428.019662	4218.296386
428.397508	4272.158594
428.775292	4299.718583
429.153016	4400.271958
429.530679	4407.634563
429.908282	4509.208772
430.285824	4469.371053
430.663305	4699.978636
431.040726	4568.795210
431.418086	4616.040904
431.795385	4731.841249
432.172624	4783.813025
432.549802	4823.396165
432.926920	4875.446078
433.303977	4921.272687
433.680974	4984.710567
434.057910	5041.670564
434.434786	5086.138583
434.811601	5097.735757
435.188355	5326.442825
435.565050	5257.855406
435.941683	5272.063898
436.318257	5487.696733
436.694770	5506.200288
437.071222	5567.165482
437.447614	5541.563983
437.823946	5491.278473
438.200218	5659.562271
438.576429	5567.450308
438.952580	5676.528274
439.328670	5748.110138
439.704700	5677.546587
440.080670	5690.784657
440.456580	5964.655422
440.832429	5873.939859
441.208218	5740.777780
441.583947	5906.389766
441.959616	5925.021871
442.335224	5867.729157
442.710773	6015.825654
443.086261	6053.364606
443.461689	5862.193970
443.837057	6021.058372
444.212365	6182.556777
444.587612	6083.188073
444.962800	6246.123206
445.337927	6233.424539
445.712995	5856.436973
446.088002	6431.322595
446.462949	6267.275888
446.837837	6204.702565
447.212664	6376.991560
447.587431	6531.439911
447.962139	7071.844041
448.336786	7993.273703
448.711374	7734.614620
449.085901	6821.311298
449.460369	6743.294401
449.834776	6681.131933
450.209124	7070.782878
450.583412	7226.368010
450.957640	7369.619958
451.331808	7134.447610
451.705917	6700.006013
452.079965	6617.426872
452.453954	6828.225241
452.827883	6707.663526
453.201752	6802.943854
453.575562	6600.264264
453.949311	6808.214380
454.323001	6696.731784
454.696632	6772.891015
455.070202	6912.079794
455.443713	7064.312557
455.817164	7165.811149
456.190556	7250.633604
456.563888	7320.786301
456.937160	7370.522324
457.310373	7018.982502
457.683526	7051.692029
458.056619	6944.181861
458.429653	6927.977072
458.802628	6860.400405
459.175542	6971.630944
459.548398	7335.004875
459.921194	7486.163873
460.293930	7498.219793
460.666607	8019.812857
461.039224	8328.646545
461.411782	8452.661450
461.784280	8472.904203
462.156719	8357.431533
462.529099	8244.398782
462.901419	7830.653642
463.273680	7723.246818
463.645882	7739.043273
464.018024	7604.068900
464.390106	7772.687934
464.762130	8154.560379
465.134094	8630.304150
465.505999	9643.631526
465.877845	10871.306243
466.249631	11514.353307
466.621358	11131.797785
466.993026	10499.916877
467.364634	10239.954655
467.736184	9885.364935
468.107674	9549.457731
468.479105	9579.114839
468.850477	9352.240231
469.221790	9122.930745
469.593043	8792.281464
469.964238	8657.246597
470.335373	8666.217330
470.706449	8726.834684
471.077467	8707.829534
471.448425	10012.303709
471.819324	11087.085271
472.190164	11102.112951
472.560945	9854.465183
472.931667	9070.764885
473.302330	8936.385367
473.672934	8583.315555
474.043479	8940.322509
474.413965	8880.310093
474.784393	8766.014532
475.154761	8920.021782
475.525070	9006.732149
475.895321	8836.716715
476.265513	9015.528962
476.635645	9181.881998
477.005719	9179.212707
477.375734	9294.108165
477.745691	9530.281182
478.115588	9659.526284
478.485427	9913.161857
478.855207	10447.778743
479.224928	11260.909297
479.594591	11881.291333
479.964194	11691.133969
480.333739	11627.055863
480.703226	11545.966382
481.072653	11635.003242
481.442022	11873.800179
481.811333	12065.535424
482.180584	11870.422606
482.549777	11575.187431
482.918912	11408.078222
483.287988	11425.412229
483.657005	11434.622417
484.025964	11117.801022
484.394864	11251.656259
484.763706	11225.510315
485.132489	10982.350259
485.501213	10948.130907
485.869879	11019.054900
486.238487	10862.227124
486.607036	10975.549742
486.975527	10749.325443
487.343959	10943.331728
487.712333	10987.958543
488.080648	10923.298183
488.448905	10964.154214
488.817104	10902.793289
489.185244	11170.281954
489.553326	11324.921868
489.921350	11863.087727
490.289315	12921.251125
490.657222	13269.809105
491.025070	13172.540041
491.392861	13042.904249
491.760593	12661.546002
492.128267	12312.037765
492.495883	11981.721200
492.863440	11654.280614
493.230939	11319.694192
493.598380	11248.697102
493.965763	11122.292690
494.333088	11019.682524
494.700354	10941.703435
495.067563	11005.683239
495.434713	10834.536066
495.801805	10960.469131
496.168839	10892.085879
496.535815	10817.875053
496.902733	10820.725825
497.269593	10759.861454
497.636395	10854.282266
498.003139	10840.976140
498.369825	10708.534947
498.736453	10860.722340
499.103023	10798.466611
499.469535	10828.176651
499.835989	10813.514455
500.202385	10772.116499
500.568723	10628.859510
500.935003	10848.449651
501.301226	10662.294963
501.667390	10914.082953
502.033497	11013.600372
502.399546	10876.861594
502.765537	10778.957345
503.131470	10853.087513
503.497345	11026.384738
503.863163	10638.178083
504.228923	10952.567122
504.594625	11011.402428
504.960269	10753.151679
505.325856	10982.642646
505.691385	10770.773032
506.056856	10925.112998
506.422270	10953.366145
506.787625	10840.635863
507.152924	10954.379417
507.518164	10933.304873
507.883347	10858.224448
508.248472	10779.312747
508.613540	11010.237922
508.978550	10895.657536
509.343503	10871.777590
509.708398	10987.567853
510.073236	11108.699218
510.438016	11105.046902
510.802738	11052.097143
511.167403	11115.766916
511.532010	11001.514205
511.896561	11236.883158
512.261053	11315.033645
512.625488	11179.166987
512.989866	11156.360807
513.354186	11148.173973
513.718449	11048.444827
514.082655	11236.497509
514.446803	11139.782973
514.810894	11256.989800
515.174927	11122.315375
515.538904	11150.455096
515.902822	11298.294494
516.266684	11181.301916
516.630488	11132.470779
516.994235	11183.399036
517.357925	11252.193142
517.721558	11338.875782
518.085133	11351.340035
518.448651	11367.312931
518.812112	11242.264589
519.175516	11256.841086
519.538863	11382.580066
519.902152	11297.656788
520.265385	11455.659152
520.628560	11371.534897
520.991678	11348.015394
521.354739	11413.966289
521.717743	11343.700167
522.080690	11323.023874
522.443580	11453.761158
522.806413	11415.322360
523.169189	11444.538367
523.531908	11498.035092
523.894569	11321.587145
524.257174	11326.474544
524.619722	11444.349324
524.982213	11388.629450
525.344647	11441.254055
525.707025	11397.035574
526.069345	11485.386837
526.431608	11403.689897
526.793815	11509.410455
527.155964	11298.291973
527.518057	11355.680469
527.880093	11303.436471
528.242072	11370.080525
528.603995	11273.239959
528.965860	11196.233814
529.327669	11250.234654
529.689421	11199.263547
530.051117	11169.298929
530.412755	11269.070925
530.774337	11165.805409
531.135862	11138.255503
531.497331	11163.723412
531.858743	11013.973417
532.220098	11184.303923
532.581396	11054.592514
532.942638	11046.554394
533.303824	11000.384987
533.664953	11019.692606
534.026025	10931.190109
534.387040	11037.921418
534.747999	11035.874710
535.108902	11094.120201
535.469748	10848.439569
535.830537	10951.304313
536.191270	10938.898033
536.551947	10952.640219
536.912567	10953.618202
537.273131	10882.729497
537.633638	10854.982986
537.994089	10848.663900
538.354483	10800.614142
538.714821	10937.312590
539.075103	10954.145003
539.435328	10917.604199
539.795497	10741.345296
540.155609	10896.431353
540.515665	10985.425363
540.875665	10725.700075
541.235609	10794.035436
541.595496	10786.793819
541.955328	10940.828795
542.315102	10830.556075
542.674821	10777.008939
543.034483	10772.557600
543.394090	10779.055648
543.753640	10698.881137
544.113134	10924.871023
544.472571	10783.557398
544.831953	10930.638103
545.191278	10734.214584
545.550548	10762.102247
545.909761	10902.788248
546.268918	10876.052489
546.628019	10953.532503
546.987064	10820.801443
547.346053	10749.156564
547.704986	10837.959010
548.063863	10826.959212
548.422684	10827.155817
548.781449	10738.885213
549.140158	10847.227171
549.498811	10714.735566
549.857408	10574.352034
550.215949	10797.912084
550.574434	10657.679787
550.932864	10746.870401
551.291237	10810.809876
551.649555	10760.468913
552.007817	10772.779411
552.366022	10729.395241
552.724173	10727.414068
553.082267	10715.164064
553.440305	10849.677172
553.798288	10652.868005
554.156215	10806.938270
554.514086	10792.760024
554.871902	10628.771290
555.229661	10670.539770
555.587365	10641.991716
555.945014	10543.338856
556.302606	10661.921918
556.660143	10560.360312
557.017625	10710.669875
557.375050	10606.267579
557.732421	10747.906358
558.089735	10660.979222
558.446994	10659.741618
558.804197	10699.849038
559.161345	10693.766886
559.518437	10549.113497
559.875474	10638.324276
560.232455	10665.145735
560.589381	10610.207241
560.946251	10609.012487
561.303065	10722.584642
561.659825	10651.728704
562.016528	10585.107336
562.373177	10463.421444
562.729770	10578.175749
563.086307	10497.572740
563.442789	10585.336708
563.799216	10465.359767
564.155587	10522.896977
564.511904	10470.658020
564.868164	10460.505136
565.224370	10474.040634
565.580520	10395.907791
565.936615	10402.390715
566.292654	10270.476321
566.648638	10405.314584
567.004567	10361.985867
567.360441	10349.236788
567.716260	10259.279919
568.072023	10348.528506
568.427732	10298.820209
568.783385	10205.974758
569.138982	10288.838724
569.494525	10290.424167
569.850013	10174.465026
570.205445	10249.298434
570.560823	10152.074741
570.916145	10062.803468
571.271412	10137.916660
571.626625	10087.530328
571.981782	10063.884796
572.336884	10030.154435
572.691931	10038.973934
573.046923	9986.513166
573.401860	9943.000447
573.756743	9879.139110
574.111570	9920.998331
574.466342	9903.871011
574.821059	9933.074415
575.175722	9820.654164
575.530330	9830.696142
575.884882	9825.695318
576.239380	9753.019523
576.593823	9735.844312
576.948211	9750.148586
577.302544	9628.440009
577.656823	9638.587851
578.011047	9640.170774
578.365216	9618.148493
578.719330	9546.458244
579.073389	9551.824553
579.427394	9496.578547
579.781344	9476.413932
580.135239	9426.940048
580.489080	9433.218805
580.842866	9339.927212
581.196597	9346.261422
581.550273	9381.783913
581.903895	9357.596457
582.257463	9420.389069
582.610975	9291.728740
582.964434	9321.496754
583.317837	9238.012726
583.671186	9225.571158
584.024481	9223.670643
584.377721	9142.538313
584.730906	9118.953275
585.084037	9148.043253
585.437113	9084.297863
585.790135	9105.987427
586.143103	9002.021191
586.496016	8978.625196
586.848874	9034.624853
587.201679	9026.990026
587.554428	8909.999968
587.907124	8954.767935
588.259765	8923.792565
588.612352	8928.833719
588.964884	8806.638670
589.317362	8817.653592
589.669786	8820.673243
590.022155	8872.821459
590.374470	8884.000217
590.726731	8828.915529
591.078937	8673.620264
591.431090	8789.546638
591.783188	8664.757916
592.135232	8651.482037
592.487222	8651.413982
592.839157	8700.431641
593.191038	8636.288000
593.542866	8584.273374
593.894639	8487.851225
594.246358	8538.625726
594.598022	8550.164927
594.949633	8457.886606
595.301190	8426.490300
595.652692	8456.732182
596.004141	8568.534892
596.355535	8341.592228
596.706876	8322.924835
597.058162	8254.115606
597.409395	8335.595776
597.760573	8394.249601
598.111698	8302.825755
598.462768	8287.898898
598.813785	8258.488807
599.164748	8224.473621
599.515657	8211.689255
599.866511	8124.689022
600.217312	8249.782734
600.568060	8108.305272
600.918753	8219.051860
601.269392	8174.687186
601.619978	8098.250691
601.970510	8157.882500
602.320988	8155.114906
602.671412	8208.329326
603.021783	8148.274060
603.372100	8117.442363
603.722363	8124.575596
604.072572	8098.502748
604.422728	8106.513142
604.772830	8033.882718
605.122878	8047.105664
605.472872	8041.535189
605.822813	8069.982421
606.172701	8014.630551
606.522534	8089.264834
606.872314	8087.273578
607.222041	8064.043941
607.571714	8115.625027
607.921333	8075.487361
608.270899	8078.408709
608.620411	8171.591917
608.969870	8073.072648
609.319276	8067.073675
609.668627	8078.388545
610.017926	8116.335830
610.367171	8163.397522
610.716362	8141.337433
611.065500	8134.315105
611.414585	8152.478383
611.763616	8146.791961
612.112594	8131.960887
612.461518	8140.936661
612.810389	8200.139972
613.159207	8146.824729
613.507971	8092.065195
613.856682	8213.889719
614.205340	8167.067482
614.553945	8249.520594
614.902496	8146.343298
615.250994	8203.857823
615.599439	8179.045263
615.947830	8199.630815
616.296169	8167.203593
616.644454	8183.138680
616.992686	8176.310437
617.340864	8234.046773
617.688990	8134.859550
618.037063	8231.264056
618.385082	8178.616765
618.733048	8267.373841
619.080961	8199.351031
619.428821	8224.516471
619.776628	8224.506389
620.124382	8175.362701
620.472083	8161.373499
620.819731	8184.754370
621.167326	8076.762772
621.514868	8091.553518
621.862357	7978.026733
622.209793	7993.429979
622.557176	7930.062675
622.904506	7895.868528
623.251783	7831.775298
623.599007	7786.730068
623.946179	7786.591437
624.293297	7750.743792
624.640363	7671.401071
624.987376	7651.112947
625.334336	7597.240657
625.681243	7548.860703
626.028097	7534.359824
626.374899	7511.432657
626.721647	7506.305803
627.068343	7435.606141
627.414987	7405.452479
627.761577	7361.538988
628.108115	7403.158754
628.454600	7288.981661
628.801032	7340.736667
629.147412	7305.670401
629.493739	7297.917106
629.840014	7229.969914
630.186236	7287.544932
630.532405	7168.639236
630.878521	7219.280147
631.224585	7177.511667
631.570597	7103.363856
631.916556	7133.288145
632.262462	7132.105994
632.608316	7091.484377
632.954117	7071.770945
633.299866	7053.627832
633.645562	7043.701800
633.991206	6969.397713
634.336797	6913.203971
634.682336	6870.923814
635.027823	6837.589184
635.373257	6827.799263
635.718639	6763.481702
636.063968	6777.528877
636.409245	6668.198853
636.754470	6662.920765
637.099642	6623.705629
637.444762	6570.370221
637.789829	6577.901705
638.134845	6520.397263
638.479808	6499.350446
638.824719	6509.163052
639.169577	6436.749397
639.514383	6457.355114
639.859137	6384.928857
640.203839	6393.284569
640.548489	6381.556325
640.893086	6354.760071
641.237632	6324.966852
641.582125	6346.648855
641.926566	6317.566438
642.270955	6329.241751
642.615292	6323.933416
642.959576	6340.942269
643.303809	6335.162586
643.647990	6344.952507
643.992118	6328.213355
644.336195	6275.344254
644.680219	6297.371576
645.024192	6291.032325
645.368112	6387.716615
645.711981	6406.847793
646.055797	6491.907182
646.399562	6437.414830
646.743274	6568.260498
647.086935	6621.174970
647.430544	6616.469053
647.774101	6636.981508
648.117606	6640.454863
648.461059	6633.601414
648.804460	6600.957422
649.147810	6502.788513
649.491108	6473.103678
649.834354	6454.905113
650.177548	6363.272060
650.520690	6286.233147
650.863781	6258.625268
651.206820	6283.553773
651.549807	6203.825405
651.892742	6142.313245
652.235626	6146.217619
652.578458	6139.361650
652.921238	6044.257762
653.263967	6082.104224
653.606644	6019.404873
653.949269	6024.080544
654.291843	5963.488395
654.634365	6016.165932
654.976836	5970.598942
655.319255	5968.685825
655.661622	5948.574141
656.003938	5941.808913
656.346203	5903.075207
656.688416	5935.199960
657.030577	5887.470316
657.372687	5858.193815
657.714746	5848.603019
658.056753	5890.220265
658.398708	5828.478733
658.740612	5821.360624
659.082465	5860.542992
659.424266	5858.624833
659.766016	5861.631882
660.107715	5835.768242
660.449362	5846.306774
660.790958	5845.525395
661.132503	5828.670297
661.473996	5865.783272
661.815438	5853.613926
662.156829	5850.695098
662.498168	5842.596485
662.839456	5818.202341
663.180693	5854.176015
663.521879	5858.118197
663.863013	5844.461712
664.204097	5862.569536
664.545129	5903.140742
664.886110	5901.426750
665.227040	5932.092089
665.567918	5896.599845
665.908746	5927.648312
666.249522	5932.318941
666.590248	5917.003915
666.930922	5942.421413
667.271545	5959.190811
667.612118	5960.476306
667.952639	5937.508809
668.293109	5954.389112
668.633528	5912.446712
668.973896	5917.127424
669.314213	5909.994191
669.654480	5893.865019
669.994695	5886.462085
670.334859	5871.646134
670.674973	5864.286049
671.015035	5871.583119
671.355047	5870.090938
671.695008	5854.317167
672.034918	5828.198949
672.374777	5837.257903
672.714585	5822.356252
673.054342	5826.008568
673.394049	5819.984389
673.733705	5852.330953
674.073310	5841.379046
674.412864	5797.929341
674.752368	5790.034894
675.091820	5794.713085
675.431223	5726.682714
675.770574	5735.429116
676.109875	5685.879614
676.449125	5687.943967
676.788324	5655.254605
677.127473	5603.807109
677.466571	5587.907310
677.805619	5580.350620
678.144616	5566.283281
678.483562	5544.979364
678.822458	5513.648593
679.161303	5509.101472
679.500098	5500.720554
679.838842	5483.358820
680.177535	5481.342359
680.516179	5503.263816
680.854771	5514.379561
681.193314	5595.499288
681.531805	5703.238828
681.870247	5847.103276
682.208638	5955.838444
682.546978	5963.952181
682.885268	5943.555673
683.223508	5854.589390
683.561697	5802.852028
683.899836	5777.729438
684.237925	5727.975770
684.575963	5692.977559
684.913951	5654.879039
685.251889	5719.060489
685.589776	5687.195356
685.927614	5657.422301
686.265401	5725.054421
686.603137	5713.467329
686.940824	5786.995078
687.278460	5813.007432
687.616046	5822.197456
687.953582	5886.925871
688.291068	5869.498602
688.628504	5937.455877
688.965889	5892.889556
689.303224	5840.743861
689.640510	5794.869361
689.977745	5714.914140
690.314930	5618.839830
690.652065	5559.770110
690.989150	5465.482889
691.326185	5395.579729
691.663170	5339.353220
692.000105	5261.903453
692.336990	5187.934602
692.673825	5160.949306
693.010610	5095.084110
693.347345	5023.623234
693.684030	5012.197458
694.020665	4963.467145
694.357251	4875.375502
694.693786	4886.748345
695.030272	4854.215259
695.366707	4819.852233
695.703093	4785.527017
696.039429	4808.139112
696.375716	4788.188746
696.711952	4763.875261
697.048139	4752.343622
697.384276	4734.225715
697.720363	4745.991768
698.056400	4752.638529
698.392388	4700.346640
698.728326	4687.635371
699.064214	4661.330630
699.400053	4657.096061
699.735842	4623.458962
700.071581	4595.316721
700.407270	4567.701280
700.742910	4550.619330
701.078501	4500.043954
701.414042	4498.052698
701.749533	4471.677381
702.084974	4401.602822
702.420366	4459.913849
702.755709	4401.749016
703.091002	4342.308771
703.426246	4393.794075
703.761440	4349.895707
704.096584	4316.024195
704.431679	4333.854756
704.766725	4315.830110
705.101721	4309.614368
705.436668	4334.391639
705.771565	4278.238226
706.106413	4308.326353
706.441212	4344.332794
706.775961	4348.416129
707.110661	4332.652441
707.445311	4356.539948
707.779913	4386.015575
708.114465	4392.871544
708.448967	4418.939350
708.783421	4478.792970
709.117825	4518.907952
709.452180	4524.624620
709.786485	4570.549532
710.120742	4658.109333
710.454949	4642.645593
710.789107	4709.551787
711.123216	4781.877222
711.457275	4772.223412
711.791286	4848.324670
712.125247	4866.102299
712.459159	4762.007514
712.793023	4840.125234
713.126837	4798.578564
713.460602	4796.252072
713.794318	4709.869380
714.127985	4723.818253
714.461602	4637.309532
714.795171	4608.600161
715.128691	4540.090880
715.462162	4483.902179
715.795584	4434.118265
716.128957	4416.312909
716.462281	4365.556052
716.795556	4342.260880
717.128782	4305.939366
717.461960	4231.726020
717.795088	4245.511055
718.128167	4201.839539
718.461198	4144.168739
718.794180	4137.879900
719.127113	4122.534628
719.459997	4100.270372
719.792833	4054.032909
720.125619	4043.098646
720.458357	4009.363244
720.791046	4016.317516
721.123686	3989.334740
721.456278	3945.484263
721.788821	3962.624187
722.121315	3937.274744
722.453761	3906.221237
722.786158	3924.573557
723.118506	3944.135755
723.450805	3896.285122
723.783056	3919.749173
724.115259	3937.012604
724.447412	3941.494190
724.779518	3933.866924
725.111574	3939.908747
725.443582	3964.413796
725.775542	3952.887198
726.107453	4004.432996
726.439315	4002.839991
726.771129	4019.740460
727.102895	4055.086510
727.434612	4103.436216
727.766281	4111.852423
728.097901	4115.338381
728.429473	4118.708392
728.760996	4130.023262
729.092471	4120.271150
729.423897	4109.210858
729.755276	4110.367803
730.086606	4112.855612
730.417887	4150.709637
730.749120	4215.407805
731.080305	4277.726549
731.411442	4305.452895
731.742530	4273.870066
732.073570	4280.214358
732.404562	4334.210157
732.735506	4325.136080
733.066401	4286.941778
733.397249	4224.086151
733.728048	4145.560098
734.058798	4066.146801
734.389501	3989.559072
734.720156	3928.490534
735.050762	3886.991755
735.381320	3880.569325
735.711831	3824.680573
736.042293	3800.472952
736.372707	3820.400634
736.703073	3792.696973
737.033391	3785.291518
737.363661	3804.674754
737.693883	3826.941531
738.024056	3836.713808
738.354182	3832.224660
738.684260	3896.096079
739.014290	3916.008637
739.344272	3909.245929
739.674207	3953.240079
740.004093	3957.489771
740.333931	3953.340902
740.663722	3956.448773
740.993464	3952.022640
741.323159	3925.458280
741.652806	3894.359402
741.982405	3870.055999
742.311956	3840.348479
742.641460	3825.993794
742.970915	3807.434786
743.300323	3765.910802
743.629683	3732.341758
743.958996	3720.152248
744.288260	3692.254503
744.617477	3663.217457
744.946647	3647.965446
745.275768	3621.940489
745.604842	3619.608955
745.933869	3575.438365
746.262847	3565.187179
746.591778	3603.318467
746.920662	3571.140782
747.249498	3541.372768
747.578286	3590.642485
747.907027	3604.871142
748.235720	3602.733693
748.564365	3627.468114
748.892963	3627.526087
749.221514	3610.829786
749.550017	3587.789192
749.878473	3584.172164
750.206881	3554.557906
750.535242	3552.062535
750.863555	3550.330899
751.191821	3550.903070
751.520039	3526.695449
751.848210	3508.506966
752.176334	3543.711864
752.504411	3548.211093
752.832440	3508.166688
753.160421	3491.241014
753.488356	3499.019514
753.816243	3511.796319
754.144082	3467.590441
754.471875	3455.267340
754.799620	3473.302068
755.127318	3463.307980
755.454969	3465.647076
755.782572	3469.412818
756.110129	3445.679065
756.437638	3436.110955
756.765100	3449.167544
757.092515	3459.814461
757.419882	3466.859473
757.747203	3441.651183
758.074477	3441.787295
758.401703	3456.215077
758.728882	3479.580825
759.056014	3485.042915
759.383099	3487.729850
759.710138	3485.584839
760.037129	3502.112262
760.364073	3534.703322
760.690970	3516.018285
761.017820	3495.828464
761.344623	3517.225641
761.671379	3561.489493
761.998088	3609.597224
762.324751	3735.406780
762.651366	3986.126046
762.977935	4462.936021
763.304456	4905.163680
763.630931	4998.354450
763.957359	4634.020179
764.283740	4295.602480
764.610074	4103.113582
764.936362	3903.592275
765.262602	3745.526896
765.588796	3632.446254
765.914943	3544.601627
766.241044	3458.445788
766.567097	3427.750202
766.893104	3381.056514
767.219064	3350.572657
767.544978	3320.834890
767.870845	3266.324894
768.196665	3250.135228
768.522438	3256.524891
768.848165	3252.713778
769.173846	3216.714899
769.499479	3198.637321
769.825066	3183.392872
770.150607	3168.135820
770.476101	3180.491688
770.801548	3175.684948
771.126949	3134.047537
771.452303	3116.108592
771.777611	3123.561937
772.102872	3126.044706
772.428087	3100.032352
772.753256	3092.263934
773.078378	3082.937799
773.403453	3051.382697
773.728482	3038.328629
774.053465	3058.997360
774.378401	3049.139383
774.703291	3015.393899
775.028135	3014.519259
775.352932	3011.103878
775.677683	2998.044768
776.002388	2996.698780
776.327046	2997.517968
776.651658	2984.610093
776.976224	2975.893938
777.300743	2977.484423
777.625216	2966.731641
777.949643	2961.541773
778.274024	2965.035293
778.598359	2953.296966
778.922647	2958.101186
779.246889	2954.774024
779.571086	2940.520162
779.895236	2936.036056
780.219339	2948.338992
780.543397	2957.450877
780.867409	2964.400108
781.191374	2954.413582
781.515294	2952.013993
781.839167	2953.987604
782.162995	2943.953188
782.486776	2950.965433
782.810511	2951.099023
783.134201	2938.165943
783.457844	2941.997220
783.781441	2934.440530
784.104993	2914.401944
784.428498	2913.892787
784.751958	2926.130188
785.075372	2923.975095
785.398739	2906.358783
785.722061	2923.274375
786.045337	2934.054882
786.368568	2919.964857
786.691752	2911.334402
787.014891	2960.639407
787.337983	2988.711072
787.661030	3015.903056
787.984031	3084.830753
788.306987	3132.825058
788.629897	3119.014817
788.952760	3105.963269
789.275579	3091.255703
789.598351	3033.731097
789.921078	2987.871720
790.243759	2980.446100
790.566395	2963.008749
790.888984	2936.797270
791.211529	2923.586926
791.534027	2911.473033
791.856480	2901.443658
792.178888	2886.791544
792.501249	2875.496839
792.823566	2874.115563
793.145836	2872.784698
793.468062	2869.001312
793.790241	2867.042824
794.112375	2873.656818
794.434464	2884.452449
794.756507	2888.359343
795.078505	2896.150446
795.400457	2910.124525
795.722364	2945.934361
796.044226	2970.560398
796.366042	2974.406798
796.687812	2963.964048
797.009538	2980.367963
797.331218	2969.612661
797.652852	2953.838890
797.974442	2932.446754
798.295986	2933.699481
798.617484	2926.969540
798.938938	2913.373548
799.260346	2895.855539
799.581709	2891.815054
799.903026	2884.956564
800.224299	2879.917931
800.545526	2868.419059
800.866708	2855.097810
801.187845	2843.382168
801.508936	2843.276304
801.829983	2854.444981
802.150984	2839.807990
802.471940	2824.702173
802.792851	2825.491113
803.113717	2825.659992
803.434538	2833.257011
803.755314	2825.791062
804.076045	2814.529124
804.396731	2817.289156
804.717372	2817.271512
805.037967	2813.573826
805.358518	2820.016420
805.679024	2832.251301
805.999485	2826.728717
806.319901	2833.809017
806.640272	2823.381391
806.960598	2828.893892
807.280879	2835.848164
807.601115	2844.768486
807.921306	2831.001095
808.241453	2825.221412
808.561554	2835.606189
808.881611	2837.259687
809.201623	2831.631239
809.521590	2831.306084
809.841513	2828.246104
810.161390	2828.735096
810.481223	2823.036072
810.801011	2814.700524
811.120755	2810.876808
811.440453	2814.539207
811.760107	2811.930410
812.079716	2814.821511
812.399281	2802.599234
812.718801	2795.826444
813.038276	2790.185392
813.357707	2797.658903
813.677093	2803.095787
813.996434	2797.363996
814.315731	2790.603808
814.634983	2788.809157
814.954191	2791.997687
815.273354	2804.529996
815.592473	2812.991572
815.911547	2813.425112
816.230577	2821.853921
816.549562	2830.723831
816.868502	2829.811382
817.187399	2839.961746
817.506250	2859.516381
817.825058	2849.839887
818.143821	2862.470498
818.462539	2877.190667
818.781213	2903.187897
819.099843	2941.379679
819.418429	3000.371261
819.736970	3062.201013
820.055466	3134.009729
820.373919	3237.252560
820.692327	3380.028119
821.010691	3548.947102
821.329011	3992.697190
821.647286	4891.804622
821.965517	6271.923831
822.283704	7015.388159
822.601847	6998.437280
822.919945	6360.759044
823.237999	5859.023084
823.556010	5275.610350
823.873976	4721.678283
824.191897	4311.013288
824.509775	4014.787526
824.827609	3744.720312
825.145398	3621.282618
825.463144	3610.943212
825.780845	3701.328580
826.098502	3805.975372
826.416116	4089.172272
826.733685	4403.352103
827.051210	4470.623780
827.368692	4353.295966
827.686129	4088.927776
828.003522	3760.978033
828.320872	3507.879342
828.638177	3309.759475
828.955439	3171.231088
829.272656	3084.873602
829.589830	3019.615866
829.906960	2970.696509
830.224046	2925.628593
830.541088	2890.645506
830.858086	2875.146479
831.175041	2857.182327
831.491952	2858.974457
831.808819	2871.690768
832.125642	2895.502658
832.442421	2939.832044
832.759157	3023.041330
833.075849	3200.270655
833.392497	3485.186588
833.709101	3685.821991
834.025662	3634.997078
834.342179	3478.252481
834.658653	3300.834113
834.975083	3151.772234
835.291469	3050.210628
835.607811	2965.360448
835.924110	2907.891294
836.240366	2856.370701
836.556578	2815.791933
836.872746	2792.776546
837.188871	2771.454985
837.504952	2753.455546
837.820990	2743.768968
838.136984	2731.587020
838.452935	2724.559652
838.768842	2720.713251
839.084706	2742.697723
839.400526	2819.161945
839.716303	2953.380145
840.032037	3033.100952
840.347727	3017.853983
840.663373	2958.965744
840.978977	2883.492109
841.294537	2807.617702
841.610054	2761.201278
841.925527	2738.541292
842.240957	2717.854917
842.556344	2696.180476
842.871687	2680.341171
843.186987	2668.743996
843.502244	2668.093687
843.817458	2661.104128
844.132629	2648.796151
844.447756	2639.893473
844.762840	2634.020529
845.077881	2637.004892
845.392879	2636.881383
845.707833	2629.070116
846.022745	2622.120885
846.337613	2626.153808
846.652438	2624.175155
846.967221	2623.166924
847.281960	2622.045268
847.596656	2619.141563
847.911309	2619.184413
848.225919	2614.624689
848.540485	2613.974380
848.855009	2616.981429
849.169490	2611.952878
849.483928	2614.665018
849.798323	2615.264916
850.112675	2612.537652
850.426984	2612.101592
850.741251	2611.529421
851.055474	2613.011520
851.369654	2617.548558
851.683792	2614.274329
851.997887	2612.341047
852.311938	2611.431118
852.625947	2612.567898
852.939914	2615.469083
853.253837	2613.450100
853.567718	2610.546396
853.881555	2613.346757
854.195350	2617.936727
854.509103	2616.840276
854.822812	2611.418515
855.136479	2609.835593
855.450103	2615.264916
855.763685	2615.229628
856.077224	2613.102261
856.390720	2609.573453
856.704173	2612.923300
857.017584	2617.956892
857.330953	2620.041409
857.644278	2619.746502
857.957561	2618.118209
858.270802	2615.222066
858.584000	2615.171654
858.897155	2617.553600
859.210268	2617.999742
859.523339	2614.894391
859.836367	2609.021447
860.149352	2609.419698
860.462295	2612.406582
860.775195	2609.094543
861.088054	2608.721498
861.400869	2606.339553
861.713642	2604.585231
862.026373	2605.520365
862.339062	2608.915582
862.651708	2612.971191
862.964312	2614.372632
863.276873	2615.547220
863.589392	2617.208281
863.901869	2619.842283
864.214303	2628.505506
864.526696	2629.024745
864.839045	2629.118007
865.151353	2633.564304
865.463619	2631.993985
865.775842	2631.996505
866.088023	2631.930970
866.400162	2632.793008
866.712258	2632.361989
867.024313	2631.633542
867.336325	2626.463839
867.648296	2628.903757
867.960224	2634.756537
868.272110	2631.757051
868.583954	2626.625156
868.895755	2630.831999
869.207515	2633.120683
869.519233	2639.177629
869.830909	2634.824593
870.142542	2632.724952
870.454134	2632.059520
870.765684	2637.526651
871.077191	2644.007054
871.388657	2644.392703
871.700081	2643.707106
872.011463	2642.797177
872.322803	2643.323978
872.634101	2649.106182
872.945357	2655.155566
873.256571	2656.902326
873.567744	2655.682367
873.878874	2656.299908
874.189963	2657.184631
874.501010	2662.500527
874.812015	2666.062102
875.122979	2666.649397
875.433900	2657.812254
875.744780	2654.764877
876.055618	2662.261072
876.366415	2669.684172
876.677169	2667.249294
876.987882	2659.276709
877.298554	2660.383243
877.609183	2671.317505
877.919771	2677.916376
878.230317	2685.379804
878.540822	2697.097966
878.851285	2708.440562
879.161707	2734.649521
879.472087	2770.048503
879.782425	2819.867706
880.092722	2933.142433
880.402977	3122.836011
880.713191	3381.903428
881.023363	3676.085002
881.333494	3866.602809
881.643583	4039.065723
881.953631	4043.063358
882.263637	3859.577961
882.573602	3639.602172
882.883526	3507.803725
883.193408	3394.138308
883.503248	3292.768266
883.813048	3177.051100
884.122806	3063.771332
884.432522	2978.606079
884.742197	2914.182654
885.051831	2873.803011
885.361424	2839.697085
885.670975	2802.826086
885.980485	2773.927671
886.289954	2753.997470
886.599382	2745.389699
886.908768	2730.704818
887.218113	2709.184132
887.527417	2695.169725
887.836680	2689.785772
888.145901	2684.853003
888.455082	2676.431756
888.764221	2664.665703
889.073319	2657.320742
889.382376	2655.788231
889.691392	2658.926349
890.000366	2656.652789
890.309300	2656.337717
890.618193	2657.527429
890.927044	2660.549601
891.235855	2663.758295
891.544625	2661.212512
891.853353	2661.530105
892.162041	2668.287772
892.470687	2688.742254
892.779293	2698.438913
893.087858	2710.542723
893.396381	2733.003584
893.704864	2773.143772
894.013306	2844.907117
894.321707	2937.263577
894.630068	2989.101762
894.938387	3006.319823
895.246665	3000.837568
895.554903	2955.411730
895.863100	2911.919176
896.171256	2854.664271
896.479371	2796.194448
896.787446	2757.145670
897.095480	2736.050962
897.403473	2730.099880
897.711425	2715.926676
898.019336	2694.743747
898.327207	2681.011644
898.635038	2681.966943
898.942827	2678.806139
899.250576	2668.796928
899.558284	2658.389466
899.865952	2655.180772
900.173579	2651.752787
900.481165	2649.756490
900.788711	2638.713843
901.096216	2633.803759
901.403681	2629.138171
901.711105	2631.300826
902.018489	2628.291257
902.325832	2634.713687
902.633135	2634.512041
902.940397	2649.585091
903.247619	2686.695545
903.554800	2757.717841
903.861941	2883.051008
904.169041	3011.711337
904.476101	3073.024370
904.783121	3066.483473
905.090100	3010.735873
905.397039	2932.411466
905.703938	2858.987060
906.010796	2798.273924
906.317614	2747.449011
906.624391	2710.288145
906.931129	2681.757735
907.237826	2658.525577
907.544483	2642.857671
907.851099	2627.860239
908.157675	2614.942282
908.464211	2608.411467
908.770707	2600.819489
909.077163	2596.789087
909.383578	2590.845567
909.689954	2590.618715
909.996289	2589.365988
910.302584	2589.146698
910.608839	2586.888261
910.915054	2588.090576
911.221229	2586.190061
911.527363	2589.978488
911.833458	2589.154259
912.139513	2589.877665
912.445527	2593.560228
912.751502	2597.457040
913.057436	2601.681527
913.363331	2607.738473
913.669186	2616.288270
913.975000	2634.106228
914.280775	2651.304125
914.586510	2669.318688
914.892205	2706.971066
915.197859	2773.269801
915.503475	2855.057481
915.809050	2923.072728
916.114585	2936.106632
916.420081	2950.625155
916.725536	2963.722073
917.030952	2935.872218
917.336328	2890.552245
917.641665	2839.233299
917.946961	2788.138684
918.252218	2756.371853
918.557435	2728.695918
918.862612	2705.509131
919.167750	2688.338961
919.472848	2673.545695
919.777906	2655.016934
920.082925	2642.575367
920.387904	2635.759727
920.692843	2629.203706
920.997743	2624.994343
921.302603	2615.413630
921.607423	2611.247116
921.912204	2604.532299
922.216946	2601.883173
922.521647	2599.483584
922.826310	2596.862184
923.130932	2587.712489
923.435516	2585.751481
923.740059	2582.751994
924.044564	2581.320306
924.349028	2579.611355
924.653454	2572.024419
924.957840	2569.682803
925.262186	2569.067782
925.566493	2570.060889
925.870761	2564.951680
926.174989	2566.320353
926.479178	2563.557801
926.783328	2560.961607
927.087438	2562.955383
927.391509	2563.388922
927.695541	2559.401369
927.999533	2555.985988
928.303486	2558.047820
928.607400	2559.287943
928.911275	2555.890206
929.215110	2554.672767
929.518906	2553.563713
929.822663	2555.431461
930.126381	2557.669733
930.430060	2556.464897
930.733699	2558.284754
931.037299	2556.313663
931.340861	2556.883313
931.644383	2558.161246
931.947866	2556.764846
932.251309	2556.210319
932.554714	2555.499516
932.858080	2558.904816
933.161407	2556.086811
933.464694	2556.669064
933.767943	2552.021120
934.071153	2555.071018
934.374323	2553.326779
934.677455	2554.919784
934.980548	2552.671429
935.283602	2553.457849
935.586617	2555.421378
935.889593	2553.059598
936.192530	2553.427602
936.495428	2554.776111
936.798287	2553.951882
937.101108	2555.973385
937.403890	2559.666030
937.706632	2560.185269
938.009336	2564.238357
938.312002	2568.510734
938.614628	2568.324212
938.917216	2571.958884
939.219765	2574.713874
939.522275	2578.351067
939.824747	2575.341498
940.127179	2570.524675
940.429573	2566.050651
940.731929	2566.998388
941.034246	2565.483522
941.336524	2566.748851
941.638763	2565.302040
941.940964	2568.886300
942.243126	2564.271124
942.545250	2562.211813
942.847335	2561.450598
943.149381	2560.936401
943.451389	2559.403890
943.753359	2560.608726
944.055290	2556.505227
944.357182	2557.122768
944.659036	2555.030689
944.960851	2556.361554
945.262628	2553.291491
945.564367	2556.880792
945.866067	2558.383056
946.167729	2556.903478
946.469352	2554.902140
946.770937	2555.658313
947.072484	2555.945658
947.373992	2557.125288
947.675462	2557.836091
947.976893	2551.401058
948.278286	2554.047664
948.579641	2556.187634
948.880958	2552.963816
949.182236	2551.907694
949.483476	2551.751418
949.784678	2552.535318
950.085841	2552.462221
950.386967	2552.653785
950.688054	2551.927859
950.989103	2554.445915
951.290114	2556.996739
951.591087	2554.697973
951.892021	2559.605536
952.192917	2557.558828
952.493776	2557.644527
952.794596	2561.669889
953.095378	2562.032852
953.396122	2563.121741
953.696828	2558.254507
953.997496	2559.655948
954.298126	2555.587737
954.598718	2556.986657
954.899272	2554.098076
955.199788	2554.599670
955.500266	2552.421892
955.800706	2549.293856
956.101108	2545.313865
956.401472	2542.974770
956.701798	2544.537527
957.002087	2544.053577
957.302337	2543.400747
957.602550	2543.506611
957.902724	2541.399409
958.202861	2541.747249
958.502960	2543.471323
958.803022	2541.832948
959.103045	2544.373690
959.403031	2540.723894
959.702979	2540.582742
960.002889	2539.866898
960.302762	2541.565767
960.602596	2539.821528
960.902393	2538.369676
961.202153	2538.646939
961.501875	2539.090561
961.801559	2538.684748
962.101205	2539.937474
962.400814	2539.118287
962.700385	2537.278266
962.999918	2538.372196
963.299414	2538.682227
963.598873	2537.121990
963.898293	2538.924203
964.197677	2538.571322
964.497022	2538.909079
964.796331	2536.834644
965.095601	2536.759027
965.394835	2538.261291
965.694030	2539.874460
965.993189	2536.557381
966.292309	2536.461599
966.591393	2537.989068
966.890439	2537.757175
967.189447	2539.763555
967.488419	2538.074768
967.787353	2536.844727
968.086249	2540.106353
968.385108	2538.460416
968.683930	2538.054603
968.982714	2539.393030
969.281462	2537.777340
969.580172	2537.124511
969.878844	2536.696012
970.177480	2538.664583
970.476078	2535.818852
970.774639	2538.094933
971.073162	2541.394368
971.371649	2534.644263
971.670098	2536.459078
971.968510	2536.706095
972.266885	2534.319108
972.565223	2539.506456
972.863524	2536.108718
973.161788	2540.449152
973.460014	2537.328677
973.758204	2540.166847
974.056356	2539.491332
974.354471	2539.698020
974.652550	2536.930426
974.950591	2538.873791
975.248595	2535.866743
975.546563	2540.033256
975.844493	2538.722556
976.142386	2537.316074
976.440243	2535.957483
976.738062	2535.327339
977.035845	2536.950591
977.333590	2534.694674
977.631299	2535.612164
977.928971	2538.215920
978.226606	2533.782226
978.524204	2536.542257
978.821765	2535.571835
979.119290	2537.553009
979.416777	2534.936650
979.714228	2537.379089
980.011642	2536.683410
980.309020	2539.990407
980.606360	2536.713657
980.903664	2539.244316
981.200931	2533.472195
981.498162	2539.115766
981.795356	2540.746580
982.092513	2543.441076
982.389633	2545.424770
982.686717	2549.833259
982.983764	2551.874927
983.280775	2555.514640
983.577749	2552.580688
983.874686	2548.966181
984.171587	2548.391489
984.468451	2542.647095
984.765279	2543.418391
985.062070	2542.573998
985.358824	2540.668442
985.655543	2538.614172
985.952224	2538.636857
986.248869	2535.707946
986.545478	2534.079654
986.842050	2532.390867
987.138586	2529.872811
987.435086	2534.026722
987.731549	2533.265507
988.027975	2534.704757
988.324366	2532.700898
988.620719	2536.443955
988.917037	2531.836340
989.213318	2532.990764
989.509563	2531.702750
989.805772	2534.603934
990.101944	2533.078985
990.398080	2532.660569
990.694180	2531.768285
990.990244	2534.341794
991.286271	2532.884900
991.582262	2534.495549
991.878217	2530.853315
992.174136	2533.159643
992.470019	2532.620240
992.765865	2534.409849
993.061676	2531.473377
993.357450	2535.039993
993.653188	2534.059489
993.948890	2532.577390
994.244556	2534.493028
994.540186	2538.490663
994.835780	2534.808100
995.131337	2535.622247
995.426859	2535.075282
995.722345	2535.284489
996.017795	2536.317926
996.313208	2537.933616
996.608586	2535.486136
996.903928	2538.644418
997.199234	2537.275745
997.494504	2535.924716
997.789738	2536.247350
998.084936	2534.117462
998.380099	2535.518903
998.675225	2535.758358
998.970316	2533.346166
999.265371	2536.837165
999.560390	2535.576876
999.855373	2535.483615
1000.150320	2535.344983
1000.445232	2534.863553
1000.740108	2530.490352
1001.034948	2534.626619
1001.329752	2531.296937
1001.624521	2533.018491
1001.919254	2527.279137
1002.213951	2531.286854
1002.508613	2528.778880
1002.803239	2529.575383
1003.097829	2527.226205
1003.392384	2532.153933
1003.686903	2530.142513
1003.981386	2531.264169
1004.275834	2533.348686
1004.570246	2533.908254
1004.864623	2527.788294
1005.158964	2530.084539
1005.453270	2531.743079
1005.747540	2529.497245
1006.041775	2533.809952
1006.335974	2531.712832
1006.630138	2531.697708
1006.924266	2532.879859
1007.218359	2531.740558
1007.512416	2532.874818
1007.806438	2532.683254
1008.100425	2529.517409
1008.394376	2529.376257
1008.688292	2532.897503
1008.982172	2529.333407
1009.276017	2532.264838
1009.569827	2530.560928
1009.863602	2532.758871
1010.157341	2530.450023
1010.451045	2531.657379
1010.744714	2531.309540
1011.038347	2531.773326
1011.331945	2532.627801
1011.625508	2532.516896
1011.919036	2530.218130
1012.212528	2531.349869
1012.505986	2530.810465
1012.799408	2529.928263
1013.092795	2530.676875
1013.386147	2531.322143
1013.679464	2529.819879
1013.972745	2529.325846
1014.265992	2533.099149
1014.559204	2531.395239
1014.852380	2532.216947
1015.145521	2532.582431
1015.438628	2530.308871
1015.731699	2531.914478
1016.024736	2528.241998
1016.317737	2528.947759
1016.610703	2533.426824
1016.903635	2527.868952
1017.196531	2529.204858
1017.489393	2529.784591
1017.782219	2525.247552
1018.075011	2526.447347
1018.367768	2528.705784
1018.660490	2532.476567
1018.953177	2532.476567
1019.245829	2532.476567
