Dividing Wavelength (nm)	Counts (n)	Blue Motor Position (mm): 15.100000	Red Motor Position (mm): 0.000000	
326.493990	2135.669703
326.888308	2135.669703
327.282561	2135.669703
327.676750	2102.566967
328.070874	2103.116453
328.464933	2105.919334
328.858929	2111.416712
329.252859	2122.809720
329.646726	2131.972017
330.040528	2144.796713
330.434265	2163.602737
330.827938	2179.837773
331.221547	2196.140864
331.615091	2217.890923
332.008571	2234.801473
332.401986	2254.585482
332.795338	2275.985180
333.188625	2292.152160
333.581847	2313.461117
333.975006	2327.621718
334.368100	2347.776252
334.761129	2368.815507
335.154095	2383.538197
335.546996	2404.763975
335.939833	2423.920360
336.332606	2437.965014
336.725315	2451.964299
337.117960	2459.473097
337.510540	2468.327884
337.903056	2476.912969
338.295508	2484.567961
338.687896	2493.105155
339.080220	2505.282062
339.472480	2508.916734
339.864676	2514.527538
340.256807	2517.612725
340.648875	2521.938035
341.040879	2523.589012
341.432818	2526.601102
341.824694	2525.237470
342.216506	2527.261493
342.608253	2529.630835
342.999937	2527.417769
343.391557	2528.574714
343.783113	2522.452232
344.174605	2524.188910
344.566033	2521.943076
344.957397	2520.579444
345.348697	2518.288239
345.739934	2515.755059
346.131106	2516.856552
346.522215	2513.262209
346.913260	2511.759945
347.304241	2512.732888
347.695159	2507.290962
348.086012	2508.039573
348.476802	2505.808863
348.867528	2502.464057
349.258191	2506.325581
349.648789	2502.814418
350.039324	2500.094715
350.429796	2501.281907
350.820203	2499.688902
351.210548	2497.503562
351.600828	2496.578510
351.991045	2495.620691
352.381198	2497.463233
352.771288	2492.555669
353.161314	2493.705052
353.551276	2495.237563
353.941175	2494.103304
354.331010	2494.370485
354.720782	2490.640031
355.110490	2495.280413
355.500135	2493.715135
355.889717	2492.855618
356.279235	2492.984167
356.668689	2494.720845
357.058080	2493.195896
357.447408	2492.994250
357.836672	2492.371667
358.225873	2490.531646
358.615010	2491.378560
359.004084	2494.935094
359.393095	2493.470639
359.782043	2498.158912
360.170927	2498.063130
360.559748	2497.402739
360.948505	2498.310147
361.337199	2504.248626
361.725830	2498.158912
362.114398	2499.779643
362.502903	2500.860970
362.891344	2498.889879
363.279722	2499.620847
363.668037	2501.806187
364.056289	2502.867350
364.444478	2503.363903
364.832603	2503.323574
365.220665	2507.255674
365.608665	2504.276352
365.996601	2504.480519
366.384474	2505.801301
366.772284	2507.694254
367.160031	2506.202073
367.547715	2507.800119
367.935336	2505.629902
368.322893	2506.496980
368.710388	2507.583349
369.097820	2507.485047
369.485189	2507.666528
369.872495	2506.910355
370.259738	2507.263236
370.646918	2504.357011
371.034035	2509.264574
371.421090	2508.584018
371.808081	2510.431601
372.195010	2508.768020
372.581875	2509.204080
372.968678	2510.678617
373.355418	2511.593587
373.742096	2508.747856
374.128710	2510.000582
374.515262	2509.756086
374.901751	2511.570902
375.288177	2509.572084
375.674540	2510.184584
376.060841	2513.516787
376.447079	2513.128618
376.833254	2512.851355
377.219367	2507.016219
377.605417	2508.856240
377.991404	2508.825993
378.377329	2508.586539
378.763191	2509.073010
379.148991	2512.226252
379.534727	2513.337826
379.920402	2511.311282
380.306013	2515.525687
380.691563	2514.560306
381.077049	2512.934534
381.462474	2517.290091
381.847835	2515.185409
382.233134	2514.797240
382.618371	2515.613907
383.003545	2517.816891
383.388657	2515.071983
383.773706	2516.251613
384.158693	2515.334123
384.543618	2516.196160
384.928480	2517.232118
385.313280	2518.671367
385.698017	2515.392096
386.082692	2517.690863
386.467305	2517.867303
386.851856	2518.169772
387.236344	2517.290091
387.620770	2521.204547
388.005133	2517.504340
388.389435	2519.770338
388.773674	2518.905781
389.157851	2517.605163
389.541965	2519.724968
389.926018	2519.845956
390.310008	2517.602642
390.693936	2517.317817
391.077802	2520.312262
391.461606	2519.185565
391.845348	2519.747653
392.229027	2517.700945
392.612645	2517.050636
392.996200	2522.174969
393.379694	2520.246728
393.763125	2518.323527
394.146494	2520.942407
394.529801	2522.270751
394.913047	2521.063394
395.296230	2521.625483
395.679351	2521.754032
396.062410	2519.997190
396.445408	2521.812006
396.828343	2522.976512
397.211217	2520.748322
397.594028	2518.651202
397.976778	2520.224042
398.359466	2520.876872
398.742092	2519.162879
399.124656	2523.689836
399.507158	2522.893333
399.889598	2524.322500
400.271977	2523.611698
400.654294	2525.053468
401.036549	2524.551873
401.418742	2524.733354
401.800874	2523.198323
402.182944	2525.595392
402.564952	2524.496420
402.946898	2524.773684
403.328783	2523.896523
403.710606	2524.254445
404.092367	2524.350227
404.474067	2525.973478
404.855705	2524.478776
405.237282	2527.848787
405.618797	2524.791328
406.000250	2525.824764
406.381642	2528.219312
406.762972	2527.611853
407.144240	2528.337779
407.525447	2528.584796
407.906593	2525.315608
408.287677	2526.890968
408.668700	2526.961544
409.049661	2527.359796
409.430560	2527.148067
409.811399	2530.555887
410.192176	2526.303674
410.572891	2530.755013
410.953545	2528.909950
411.334138	2528.947759
411.714669	2529.116638
412.095139	2529.913140
412.475547	2528.143695
412.855894	2531.254087
413.236180	2529.149405
413.616405	2529.071267
413.996568	2530.631504
414.376670	2529.585465
414.756711	2529.436751
415.136691	2529.376257
415.516609	2529.204858
415.896466	2530.747451
416.276262	2531.085208
416.655997	2527.780732
417.035670	2528.052954
417.415283	2528.937677
417.794834	2523.646986
418.174324	2527.861390
418.553753	2529.325846
418.933121	2534.755168
419.312428	2529.431710
419.691674	2530.132430
420.070859	2529.550177
420.449983	2531.717873
420.829045	2532.254756
421.208047	2530.951618
421.586988	2530.369364
421.965867	2533.694005
422.344686	2532.532019
422.723444	2532.970600
423.102141	2532.537061
423.480777	2532.332894
423.859352	2533.096629
424.237866	2534.182997
424.616319	2534.364479
424.994712	2532.113604
425.373044	2534.125024
425.751314	2535.609644
426.129524	2532.786598
426.507673	2533.779705
426.885762	2534.682072
427.263789	2534.427493
427.641756	2534.417411
428.019662	2536.204500
428.397508	2534.392205
428.775292	2535.914634
429.153016	2532.771474
429.530679	2536.874973
429.908282	2534.896321
430.285824	2533.389016
430.663305	2535.934798
431.040726	2536.431352
431.418086	2535.839016
431.795385	2537.195087
432.172624	2536.098636
432.549802	2535.390354
432.926920	2536.698533
433.303977	2536.159130
433.680974	2540.320602
434.057910	2538.704912
434.434786	2536.065868
434.811601	2535.692823
435.188355	2534.641742
435.565050	2539.095602
435.941683	2535.254243
436.318257	2536.133924
436.694770	2531.879190
437.071222	2536.365817
437.447614	2531.042358
437.823946	2533.802390
438.200218	2534.374561
438.576429	2536.932947
438.952580	2537.830272
439.328670	2536.872453
439.704700	2535.604603
440.080670	2536.431352
440.456580	2539.042670
440.832429	2538.099974
441.208218	2535.415559
441.583947	2540.166847
441.959616	2538.150385
442.335224	2539.042670
442.710773	2539.493853
443.086261	2537.248019
443.461689	2537.444624
443.837057	2536.764068
444.212365	2538.382278
444.587612	2538.553678
444.962800	2539.226672
445.337927	2540.441590
445.712995	2539.072917
446.088002	2536.907741
446.462949	2537.827752
446.837837	2537.321116
447.212664	2537.721887
447.587431	2538.319264
447.962139	2540.073586
448.336786	2538.616692
448.711374	2539.987886
449.085901	2544.209852
449.460369	2540.108874
449.834776	2542.279090
450.209124	2540.640715
450.583412	2541.449821
450.957640	2537.926054
451.331808	2540.126518
451.705917	2538.372196
452.079965	2538.732639
452.453954	2544.058618
452.827883	2541.714481
453.201752	2541.328833
453.575562	2542.568957
453.949311	2540.519728
454.323001	2541.507794
454.696632	2540.214738
455.070202	2538.934285
455.443713	2541.888401
455.817164	2540.698689
456.190556	2539.950077
456.563888	2539.660211
456.937160	2538.810777
457.310373	2542.357228
457.683526	2540.807073
458.056619	2542.054759
458.429653	2542.042156
458.802628	2540.812115
459.175542	2544.852599
459.548398	2544.487116
459.921194	2542.821014
460.293930	2546.599359
460.666607	2543.211704
461.039224	2541.961498
461.411782	2543.720860
461.784280	2545.255892
462.156719	2541.996786
462.529099	2543.521735
462.901419	2543.438556
463.273680	2542.357228
463.645882	2544.111550
464.018024	2543.403268
464.390106	2546.168341
464.762130	2544.492157
465.134094	2544.287990
465.505999	2545.386962
465.877845	2543.728422
466.249631	2543.103319
466.621358	2545.916283
466.993026	2546.251520
467.364634	2550.223949
467.736184	2544.058618
468.107674	2546.858979
468.479105	2546.359904
468.850477	2542.672300
469.221790	2545.160110
469.593043	2545.001313
469.964238	2542.705068
470.335373	2545.293700
470.706449	2545.114739
471.077467	2544.827394
471.448425	2546.551468
471.819324	2546.553989
472.190164	2545.364277
472.560945	2549.296377
472.931667	2544.192208
473.302330	2547.332847
473.672934	2544.416540
474.043479	2546.027188
474.413965	2546.745553
474.784393	2543.998124
475.154761	2544.575336
475.525070	2543.622558
475.895321	2542.382434
476.265513	2542.856302
476.635645	2545.830583
477.005719	2547.582384
477.375734	2548.353681
477.745691	2547.262271
478.115588	2547.544576
478.485427	2544.988711
478.855207	2549.510626
479.224928	2546.790923
479.594591	2546.768238
479.964194	2547.715975
480.333739	2548.164638
480.703226	2549.465255
481.072653	2548.885523
481.442022	2550.266799
481.811333	2547.224462
482.180584	2547.300080
482.549777	2549.253527
482.918912	2548.731767
483.287988	2549.987015
483.657005	2549.888712
484.025964	2547.741181
484.394864	2549.377035
484.763706	2552.729402
485.132489	2549.344267
485.501213	2550.498692
485.869879	2548.630944
486.238487	2547.337888
486.607036	2551.229659
486.975527	2551.070863
487.343959	2550.055070
487.712333	2549.845862
488.080648	2550.042467
488.448905	2548.310831
488.817104	2549.160265
489.185244	2553.979608
489.553326	2551.847200
489.921350	2550.730585
490.289315	2549.772766
490.657222	2553.082283
491.025070	2551.302756
491.392861	2556.076728
491.760593	2552.058929
492.128267	2554.158569
492.495883	2551.701007
492.863440	2552.923487
493.230939	2548.656150
493.598380	2553.679660
493.965763	2545.923845
494.333088	2550.561706
494.700354	2548.116747
495.067563	2549.699669
495.434713	2549.613969
495.801805	2551.557334
496.168839	2551.373332
496.535815	2553.142777
496.902733	2551.796789
497.269593	2551.585060
497.636395	2551.073383
498.003139	2551.143959
498.369825	2551.627910
498.736453	2553.077242
499.103023	2553.241079
499.469535	2552.288301
499.835989	2552.447098
500.202385	2551.239741
500.568723	2554.030020
500.935003	2554.042623
501.301226	2553.805689
501.667390	2553.326779
502.033497	2555.176882
502.399546	2554.156049
502.765537	2553.967006
503.131470	2555.769218
503.497345	2552.966337
503.863163	2555.267623
504.228923	2554.579506
504.594625	2555.234856
504.960269	2555.030689
505.325856	2557.402552
505.691385	2551.965667
506.056856	2554.047664
506.422270	2555.111348
506.787625	2552.515153
507.152924	2554.483724
507.518164	2556.495144
507.883347	2553.374670
508.248472	2555.365926
508.613540	2555.499516
508.978550	2557.319373
509.343503	2557.170659
509.708398	2558.287274
510.073236	2556.701832
510.438016	2557.828529
510.802738	2559.676112
511.167403	2558.730896
511.532010	2557.609239
511.896561	2558.390618
512.261053	2558.143602
512.625488	2559.101421
512.989866	2553.994732
513.354186	2556.656461
513.718449	2555.050854
514.082655	2560.351627
514.446803	2560.626370
514.810894	2560.396997
515.174927	2561.654765
515.538904	2564.155178
515.902822	2561.110321
516.266684	2562.403377
516.630488	2559.754250
516.994235	2564.699622
517.357925	2563.048644
517.721558	2566.511917
518.085133	2561.790876
518.448651	2565.909499
518.812112	2563.489745
519.175516	2564.734910
519.538863	2566.721125
519.902152	2565.730538
520.265385	2565.032338
520.628560	2567.978893
520.991678	2564.545867
521.354739	2566.169118
521.717743	2567.003429
522.080690	2567.968810
522.443580	2566.524520
522.806413	2571.232957
523.169189	2566.630384
523.531908	2570.630540
523.894569	2566.842112
524.257174	2569.302196
524.619722	2568.921588
524.982213	2572.994841
525.344647	2572.717577
525.707025	2571.792526
526.069345	2573.231775
526.431608	2572.135324
526.793815	2572.750345
527.155964	2573.251940
527.518057	2573.826631
527.880093	2574.721436
528.242072	2572.742783
528.603995	2576.354770
528.965860	2577.874678
529.327669	2574.434090
529.689421	2575.457444
530.051117	2578.056159
530.412755	2578.875347
530.774337	2579.356777
531.135862	2577.453741
531.497331	2578.643454
531.858743	2576.463155
532.220098	2579.205542
532.581396	2578.177147
532.942638	2579.374421
533.303824	2583.850966
533.664953	2582.792323
534.026025	2585.073445
534.387040	2586.558065
534.747999	2586.394228
535.108902	2588.940010
535.469748	2587.052098
535.830537	2590.023858
536.191270	2591.248859
536.551947	2594.452512
536.912567	2594.119796
537.273131	2595.652307
537.633638	2596.284972
537.994089	2596.476535
538.354483	2597.555342
538.714821	2602.956939
539.075103	2601.076588
539.435328	2603.705550
539.795497	2603.922320
540.155609	2609.555809
540.515665	2610.987497
540.875665	2612.923300
541.235609	2614.148300
541.595496	2616.699124
541.955328	2618.720627
542.315102	2620.759773
542.674821	2623.676081
543.034483	2627.464508
543.394090	2627.958541
543.753640	2632.021711
544.113134	2635.479943
544.472571	2633.387864
544.831953	2640.140489
545.191278	2640.432876
545.550548	2644.102836
545.909761	2645.559730
546.268918	2651.392345
546.628019	2655.334527
546.987064	2659.311997
547.346053	2664.148985
547.704986	2665.815086
548.063863	2668.736435
548.422684	2674.561488
548.781449	2678.412929
549.140158	2683.522139
549.498811	2686.314938
549.857408	2685.967098
550.215949	2696.677030
550.574434	2696.246011
550.932864	2705.347814
551.291237	2710.119267
551.649555	2716.483723
552.007817	2723.957234
552.366022	2729.053840
552.724173	2735.297309
553.082267	2740.197311
553.440305	2753.354722
553.798288	2749.757859
554.156215	2764.891403
554.514086	2770.199738
554.871902	2774.691406
555.229661	2782.885802
555.587365	2791.034827
555.945014	2792.509364
556.302606	2808.273052
556.660143	2812.817653
557.017625	2828.919098
557.375050	2833.141064
557.732421	2847.962057
558.089735	2854.923890
558.446994	2864.368492
558.804197	2877.210831
559.161345	2882.065463
559.518437	2881.984804
559.875474	2901.418452
560.232455	2916.468817
560.589381	2925.285795
560.946251	2941.808177
561.303065	2952.646658
561.659825	2966.277938
562.016528	2971.268680
562.373177	2969.877321
562.729770	2997.470077
563.086307	3003.214472
563.442789	3021.909591
563.799216	3031.490304
564.155587	3045.608055
564.511904	3055.634910
564.868164	3072.968917
565.224370	3088.664550
565.580520	3105.630553
565.936615	3111.074999
566.292654	3126.011938
566.648638	3147.020947
567.004567	3164.821261
567.360441	3177.945905
567.716260	3191.317566
568.072023	3210.063096
568.427732	3227.424830
568.783385	3230.230232
569.138982	3260.328441
569.494525	3280.286369
569.850013	3283.278294
570.205445	3318.939417
570.560823	3322.289263
570.916145	3341.372551
571.271412	3367.004298
571.626625	3385.984242
571.981782	3398.592168
572.336884	3420.458173
572.691931	3432.647683
573.046923	3458.836477
573.401860	3472.515648
573.756743	3485.584839
574.111570	3518.254037
574.466342	3529.082435
574.821059	3557.136456
575.175722	3568.567273
575.530330	3593.117692
575.884882	3609.292234
576.239380	3627.155563
576.593823	3636.320380
576.948211	3670.741379
577.302544	3664.722241
577.656823	3706.402501
578.011047	3720.792475
578.365216	3748.440683
578.719330	3753.199532
579.073389	3789.211015
579.427394	3790.206643
579.781344	3822.099502
580.135239	3835.191379
580.489080	3859.877909
580.842866	3874.073799
581.196597	3900.706214
581.550273	3930.653189
581.903895	3958.790389
582.257463	3991.888085
582.610975	4004.075074
582.964434	4027.062736
583.317837	4044.439593
583.671186	4059.626069
584.024481	4087.609514
584.377721	4093.059001
584.730906	4118.166468
585.084037	4153.850275
585.437113	4156.965708
585.790135	4193.773693
586.143103	4193.151111
586.496016	4212.282290
586.848874	4254.698558
587.201679	4275.800828
587.554428	4274.437196
587.907124	4316.114935
588.259765	4331.155218
588.612352	4369.415055
588.964884	4357.649002
589.317362	4391.628899
589.669786	4416.973300
590.022155	4448.094864
590.374470	4486.916789
590.726731	4487.045339
591.078937	4477.126869
591.431090	4543.135737
591.783188	4521.544475
592.135232	4555.728539
592.487222	4569.294284
592.839157	4618.548878
593.191038	4623.126246
593.542866	4630.012462
593.894639	4626.650012
594.246358	4664.998070
594.598022	4699.356054
594.949633	4696.117112
595.301190	4710.270152
595.652692	4742.606633
596.004141	4821.387265
596.355535	4756.895784
596.706876	4779.311274
597.058162	4784.911996
597.409395	4837.677753
597.760573	4891.222369
598.111698	4876.630749
598.462768	4899.431888
598.813785	4900.687135
599.164748	4931.337351
599.515657	4936.617959
599.866511	4939.171304
600.217312	5001.616077
600.568060	4974.310667
600.918753	5043.515627
601.269392	5053.381165
601.619978	5047.757758
601.970510	5098.471765
602.320988	5121.119149
602.671412	5178.061502
603.021783	5169.725954
603.372100	5184.501576
603.722363	5215.938212
604.072572	5219.590528
604.422728	5251.783336
604.772830	5238.890585
605.122878	5270.175986
605.472872	5287.739366
605.822813	5333.510522
606.172701	5329.704451
606.522534	5389.550509
606.872314	5414.002626
607.222041	5429.708341
607.571714	5479.567873
607.921333	5486.912834
608.270899	5513.293192
608.620411	5585.046455
608.969870	5556.896652
609.319276	5578.835754
609.668627	5616.069716
610.017926	5654.289224
610.367171	5710.740065
610.716362	5714.059664
611.065500	5740.946658
611.414585	5783.698164
611.763616	5788.724194
612.112594	5811.898378
612.461518	5844.204613
612.810389	5898.011368
613.159207	5889.859823
613.507971	5881.567124
613.856682	5982.107897
614.205340	5964.138704
614.553945	6035.350043
614.902496	5995.759341
615.250994	6049.976951
615.599439	6055.726387
615.947830	6094.334064
616.296169	6095.861533
616.644454	6125.342201
616.992686	6143.571013
617.340864	6203.306166
617.688990	6163.775958
618.037063	6238.974850
618.385082	6227.912038
618.733048	6315.270193
619.080961	6285.424041
619.428821	6319.736655
619.776628	6348.609864
620.124382	6336.632082
620.472083	6349.983578
620.819731	6385.826182
621.167326	6339.823132
621.514868	6365.616196
621.862357	6306.632176
622.209793	6341.688359
622.557176	6314.700542
622.904506	6325.173539
623.251783	6289.298168
623.599007	6280.849194
623.946179	6307.259799
624.293297	6296.247399
624.640363	6252.865749
624.987376	6262.910248
625.334336	6242.833853
625.681243	6225.406584
626.028097	6233.865640
626.374899	6229.709209
626.721647	6247.875007
627.068343	6203.069232
627.414987	6201.025044
627.761577	6189.256470
628.108115	6229.454631
628.454600	6164.950547
628.801032	6224.378189
629.147412	6196.626637
629.493739	6208.425458
629.840014	6171.128481
630.186236	6232.444035
630.532405	6152.718187
630.878521	6201.957657
631.224585	6180.157187
631.570597	6132.359487
631.916556	6173.102092
632.262462	6182.324883
632.608316	6169.265774
632.954117	6161.749414
633.299866	6157.356048
633.645562	6169.900960
633.991206	6116.973886
634.336797	6083.477939
634.682336	6062.093364
635.027823	6051.668258
635.373257	6048.527619
635.718639	6011.989336
636.063968	6033.454569
636.409245	5959.163085
636.754470	5968.968129
637.099642	5948.858967
637.444762	5908.766670
637.789829	5927.726450
638.134845	5891.578856
638.479808	5890.520214
638.824719	5902.873561
639.169577	5851.370613
639.514383	5876.256269
639.859137	5822.446993
640.203839	5836.174055
640.548489	5839.591957
640.893086	5819.024049
641.237632	5810.817051
641.582125	5833.724054
641.926566	5815.258307
642.270955	5840.038099
642.615292	5843.244273
642.959576	5863.779413
643.303809	5863.618096
643.647990	5877.093100
643.992118	5870.252255
644.336195	5826.893290
644.680219	5858.864288
645.024192	5858.607189
645.368112	5947.331497
645.711981	5974.168079
646.055797	6044.129212
646.399562	6014.877917
646.743274	6132.261185
647.086935	6182.448392
647.430544	6180.061405
647.774101	6211.243463
648.117606	6216.090532
648.461059	6222.462550
648.804460	6192.336615
649.147810	6110.261589
649.491108	6100.290187
649.834354	6081.453916
650.177548	6014.910685
650.520690	5938.580054
650.863781	5930.552016
651.206820	5949.753771
651.549807	5884.070057
651.892742	5842.591443
652.235626	5846.458008
652.578458	5843.554304
652.921238	5763.006748
653.263967	5803.141894
653.606644	5749.892186
653.949269	5757.038022
654.291843	5703.891657
654.634365	5756.080202
654.976836	5721.946550
655.319255	5725.437549
655.661622	5708.332914
656.003938	5707.503644
656.346203	5674.547101
656.688416	5712.055806
657.030577	5668.636348
657.372687	5643.861597
657.714746	5634.580833
658.056753	5679.636145
658.398708	5623.160099
658.740612	5619.233040
659.082465	5667.108878
659.424266	5664.520246
659.766016	5664.459752
660.107715	5651.531713
660.449362	5660.767107
660.790958	5654.498432
661.132503	5647.707997
661.473996	5692.042425
661.815438	5677.433161
662.156829	5679.200086
662.498168	5676.550959
662.839456	5652.111445
663.180693	5691.480336
663.521879	5693.534607
663.863013	5689.022774
664.204097	5711.589499
664.545129	5746.839767
664.886110	5748.740282
665.227040	5783.461229
665.567918	5750.469398
665.908746	5779.720693
666.249522	5783.194048
666.590248	5776.965703
666.930922	5808.112472
667.271545	5818.582948
667.612118	5824.327343
667.952639	5797.389938
668.293109	5819.679399
668.633528	5781.616167
668.973896	5785.525582
669.314213	5781.948883
669.654480	5765.497078
669.994695	5758.666314
670.334859	5753.882259
670.674973	5749.516620
671.015035	5750.393781
671.355047	5750.141723
671.695008	5742.191823
672.034918	5721.230706
672.374777	5732.139763
672.714585	5718.503442
673.054342	5717.102001
673.394049	5713.384150
673.733705	5743.804993
674.073310	5738.526905
674.412864	5699.896543
674.752368	5695.223393
675.091820	5694.946130
675.431223	5639.170803
675.770574	5635.694928
676.109875	5591.872177
676.449125	5601.006748
676.788324	5567.110030
677.127473	5514.465260
677.466571	5509.774467
677.805619	5497.572354
678.144616	5486.938040
678.483562	5467.892560
678.822458	5440.221667
679.161303	5433.395945
679.500098	5427.407054
679.838842	5406.571965
680.177535	5416.926495
680.516179	5430.648516
680.854771	5439.614208
681.193314	5522.483215
681.531805	5634.543024
681.870247	5773.000835
682.208638	5876.246187
682.546978	5886.509976
682.885268	5868.674373
683.223508	5784.010715
683.561697	5732.903497
683.899836	5698.658939
684.237925	5661.603938
684.575963	5628.730574
684.913951	5589.286066
685.251889	5650.004243
685.589776	5617.677844
685.927614	5588.512248
686.265401	5663.753990
686.603137	5645.946114
686.940824	5723.000151
687.278460	5745.040075
687.616046	5752.173308
687.953582	5820.798535
688.291068	5805.087779
688.628504	5863.769331
688.965889	5825.743907
689.303224	5770.749960
689.640510	5729.881326
689.977745	5652.610520
690.314930	5557.148710
690.652065	5504.806409
690.989150	5414.680661
691.326185	5337.414896
691.663170	5284.901196
692.000105	5214.355289
692.336990	5138.795955
692.673825	5112.617243
693.010610	5047.069640
693.347345	4977.768898
693.684030	4969.294719
694.020665	4924.735960
694.357251	4839.356458
694.693786	4850.862891
695.030272	4814.695133
695.366707	4780.803456
695.703093	4745.250718
696.039429	4773.932363
696.375716	4754.695320
696.711952	4728.473758
697.048139	4714.875246
697.384276	4698.667936
697.720363	4710.436510
698.056400	4718.517479
698.392388	4670.213143
698.728326	4648.689937
699.064214	4628.671515
699.400053	4619.335298
699.735842	4591.429991
700.071581	4562.977719
700.407270	4542.850912
700.742910	4523.853324
701.078501	4468.410714
701.414042	4467.309222
701.749533	4437.427782
702.084974	4370.791290
702.420366	4427.244651
702.755709	4370.614850
703.091002	4318.943023
703.426246	4366.904560
703.761440	4322.043332
704.096584	4286.029329
704.431679	4304.676557
704.766725	4289.956388
705.101721	4279.576652
705.436668	4305.843584
705.771565	4254.922889
706.106413	4282.523207
706.441212	4318.481757
706.775961	4326.129188
707.110661	4304.633708
707.445311	4335.893903
707.779913	4357.880895
708.114465	4371.476887
708.448967	4390.855082
708.783421	4454.928148
709.117825	4494.702852
709.452180	4496.308459
709.786485	4542.056930
710.120742	4629.077328
710.454949	4612.202065
710.789107	4672.743802
711.123216	4752.008385
711.457275	4740.832147
711.791286	4816.288138
712.125247	4832.087114
712.459159	4729.822267
712.793023	4809.243125
713.126837	4769.387763
713.460602	4761.034571
713.794318	4684.461965
714.127985	4694.166186
714.461602	4606.969348
714.795171	4579.802570
715.128691	4511.194986
715.462162	4455.984269
715.795584	4411.264194
716.128957	4390.103950
716.462281	4342.142413
716.795556	4314.705933
717.128782	4275.803349
717.461960	4211.962176
717.795088	4217.583063
718.128167	4179.010674
718.461198	4118.448773
718.794180	4118.506746
719.127113	4099.287347
719.459997	4073.993357
719.792833	4035.690670
720.125619	4023.549051
720.458357	3989.359946
720.791046	3991.840194
721.123686	3966.775577
721.456278	3927.878034
721.788821	3943.924026
722.121315	3916.457300
722.453761	3888.138618
722.786158	3903.670413
723.118506	3924.122374
723.450805	3878.041187
723.783056	3900.464239
724.115259	3920.404523
724.447412	3923.406530
724.779518	3916.595931
725.111574	3917.243720
725.443582	3949.252526
725.775542	3936.692491
726.107453	3984.076817
726.439315	3985.069924
726.771129	3998.968385
727.102895	4036.971123
727.434612	4081.418977
727.766281	4095.385494
728.097901	4093.192592
728.429473	4097.918673
728.760996	4105.767750
729.092471	4098.664764
729.423897	4086.024071
729.755276	4092.297787
730.086606	4090.538424
730.417887	4126.847335
730.749120	4192.425185
731.080305	4257.365328
731.411442	4281.202424
731.742530	4251.683948
732.073570	4256.468003
732.404562	4307.171928
732.735506	4301.666988
733.066401	4267.994601
733.397249	4199.571020
733.728048	4119.978763
734.058798	4039.721073
734.389501	3970.183397
734.720156	3913.057041
735.050762	3867.053992
735.381320	3860.487889
735.711831	3810.381340
736.042293	3778.180970
736.372707	3805.115855
736.703073	3775.211731
737.033391	3767.526492
737.363661	3782.891928
737.693883	3809.857060
738.024056	3820.468689
738.354182	3812.488543
738.684260	3878.699057
739.014290	3898.939290
739.344272	3890.182806
739.674207	3933.962706
740.004093	3936.793314
740.333931	3931.164866
740.663722	3932.152932
740.993464	3932.352058
741.323159	3906.274169
741.652806	3876.808625
741.982405	3848.696630
742.311956	3820.319975
742.641460	3808.778253
742.970915	3786.201446
743.300323	3747.813059
743.629683	3711.635219
743.958996	3701.147098
744.288260	3677.478881
744.617477	3644.333294
744.946647	3631.866521
745.275768	3608.735187
745.604842	3604.737552
745.933869	3555.752660
746.262847	3547.117163
746.591778	3586.735591
746.920662	3553.698389
747.249498	3527.381046
747.578286	3571.160946
747.907027	3590.334975
748.235720	3586.982608
748.564365	3613.098305
748.892963	3611.313737
749.221514	3592.706838
749.550017	3569.799835
749.878473	3568.486614
750.206881	3539.988972
750.535242	3537.191131
750.863555	3537.216337
751.191821	3530.390615
751.520039	3516.315713
751.848210	3492.755881
752.176334	3527.527239
752.504411	3532.878424
752.832440	3493.834688
753.160421	3477.486226
753.488356	3484.606855
753.816243	3498.031448
754.144082	3452.658543
754.471875	3440.627829
754.799620	3458.914615
755.127318	3452.492185
755.454969	3452.998821
755.782572	3456.336065
756.110129	3433.209771
756.437638	3425.103596
756.765100	3439.997685
757.092515	3446.856175
757.419882	3453.051753
757.747203	3428.808844
758.074477	3431.543670
758.401703	3443.168571
758.728882	3465.636993
759.056014	3474.300216
759.383099	3477.922285
759.710138	3473.211327
760.037129	3491.195643
760.364073	3520.855272
760.690970	3505.605782
761.017820	3481.579643
761.344623	3501.771984
761.671379	3546.240002
761.998088	3597.193465
762.324751	3722.660222
762.651366	3966.420175
762.977935	4438.209161
763.304456	4872.033217
763.630931	4956.444818
763.957359	4599.962144
764.283740	4263.515536
764.610074	4077.320519
764.936362	3880.440776
765.262602	3725.793299
765.588796	3617.796661
765.914943	3529.505892
766.241044	3445.570681
766.567097	3414.998603
766.893104	3367.856253
767.219064	3337.720235
767.544978	3308.098415
767.870845	3255.572113
768.196665	3237.633167
768.522438	3251.299735
768.848165	3241.313209
769.173846	3205.654607
769.499479	3191.645241
769.825066	3172.080523
770.150607	3155.943789
770.476101	3169.630522
770.801548	3166.678926
771.126949	3121.585805
771.452303	3105.890173
771.777611	3113.409054
772.102872	3113.822428
772.428087	3092.044644
772.753256	3082.784044
773.078378	3076.258270
773.403453	3040.491284
773.728482	3030.114069
774.053465	3050.679456
774.378401	3037.179246
774.703291	3009.334433
775.028135	3010.685462
775.352932	3004.794873
775.677683	2991.728203
776.002388	2988.902636
776.327046	2992.617966
776.651658	2981.179588
776.976224	2967.558391
777.300743	2969.894965
777.625216	2961.405662
777.949643	2953.140691
778.274024	2957.738223
778.598359	2948.500308
778.922647	2950.894857
779.246889	2950.597428
779.571086	2934.322063
779.895236	2929.832916
780.219339	2941.687189
780.543397	2952.807974
780.867409	2954.811833
781.191374	2948.102057
781.515294	2947.562654
781.839167	2946.680452
782.162995	2936.489759
782.486776	2944.215328
782.810511	2946.012499
783.134201	2929.827875
783.457844	2938.193669
783.781441	2926.553645
784.104993	2909.466654
784.428498	2909.857344
784.751958	2922.339241
785.075372	2915.208528
785.398739	2900.062382
785.722061	2918.550813
786.045337	2930.248811
786.368568	2915.931934
786.691752	2903.581107
787.014891	2956.581278
787.337983	2981.794609
787.661030	3008.621109
787.984031	3079.529979
788.306987	3121.318624
788.629897	3110.056686
788.952760	3098.318360
789.275579	3081.387644
789.598351	3023.921011
789.921078	2977.086171
790.243759	2968.218782
790.566395	2956.175465
790.888984	2930.926846
791.211529	2914.795154
791.534027	2904.662435
791.856480	2893.909653
792.178888	2877.667056
792.501249	2873.482898
792.823566	2870.526261
793.145836	2866.725231
793.468062	2862.815817
793.790241	2859.894468
794.112375	2868.071219
794.434464	2878.312323
794.756507	2884.444887
795.078505	2889.327245
795.400457	2902.459450
795.722364	2938.475974
796.044226	2964.390025
796.366042	2964.304326
796.687812	2957.203861
797.009538	2973.995944
797.331218	2960.795683
797.652852	2949.944599
797.974442	2931.075560
798.295986	2927.929880
798.617484	2919.727923
798.938938	2906.174781
799.260346	2892.019221
799.581709	2887.693911
799.903026	2875.683362
800.224299	2872.482229
800.545526	2862.982175
800.866708	2849.789475
801.187845	2838.830007
801.508936	2841.204390
801.829983	2845.171778
802.150984	2835.908658
802.471940	2820.535659
802.792851	2821.422902
803.113717	2818.509115
803.434538	2827.129488
803.755314	2819.713951
804.076045	2816.061635
804.396731	2813.583908
804.717372	2814.834114
805.037967	2809.918989
805.358518	2814.453507
805.679024	2827.764674
805.999485	2822.781493
806.319901	2825.639827
806.640272	2822.504230
806.960598	2825.770897
807.280879	2834.648369
807.601115	2841.088443
807.921306	2828.588902
808.241453	2822.509271
808.561554	2831.293482
808.881611	2833.446054
809.201623	2825.912050
809.521590	2826.030517
809.841513	2818.156235
810.161390	2824.293839
810.481223	2819.078766
810.801011	2810.675162
811.120755	2806.992599
811.440453	2807.438742
811.760107	2806.496046
812.079716	2808.111736
812.399281	2800.418935
812.718801	2788.947789
813.038276	2783.727674
813.357707	2789.678757
813.677093	2799.027576
813.996434	2794.099848
814.315731	2790.833181
814.634983	2786.802778
814.954191	2784.995525
815.273354	2800.728966
815.592473	2808.280614
815.911547	2808.787250
816.230577	2817.410144
816.549562	2828.586382
816.868502	2825.808706
817.187399	2834.151816
817.506250	2849.063549
817.825058	2844.128259
818.143821	2853.978674
818.462539	2874.405429
818.781213	2895.729510
819.099843	2933.185283
819.418429	2989.991525
819.736970	3050.250958
820.055466	3119.556741
820.373919	3225.418451
820.692327	3362.724358
821.010691	3527.554966
821.329011	3964.595278
821.647286	4847.896172
821.965517	6202.600404
822.283704	6920.173366
822.601847	6891.088429
822.919945	6266.791937
823.237999	5777.016114
823.556010	5205.122416
823.873976	4662.792565
824.191897	4264.589302
824.509775	3978.226558
824.827609	3711.257132
825.145398	3594.635079
825.463144	3582.354828
825.780845	3671.643745
826.098502	3778.859005
826.416116	4057.304617
826.733685	4364.086555
827.051210	4421.601080
827.368692	4307.575221
827.686129	4050.075603
828.003522	3731.545256
828.320872	3476.331801
828.638177	3287.500261
828.955439	3153.183757
829.272656	3072.195100
829.589830	3004.953670
829.906960	2959.563121
830.224046	2916.055442
830.541088	2879.862478
830.858086	2868.083822
831.175041	2853.530011
831.491952	2855.299456
831.808819	2864.189531
832.125642	2886.302552
832.442421	2930.079932
832.759157	3009.412570
833.075849	3183.796164
833.392497	3463.098773
833.709101	3657.957013
834.025662	3608.699898
834.342179	3451.539407
834.658653	3280.735032
834.975083	3134.642394
835.291469	3038.754606
835.607811	2958.945579
835.924110	2900.382495
836.240366	2846.611027
836.556578	2810.443269
836.872746	2785.892850
837.188871	2765.869387
837.504952	2748.689135
837.820990	2743.015316
838.136984	2726.397152
838.452935	2718.832901
838.768842	2716.655122
839.084706	2737.361662
839.400526	2814.667756
839.716303	2944.611058
840.032037	3019.777183
840.347727	3007.292765
840.663373	2945.974690
840.978977	2872.227651
841.294537	2802.427835
841.610054	2754.957809
841.925527	2735.493914
842.240957	2712.256716
842.556344	2691.938345
842.871687	2676.109122
843.186987	2670.808349
843.502244	2665.968841
843.817458	2660.322749
844.132629	2648.609628
844.447756	2639.210397
844.762840	2632.281331
845.077881	2635.278297
845.392879	2633.042545
845.707833	2630.181690
846.022745	2621.178189
846.337613	2624.623818
846.652438	2624.137347
846.967221	2624.822943
847.281960	2621.115175
847.596656	2619.658281
847.911309	2621.324383
848.225919	2616.290791
848.540485	2612.953547
848.855009	2612.313320
849.169490	2616.681480
849.483928	2612.310800
849.798323	2613.520677
850.112675	2612.315841
850.426984	2613.079576
850.741251	2612.157044
851.055474	2609.631426
851.369654	2616.131994
851.683792	2616.623507
851.997887	2611.834411
852.311938	2612.036057
852.625947	2613.497991
852.939914	2614.609566
853.253837	2616.192488
853.567718	2612.230141
853.881555	2613.485388
854.195350	2615.159052
854.509103	2614.365070
854.822812	2611.786520
855.136479	2612.204935
855.450103	2609.281066
855.763685	2612.782147
856.077224	2613.860954
856.390720	2610.609410
856.704173	2611.168978
857.017584	2617.543517
857.330953	2618.130812
857.644278	2621.861266
857.957561	2620.096862
858.270802	2612.202415
858.584000	2615.305245
858.897155	2619.953189
859.210268	2621.210957
859.523339	2614.115533
859.836367	2609.828031
860.149352	2609.525562
860.462295	2613.109822
860.775195	2610.148145
861.088054	2608.434152
861.400869	2605.790067
861.713642	2604.930550
862.026373	2603.897114
862.339062	2608.688731
862.651708	2612.807353
862.964312	2615.378342
863.276873	2613.336674
863.589392	2615.542179
863.901869	2621.836060
864.214303	2624.122223
864.526696	2628.755043
864.839045	2629.463326
865.151353	2630.711011
865.463619	2633.229067
865.775842	2631.731845
866.088023	2632.646814
866.400162	2631.956176
866.712258	2629.866618
867.024313	2629.995167
867.336325	2624.835546
867.648296	2629.044910
867.960224	2635.653862
868.272110	2630.942904
868.583954	2624.097017
868.895755	2626.133643
869.207515	2633.327370
869.519233	2638.144192
869.830909	2636.878863
870.142542	2630.509365
870.454134	2632.830816
870.765684	2639.275932
871.077191	2638.774337
871.388657	2644.594349
871.700081	2642.169554
872.011463	2639.159985
872.322803	2641.940181
872.634101	2646.333547
872.945357	2652.730771
873.256571	2654.341420
873.567744	2652.483755
873.878874	2654.797644
874.189963	2656.050371
874.501010	2658.618839
874.812015	2662.180414
875.122979	2662.326607
875.433900	2655.546256
875.744780	2653.202119
876.055618	2660.610095
876.366415	2664.448933
876.677169	2663.274344
876.987882	2656.950217
877.298554	2655.447953
877.609183	2666.107473
877.919771	2673.759944
878.230317	2681.740091
878.540822	2687.272757
878.851285	2704.117773
879.161707	2727.644838
879.472087	2762.572472
879.782425	2808.235244
880.092722	2919.790937
880.402977	3105.461675
880.713191	3352.185826
881.023363	3635.140750
881.333494	3818.719409
881.643583	3988.235769
881.953631	3988.470182
882.263637	3810.293120
882.573602	3596.001232
882.883526	3469.450626
883.193408	3359.273688
883.503248	3263.879934
883.813048	3152.747698
884.122806	3040.085471
884.432522	2959.091773
884.742197	2896.347051
885.051831	2860.262472
885.361424	2826.814416
885.670975	2794.825775
885.980485	2763.837802
886.289954	2747.247365
886.599382	2732.933008
886.908768	2721.852552
887.218113	2705.451158
887.527417	2691.567820
887.836680	2685.876358
888.145901	2679.932837
888.455082	2670.316836
888.764221	2663.367606
889.073319	2653.474341
889.382376	2653.534835
889.691392	2652.491316
890.000366	2653.701193
890.309300	2650.391676
890.618193	2652.294711
890.927044	2655.763025
891.235855	2657.348468
891.544625	2655.158087
891.853353	2654.943838
892.162041	2665.557987
892.470687	2684.643796
892.779293	2694.438757
893.087858	2699.278265
893.396381	2725.477142
893.704864	2764.914088
894.013306	2833.597289
894.321707	2924.184303
894.630068	2967.492856
894.938387	2986.918942
895.246665	2980.004999
895.554903	2937.077054
895.863100	2897.173801
896.171256	2842.217662
896.479371	2784.630041
896.787446	2744.953640
897.095480	2727.579303
897.403473	2722.601163
897.711425	2705.587269
898.019336	2691.250228
898.327207	2676.766993
898.635038	2676.391427
898.942827	2674.057372
899.250576	2664.295178
899.558284	2654.235556
899.865952	2649.201963
900.173579	2648.839000
900.481165	2646.716675
900.788711	2635.795015
901.096216	2631.043727
901.403681	2625.957203
901.711105	2627.938377
902.018489	2625.422841
902.325832	2632.553553
902.633135	2631.444499
902.940397	2645.751294
903.247619	2682.587005
903.554800	2746.206366
903.861941	2866.901672
904.169041	2988.393479
904.476101	3046.333981
904.783121	3039.737631
905.090100	2983.979949
905.397039	2913.355904
905.703938	2844.508866
906.010796	2787.450567
906.317614	2734.750344
906.624391	2699.091742
906.931129	2674.185922
907.237826	2653.736481
907.544483	2638.542444
907.851099	2623.623149
908.157675	2611.494133
908.464211	2609.707044
908.770707	2597.706577
909.077163	2594.966710
909.383578	2591.518561
909.689954	2589.900350
909.996289	2589.907912
910.302584	2587.588981
910.608839	2585.063363
910.915054	2582.951120
911.221229	2589.093766
911.527363	2592.146184
911.833458	2588.146029
912.139513	2589.149218
912.445527	2590.533015
912.751502	2596.199272
913.057436	2601.747062
913.363331	2607.425922
913.669186	2616.449587
913.975000	2628.656741
914.280775	2645.491674
914.586510	2661.451967
914.892205	2698.481763
915.197859	2762.481732
915.503475	2842.222703
915.809050	2904.226375
916.114585	2915.616862
916.420081	2926.730086
916.725536	2937.250974
917.030952	2912.947571
917.336328	2870.168339
917.641665	2821.478355
917.946961	2773.761313
918.252218	2743.718557
918.557435	2718.081769
918.862612	2698.902699
919.167750	2681.011644
919.472848	2667.403049
919.777906	2649.837149
920.082925	2638.222330
920.387904	2627.812348
920.692843	2625.100207
920.997743	2618.571913
921.302603	2615.033023
921.607423	2606.831065
921.912204	2601.225302
922.216946	2599.889397
922.521647	2597.812441
922.826310	2594.964189
923.130932	2589.149218
923.435516	2582.492375
923.740059	2583.195616
924.044564	2581.282498
924.349028	2579.031623
924.653454	2571.517783
924.957840	2570.093657
925.262186	2567.396639
925.566493	2570.133986
925.870761	2566.683316
926.174989	2566.763975
926.479178	2566.663152
926.783328	2561.692574
927.087438	2563.202399
927.391509	2564.334138
927.695541	2557.594116
927.999533	2557.180741
928.303486	2555.910370
928.607400	2559.635783
928.911275	2556.636297
929.215110	2557.221070
929.518906	2557.382387
929.822663	2556.704352
930.126381	2556.691749
930.430060	2556.200237
930.733699	2555.363405
931.037299	2557.369784
931.340861	2558.352809
931.644383	2557.803324
931.947866	2559.141750
932.251309	2558.993036
932.554714	2556.270813
932.858080	2559.522357
933.161407	2557.057233
933.464694	2557.972202
933.767943	2552.898281
934.071153	2555.940617
934.374323	2555.960782
934.677455	2551.895091
934.980548	2555.033210
935.283602	2555.602860
935.586617	2551.580019
935.889593	2555.134033
936.192530	2552.527756
936.495428	2555.696121
936.798287	2557.447922
937.101108	2557.314332
937.403890	2558.940104
937.706632	2563.676268
938.009336	2566.582493
938.312002	2570.005437
938.614628	2570.189439
938.917216	2573.151117
939.219765	2574.240006
939.522275	2576.309399
939.824747	2577.728484
940.127179	2568.591393
940.429573	2568.165415
940.731929	2566.660631
941.034246	2565.170970
941.336524	2565.861608
941.638763	2566.955538
941.940964	2569.375292
942.243126	2566.232133
942.545250	2562.983109
942.847335	2563.583007
943.149381	2559.784497
943.451389	2559.358520
943.753359	2560.001267
944.055290	2557.924311
944.357182	2556.517829
944.659036	2556.406924
944.960851	2557.684857
945.262628	2557.871379
945.564367	2556.096893
945.866067	2555.633107
946.167729	2558.133519
946.469352	2559.454302
946.770937	2558.448591
947.072484	2558.544373
947.373992	2558.282233
947.675462	2557.425237
947.976893	2557.473128
948.278286	2556.860628
948.579641	2555.436502
948.880958	2554.834084
949.182236	2555.980947
949.483476	2553.137736
949.784678	2553.561193
950.085841	2554.917263
950.386967	2554.849207
950.688054	2555.824671
950.989103	2553.820812
951.290114	2558.773746
951.591087	2559.683674
951.892021	2558.972871
952.192917	2559.517316
952.493776	2558.924980
952.794596	2559.817265
953.095378	2563.865311
953.396122	2562.773901
953.696828	2558.650238
953.997496	2558.060423
954.298126	2556.066646
954.598718	2557.087480
954.899272	2557.140412
955.199788	2554.163611
955.500266	2553.130174
955.800706	2548.068856
956.101108	2546.317055
956.401472	2546.692621
956.701798	2544.880326
957.002087	2545.805377
957.302337	2548.449463
957.602550	2546.349822
957.902724	2544.535007
958.202861	2542.387475
958.502960	2544.008206
958.803022	2544.101468
959.103045	2543.365459
959.403031	2543.642723
959.702979	2543.123484
960.002889	2542.997455
960.302762	2543.496529
960.602596	2544.126673
960.902393	2541.883360
961.202153	2541.104502
961.501875	2544.111550
961.801559	2542.836138
962.101205	2541.845551
962.400814	2541.061652
962.700385	2541.480068
962.999918	2542.329502
963.299414	2541.182639
963.598873	2542.780685
963.898293	2540.980993
964.197677	2542.624409
964.497022	2540.514687
964.796331	2541.918648
965.095601	2541.429656
965.394835	2540.368493
965.694030	2537.852957
965.993189	2542.256405
966.292309	2541.170037
966.591393	2540.686086
966.890439	2540.882691
967.189447	2541.038967
967.488419	2537.384130
967.787353	2540.421425
968.086249	2539.698020
968.385108	2541.598535
968.683930	2537.580735
968.982714	2542.369831
969.281462	2540.716333
969.580172	2539.143493
969.878844	2538.881353
970.177480	2541.870757
970.476078	2540.204656
970.774639	2541.119625
971.073162	2543.436035
971.371649	2540.252547
971.670098	2537.414377
971.968510	2538.755324
972.266885	2536.549819
972.565223	2541.059131
972.863524	2540.963349
973.161788	2542.596683
973.460014	2542.200953
973.758204	2541.830428
974.056356	2542.813453
974.354471	2541.258257
974.652550	2542.324461
974.950591	2543.428473
975.248595	2543.294883
975.546563	2539.874460
975.844493	2541.260777
976.142386	2542.470654
976.440243	2540.756662
976.738062	2540.948226
977.035845	2540.759182
977.333590	2540.776827
977.631299	2541.061652
977.928971	2543.839328
978.226606	2542.480737
978.524204	2538.420087
978.821765	2538.893956
979.119290	2540.978473
979.416777	2540.313040
979.714228	2540.113915
980.011642	2540.013092
980.309020	2540.570139
980.606360	2540.807073
980.903664	2541.507794
981.200931	2539.133410
981.498162	2540.222300
981.795356	2543.856972
982.092513	2547.103475
982.389633	2549.593805
982.686717	2551.804351
982.983764	2551.343085
983.280775	2555.617983
983.577749	2555.781821
983.874686	2555.068498
984.171587	2551.370811
984.468451	2549.598846
984.765279	2545.102137
985.062070	2544.184647
985.358824	2543.942671
985.655543	2542.294214
985.952224	2538.778009
986.248869	2542.082485
986.545478	2536.091074
986.842050	2536.517052
987.138586	2538.772968
987.435086	2536.474202
987.731549	2535.231557
988.027975	2538.523431
988.324366	2538.881353
988.620719	2539.546785
988.917037	2539.229192
989.213318	2540.708771
989.509563	2537.404295
989.805772	2538.115097
990.101944	2535.024870
990.398080	2537.868081
990.694180	2538.077289
990.990244	2538.717515
991.286271	2537.081661
991.582262	2537.653832
991.878217	2536.930426
992.174136	2539.294727
992.470019	2537.467309
992.765865	2538.306661
993.061676	2536.585107
993.357450	2537.663914
993.653188	2537.134593
993.948890	2537.056455
994.244556	2537.328677
994.540186	2540.184491
994.835780	2537.689120
995.131337	2540.030736
995.426859	2537.948739
995.722345	2540.895294
996.017795	2538.467978
996.313208	2540.907897
996.608586	2540.391178
996.903928	2539.602238
997.199234	2542.563916
997.494504	2542.599204
997.789738	2541.225489
998.084936	2541.633823
998.380099	2539.312371
998.675225	2538.084850
998.970316	2538.422608
999.265371	2538.518390
999.560390	2537.174922
999.855373	2538.795653
1000.150320	2535.390354
1000.445232	2538.626774
1000.740108	2538.092412
1001.034948	2535.992772
1001.329752	2535.894469
1001.624521	2537.807587
1001.919254	2532.456402
1002.213951	2536.456558
1002.508613	2532.635363
1002.803239	2533.542771
1003.097829	2533.542771
1003.392384	2534.636701
1003.686903	2535.637370
1003.981386	2536.118800
1004.275834	2537.414377
1004.570246	2536.166691
1004.864623	2536.128883
1005.158964	2537.116949
1005.453270	2535.060158
1005.747540	2537.578214
1006.041775	2534.815662
1006.335974	2537.575694
1006.630138	2535.274407
1006.924266	2537.187525
1007.218359	2536.423790
1007.512416	2535.944881
1007.806438	2535.997813
1008.100425	2535.995292
1008.394376	2539.322454
1008.688292	2533.550333
1008.982172	2536.673327
1009.276017	2534.830786
1009.569827	2538.064686
1009.863602	2539.249357
1010.157341	2535.990251
1010.451045	2536.552340
1010.744714	2534.288862
1011.038347	2536.224665
1011.331945	2536.144006
1011.625508	2536.653163
1011.919036	2535.309695
1012.212528	2536.585107
1012.505986	2536.242309
1012.799408	2537.293389
1013.092795	2536.567463
1013.386147	2538.450334
1013.679464	2532.537061
1013.972745	2536.481763
1014.265992	2537.333718
1014.559204	2534.364479
1014.852380	2537.716846
1015.145521	2535.980169
1015.438628	2534.472864
1015.731699	2537.116949
1016.024736	2536.549819
1016.317737	2535.271887
1016.610703	2536.073430
1016.903635	2529.570342
1017.196531	2532.534540
1017.489393	2531.695188
1017.782219	2533.704088
1018.075011	2532.907585
1018.367768	2534.997144
1018.660490	2535.718029
1018.953177	2535.718029
1019.245829	2535.718029
