Dividing Wavelength (nm)	Counts (n)	Blue Motor Position (mm): 39.400000	Red Motor Position (mm): 0.000000	
326.493990	2131.223406
326.888308	2131.223406
327.282561	2131.223406
327.676750	2098.579414
328.070874	2096.356265
328.464933	2099.262490
328.858929	2106.955291
329.252859	2114.058277
329.646726	2129.895062
330.040528	2140.032822
330.434265	2156.391366
330.827938	2174.620179
331.221547	2190.910667
331.615091	2211.292052
332.008571	2233.599158
332.401986	2250.560120
332.795338	2271.586773
333.188625	2289.132509
333.581847	2307.951136
333.975006	2326.121975
334.368100	2343.352639
334.761129	2362.617408
335.154095	2379.717002
335.546996	2401.572925
335.939833	2427.814651
336.332606	2440.591456
336.725315	2452.652416
337.117960	2464.179014
337.510540	2470.878708
337.903056	2485.064515
338.295508	2487.912767
338.687896	2497.884169
339.080220	2505.944974
339.472480	2513.473937
339.864676	2516.838908
340.256807	2522.348889
340.648875	2526.553211
341.040879	2524.808972
341.432818	2530.923891
341.824694	2532.716022
342.216506	2530.379447
342.608253	2532.030425
342.999937	2533.414221
343.391557	2529.565300
343.783113	2530.278624
344.174605	2528.123530
344.566033	2527.569003
344.957397	2523.387366
345.348697	2522.046419
345.739934	2520.004752
346.131106	2516.770852
346.522215	2515.946623
346.913260	2515.223218
347.304241	2513.539472
347.695159	2515.525687
348.086012	2511.722136
348.476802	2508.931858
348.867528	2508.659635
349.258191	2507.069151
349.648789	2508.236178
350.039324	2503.699140
350.429796	2502.940446
350.820203	2500.291320
351.210548	2499.764519
351.600828	2500.843326
351.991045	2498.156391
352.381198	2494.773777
352.771288	2496.664210
353.161314	2495.875269
353.551276	2497.831237
353.941175	2498.902482
354.331010	2495.640856
354.720782	2496.155053
355.110490	2496.288644
355.500135	2498.252173
355.889717	2498.970538
356.279235	2497.243942
356.668689	2501.181084
357.058080	2498.174035
357.447408	2496.444920
357.836672	2493.914260
358.225873	2497.634632
358.615010	2495.179590
359.004084	2501.531444
359.393095	2500.014057
359.782043	2498.509272
360.170927	2501.571773
360.559748	2505.314830
360.948505	2501.561691
361.337199	2506.229799
361.725830	2504.669562
362.114398	2503.444562
362.502903	2505.947495
362.891344	2507.593431
363.279722	2504.624192
363.668037	2505.370283
364.056289	2506.375993
364.444478	2507.916065
364.832603	2508.082423
365.220665	2507.353977
365.608665	2510.343381
365.996601	2508.112670
366.384474	2507.890859
366.772284	2509.320027
367.160031	2510.333298
367.547715	2509.985459
367.935336	2508.573936
368.322893	2512.311951
368.710388	2510.660973
369.097820	2512.286746
369.485189	2510.945799
369.872495	2511.089472
370.259738	2512.294307
370.646918	2511.248268
371.034035	2514.033505
371.421090	2513.287415
371.808081	2513.862106
372.195010	2514.141890
372.581875	2515.452590
372.968678	2514.764473
373.355418	2514.351098
373.742096	2516.438136
374.128710	2516.339833
374.515262	2518.031140
374.901751	2517.574916
375.288177	2519.210770
375.674540	2517.816891
376.060841	2519.127591
376.447079	2519.911491
376.833254	2522.046419
377.219367	2514.230110
377.605417	2518.729340
377.991404	2516.876716
378.377329	2516.463342
378.763191	2513.073166
379.148991	2520.914680
379.534727	2525.849970
379.920402	2522.704290
380.306013	2524.047758
380.691563	2524.168745
381.077049	2522.868127
381.462474	2525.204702
381.847835	2524.894671
382.233134	2525.827285
382.618371	2526.190248
383.003545	2527.342152
383.388657	2525.187058
383.773706	2526.301153
384.158693	2529.038500
384.543618	2526.848118
384.928480	2529.766947
385.313280	2528.123530
385.698017	2527.213602
386.082692	2528.630166
386.467305	2530.772657
386.851856	2531.753161
387.236344	2532.247194
387.620770	2533.073943
388.005133	2532.292565
388.389435	2535.571835
388.773674	2535.884387
389.157851	2535.017308
389.541965	2540.401261
389.926018	2544.318237
390.310008	2546.422919
390.693936	2553.223435
391.077802	2562.174004
391.461606	2567.557956
391.845348	2578.328382
392.229027	2588.718200
392.612645	2599.286979
392.996200	2615.433794
393.379694	2631.862915
393.763125	2652.077942
394.146494	2666.359531
394.529801	2690.063036
394.913047	2712.234031
395.296230	2729.777246
395.679351	2758.673140
396.062410	2784.569547
396.445408	2802.236271
396.828343	2834.164419
397.211217	2859.617204
397.594028	2872.094060
397.976778	2912.440935
398.359466	2949.952161
398.742092	2983.569095
399.124656	2997.996878
399.507158	3048.133673
399.889598	3089.766042
400.271977	3146.718478
400.654294	3170.671520
401.036549	3209.460678
401.418742	3233.252404
401.800874	3308.426090
402.182944	3354.948378
402.564952	3423.966816
402.946898	3454.470838
403.328783	3494.966427
403.710606	3488.291939
404.092367	3629.993732
404.474067	3650.612052
404.855705	3687.339378
405.237282	3684.362577
405.618797	3789.556334
406.000250	3844.089016
406.381642	3935.429682
406.762972	3949.237402
407.144240	3995.653827
407.525447	4027.168600
407.906593	4103.529478
408.287677	4169.760157
408.668700	4147.112773
409.049661	4221.585739
409.430560	4281.046149
409.811399	4254.761573
410.192176	4416.126387
410.572891	4392.921955
410.953545	4509.334801
411.334138	4428.338582
411.714669	4512.044421
412.095139	4440.066826
412.475547	4593.721195
412.855894	4594.386628
413.236180	4622.881750
413.616405	4599.931897
413.996568	4695.991083
414.376670	4659.180578
414.756711	4630.377946
415.136691	4671.549049
415.516609	4757.495681
415.896466	4800.479079
416.276262	4848.574207
416.655997	4839.905943
417.035670	5022.471330
417.415283	5121.482112
417.794834	5074.775822
418.174324	5034.106313
418.553753	4947.259835
418.933121	5132.189523
419.312428	5205.545873
419.691674	5149.052183
420.070859	5284.288696
420.449983	5196.318041
420.829045	5309.849867
421.208047	5224.117484
421.586988	5299.928876
421.965867	5310.003622
422.344686	5446.533192
422.723444	5302.641017
423.102141	5124.849603
423.480777	5421.622330
423.859352	5190.626578
424.237866	5450.588800
424.616319	5444.425989
424.994712	5554.895314
425.373044	5431.434936
425.751314	5576.670578
426.129524	5377.149271
426.507673	5570.903498
426.885762	5650.387371
427.263789	5586.485705
427.641756	5467.080935
428.019662	5589.651549
428.397508	5597.951809
428.775292	5544.520619
429.153016	5648.950642
429.530679	5572.899795
429.908282	5658.599410
430.285824	5528.343557
430.663305	5800.901101
431.040726	5535.509557
431.418086	5538.027613
431.795385	5646.730014
432.172624	5654.969780
432.549802	5652.091281
432.926920	5663.638044
433.303977	5671.298077
433.680974	5710.944231
434.057910	5727.365790
434.434786	5730.874433
434.811601	5700.299835
435.188355	5937.597029
435.565050	5808.601464
435.941683	5794.438342
436.318257	6002.118757
436.694770	5992.422098
437.071222	6021.106263
437.447614	5957.413805
437.823946	5867.754363
438.200218	6021.070975
438.576429	5886.678854
438.952580	5987.817003
439.328670	6032.133787
439.704700	5936.871103
440.080670	5925.662097
440.456580	6195.522624
440.832429	6079.634059
441.208218	5924.283342
441.583947	6080.458288
441.959616	6083.031797
442.335224	6012.253997
442.710773	6147.298947
443.086261	6174.856414
443.461689	5964.068128
443.837057	6121.359689
444.212365	6272.627072
444.587612	6165.593294
444.962800	6320.250853
445.337927	6296.756555
445.712995	5911.443523
446.088002	6487.455843
446.462949	6319.499721
446.837837	6247.242342
447.212664	6415.909267
447.587431	6559.889662
447.962139	7107.338806
448.336786	8033.323150
448.711374	7774.119622
449.085901	6847.603436
449.460369	6772.127281
449.834776	6702.849224
450.209124	7096.457475
450.583412	7248.551607
450.957640	7393.038638
451.331808	7152.167266
451.705917	6708.250820
452.079965	6632.048739
452.453954	6841.181006
452.827883	6718.139043
453.201752	6809.925852
453.575562	6614.102231
453.949311	6817.933725
454.323001	6706.524225
454.696632	6778.942921
455.070202	6916.999960
455.443713	7072.317910
455.817164	7175.258271
456.190556	7255.667196
456.563888	7325.582958
456.937160	7366.973352
457.310373	7032.011364
457.683526	7052.206227
458.056619	6943.816378
458.429653	6930.338853
458.802628	6867.402568
459.175542	6976.493137
459.548398	7339.657860
459.921194	7493.745768
460.293930	7490.824420
460.666607	8020.851335
461.039224	8329.254004
461.411782	8454.806461
461.784280	8474.819842
462.156719	8363.758182
462.529099	8236.194304
462.901419	7832.254208
463.273680	7725.253197
463.645882	7734.438179
464.018024	7604.913293
464.390106	7769.569981
464.762130	8154.920822
465.134094	8626.240980
465.505999	9653.451693
465.877845	10871.046623
466.249631	11524.725481
466.621358	11121.443255
466.993026	10498.888482
467.364634	10244.653011
467.736184	9887.257888
468.107674	9550.027381
468.479105	9583.523328
468.850477	9346.216052
469.221790	9118.290363
469.593043	8794.552504
469.964238	8649.639496
470.335373	8667.671703
470.706449	8723.799910
471.077467	8706.854071
471.448425	10012.177681
471.819324	11080.627553
472.190164	11101.054308
472.560945	9859.851655
472.931667	9070.018794
473.302330	8932.954862
473.672934	8586.110875
474.043479	8942.152448
474.413965	8882.560968
474.784393	8769.084595
475.154761	8924.011855
475.525070	9010.334053
475.895321	8834.228905
476.265513	9011.329681
476.635645	9182.862503
477.005719	9180.919138
477.375734	9294.050192
477.745691	9529.938383
478.115588	9662.233383
478.485427	9909.421321
478.855207	10448.169433
479.224928	11269.874989
479.594591	11888.361552
479.964194	11697.848786
480.333739	11638.002728
480.703226	11550.304295
481.072653	11645.514047
481.442022	11873.873275
481.811333	12069.104561
482.180584	11869.298428
482.549777	11584.735376
482.918912	11414.951835
483.287988	11428.000862
483.657005	11444.896289
484.025964	11119.300765
484.394864	11255.621127
484.763706	11224.239944
485.132489	10979.471760
485.501213	10950.321288
485.869879	11024.718636
486.238487	10865.259378
486.607036	10979.827161
486.975527	10755.488253
487.343959	10945.204517
487.712333	10996.682259
488.080648	10924.389592
488.448905	10970.269134
488.817104	10903.292364
489.185244	11170.977633
489.553326	11324.271560
489.921350	11872.446629
490.289315	12930.945264
490.657222	13268.279114
491.025070	13183.305425
491.392861	13046.143191
491.760593	12671.774503
492.128267	12318.606388
492.495883	11989.408960
492.863440	11656.508804
493.230939	11319.243009
493.598380	11254.958215
493.965763	11122.300251
494.333088	11025.618482
494.700354	10944.294588
495.067563	11004.090235
495.434713	10841.210554
495.801805	10957.474685
496.168839	10882.890814
496.535815	10816.435803
496.902733	10820.375465
497.269593	10755.493295
497.636395	10851.968376
498.003139	10846.065185
498.369825	10716.202542
498.736453	10869.309946
499.103023	10794.630293
499.469535	10824.398306
499.835989	10811.268621
500.202385	10781.122521
500.568723	10634.845880
500.935003	10855.512307
501.301226	10654.277008
501.667390	10915.696123
502.033497	11015.831082
502.399546	10874.552746
502.765537	10780.777202
503.131470	10848.986534
503.497345	11023.226455
503.863163	10637.794955
504.228923	10942.716707
504.594625	11009.519558
504.960269	10757.923131
505.325856	10989.082720
505.691385	10778.070102
506.056856	10922.940261
506.422270	10952.879673
506.787625	10842.639721
507.152924	10955.828748
507.518164	10941.912643
507.883347	10862.176713
508.248472	10782.067737
508.613540	11010.434527
508.978550	10893.956147
509.343503	10874.278003
509.708398	10995.721919
510.073236	11105.969433
510.438016	11104.812489
510.802738	11057.103009
511.167403	11110.811462
511.532010	11004.238949
511.896561	11238.718138
512.261053	11316.961887
512.625488	11175.970896
512.989866	11162.478248
513.354186	11151.796042
513.718449	11056.913965
514.082655	11244.994374
514.446803	11139.253652
514.810894	11262.398958
515.174927	11127.202773
515.538904	11157.406847
515.902822	11305.107613
516.266684	11188.566219
516.630488	11132.740481
516.994235	11185.165960
517.357925	11250.128789
517.721558	11338.495175
518.085133	11357.394461
518.448651	11361.775224
518.812112	11247.353634
519.175516	11260.876529
519.538863	11382.363296
519.902152	11297.278701
520.265385	11457.289966
520.628560	11363.552230
520.991678	11349.263080
521.354739	11414.475446
521.717743	11345.071360
522.080690	11322.923051
522.443580	11458.341046
522.806413	11408.809189
523.169189	11447.573142
523.531908	11502.194043
523.894569	11323.202835
524.257174	11328.448156
524.619722	11446.312853
524.982213	11392.299410
525.344647	11440.969230
525.707025	11397.630430
526.069345	11487.466312
526.431608	11406.306256
526.793815	11519.971672
527.155964	11303.814557
527.518057	11359.700789
527.880093	11308.858232
528.242072	11378.615198
528.603995	11278.349169
528.965860	11200.213805
529.327669	11251.053841
529.689421	11207.906605
530.051117	11172.673981
530.412755	11284.701022
530.774337	11161.606128
531.135862	11142.444702
531.497331	11169.175420
531.858743	11024.567402
532.220098	11198.209946
532.581396	11057.105529
532.942638	11039.826974
533.303824	11006.338589
533.664953	11019.306958
534.026025	10934.928125
534.387040	11032.630727
534.747999	11038.783456
535.108902	11093.666498
535.469748	10850.403098
535.830537	10956.741197
536.191270	10933.415778
536.551947	10958.866044
536.912567	10954.132400
537.273131	10880.256811
537.633638	10869.073011
537.994089	10852.107008
538.354483	10797.231528
538.714821	10944.221492
539.075103	10948.975300
539.435328	10915.764178
539.795497	10745.088353
540.155609	10908.446943
540.515665	10990.915179
540.875665	10726.325178
541.235609	10801.952568
541.595496	10796.346805
541.955328	10941.418610
542.315102	10827.967443
542.674821	10779.521954
543.034483	10779.622778
543.394090	10782.423138
543.753640	10709.041582
544.113134	10931.033833
544.472571	10787.365990
544.831953	10937.143712
545.191278	10736.084852
545.550548	10767.098031
545.909761	10903.317569
546.268918	10879.316636
546.628019	10960.330499
546.987064	10825.744294
547.346053	10746.494835
547.704986	10842.833806
548.063863	10833.074132
548.422684	10824.226907
548.781449	10740.510985
549.140158	10844.832623
549.498811	10716.867974
549.857408	10583.884856
550.215949	10806.688733
550.574434	10659.688686
550.932864	10758.956567
551.291237	10813.801801
551.649555	10769.356468
552.007817	10781.586307
552.366022	10737.514019
552.724173	10736.841025
553.082267	10718.287059
553.440305	10849.382264
553.798288	10648.736780
554.156215	10804.253855
554.514086	10782.045052
554.871902	10635.821343
555.229661	10670.633031
555.587365	10652.988993
555.945014	10542.716273
556.302606	10671.439616
556.660143	10564.799048
557.017625	10712.157016
557.375050	10616.370051
557.732421	10749.980793
558.089735	10662.673049
558.446994	10659.708851
558.804197	10703.713083
559.161345	10703.665192
559.518437	10548.138034
559.875474	10640.590275
560.232455	10663.451908
560.589381	10614.961049
560.946251	10614.832499
561.303065	10716.444517
561.659825	10658.239355
562.016528	10588.560526
562.373177	10463.991094
562.729770	10577.868239
563.086307	10495.193316
563.442789	10586.057593
563.799216	10472.230860
564.155587	10524.648778
564.511904	10478.239915
564.868164	10466.562082
565.224370	10481.229320
565.580520	10401.231249
565.936615	10406.383308
566.292654	10276.901272
566.648638	10403.242670
567.004567	10364.241783
567.360441	10353.723415
567.716260	10261.412327
568.072023	10360.166010
568.427732	10302.785076
568.783385	10214.620337
569.138982	10280.384709
569.494525	10295.740064
569.850013	10172.244398
570.205445	10260.862841
570.560823	10158.182099
570.916145	10071.191948
571.271412	10143.814810
571.626625	10080.674358
571.981782	10062.208612
572.336884	10039.359582
572.691931	10044.567094
573.046923	9991.597170
573.401860	9941.256208
573.756743	9879.076096
574.111570	9927.277088
574.466342	9904.647348
574.821059	9933.681874
575.175722	9823.343619
575.530330	9836.901802
575.884882	9827.273199
576.239380	9752.603628
576.593823	9737.049148
576.948211	9750.277135
577.302544	9627.991346
577.656823	9652.761055
578.011047	9648.095468
578.365216	9623.471952
578.719330	9544.348521
579.073389	9564.215709
579.427394	9501.203806
579.781344	9490.592177
580.135239	9428.351571
580.489080	9433.846429
580.842866	9340.048200
581.196597	9346.503398
581.550273	9387.021672
581.903895	9352.217545
582.257463	9420.429398
582.610975	9295.892733
582.964434	9327.178134
583.317837	9251.800281
583.671186	9230.009894
584.024481	9222.606959
584.377721	9145.668869
584.730906	9121.057956
585.084037	9161.898864
585.437113	9090.969830
585.790135	9108.273590
586.143103	9006.255760
586.496016	8982.895053
586.848874	9034.201396
587.201679	9021.628758
587.554428	8907.963342
587.907124	8960.610632
588.259765	8929.962937
588.612352	8926.587885
588.964884	8804.284452
589.317362	8822.772883
589.669786	8822.316659
590.022155	8867.220737
590.374470	8888.012976
590.726731	8824.645672
591.078937	8678.908435
591.431090	8786.363150
591.783188	8660.558635
592.135232	8646.592118
592.487222	8652.225608
592.839157	8707.829534
593.191038	8640.565419
593.542866	8583.401255
593.894639	8485.907860
594.246358	8541.713433
594.598022	8555.727841
594.949633	8453.301677
595.301190	8430.366947
595.652692	8457.795865
596.004141	8571.809121
596.355535	8341.262033
596.706876	8321.553642
597.058162	8256.951255
597.409395	8334.963111
597.760573	8394.889827
598.111698	8304.925396
598.462768	8288.488713
598.813785	8255.403621
599.164748	8228.448571
599.515657	8219.301397
599.866511	8120.812375
600.217312	8253.626614
600.568060	8107.617155
600.918753	8212.994914
601.269392	8188.303343
601.619978	8091.435051
601.970510	8160.685381
602.320988	8154.194896
602.671412	8214.035912
603.021783	8145.942527
603.372100	8123.085935
603.722363	8124.217674
604.072572	8100.925023
604.422728	8109.255530
604.772830	8037.098974
605.122878	8044.232207
605.472872	8040.592494
605.822813	8071.525014
606.172701	8018.030810
606.522534	8085.594874
606.872314	8091.210719
607.222041	8062.314826
607.571714	8114.742826
607.921333	8075.885612
608.270899	8079.565654
608.620411	8169.709047
608.969870	8076.190602
609.319276	8061.152840
609.668627	8091.583765
610.017926	8118.501006
610.367171	8166.986823
610.716362	8138.325343
611.065500	8140.747618
611.414585	8159.843508
611.763616	8147.220459
612.112594	8130.808983
612.461518	8145.498905
612.810389	8206.610293
613.159207	8146.214749
613.507971	8093.632994
613.856682	8215.122281
614.205340	8169.961104
614.553945	8250.301973
614.902496	8147.747260
615.250994	8199.013274
615.599439	8185.906274
615.947830	8194.148560
616.296169	8166.026484
616.644454	8178.901591
616.992686	8173.734408
617.340864	8237.424346
617.688990	8142.592680
618.037063	8232.904951
618.385082	8179.841766
618.733048	8263.121627
619.080961	8202.602575
619.428821	8223.606543
619.776628	8228.047799
620.124382	8177.681631
620.472083	8162.354003
620.819731	8188.774690
621.167326	8081.793844
621.514868	8088.342303
621.862357	7978.485478
622.209793	7991.988209
622.557176	7929.906399
622.904506	7895.591265
623.251783	7834.285793
623.599007	7790.747868
623.946179	7790.979761
624.293297	7750.574913
624.640363	7663.292375
624.987376	7646.835528
625.334336	7597.545647
625.681243	7540.439456
626.028097	7539.602624
626.374899	7512.100610
626.721647	7501.438569
627.068343	7435.739732
627.414987	7400.698671
627.761577	7362.567384
628.108115	7398.455358
628.454600	7284.716845
628.801032	7345.994590
629.147412	7300.687220
629.493739	7292.666744
629.840014	7224.953966
630.186236	7283.048223
630.532405	7167.893146
630.878521	7222.229222
631.224585	7177.521749
631.570597	7100.558454
631.916556	7136.784185
632.262462	7133.646067
632.608316	7085.404745
632.954117	7066.336581
633.299866	7052.322173
633.645562	7051.094652
633.991206	6965.606765
634.336797	6912.508292
634.682336	6868.567074
635.027823	6832.853020
635.373257	6828.487381
635.718639	6758.760661
636.063968	6773.097703
636.409245	6664.806156
636.754470	6665.227093
637.099642	6624.071113
637.444762	6568.404171
637.789829	6578.544452
638.134845	6517.526326
638.479808	6503.736250
638.824719	6510.735892
639.169577	6434.871568
639.514383	6457.221523
639.859137	6385.808538
640.203839	6389.531430
640.548489	6378.579523
640.893086	6355.145720
641.237632	6328.220917
641.582125	6344.697928
641.926566	6325.087840
642.270955	6328.173026
642.615292	6327.202604
642.959576	6338.525035
643.303809	6328.377193
643.647990	6343.639286
643.992118	6329.677810
644.336195	6274.421723
644.680219	6302.753008
645.024192	6291.037366
645.368112	6388.276183
645.711981	6411.273927
646.055797	6482.893599
646.399562	6439.494306
646.743274	6569.888791
647.086935	6624.504652
647.430544	6608.798937
647.774101	6642.057950
648.117606	6642.763711
648.461059	6632.578060
648.804460	6593.506597
649.147810	6503.804305
649.491108	6476.801365
649.834354	6452.472756
650.177548	6368.658532
650.520690	6279.178052
650.863781	6261.292038
651.206820	6279.979595
651.549807	6201.118305
651.892742	6138.250075
652.235626	6146.368854
652.578458	6134.731350
652.921238	6044.202309
653.263967	6080.644810
653.606644	6023.664648
653.949269	6025.494587
654.291843	5964.259692
654.634365	6011.424727
654.976836	5967.922090
655.319255	5970.198171
655.661622	5947.754954
656.003938	5941.992915
656.346203	5902.434981
656.688416	5938.580054
657.030577	5888.244133
657.372687	5857.248598
657.714746	5844.146639
658.056753	5888.455861
658.398708	5829.428991
658.740612	5822.779709
659.082465	5866.519280
659.424266	5860.550554
659.766016	5858.541654
660.107715	5833.935782
660.449362	5848.489593
660.790958	5841.731927
661.132503	5830.714485
661.473996	5869.803592
661.815438	5853.298854
662.156829	5851.070664
662.498168	5841.857956
662.839456	5815.782587
663.180693	5850.390108
663.521879	5858.907138
663.863013	5842.233522
664.204097	5859.212128
664.545129	5903.886833
664.886110	5897.164454
665.227040	5931.630823
665.567918	5896.975411
665.908746	5925.611686
666.249522	5933.687614
666.590248	5915.075674
666.930922	5944.410148
667.271545	5957.287776
667.612118	5958.076716
667.952639	5934.731133
668.293109	5956.675276
668.633528	5910.515950
668.973896	5913.318832
669.314213	5902.437501
669.654480	5889.086005
669.994695	5883.674327
670.334859	5871.391555
670.674973	5867.434250
671.015035	5867.514908
671.355047	5863.638261
671.695008	5849.487742
672.034918	5823.230892
672.374777	5834.739846
672.714585	5824.450851
673.054342	5822.199976
673.394049	5818.731662
673.733705	5849.160067
674.073310	5839.352502
674.412864	5799.721471
674.752368	5788.063803
675.091820	5791.887518
675.431223	5726.352518
675.770574	5732.938786
676.109875	5679.442061
676.449125	5686.928174
676.788324	5650.775540
677.127473	5595.191777
677.466571	5590.485860
677.805619	5582.788018
678.144616	5569.295370
678.483562	5542.332759
678.822458	5512.864694
679.161303	5506.361605
679.500098	5498.661243
679.838842	5481.536443
680.177535	5491.865767
680.516179	5498.071428
680.854771	5510.946535
681.193314	5588.363534
681.531805	5699.576429
681.870247	5855.214493
682.208638	5956.261901
682.546978	5967.417974
682.885268	5947.961641
683.223508	5861.989803
683.561697	5807.073994
683.899836	5773.908243
684.237925	5729.878805
684.575963	5687.628895
684.913951	5654.626981
685.251889	5711.639911
685.589776	5683.679151
685.927614	5659.103526
686.265401	5726.254216
686.603137	5709.993974
686.940824	5786.564060
687.278460	5809.216484
687.616046	5819.087064
687.953582	5885.032918
688.291068	5872.006576
688.628504	5936.487975
688.965889	5892.720677
689.303224	5839.987688
689.640510	5792.502539
689.977745	5717.616198
690.314930	5615.235405
690.652065	5560.148196
690.989150	5472.051512
691.326185	5391.254419
691.663170	5336.699052
692.000105	5265.152476
692.336990	5185.928223
692.673825	5157.760776
693.010610	5092.379531
693.347345	5024.507956
693.684030	5010.740565
694.020665	4971.253207
694.357251	4879.539495
694.693786	4886.390423
695.030272	4854.885732
695.366707	4816.383920
695.703093	4788.614724
696.039429	4807.715656
696.375716	4789.489364
696.711952	4764.245786
697.048139	4751.312706
697.384276	4733.835025
697.720363	4739.811313
698.056400	4754.899487
698.392388	4704.470304
698.728326	4683.667983
699.064214	4657.637985
699.400053	4657.693438
699.735842	4623.126246
700.071581	4597.398717
700.407270	4570.095828
700.742910	4552.406419
701.078501	4494.642358
701.414042	4496.716793
701.749533	4468.614880
702.084974	4404.047782
702.420366	4458.439311
702.755709	4399.581320
703.091002	4343.112835
703.426246	4393.189137
703.761440	4350.793033
704.096584	4312.203000
704.431679	4335.551104
704.766725	4321.443435
705.101721	4309.228719
705.436668	4337.905323
705.771565	4286.543527
706.106413	4309.440448
706.441212	4342.946477
706.775961	4350.893856
707.110661	4333.232173
707.445311	4357.298642
707.779913	4378.602558
708.114465	4397.854724
708.448967	4418.064710
708.783421	4483.077951
709.117825	4521.055483
709.452180	4525.887429
709.786485	4572.311415
710.120742	4659.417512
710.454949	4642.935460
710.789107	4709.352662
711.123216	4784.216317
711.457275	4776.566366
711.791286	4855.243654
712.125247	4863.347309
712.459159	4769.213843
712.793023	4846.000698
713.126837	4800.131240
713.460602	4796.098317
713.794318	4714.996233
714.127985	4725.295311
714.461602	4635.126712
714.795171	4611.955049
715.128691	4542.056930
715.462162	4484.610462
715.795584	4435.539870
716.128957	4419.153599
716.462281	4367.398593
716.795556	4341.388760
717.128782	4301.082215
717.461960	4231.128643
717.795088	4244.497783
718.128167	4201.184189
718.461198	4147.145541
718.794180	4136.206237
719.127113	4120.296355
719.459997	4097.212912
719.792833	4057.395358
720.125619	4047.998647
720.458357	4012.536651
720.791046	4016.423380
721.123686	3986.791478
721.456278	3947.848565
721.788821	3959.949854
722.121315	3937.988068
722.453761	3912.003440
722.786158	3924.208074
723.118506	3948.922330
723.450805	3901.016245
723.783056	3920.863268
724.115259	3937.320115
724.447412	3940.546453
724.779518	3936.513530
725.111574	3941.844550
725.443582	3969.583499
725.775542	3953.078762
726.107453	4003.787728
726.439315	4005.789066
726.771129	4023.077703
727.102895	4058.711099
727.434612	4103.738686
727.766281	4114.095736
728.097901	4119.315851
728.429473	4123.878095
728.760996	4128.493272
729.092471	4123.545379
729.423897	4109.588945
729.755276	4114.884677
730.086606	4113.863843
730.417887	4148.824245
730.749120	4217.618351
731.080305	4281.535141
731.411442	4307.915499
731.742530	4277.673617
732.073570	4277.784522
732.404562	4329.451308
732.735506	4329.499199
733.066401	4290.742808
733.397249	4224.721337
733.728048	4146.641425
734.058798	4064.795772
734.389501	3993.929752
734.720156	3928.278805
735.050762	3883.513359
735.381320	3881.275087
735.711831	3830.576203
736.042293	3800.687202
736.372707	3820.579595
736.703073	3795.774597
737.033391	3784.139614
737.363661	3804.238694
737.693883	3829.351202
738.024056	3838.384950
738.354182	3828.325328
738.684260	3894.117426
739.014290	3916.643822
739.344272	3914.844130
739.674207	3954.533135
740.004093	3962.722489
740.333931	3956.093372
740.663722	3955.495995
740.993464	3949.960808
741.323159	3926.809309
741.652806	3900.403745
741.982405	3873.945249
742.311956	3841.543233
742.641460	3830.747602
742.970915	3805.355310
743.300323	3765.353754
743.629683	3731.215060
743.958996	3720.918504
744.288260	3693.474462
744.617477	3658.327537
744.946647	3649.707164
745.275768	3621.073411
745.604842	3624.564410
745.933869	3574.946853
746.262847	3564.156263
746.591778	3605.168570
746.920662	3576.186977
747.249498	3544.301679
747.578286	3588.749532
747.907027	3606.265021
748.235720	3605.108076
748.564365	3628.168835
748.892963	3628.680512
749.221514	3609.536730
749.550017	3588.197526
749.878473	3587.353132
750.206881	3559.115109
750.535242	3550.865261
750.863555	3555.419943
751.191821	3551.364335
751.520039	3528.432126
751.848210	3508.650639
752.176334	3545.584652
752.504411	3547.580949
752.832440	3508.998478
753.160421	3490.192454
753.488356	3501.310719
753.816243	3515.627596
754.144082	3470.879793
754.471875	3454.730457
754.799620	3474.574959
755.127318	3464.419555
755.454969	3466.841829
755.782572	3474.648056
756.110129	3449.991773
756.437638	3438.180349
756.765100	3453.598718
757.092515	3463.101293
757.419882	3471.404073
757.747203	3442.873663
758.074477	3444.048252
758.401703	3458.476034
758.728882	3482.116525
759.056014	3487.442504
759.383099	3495.331910
759.710138	3488.395283
760.037129	3505.971265
760.364073	3537.891852
760.690970	3518.324613
761.017820	3500.022704
761.344623	3519.315200
761.671379	3561.968402
761.998088	3614.469499
762.324751	3742.560177
762.651366	3987.887929
762.977935	4469.983554
763.304456	4911.288682
763.630931	5009.376933
763.957359	4643.202641
764.283740	4296.300680
764.610074	4102.957307
764.936362	3906.750558
765.262602	3751.246085
765.588796	3636.146461
765.914943	3549.801577
766.241044	3459.774132
766.567097	3429.481838
766.893104	3385.490209
767.219064	3352.521063
767.544978	3324.814881
767.870845	3265.886313
768.196665	3252.350815
768.522438	3258.848863
768.848165	3254.490785
769.173846	3217.907132
769.499479	3201.946839
769.825066	3186.727595
770.150607	3167.861077
770.476101	3184.413706
770.801548	3178.840710
771.126949	3133.571148
771.452303	3118.142697
771.777611	3124.300467
772.102872	3127.451188
772.428087	3103.929164
772.753256	3094.618153
773.078378	3084.636668
773.403453	3050.011503
773.728482	3040.513969
774.053465	3057.263203
774.378401	3047.616955
774.703291	3017.435567
775.028135	3022.259951
775.352932	3012.616224
775.677683	3001.954183
776.002388	2998.818586
776.327046	2996.958400
776.651658	2987.339878
776.976224	2976.700523
777.300743	2979.510966
777.625216	2966.638380
777.949643	2961.191413
778.274024	2966.542598
778.598359	2954.322841
778.922647	2959.495065
779.246889	2957.297122
779.571086	2941.183074
779.895236	2935.978082
780.219339	2947.350925
780.543397	2961.393059
780.867409	2964.120324
781.191374	2956.525825
781.515294	2952.830660
781.839167	2953.178499
782.162995	2945.573919
782.486776	2953.687656
782.810511	2949.614403
783.134201	2937.379523
783.457844	2943.514607
783.781441	2934.783329
784.104993	2917.570309
784.428498	2915.682397
784.751958	2930.878955
785.075372	2922.374529
785.398739	2908.713002
785.722061	2925.184972
786.045337	2935.284924
786.368568	2922.064498
786.691752	2914.273394
787.014891	2960.583954
787.337983	2992.746516
787.661030	3017.301976
787.984031	3086.816967
788.306987	3132.935963
788.629897	3123.143522
788.952760	3108.751027
789.275579	3093.148656
789.598351	3035.868546
789.921078	2989.711741
790.243759	2980.710761
790.566395	2960.442802
790.888984	2938.765840
791.211529	2923.196237
791.534027	2912.541758
791.856480	2903.737383
792.178888	2886.403375
792.501249	2878.551778
792.823566	2879.544886
793.145836	2875.544730
793.468062	2869.911241
793.790241	2869.765047
794.112375	2874.367621
794.434464	2887.381359
794.756507	2891.724313
795.078505	2895.590878
795.400457	2912.118301
795.722364	2948.870833
796.044226	2973.751448
796.366042	2974.011068
796.687812	2964.382464
797.009538	2984.673108
797.331218	2969.950418
797.652852	2956.974488
797.974442	2940.590738
798.295986	2934.813576
798.617484	2931.521702
798.938938	2915.599218
799.260346	2899.890983
799.581709	2894.743964
799.903026	2887.799775
800.224299	2883.081255
800.545526	2871.965511
800.866708	2854.195443
801.187845	2847.977180
801.508936	2847.231089
801.829983	2853.630834
802.150984	2840.433093
802.471940	2825.475990
802.792851	2829.619818
803.113717	2827.631083
803.434538	2835.661641
803.755314	2826.499344
804.076045	2821.299394
804.396731	2821.662357
804.717372	2820.956596
805.037967	2816.646409
805.358518	2822.849549
805.679024	2830.179387
805.999485	2826.748881
806.319901	2831.800117
806.640272	2824.303922
806.960598	2832.223574
807.280879	2839.230778
807.601115	2847.256295
807.921306	2832.856239
808.241453	2830.852381
808.561554	2840.576766
808.881611	2840.150789
809.201623	2835.328925
809.521590	2832.667196
809.841513	2827.436999
810.161390	2830.091166
810.481223	2827.716783
810.801011	2817.521049
811.120755	2812.621048
811.440453	2815.338230
811.760107	2814.030050
812.079716	2813.714978
812.399281	2804.724080
812.718801	2796.350724
813.038276	2793.696556
813.357707	2795.251752
813.677093	2804.593010
813.996434	2797.542957
814.315731	2797.674027
814.634983	2788.922583
814.954191	2791.778397
815.273354	2805.583597
815.592473	2814.894608
815.911547	2817.218580
816.230577	2826.075887
816.549562	2833.067968
816.868502	2831.671568
817.187399	2843.503156
817.506250	2860.819520
817.825058	2853.797192
818.143821	2863.115765
818.462539	2883.325751
818.781213	2908.697878
819.099843	2942.334977
819.418429	3002.720439
819.736970	3063.115982
820.055466	3140.064155
820.373919	3245.111718
820.692327	3386.495919
821.010691	3557.133936
821.329011	4006.257894
821.647286	4915.288837
821.965517	6314.203989
822.283704	7065.666107
822.601847	7047.890999
822.919945	6405.963071
823.237999	5893.764196
823.556010	5297.829235
823.873976	4740.060850
824.191897	4326.061132
824.509775	4026.581305
824.827609	3754.727002
825.145398	3628.952734
825.463144	3621.743884
825.780845	3711.980538
826.098502	3818.308555
826.416116	4103.413531
826.733685	4423.559568
827.051210	4491.017768
827.368692	4373.697515
827.686129	4100.897995
828.003522	3775.073099
828.320872	3512.285311
828.638177	3313.910866
828.955439	3178.843231
829.272656	3092.473142
829.589830	3022.577544
829.906960	2973.877477
830.224046	2928.522216
830.541088	2893.899571
830.858086	2880.361553
831.175041	2862.019314
831.491952	2862.987216
831.808819	2876.351315
832.125642	2898.333266
832.442421	2945.584001
832.759157	3026.025693
833.075849	3209.632078
833.392497	3490.875530
833.709101	3696.632745
834.025662	3649.132473
834.342179	3484.921927
834.658653	3308.567243
834.975083	3160.047288
835.291469	3059.567010
835.607811	2972.851602
835.924110	2914.011254
836.240366	2862.810775
836.556578	2817.959630
836.872746	2796.764098
837.188871	2772.677465
837.504952	2755.406472
837.820990	2747.385996
838.136984	2730.510734
838.452935	2725.303222
838.768842	2725.819940
839.084706	2742.193608
839.400526	2824.631597
839.716303	2956.745116
840.032037	3037.625388
840.347727	3023.764735
840.663373	2962.860035
840.978977	2883.693755
841.294537	2808.527631
841.610054	2765.897113
841.925527	2739.814183
842.240957	2719.458004
842.556344	2699.663913
842.871687	2683.595236
843.186987	2672.613082
843.502244	2668.290292
843.817458	2663.024807
844.132629	2650.560554
844.447756	2640.574029
844.762840	2634.678399
845.077881	2638.633184
845.392879	2635.860550
845.707833	2630.731176
846.022745	2624.039044
846.337613	2628.021556
846.652438	2623.139198
846.967221	2627.333438
847.281960	2623.943262
847.596656	2625.397635
847.911309	2623.502161
848.225919	2616.565533
848.540485	2615.940430
848.855009	2617.089813
849.169490	2614.995214
849.483928	2618.080400
849.798323	2614.861623
850.112675	2612.494802
850.426984	2613.674432
850.741251	2613.341716
851.055474	2610.362394
851.369654	2615.133846
851.683792	2613.974380
851.997887	2613.475306
852.311938	2611.847013
852.625947	2613.213166
852.939914	2614.594442
853.253837	2618.314814
853.567718	2612.386417
853.881555	2612.535131
854.195350	2616.026130
854.509103	2615.698455
854.822812	2611.030347
855.136479	2611.441201
855.450103	2615.209463
855.763685	2616.051336
856.077224	2613.543362
856.390720	2612.761983
856.704173	2614.982611
857.017584	2618.103085
857.330953	2620.643827
857.644278	2621.291615
857.957561	2620.653909
858.270802	2617.394803
858.584000	2616.305914
858.897155	2619.305401
859.210268	2623.466873
859.523339	2616.263064
859.836367	2612.794750
860.149352	2609.079420
860.462295	2613.117384
860.775195	2611.557147
861.088054	2608.993720
861.400869	2607.103288
861.713642	2604.418873
862.026373	2606.475664
862.339062	2608.968515
862.651708	2619.524691
862.964312	2619.091152
863.276873	2614.596963
863.589392	2617.906480
863.901869	2622.990484
864.214303	2627.280506
864.526696	2630.285034
864.839045	2631.568007
865.151353	2636.082361
865.463619	2636.629326
865.775842	2634.640591
866.088023	2633.334932
866.400162	2635.023718
866.712258	2635.240488
867.024313	2632.843419
867.336325	2629.843933
867.648296	2633.491207
867.960224	2636.115128
868.272110	2635.192597
868.583954	2628.926443
868.895755	2629.090280
869.207515	2634.365848
869.519233	2645.247178
869.830909	2638.174439
870.142542	2631.696557
870.454134	2634.512041
870.765684	2641.708288
871.077191	2643.450007
871.388657	2646.210039
871.700081	2644.869092
872.011463	2641.988072
872.322803	2646.033598
872.634101	2646.709113
872.945357	2654.303611
873.256571	2665.608399
873.567744	2657.469456
873.878874	2659.039775
874.189963	2658.656647
874.501010	2664.537153
874.812015	2670.067299
875.122979	2670.339522
875.433900	2658.949034
875.744780	2659.851401
876.055618	2666.150323
876.366415	2669.127124
876.677169	2670.324398
876.987882	2665.472287
877.298554	2661.020949
877.609183	2671.166271
877.919771	2681.921573
878.230317	2686.408199
878.540822	2700.329346
878.851285	2712.992724
879.161707	2735.340159
879.472087	2774.837600
879.782425	2823.988850
880.092722	2941.669545
880.402977	3134.304636
880.713191	3400.916140
881.023363	3699.112993
881.333494	3898.016759
881.643583	4074.308429
881.953631	4069.025300
882.263637	3885.572671
882.573602	3663.615708
882.883526	3532.286088
883.193408	3411.535330
883.503248	3308.627736
883.813048	3193.966692
884.122806	3074.408167
884.432522	2988.819457
884.742197	2919.155752
885.051831	2881.725185
885.361424	2846.568178
885.670975	2808.691468
885.980485	2778.177364
886.289954	2760.495517
886.599382	2747.575040
886.908768	2733.575755
887.218113	2715.798126
887.527417	2699.852957
887.836680	2691.164528
888.145901	2687.239990
888.455082	2677.548372
888.764221	2665.275682
889.073319	2658.671771
889.382376	2659.269148
889.691392	2659.972389
890.000366	2660.209323
890.309300	2659.072543
890.618193	2662.815599
890.927044	2662.868532
891.235855	2662.336690
891.544625	2663.178562
891.853353	2664.053203
892.162041	2672.093843
892.470687	2689.962213
892.779293	2702.237422
893.087858	2712.765872
893.396381	2738.538771
893.704864	2777.945471
894.013306	2850.160000
894.321707	2949.657253
894.630068	2999.738596
894.938387	3020.684590
895.246665	3012.268384
895.554903	2964.700056
895.863100	2921.721699
896.171256	2862.568800
896.479371	2801.253246
896.787446	2759.638521
897.095480	2741.011457
897.403473	2735.158678
897.711425	2718.051522
898.019336	2698.698532
898.327207	2686.521625
898.635038	2683.668332
898.942827	2681.987107
899.250576	2674.120387
899.558284	2660.708397
899.865952	2654.359064
900.173579	2653.754125
900.481165	2651.349495
900.788711	2643.850779
901.096216	2636.846095
901.403681	2633.193779
901.711105	2634.988430
902.018489	2631.376443
902.325832	2635.300982
902.633135	2637.440952
902.940397	2653.207160
903.247619	2690.829291
903.554800	2761.685229
903.861941	2895.124572
904.169041	3024.833460
904.476101	3086.716144
904.783121	3084.009044
905.090100	3020.034282
905.397039	2942.992848
905.703938	2868.320757
906.010796	2803.849440
906.317614	2751.398755
906.624391	2711.850903
906.931129	2683.678415
907.237826	2662.966834
907.544483	2643.870943
907.851099	2630.479118
908.157675	2618.917232
908.464211	2614.639813
908.770707	2601.512648
909.077163	2597.399067
909.383578	2591.962182
909.689954	2594.220619
909.996289	2590.018817
910.302584	2588.657706
910.608839	2587.001687
910.915054	2587.117633
911.221229	2591.135433
911.527363	2589.401276
911.833458	2589.439085
912.139513	2590.734661
912.445527	2593.661051
912.751502	2599.284458
913.057436	2605.474995
913.363331	2614.274329
913.669186	2622.715741
913.975000	2634.441465
914.280775	2652.755977
914.586510	2673.707012
914.892205	2710.623382
915.197859	2777.743825
915.503475	2866.848740
915.809050	2934.468257
916.114585	2951.048612
916.420081	2965.052937
916.725536	2975.011737
917.030952	2947.938220
917.336328	2898.310581
917.641665	2850.296111
917.946961	2797.515230
918.252218	2764.820827
918.557435	2734.188256
918.862612	2710.822507
919.167750	2693.291895
919.472848	2677.039215
919.777906	2659.254024
920.082925	2649.670791
920.387904	2636.105046
920.692843	2631.915847
920.997743	2626.322687
921.302603	2620.769856
921.607423	2610.349791
921.912204	2609.520521
922.216946	2603.332505
922.521647	2603.007350
922.826310	2597.056268
923.130932	2594.412183
923.435516	2587.969588
923.740059	2584.488672
924.044564	2583.916501
924.349028	2582.741912
924.653454	2573.851837
924.957840	2575.207907
925.262186	2569.385375
925.566493	2572.500808
925.870761	2566.017884
926.174989	2566.479149
926.479178	2567.109294
926.783328	2562.151319
927.087438	2563.215002
927.391509	2562.000084
927.695541	2559.698797
927.999533	2559.292985
928.303486	2558.168807
928.607400	2557.997408
928.911275	2554.766028
929.215110	2557.400031
929.518906	2554.123281
929.822663	2556.905998
930.126381	2557.044630
930.430060	2555.128992
930.733699	2555.683518
931.037299	2558.143602
931.340861	2560.129816
931.644383	2560.097049
931.947866	2558.352809
932.251309	2556.061605
932.554714	2558.536812
932.858080	2558.705690
933.161407	2555.847356
933.464694	2558.955227
933.767943	2554.299722
934.071153	2554.758467
934.374323	2552.736964
934.677455	2553.329300
934.980548	2553.152859
935.283602	2553.694783
935.586617	2552.477345
935.889593	2554.864331
936.192530	2556.820299
936.495428	2550.675132
936.798287	2553.568754
937.101108	2555.418858
937.403890	2558.428427
937.706632	2563.714077
938.009336	2564.253480
938.312002	2571.459809
938.614628	2572.377299
938.917216	2578.071283
939.219765	2578.008268
939.522275	2580.642271
939.824747	2577.015161
940.127179	2572.052145
940.429573	2566.486711
940.731929	2569.738255
941.034246	2564.946639
941.336524	2571.021229
941.638763	2567.124417
941.940964	2567.958728
942.243126	2565.785991
942.545250	2565.516289
942.847335	2565.090312
943.149381	2563.272976
943.451389	2560.850701
943.753359	2563.371278
944.055290	2559.045968
944.357182	2557.193344
944.659036	2555.857438
944.960851	2559.040927
945.262628	2555.938097
945.564367	2557.705021
945.866067	2556.283416
946.167729	2558.211657
946.469352	2557.531101
946.770937	2556.729558
947.072484	2554.226625
947.373992	2557.752912
947.675462	2555.484393
947.976893	2555.373488
948.278286	2553.916594
948.579641	2555.600339
948.880958	2554.713096
949.182236	2555.502037
949.483476	2555.572613
949.784678	2555.408776
950.085841	2557.289126
950.386967	2555.779300
950.688054	2551.542211
950.989103	2555.665874
951.290114	2556.028837
951.591087	2562.015208
951.892021	2560.618808
952.192917	2561.236349
952.493776	2559.051009
952.794596	2562.090825
953.095378	2563.015877
953.396122	2561.664847
953.696828	2561.760629
953.997496	2557.790721
954.298126	2556.001111
954.598718	2556.764846
954.899272	2552.991542
955.199788	2556.938766
955.500266	2550.753270
955.800706	2551.012889
956.101108	2544.338402
956.401472	2547.234545
956.701798	2544.434184
957.002087	2544.345963
957.302337	2545.656663
957.602550	2545.455017
957.902724	2544.701365
958.202861	2542.765562
958.502960	2541.580891
958.803022	2544.910573
959.103045	2543.347815
959.403031	2541.104502
959.702979	2541.618699
960.002889	2540.567619
960.302762	2539.650129
960.602596	2540.980993
960.902393	2540.411343
961.202153	2538.669624
961.501875	2538.946888
961.801559	2541.346477
962.101205	2538.525951
962.400814	2539.367824
962.700385	2541.671631
962.999918	2538.483102
963.299414	2538.256250
963.598873	2540.708771
963.898293	2539.294727
964.197677	2536.585107
964.497022	2538.460416
964.796331	2538.561239
965.095601	2538.238606
965.394835	2540.144162
965.694030	2537.195087
965.993189	2537.154758
966.292309	2537.363965
966.591393	2540.144162
966.890439	2537.931095
967.189447	2536.131403
967.488419	2536.335570
967.787353	2538.692309
968.086249	2537.265663
968.385108	2538.324305
968.683930	2538.334388
968.982714	2537.729449
969.281462	2536.842206
969.580172	2538.339429
969.878844	2537.694161
970.177480	2541.038967
970.476078	2538.261291
970.774639	2540.537372
971.073162	2537.857998
971.371649	2537.421939
971.670098	2537.101825
971.968510	2540.403781
972.266885	2532.791639
972.565223	2541.643905
972.863524	2537.663914
973.161788	2537.686599
973.460014	2542.011909
973.758204	2537.981507
974.056356	2541.807742
974.354471	2537.540406
974.652550	2539.440921
974.950591	2538.127700
975.248595	2538.145344
975.546563	2540.570139
975.844493	2537.943698
976.142386	2540.988555
976.440243	2536.804397
976.738062	2538.808256
977.035845	2536.443955
977.333590	2536.844727
977.631299	2537.379089
977.928971	2534.225847
978.226606	2535.692823
978.524204	2537.399253
978.821765	2536.418749
979.119290	2535.695343
979.416777	2535.294572
979.714228	2537.636188
980.011642	2538.805735
980.309020	2537.928575
980.606360	2532.869777
980.903664	2539.597197
981.200931	2537.991589
981.498162	2537.051414
981.795356	2540.691127
982.092513	2545.868392
982.389633	2547.055584
982.686717	2549.709751
982.983764	2553.319217
983.280775	2554.390463
983.577749	2556.064126
983.874686	2550.707900
984.171587	2549.329144
984.468451	2547.254709
984.765279	2541.928730
985.062070	2543.801519
985.358824	2539.763555
985.655543	2540.935623
985.952224	2536.872453
986.248869	2538.964532
986.545478	2534.878677
986.842050	2535.546629
987.138586	2531.463295
987.435086	2532.589993
987.731549	2531.528830
988.027975	2535.183666
988.324366	2536.799356
988.620719	2536.025539
988.917037	2535.082843
989.213318	2534.661907
989.509563	2533.588141
989.805772	2535.886907
990.101944	2534.145189
990.398080	2535.120652
990.694180	2533.638553
990.990244	2534.901362
991.286271	2533.600744
991.582262	2532.839530
991.878217	2534.737524
992.174136	2533.704088
992.470019	2532.889941
992.765865	2535.148378
993.061676	2533.842719
993.357450	2534.999664
993.653188	2534.908923
993.948890	2535.710467
994.244556	2533.961187
994.540186	2534.495549
994.835780	2533.814993
995.131337	2535.110570
995.426859	2535.599562
995.722345	2538.377237
996.017795	2538.228523
996.313208	2539.327495
996.608586	2537.734490
996.903928	2539.345139
997.199234	2538.200797
997.494504	2538.558719
997.789738	2536.534696
998.084936	2539.443441
998.380099	2536.877494
998.675225	2537.084181
998.970316	2535.347504
999.265371	2534.639222
999.560390	2534.982020
999.855373	2533.797349
1000.150320	2536.015457
1000.445232	2534.472864
1000.740108	2534.193080
1001.034948	2534.409849
1001.329752	2531.753161
1001.624521	2533.673841
1001.919254	2528.612522
1002.213951	2531.783408
1002.508613	2528.115969
1002.803239	2530.555887
1003.097829	2527.163191
1003.392384	2533.162164
1003.686903	2533.525127
1003.981386	2529.305681
1004.275834	2532.718542
1004.570246	2533.691485
1004.864623	2532.098480
1005.158964	2531.506145
1005.453270	2530.777698
1005.747540	2532.232071
1006.041775	2530.659231
1006.335974	2532.143851
1006.630138	2530.865918
1006.924266	2531.163346
1007.218359	2531.307019
1007.512416	2531.760723
1007.806438	2533.015970
1008.100425	2532.695857
1008.394376	2530.921371
1008.688292	2531.254087
1008.982172	2531.755682
1009.276017	2531.841381
1009.569827	2533.479756
1009.863602	2534.228368
1010.157341	2532.786598
1010.451045	2531.803573
1010.744714	2530.457585
1011.038347	2532.549663
1011.331945	2531.309540
1011.625508	2534.215765
1011.919036	2530.684437
1012.212528	2528.902389
1012.505986	2530.694519
1012.799408	2530.402132
1013.092795	2530.024045
1013.386147	2529.928263
1013.679464	2533.331042
1013.972745	2530.843233
1014.265992	2531.821217
1014.559204	2532.300126
1014.852380	2526.840557
1015.145521	2530.460105
1015.438628	2529.119158
1015.731699	2533.570497
1016.024736	2533.555374
1016.317737	2531.710311
1016.610703	2531.034797
1016.903635	2528.327697
1017.196531	2527.518592
1017.489393	2529.620753
1017.782219	2524.735875
1018.075011	2530.560928
1018.367768	2531.022194
1018.660490	2529.361134
1018.953177	2529.361134
1019.245829	2529.361134
