Dividing Wavelength (nm)	Counts (n)	Blue Motor Position (mm): 8.800000	Red Motor Position (mm): 0.000000	
326.493990	2122.325769
326.888308	2122.325769
327.282561	2122.325769
327.676750	2129.887500
328.070874	2046.708462
328.464933	2079.475962
328.858929	2034.105577
329.252859	2066.873077
329.646726	2051.749615
330.040528	2087.037692
330.434265	2087.037692
330.827938	2099.640577
331.221547	2102.161154
331.615091	2195.422500
332.008571	2223.148846
332.401986	2273.560385
332.795338	2208.025385
333.188625	2255.916346
333.581847	2260.957500
333.975006	2225.669423
334.368100	2291.204423
334.761129	2253.395769
335.154095	2371.862885
335.546996	2313.889615
335.939833	2356.739423
336.332606	2359.260000
336.725315	2452.521346
337.117960	2364.301154
337.510540	2402.109808
337.903056	2437.397885
338.295508	2460.083077
338.687896	2419.753846
339.080220	2397.068654
339.472480	2409.671538
339.864676	2432.356731
340.256807	2399.589231
340.648875	2510.494615
341.040879	2397.068654
341.432818	2510.494615
341.824694	2545.782692
342.216506	2490.330000
342.608253	2510.494615
342.999937	2412.192115
343.391557	2419.753846
343.783113	2442.439038
344.174605	2530.659231
344.566033	2334.054231
344.957397	2404.630385
345.348697	2470.165385
345.739934	2535.700385
346.131106	2505.453462
346.522215	2492.850577
346.913260	2492.850577
347.304241	2515.535769
347.695159	2467.644808
348.086012	2427.315577
348.476802	2424.795000
348.867528	2460.083077
349.258191	2417.233269
349.648789	2402.109808
350.039324	2457.562500
350.429796	2422.274423
350.820203	2379.424615
351.210548	2417.233269
351.600828	2470.165385
351.991045	2407.150962
352.381198	2424.795000
352.771288	2374.383462
353.161314	2462.603654
353.551276	2439.918462
353.941175	2467.644808
354.331010	2427.315577
354.720782	2407.150962
355.110490	2424.795000
355.500135	2419.753846
355.889717	2356.739423
356.279235	2472.685962
356.668689	2492.850577
357.058080	2528.138654
357.447408	2450.000769
357.836672	2518.056346
358.225873	2369.342308
358.615010	2409.671538
359.004084	2462.603654
359.393095	2414.712692
359.782043	2417.233269
360.170927	2434.877308
360.559748	2429.836154
360.948505	2404.630385
361.337199	2432.356731
361.725830	2523.097500
362.114398	2462.603654
362.502903	2465.124231
362.891344	2392.027500
363.279722	2439.918462
363.668037	2455.041923
364.056289	2439.918462
364.444478	2417.233269
364.832603	2510.494615
365.220665	2525.618077
365.608665	2437.397885
365.996601	2414.712692
366.384474	2422.274423
366.772284	2419.753846
367.160031	2477.727115
367.547715	2371.862885
367.935336	2492.850577
368.322893	2490.330000
368.710388	2389.506923
369.097820	2432.356731
369.485189	2535.700385
369.872495	2429.836154
370.259738	2555.865000
370.646918	2490.330000
371.034035	2460.083077
371.421090	2397.068654
371.808081	2414.712692
372.195010	2447.480192
372.581875	2323.971923
372.968678	2389.506923
373.355418	2452.521346
373.742096	2472.685962
374.128710	2497.891731
374.515262	2452.521346
374.901751	2530.659231
375.288177	2480.247692
375.674540	2465.124231
376.060841	2477.727115
376.447079	2525.618077
376.833254	2480.247692
377.219367	2384.465769
377.605417	2407.150962
377.991404	2381.945192
378.377329	2447.480192
378.763191	2460.083077
379.148991	2462.603654
379.534727	2427.315577
379.920402	2444.959615
380.306013	2492.850577
380.691563	2429.836154
381.077049	2495.371154
381.462474	2462.603654
381.847835	2351.698269
382.233134	2540.741538
382.618371	2389.506923
383.003545	2518.056346
383.388657	2414.712692
383.773706	2460.083077
384.158693	2460.083077
384.543618	2530.659231
384.928480	2523.097500
385.313280	2502.932885
385.698017	2404.630385
386.082692	2495.371154
386.467305	2444.959615
386.851856	2505.453462
387.236344	2439.918462
387.620770	2487.809423
388.005133	2477.727115
388.389435	2533.179808
388.773674	2457.562500
389.157851	2550.823846
389.541965	2497.891731
389.926018	2497.891731
390.310008	2444.959615
390.693936	2533.179808
391.077802	2555.865000
391.461606	2472.685962
391.845348	2462.603654
392.229027	2507.974038
392.612645	2439.918462
392.996200	2513.015192
393.379694	2414.712692
393.763125	2475.206538
394.146494	2452.521346
394.529801	2450.000769
394.913047	2470.165385
395.296230	2497.891731
395.679351	2442.439038
396.062410	2444.959615
396.445408	2495.371154
396.828343	2444.959615
397.211217	2407.150962
397.594028	2520.576923
397.976778	2442.439038
398.359466	2467.644808
398.742092	2402.109808
399.124656	2371.862885
399.507158	2465.124231
399.889598	2429.836154
400.271977	2457.562500
400.654294	2434.877308
401.036549	2475.206538
401.418742	2467.644808
401.800874	2465.124231
402.182944	2502.932885
402.564952	2467.644808
402.946898	2543.262115
403.328783	2412.192115
403.710606	2492.850577
404.092367	2444.959615
404.474067	2513.015192
404.855705	2515.535769
405.237282	2480.247692
405.618797	2444.959615
406.000250	2482.768269
406.381642	2470.165385
406.762972	2518.056346
407.144240	2394.548077
407.525447	2467.644808
407.906593	2394.548077
408.287677	2495.371154
408.668700	2553.344423
409.049661	2578.550192
409.430560	2462.603654
409.811399	2497.891731
410.192176	2497.891731
410.572891	2480.247692
410.953545	2558.385577
411.334138	2490.330000
411.714669	2568.467885
412.095139	2492.850577
412.475547	2470.165385
412.855894	2457.562500
413.236180	2530.659231
413.616405	2432.356731
413.996568	2490.330000
414.376670	2450.000769
414.756711	2568.467885
415.136691	2455.041923
415.516609	2439.918462
415.896466	2540.741538
416.276262	2475.206538
416.655997	2507.974038
417.035670	2452.521346
417.415283	2475.206538
417.794834	2470.165385
418.174324	2543.262115
418.553753	2457.562500
418.933121	2545.782692
419.312428	2457.562500
419.691674	2450.000769
420.070859	2419.753846
420.449983	2452.521346
420.829045	2507.974038
421.208047	2528.138654
421.586988	2455.041923
421.965867	2515.535769
422.344686	2429.836154
422.723444	2457.562500
423.102141	2492.850577
423.480777	2492.850577
423.859352	2427.315577
424.237866	2399.589231
424.616319	2477.727115
424.994712	2540.741538
425.373044	2455.041923
425.751314	2477.727115
426.129524	2450.000769
426.507673	2407.150962
426.885762	2485.288846
427.263789	2523.097500
427.641756	2492.850577
428.019662	2450.000769
428.397508	2432.356731
428.775292	2513.015192
429.153016	2480.247692
429.530679	2450.000769
429.908282	2460.083077
430.285824	2545.782692
430.663305	2490.330000
431.040726	2535.700385
431.418086	2500.412308
431.795385	2535.700385
432.172624	2447.480192
432.549802	2444.959615
432.926920	2452.521346
433.303977	2470.165385
433.680974	2492.850577
434.057910	2457.562500
434.434786	2376.904038
434.811601	2495.371154
435.188355	2485.288846
435.565050	2535.700385
435.941683	2543.262115
436.318257	2472.685962
436.694770	2538.220962
437.071222	2407.150962
437.447614	2487.809423
437.823946	2404.630385
438.200218	2495.371154
438.576429	2533.179808
438.952580	2518.056346
439.328670	2502.932885
439.704700	2432.356731
440.080670	2462.603654
440.456580	2434.877308
440.832429	2472.685962
441.208218	2510.494615
441.583947	2470.165385
441.959616	2540.741538
442.335224	2392.027500
442.710773	2409.671538
443.086261	2419.753846
443.461689	2455.041923
443.837057	2565.947308
444.212365	2500.412308
444.587612	2460.083077
444.962800	2545.782692
445.337927	2492.850577
445.712995	2422.274423
446.088002	2475.206538
446.462949	2495.371154
446.837837	2543.262115
447.212664	2444.959615
447.587431	2510.494615
447.962139	2457.562500
448.336786	2513.015192
448.711374	2470.165385
449.085901	2477.727115
449.460369	2505.453462
449.834776	2533.179808
450.209124	2475.206538
450.583412	2545.782692
450.957640	2558.385577
451.331808	2477.727115
451.705917	2470.165385
452.079965	2452.521346
452.453954	2487.809423
452.827883	2402.109808
453.201752	2518.056346
453.575562	2455.041923
453.949311	2434.877308
454.323001	2518.056346
454.696632	2439.918462
455.070202	2467.644808
455.443713	2467.644808
455.817164	2482.768269
456.190556	2452.521346
456.563888	2450.000769
456.937160	2497.891731
457.310373	2507.974038
457.683526	2540.741538
458.056619	2485.288846
458.429653	2485.288846
458.802628	2528.138654
459.175542	2492.850577
459.548398	2586.111923
459.921194	2432.356731
460.293930	2553.344423
460.666607	2457.562500
461.039224	2525.618077
461.411782	2543.262115
461.784280	2455.041923
462.156719	2520.576923
462.529099	2497.891731
462.901419	2392.027500
463.273680	2505.453462
463.645882	2437.397885
464.018024	2545.782692
464.390106	2523.097500
464.762130	2480.247692
465.134094	2533.179808
465.505999	2492.850577
465.877845	2538.220962
466.249631	2444.959615
466.621358	2475.206538
466.993026	2570.988462
467.364634	2480.247692
467.736184	2507.974038
468.107674	2402.109808
468.479105	2487.809423
468.850477	2485.288846
469.221790	2500.412308
469.593043	2487.809423
469.964238	2616.358846
470.335373	2452.521346
470.706449	2462.603654
471.077467	2530.659231
471.448425	2472.685962
471.819324	2487.809423
472.190164	2510.494615
472.560945	2550.823846
472.931667	2450.000769
473.302330	2500.412308
473.672934	2447.480192
474.043479	2540.741538
474.413965	2530.659231
474.784393	2470.165385
475.154761	2460.083077
475.525070	2381.945192
475.895321	2485.288846
476.265513	2414.712692
476.635645	2540.741538
477.005719	2465.124231
477.375734	2565.947308
477.745691	2507.974038
478.115588	2467.644808
478.485427	2515.535769
478.855207	2502.932885
479.224928	2513.015192
479.594591	2568.467885
479.964194	2502.932885
480.333739	2528.138654
480.703226	2434.877308
481.072653	2510.494615
481.442022	2548.303269
481.811333	2470.165385
482.180584	2507.974038
482.549777	2467.644808
482.918912	2439.918462
483.287988	2467.644808
483.657005	2485.288846
484.025964	2513.015192
484.394864	2371.862885
484.763706	2505.453462
485.132489	2507.974038
485.501213	2518.056346
485.869879	2439.918462
486.238487	2434.877308
486.607036	2447.480192
486.975527	2543.262115
487.343959	2523.097500
487.712333	2505.453462
488.080648	2538.220962
488.448905	2502.932885
488.817104	2485.288846
489.185244	2465.124231
489.553326	2457.562500
489.921350	2543.262115
490.289315	2480.247692
490.657222	2548.303269
491.025070	2467.644808
491.392861	2427.315577
491.760593	2525.618077
492.128267	2545.782692
492.495883	2422.274423
492.863440	2507.974038
493.230939	2513.015192
493.598380	2422.274423
493.965763	2533.179808
494.333088	2444.959615
494.700354	2568.467885
495.067563	2444.959615
495.434713	2530.659231
495.801805	2525.618077
496.168839	2533.179808
496.535815	2507.974038
496.902733	2578.550192
497.269593	2455.041923
497.636395	2533.179808
498.003139	2540.741538
498.369825	2502.932885
498.736453	2487.809423
499.103023	2482.768269
499.469535	2540.741538
499.835989	2505.453462
500.202385	2495.371154
500.568723	2523.097500
500.935003	2444.959615
501.301226	2399.589231
501.667390	2487.809423
502.033497	2412.192115
502.399546	2520.576923
502.765537	2502.932885
503.131470	2520.576923
503.497345	2392.027500
503.863163	2465.124231
504.228923	2550.823846
504.594625	2500.412308
504.960269	2455.041923
505.325856	2550.823846
505.691385	2533.179808
506.056856	2460.083077
506.422270	2560.906154
506.787625	2402.109808
507.152924	2535.700385
507.518164	2465.124231
507.883347	2565.947308
508.248472	2460.083077
508.613540	2424.795000
508.978550	2578.550192
509.343503	2472.685962
509.708398	2492.850577
510.073236	2460.083077
510.438016	2548.303269
510.802738	2502.932885
511.167403	2515.535769
511.532010	2404.630385
511.896561	2480.247692
512.261053	2487.809423
512.625488	2475.206538
512.989866	2407.150962
513.354186	2487.809423
513.718449	2525.618077
514.082655	2533.179808
514.446803	2497.891731
514.810894	2477.727115
515.174927	2442.439038
515.538904	2492.850577
515.902822	2540.741538
516.266684	2563.426731
516.630488	2447.480192
516.994235	2515.535769
517.357925	2424.795000
517.721558	2510.494615
518.085133	2460.083077
518.448651	2533.179808
518.812112	2528.138654
519.175516	2472.685962
519.538863	2505.453462
519.902152	2455.041923
520.265385	2465.124231
520.628560	2447.480192
520.991678	2530.659231
521.354739	2477.727115
521.717743	2467.644808
522.080690	2533.179808
522.443580	2507.974038
522.806413	2525.618077
523.169189	2618.879423
523.531908	2492.850577
523.894569	2530.659231
524.257174	2376.904038
524.619722	2492.850577
524.982213	2523.097500
525.344647	2470.165385
525.707025	2570.988462
526.069345	2482.768269
526.431608	2490.330000
526.793815	2550.823846
527.155964	2586.111923
527.518057	2419.753846
527.880093	2545.782692
528.242072	2591.153077
528.603995	2545.782692
528.965860	2533.179808
529.327669	2515.535769
529.689421	2417.233269
530.051117	2495.371154
530.412755	2407.150962
530.774337	2545.782692
531.135862	2482.768269
531.497331	2553.344423
531.858743	2523.097500
532.220098	2447.480192
532.581396	2487.809423
532.942638	2495.371154
533.303824	2540.741538
533.664953	2424.795000
534.026025	2477.727115
534.387040	2507.974038
534.747999	2487.809423
535.108902	2480.247692
535.469748	2507.974038
535.830537	2402.109808
536.191270	2442.439038
536.551947	2442.439038
536.912567	2510.494615
537.273131	2513.015192
537.633638	2555.865000
537.994089	2460.083077
538.354483	2555.865000
538.714821	2444.959615
539.075103	2500.412308
539.435328	2442.439038
539.795497	2510.494615
540.155609	2452.521346
540.515665	2492.850577
540.875665	2550.823846
541.235609	2520.576923
541.595496	2576.029615
541.955328	2475.206538
542.315102	2480.247692
542.674821	2505.453462
543.034483	2500.412308
543.394090	2477.727115
543.753640	2442.439038
544.113134	2535.700385
544.472571	2492.850577
544.831953	2565.947308
545.191278	2437.397885
545.550548	2480.247692
545.909761	2507.974038
546.268918	2490.330000
546.628019	2497.891731
546.987064	2507.974038
547.346053	2520.576923
547.704986	2533.179808
548.063863	2465.124231
548.422684	2568.467885
548.781449	2487.809423
549.140158	2485.288846
549.498811	2581.070769
549.857408	2492.850577
550.215949	2376.904038
550.574434	2407.150962
550.932864	2513.015192
551.291237	2570.988462
551.649555	2450.000769
552.007817	2523.097500
552.366022	2553.344423
552.724173	2560.906154
553.082267	2535.700385
553.440305	2475.206538
553.798288	2465.124231
554.156215	2439.918462
554.514086	2550.823846
554.871902	2497.891731
555.229661	2487.809423
555.587365	2462.603654
555.945014	2465.124231
556.302606	2520.576923
556.660143	2492.850577
557.017625	2538.220962
557.375050	2510.494615
557.732421	2502.932885
558.089735	2535.700385
558.446994	2460.083077
558.804197	2568.467885
559.161345	2540.741538
559.518437	2510.494615
559.875474	2487.809423
560.232455	2505.453462
560.589381	2528.138654
560.946251	2550.823846
561.303065	2510.494615
561.659825	2533.179808
562.016528	2533.179808
562.373177	2442.439038
562.729770	2525.618077
563.086307	2500.412308
563.442789	2505.453462
563.799216	2495.371154
564.155587	2560.906154
564.511904	2447.480192
564.868164	2455.041923
565.224370	2568.467885
565.580520	2558.385577
565.936615	2455.041923
566.292654	2477.727115
566.648638	2422.274423
567.004567	2482.768269
567.360441	2386.986346
567.716260	2568.467885
568.072023	2492.850577
568.427732	2510.494615
568.783385	2550.823846
569.138982	2492.850577
569.494525	2523.097500
569.850013	2545.782692
570.205445	2475.206538
570.560823	2480.247692
570.916145	2555.865000
571.271412	2510.494615
571.626625	2477.727115
571.981782	2487.809423
572.336884	2535.700385
572.691931	2447.480192
573.046923	2550.823846
573.401860	2558.385577
573.756743	2518.056346
574.111570	2487.809423
574.466342	2502.932885
574.821059	2530.659231
575.175722	2558.385577
575.530330	2543.262115
575.884882	2497.891731
576.239380	2581.070769
576.593823	2530.659231
576.948211	2497.891731
577.302544	2485.288846
577.656823	2472.685962
578.011047	2470.165385
578.365216	2586.111923
578.719330	2538.220962
579.073389	2523.097500
579.427394	2500.412308
579.781344	2505.453462
580.135239	2472.685962
580.489080	2457.562500
580.842866	2560.906154
581.196597	2465.124231
581.550273	2558.385577
581.903895	2439.918462
582.257463	2482.768269
582.610975	2480.247692
582.964434	2558.385577
583.317837	2437.397885
583.671186	2520.576923
584.024481	2470.165385
584.377721	2505.453462
584.730906	2538.220962
585.084037	2513.015192
585.437113	2576.029615
585.790135	2510.494615
586.143103	2487.809423
586.496016	2462.603654
586.848874	2515.535769
587.201679	2502.932885
587.554428	2515.535769
587.907124	2457.562500
588.259765	2540.741538
588.612352	2472.685962
588.964884	2520.576923
589.317362	2457.562500
589.669786	2447.480192
590.022155	2500.412308
590.374470	2560.906154
590.726731	2500.412308
591.078937	2523.097500
591.431090	2437.397885
591.783188	2570.988462
592.135232	2515.535769
592.487222	2581.070769
592.839157	2586.111923
593.191038	2457.562500
593.542866	2540.741538
593.894639	2412.192115
594.246358	2490.330000
594.598022	2513.015192
594.949633	2523.097500
595.301190	2560.906154
595.652692	2475.206538
596.004141	2555.865000
596.355535	2419.753846
596.706876	2500.412308
597.058162	2530.659231
597.409395	2513.015192
597.760573	2507.974038
598.111698	2450.000769
598.462768	2480.247692
598.813785	2535.700385
599.164748	2500.412308
599.515657	2548.303269
599.866511	2439.918462
600.217312	2429.836154
600.568060	2613.838269
600.918753	2525.618077
601.269392	2548.303269
601.619978	2510.494615
601.970510	2520.576923
602.320988	2565.947308
602.671412	2457.562500
603.021783	2518.056346
603.372100	2470.165385
603.722363	2611.317692
604.072572	2507.974038
604.422728	2482.768269
604.772830	2492.850577
605.122878	2485.288846
605.472872	2530.659231
605.822813	2528.138654
606.172701	2545.782692
606.522534	2555.865000
606.872314	2467.644808
607.222041	2490.330000
607.571714	2502.932885
607.921333	2407.150962
608.270899	2533.179808
608.620411	2452.521346
608.969870	2490.330000
609.319276	2505.453462
609.668627	2523.097500
610.017926	2444.959615
610.367171	2460.083077
610.716362	2560.906154
611.065500	2563.426731
611.414585	2439.918462
611.763616	2507.974038
612.112594	2444.959615
612.461518	2555.865000
612.810389	2515.535769
613.159207	2485.288846
613.507971	2502.932885
613.856682	2437.397885
614.205340	2482.768269
614.553945	2487.809423
614.902496	2533.179808
615.250994	2550.823846
615.599439	2467.644808
615.947830	2576.029615
616.296169	2457.562500
616.644454	2581.070769
616.992686	2450.000769
617.340864	2477.727115
617.688990	2402.109808
618.037063	2523.097500
618.385082	2515.535769
618.733048	2550.823846
619.080961	2548.303269
619.428821	2540.741538
619.776628	2450.000769
620.124382	2472.685962
620.472083	2565.947308
620.819731	2507.974038
621.167326	2510.494615
621.514868	2535.700385
621.862357	2570.988462
622.209793	2543.262115
622.557176	2472.685962
622.904506	2535.700385
623.251783	2497.891731
623.599007	2490.330000
623.946179	2490.330000
624.293297	2601.235385
624.640363	2543.262115
624.987376	2558.385577
625.334336	2455.041923
625.681243	2455.041923
626.028097	2465.124231
626.374899	2495.371154
626.721647	2543.262115
627.068343	2533.179808
627.414987	2467.644808
627.761577	2502.932885
628.108115	2432.356731
628.454600	2520.576923
628.801032	2495.371154
629.147412	2568.467885
629.493739	2581.070769
629.840014	2424.795000
630.186236	2550.823846
630.532405	2502.932885
630.878521	2402.109808
631.224585	2545.782692
631.570597	2452.521346
631.916556	2500.412308
632.262462	2414.712692
632.608316	2540.741538
632.954117	2482.768269
633.299866	2460.083077
633.645562	2434.877308
633.991206	2467.644808
634.336797	2560.906154
634.682336	2560.906154
635.027823	2495.371154
635.373257	2487.809423
635.718639	2457.562500
636.063968	2480.247692
636.409245	2460.083077
636.754470	2452.521346
637.099642	2477.727115
637.444762	2497.891731
637.789829	2359.260000
638.134845	2545.782692
638.479808	2439.918462
638.824719	2543.262115
639.169577	2427.315577
639.514383	2515.535769
639.859137	2558.385577
640.203839	2404.630385
640.548489	2505.453462
640.893086	2543.262115
641.237632	2492.850577
641.582125	2543.262115
641.926566	2427.315577
642.270955	2523.097500
642.615292	2505.453462
642.959576	2530.659231
643.303809	2490.330000
643.647990	2502.932885
643.992118	2500.412308
644.336195	2513.015192
644.680219	2520.576923
645.024192	2550.823846
645.368112	2535.700385
645.711981	2505.453462
646.055797	2450.000769
646.399562	2475.206538
646.743274	2465.124231
647.086935	2492.850577
647.430544	2543.262115
647.774101	2505.453462
648.117606	2507.974038
648.461059	2452.521346
648.804460	2550.823846
649.147810	2480.247692
649.491108	2452.521346
649.834354	2558.385577
650.177548	2530.659231
650.520690	2439.918462
650.863781	2596.194231
651.206820	2470.165385
651.549807	2477.727115
651.892742	2535.700385
652.235626	2444.959615
652.578458	2548.303269
652.921238	2490.330000
653.263967	2543.262115
653.606644	2447.480192
653.949269	2568.467885
654.291843	2477.727115
654.634365	2505.453462
654.976836	2581.070769
655.319255	2467.644808
655.661622	2523.097500
656.003938	2568.467885
656.346203	2381.945192
656.688416	2510.494615
657.030577	2497.891731
657.372687	2520.576923
657.714746	2518.056346
658.056753	2485.288846
658.398708	2404.630385
658.740612	2548.303269
659.082465	2570.988462
659.424266	2447.480192
659.766016	2502.932885
660.107715	2507.974038
660.449362	2462.603654
660.790958	2490.330000
661.132503	2518.056346
661.473996	2470.165385
661.815438	2603.755962
662.156829	2565.947308
662.498168	2520.576923
662.839456	2437.397885
663.180693	2500.412308
663.521879	2480.247692
663.863013	2583.591346
664.204097	2535.700385
664.545129	2518.056346
664.886110	2525.618077
665.227040	2510.494615
665.567918	2535.700385
665.908746	2492.850577
666.249522	2497.891731
666.590248	2513.015192
666.930922	2424.795000
667.271545	2492.850577
667.612118	2460.083077
667.952639	2432.356731
668.293109	2485.288846
668.633528	2507.974038
668.973896	2505.453462
669.314213	2545.782692
669.654480	2444.959615
669.994695	2467.644808
670.334859	2543.262115
670.674973	2462.603654
671.015035	2538.220962
671.355047	2513.015192
671.695008	2513.015192
672.034918	2490.330000
672.374777	2530.659231
672.714585	2472.685962
673.054342	2565.947308
673.394049	2570.988462
673.733705	2520.576923
674.073310	2490.330000
674.412864	2500.412308
674.752368	2533.179808
675.091820	2444.959615
675.431223	2560.906154
675.770574	2500.412308
676.109875	2470.165385
676.449125	2439.918462
676.788324	2467.644808
677.127473	2535.700385
677.466571	2455.041923
677.805619	2540.741538
678.144616	2500.412308
678.483562	2417.233269
678.822458	2528.138654
679.161303	2528.138654
679.500098	2490.330000
679.838842	2505.453462
680.177535	2467.644808
680.516179	2543.262115
680.854771	2507.974038
681.193314	2465.124231
681.531805	2432.356731
681.870247	2497.891731
682.208638	2505.453462
682.546978	2513.015192
682.885268	2538.220962
683.223508	2505.453462
683.561697	2513.015192
683.899836	2497.891731
684.237925	2520.576923
684.575963	2432.356731
684.913951	2482.768269
685.251889	2470.165385
685.589776	2472.685962
685.927614	2465.124231
686.265401	2460.083077
686.603137	2510.494615
686.940824	2460.083077
687.278460	2495.371154
687.616046	2518.056346
687.953582	2555.865000
688.291068	2465.124231
688.628504	2525.618077
688.965889	2528.138654
689.303224	2528.138654
689.640510	2467.644808
689.977745	2477.727115
690.314930	2427.315577
690.652065	2407.150962
690.989150	2518.056346
691.326185	2467.644808
691.663170	2502.932885
692.000105	2507.974038
692.336990	2533.179808
692.673825	2558.385577
693.010610	2507.974038
693.347345	2470.165385
693.684030	2437.397885
694.020665	2394.548077
694.357251	2472.685962
694.693786	2492.850577
695.030272	2530.659231
695.366707	2472.685962
695.703093	2447.480192
696.039429	2525.618077
696.375716	2424.795000
696.711952	2444.959615
697.048139	2434.877308
697.384276	2608.797115
697.720363	2528.138654
698.056400	2507.974038
698.392388	2386.986346
698.728326	2518.056346
699.064214	2613.838269
699.400053	2528.138654
699.735842	2563.426731
700.071581	2412.192115
700.407270	2538.220962
700.742910	2545.782692
701.078501	2578.550192
701.414042	2505.453462
701.749533	2475.206538
702.084974	2573.509038
702.420366	2583.591346
702.755709	2467.644808
703.091002	2492.850577
703.426246	2472.685962
703.761440	2460.083077
704.096584	2515.535769
704.431679	2568.467885
704.766725	2505.453462
705.101721	2444.959615
705.436668	2465.124231
705.771565	2518.056346
706.106413	2477.727115
706.441212	2533.179808
706.775961	2457.562500
707.110661	2472.685962
707.445311	2477.727115
707.779913	2507.974038
708.114465	2409.671538
708.448967	2513.015192
708.783421	2495.371154
709.117825	2447.480192
709.452180	2513.015192
709.786485	2379.424615
710.120742	2465.124231
710.454949	2507.974038
710.789107	2467.644808
711.123216	2480.247692
711.457275	2450.000769
711.791286	2583.591346
712.125247	2513.015192
712.459159	2518.056346
712.793023	2495.371154
713.126837	2444.959615
713.460602	2495.371154
713.794318	2520.576923
714.127985	2477.727115
714.461602	2533.179808
714.795171	2502.932885
715.128691	2518.056346
715.462162	2505.453462
715.795584	2573.509038
716.128957	2485.288846
716.462281	2490.330000
716.795556	2528.138654
717.128782	2502.932885
717.461960	2535.700385
717.795088	2482.768269
718.128167	2510.494615
718.461198	2472.685962
718.794180	2450.000769
719.127113	2533.179808
719.459997	2545.782692
719.792833	2591.153077
720.125619	2550.823846
720.458357	2520.576923
720.791046	2475.206538
721.123686	2644.085192
721.456278	2485.288846
721.788821	2540.741538
722.121315	2505.453462
722.453761	2528.138654
722.786158	2460.083077
723.118506	2437.397885
723.450805	2465.124231
723.783056	2482.768269
724.115259	2452.521346
724.447412	2520.576923
724.779518	2543.262115
725.111574	2513.015192
725.443582	2465.124231
725.775542	2460.083077
726.107453	2485.288846
726.439315	2475.206538
726.771129	2450.000769
727.102895	2457.562500
727.434612	2485.288846
727.766281	2533.179808
728.097901	2482.768269
728.429473	2495.371154
728.760996	2472.685962
729.092471	2513.015192
729.423897	2510.494615
729.755276	2525.618077
730.086606	2417.233269
730.417887	2485.288846
730.749120	2444.959615
731.080305	2485.288846
731.411442	2613.838269
731.742530	2523.097500
732.073570	2528.138654
732.404562	2477.727115
732.735506	2502.932885
733.066401	2485.288846
733.397249	2510.494615
733.728048	2447.480192
734.058798	2548.303269
734.389501	2424.795000
734.720156	2507.974038
735.050762	2505.453462
735.381320	2553.344423
735.711831	2477.727115
736.042293	2507.974038
736.372707	2417.233269
736.703073	2502.932885
737.033391	2429.836154
737.363661	2523.097500
737.693883	2472.685962
738.024056	2497.891731
738.354182	2434.877308
738.684260	2429.836154
739.014290	2520.576923
739.344272	2525.618077
739.674207	2422.274423
740.004093	2487.809423
740.333931	2525.618077
740.663722	2550.823846
740.993464	2523.097500
741.323159	2475.206538
741.652806	2533.179808
741.982405	2467.644808
742.311956	2455.041923
742.641460	2409.671538
742.970915	2548.303269
743.300323	2475.206538
743.629683	2482.768269
743.958996	2573.509038
744.288260	2540.741538
744.617477	2502.932885
744.946647	2487.809423
745.275768	2550.823846
745.604842	2500.412308
745.933869	2465.124231
746.262847	2490.330000
746.591778	2548.303269
746.920662	2515.535769
747.249498	2470.165385
747.578286	2497.891731
747.907027	2535.700385
748.235720	2432.356731
748.564365	2467.644808
748.892963	2465.124231
749.221514	2523.097500
749.550017	2467.644808
749.878473	2475.206538
750.206881	2386.986346
750.535242	2518.056346
750.863555	2555.865000
751.191821	2492.850577
751.520039	2442.439038
751.848210	2538.220962
752.176334	2502.932885
752.504411	2528.138654
752.832440	2455.041923
753.160421	2414.712692
753.488356	2497.891731
753.816243	2470.165385
754.144082	2507.974038
754.471875	2497.891731
754.799620	2548.303269
755.127318	2507.974038
755.454969	2434.877308
755.782572	2507.974038
756.110129	2447.480192
756.437638	2598.714808
756.765100	2447.480192
757.092515	2518.056346
757.419882	2472.685962
757.747203	2568.467885
758.074477	2437.397885
758.401703	2502.932885
758.728882	2462.603654
759.056014	2616.358846
759.383099	2477.727115
759.710138	2462.603654
760.037129	2515.535769
760.364073	2490.330000
760.690970	2477.727115
761.017820	2513.015192
761.344623	2545.782692
761.671379	2548.303269
761.998088	2520.576923
762.324751	2558.385577
762.651366	2606.276538
762.977935	2507.974038
763.304456	2437.397885
763.630931	2525.618077
763.957359	2518.056346
764.283740	2507.974038
764.610074	2502.932885
764.936362	2507.974038
765.262602	2447.480192
765.588796	2417.233269
765.914943	2452.521346
766.241044	2525.618077
766.567097	2523.097500
766.893104	2457.562500
767.219064	2548.303269
767.544978	2470.165385
767.870845	2573.509038
768.196665	2470.165385
768.522438	2513.015192
768.848165	2427.315577
769.173846	2424.795000
769.499479	2495.371154
769.825066	2424.795000
770.150607	2550.823846
770.476101	2497.891731
770.801548	2528.138654
771.126949	2548.303269
771.452303	2497.891731
771.777611	2530.659231
772.102872	2477.727115
772.428087	2376.904038
772.753256	2502.932885
773.078378	2502.932885
773.403453	2414.712692
773.728482	2472.685962
774.053465	2412.192115
774.378401	2515.535769
774.703291	2455.041923
775.028135	2502.932885
775.352932	2490.330000
775.677683	2404.630385
776.002388	2502.932885
776.327046	2492.850577
776.651658	2530.659231
776.976224	2475.206538
777.300743	2513.015192
777.625216	2495.371154
777.949643	2535.700385
778.274024	2500.412308
778.598359	2528.138654
778.922647	2611.317692
779.246889	2417.233269
779.571086	2507.974038
779.895236	2434.877308
780.219339	2523.097500
780.543397	2576.029615
780.867409	2447.480192
781.191374	2497.891731
781.515294	2548.303269
781.839167	2480.247692
782.162995	2487.809423
782.486776	2442.439038
782.810511	2467.644808
783.134201	2427.315577
783.457844	2515.535769
783.781441	2533.179808
784.104993	2439.918462
784.428498	2487.809423
784.751958	2422.274423
785.075372	2487.809423
785.398739	2555.865000
785.722061	2495.371154
786.045337	2492.850577
786.368568	2601.235385
786.691752	2407.150962
787.014891	2533.179808
787.337983	2472.685962
787.661030	2535.700385
787.984031	2515.535769
788.306987	2523.097500
788.629897	2465.124231
788.952760	2429.836154
789.275579	2437.397885
789.598351	2472.685962
789.921078	2460.083077
790.243759	2497.891731
790.566395	2540.741538
790.888984	2513.015192
791.211529	2540.741538
791.534027	2485.288846
791.856480	2518.056346
792.178888	2530.659231
792.501249	2384.465769
792.823566	2480.247692
793.145836	2452.521346
793.468062	2462.603654
793.790241	2475.206538
794.112375	2437.397885
794.434464	2495.371154
794.756507	2394.548077
795.078505	2520.576923
795.400457	2578.550192
795.722364	2477.727115
796.044226	2492.850577
796.366042	2553.344423
796.687812	2460.083077
797.009538	2558.385577
797.331218	2487.809423
797.652852	2535.700385
797.974442	2525.618077
798.295986	2500.412308
798.617484	2523.097500
798.938938	2432.356731
799.260346	2538.220962
799.581709	2457.562500
799.903026	2520.576923
800.224299	2475.206538
800.545526	2490.330000
800.866708	2573.509038
801.187845	2563.426731
801.508936	2490.330000
801.829983	2447.480192
802.150984	2591.153077
802.471940	2465.124231
802.792851	2505.453462
803.113717	2424.795000
803.434538	2533.179808
803.755314	2560.906154
804.076045	2482.768269
804.396731	2422.274423
804.717372	2482.768269
805.037967	2475.206538
805.358518	2470.165385
805.679024	2601.235385
805.999485	2450.000769
806.319901	2540.741538
806.640272	2452.521346
806.960598	2434.877308
807.280879	2515.535769
807.601115	2570.988462
807.921306	2465.124231
808.241453	2389.506923
808.561554	2467.644808
808.881611	2513.015192
809.201623	2535.700385
809.521590	2492.850577
809.841513	2495.371154
810.161390	2492.850577
810.481223	2560.906154
810.801011	2432.356731
811.120755	2480.247692
811.440453	2467.644808
811.760107	2505.453462
812.079716	2470.165385
812.399281	2465.124231
812.718801	2455.041923
813.038276	2502.932885
813.357707	2528.138654
813.677093	2515.535769
813.996434	2502.932885
814.315731	2513.015192
814.634983	2455.041923
814.954191	2487.809423
815.273354	2472.685962
815.592473	2419.753846
815.911547	2550.823846
816.230577	2402.109808
816.549562	2462.603654
816.868502	2429.836154
817.187399	2570.988462
817.506250	2505.453462
817.825058	2550.823846
818.143821	2444.959615
818.462539	2520.576923
818.781213	2470.165385
819.099843	2548.303269
819.418429	2495.371154
819.736970	2518.056346
820.055466	2485.288846
820.373919	2485.288846
820.692327	2497.891731
821.010691	2457.562500
821.329011	2452.521346
821.647286	2427.315577
821.965517	2492.850577
822.283704	2437.397885
822.601847	2472.685962
822.919945	2439.918462
823.237999	2528.138654
823.556010	2495.371154
823.873976	2437.397885
824.191897	2455.041923
824.509775	2510.494615
824.827609	2538.220962
825.145398	2462.603654
825.463144	2482.768269
825.780845	2507.974038
826.098502	2596.194231
826.416116	2392.027500
826.733685	2490.330000
827.051210	2475.206538
827.368692	2518.056346
827.686129	2578.550192
828.003522	2434.877308
828.320872	2450.000769
828.638177	2518.056346
828.955439	2442.439038
829.272656	2482.768269
829.589830	2533.179808
829.906960	2555.865000
830.224046	2447.480192
830.541088	2470.165385
830.858086	2520.576923
831.175041	2515.535769
831.491952	2361.780577
831.808819	2487.809423
832.125642	2470.165385
832.442421	2495.371154
832.759157	2497.891731
833.075849	2530.659231
833.392497	2427.315577
833.709101	2540.741538
834.025662	2437.397885
834.342179	2543.262115
834.658653	2500.412308
834.975083	2568.467885
835.291469	2570.988462
835.607811	2487.809423
835.924110	2450.000769
836.240366	2455.041923
836.556578	2452.521346
836.872746	2500.412308
837.188871	2543.262115
837.504952	2525.618077
837.820990	2502.932885
838.136984	2475.206538
838.452935	2525.618077
838.768842	2480.247692
839.084706	2472.685962
839.400526	2540.741538
839.716303	2578.550192
840.032037	2457.562500
840.347727	2515.535769
840.663373	2490.330000
840.978977	2439.918462
841.294537	2583.591346
841.610054	2487.809423
841.925527	2487.809423
842.240957	2434.877308
842.556344	2490.330000
842.871687	2419.753846
843.186987	2462.603654
843.502244	2482.768269
843.817458	2467.644808
844.132629	2550.823846
844.447756	2500.412308
844.762840	2444.959615
845.077881	2480.247692
845.392879	2497.891731
845.707833	2525.618077
846.022745	2510.494615
846.337613	2472.685962
846.652438	2560.906154
846.967221	2462.603654
847.281960	2553.344423
847.596656	2470.165385
847.911309	2460.083077
848.225919	2490.330000
848.540485	2480.247692
848.855009	2409.671538
849.169490	2419.753846
849.483928	2520.576923
849.798323	2470.165385
850.112675	2480.247692
850.426984	2404.630385
850.741251	2560.906154
851.055474	2485.288846
851.369654	2505.453462
851.683792	2545.782692
851.997887	2497.891731
852.311938	2439.918462
852.625947	2548.303269
852.939914	2437.397885
853.253837	2533.179808
853.567718	2513.015192
853.881555	2384.465769
854.195350	2528.138654
854.509103	2578.550192
854.822812	2455.041923
855.136479	2515.535769
855.450103	2518.056346
855.763685	2427.315577
856.077224	2457.562500
856.390720	2447.480192
856.704173	2548.303269
857.017584	2477.727115
857.330953	2482.768269
857.644278	2397.068654
857.957561	2513.015192
858.270802	2507.974038
858.584000	2623.920577
858.897155	2576.029615
859.210268	2523.097500
859.523339	2475.206538
859.836367	2477.727115
860.149352	2515.535769
860.462295	2502.932885
860.775195	2485.288846
861.088054	2513.015192
861.400869	2583.591346
861.713642	2558.385577
862.026373	2455.041923
862.339062	2507.974038
862.651708	2515.535769
862.964312	2465.124231
863.276873	2598.714808
863.589392	2487.809423
863.901869	2487.809423
864.214303	2543.262115
864.526696	2507.974038
864.839045	2543.262115
865.151353	2482.768269
865.463619	2513.015192
865.775842	2470.165385
866.088023	2462.603654
866.400162	2460.083077
866.712258	2475.206538
867.024313	2490.330000
867.336325	2570.988462
867.648296	2586.111923
867.960224	2560.906154
868.272110	2487.809423
868.583954	2515.535769
868.895755	2510.494615
869.207515	2432.356731
869.519233	2515.535769
869.830909	2558.385577
870.142542	2437.397885
870.454134	2465.124231
870.765684	2434.877308
871.077191	2513.015192
871.388657	2457.562500
871.700081	2563.426731
872.011463	2497.891731
872.322803	2523.097500
872.634101	2545.782692
872.945357	2497.891731
873.256571	2384.465769
873.567744	2452.521346
873.878874	2475.206538
874.189963	2417.233269
874.501010	2497.891731
874.812015	2497.891731
875.122979	2550.823846
875.433900	2467.644808
875.744780	2528.138654
876.055618	2432.356731
876.366415	2528.138654
876.677169	2460.083077
876.987882	2502.932885
877.298554	2447.480192
877.609183	2495.371154
877.919771	2563.426731
878.230317	2495.371154
878.540822	2570.988462
878.851285	2513.015192
879.161707	2371.862885
879.472087	2490.330000
879.782425	2487.809423
880.092722	2520.576923
880.402977	2530.659231
880.713191	2515.535769
881.023363	2394.548077
881.333494	2523.097500
881.643583	2505.453462
881.953631	2510.494615
882.263637	2497.891731
882.573602	2467.644808
882.883526	2455.041923
883.193408	2477.727115
883.503248	2520.576923
883.813048	2487.809423
884.122806	2588.632500
884.432522	2543.262115
884.742197	2417.233269
885.051831	2505.453462
885.361424	2513.015192
885.670975	2507.974038
885.980485	2470.165385
886.289954	2528.138654
886.599382	2432.356731
886.908768	2515.535769
887.218113	2518.056346
887.527417	2434.877308
887.836680	2462.603654
888.145901	2495.371154
888.455082	2558.385577
888.764221	2402.109808
889.073319	2442.439038
889.382376	2475.206538
889.691392	2452.521346
890.000366	2427.315577
890.309300	2490.330000
890.618193	2475.206538
890.927044	2467.644808
891.235855	2424.795000
891.544625	2518.056346
891.853353	2525.618077
892.162041	2518.056346
892.470687	2457.562500
892.779293	2563.426731
893.087858	2432.356731
893.396381	2392.027500
893.704864	2462.603654
894.013306	2528.138654
894.321707	2510.494615
894.630068	2369.342308
894.938387	2414.712692
895.246665	2495.371154
895.554903	2386.986346
895.863100	2490.330000
896.171256	2455.041923
896.479371	2477.727115
896.787446	2513.015192
897.095480	2442.439038
897.403473	2550.823846
897.711425	2518.056346
898.019336	2412.192115
898.327207	2424.795000
898.635038	2545.782692
898.942827	2545.782692
899.250576	2487.809423
899.558284	2429.836154
899.865952	2502.932885
900.173579	2452.521346
900.481165	2528.138654
900.788711	2492.850577
901.096216	2586.111923
901.403681	2505.453462
901.711105	2475.206538
902.018489	2462.603654
902.325832	2581.070769
902.633135	2442.439038
902.940397	2538.220962
903.247619	2548.303269
903.554800	2434.877308
903.861941	2480.247692
904.169041	2490.330000
904.476101	2533.179808
904.783121	2497.891731
905.090100	2502.932885
905.397039	2565.947308
905.703938	2560.906154
906.010796	2555.865000
906.317614	2452.521346
906.624391	2480.247692
906.931129	2573.509038
907.237826	2450.000769
907.544483	2518.056346
907.851099	2460.083077
908.157675	2485.288846
908.464211	2450.000769
908.770707	2490.330000
909.077163	2482.768269
909.383578	2429.836154
909.689954	2492.850577
909.996289	2500.412308
910.302584	2500.412308
910.608839	2500.412308
910.915054	2490.330000
911.221229	2500.412308
911.527363	2570.988462
911.833458	2565.947308
912.139513	2520.576923
912.445527	2450.000769
912.751502	2450.000769
913.057436	2560.906154
913.363331	2477.727115
913.669186	2520.576923
913.975000	2424.795000
914.280775	2520.576923
914.586510	2495.371154
914.892205	2492.850577
915.197859	2470.165385
915.503475	2507.974038
915.809050	2490.330000
916.114585	2548.303269
916.420081	2465.124231
916.725536	2455.041923
917.030952	2497.891731
917.336328	2525.618077
917.641665	2487.809423
917.946961	2427.315577
918.252218	2497.891731
918.557435	2502.932885
918.862612	2477.727115
919.167750	2497.891731
919.472848	2513.015192
919.777906	2507.974038
920.082925	2470.165385
920.387904	2487.809423
920.692843	2462.603654
920.997743	2530.659231
921.302603	2573.509038
921.607423	2480.247692
921.912204	2477.727115
922.216946	2535.700385
922.521647	2485.288846
922.826310	2429.836154
923.130932	2555.865000
923.435516	2482.768269
923.740059	2548.303269
924.044564	2427.315577
924.349028	2505.453462
924.653454	2447.480192
924.957840	2465.124231
925.262186	2563.426731
925.566493	2507.974038
925.870761	2528.138654
926.174989	2477.727115
926.479178	2437.397885
926.783328	2530.659231
927.087438	2492.850577
927.391509	2492.850577
927.695541	2457.562500
927.999533	2533.179808
928.303486	2485.288846
928.607400	2480.247692
928.911275	2490.330000
929.215110	2502.932885
929.518906	2490.330000
929.822663	2487.809423
930.126381	2530.659231
930.430060	2500.412308
930.733699	2434.877308
931.037299	2530.659231
931.340861	2457.562500
931.644383	2525.618077
931.947866	2490.330000
932.251309	2528.138654
932.554714	2505.453462
932.858080	2502.932885
933.161407	2497.891731
933.464694	2510.494615
933.767943	2412.192115
934.071153	2523.097500
934.374323	2450.000769
934.677455	2518.056346
934.980548	2520.576923
935.283602	2480.247692
935.586617	2455.041923
935.889593	2500.412308
936.192530	2457.562500
936.495428	2470.165385
936.798287	2495.371154
937.101108	2518.056346
937.403890	2455.041923
937.706632	2507.974038
938.009336	2480.247692
938.312002	2538.220962
938.614628	2507.974038
938.917216	2477.727115
939.219765	2548.303269
939.522275	2485.288846
939.824747	2467.644808
940.127179	2502.932885
940.429573	2588.632500
940.731929	2472.685962
941.034246	2528.138654
941.336524	2472.685962
941.638763	2505.453462
941.940964	2407.150962
942.243126	2485.288846
942.545250	2487.809423
942.847335	2520.576923
943.149381	2462.603654
943.451389	2442.439038
943.753359	2467.644808
944.055290	2513.015192
944.357182	2495.371154
944.659036	2520.576923
944.960851	2444.959615
945.262628	2497.891731
945.564367	2520.576923
945.866067	2427.315577
946.167729	2505.453462
946.469352	2437.397885
946.770937	2573.509038
947.072484	2485.288846
947.373992	2513.015192
947.675462	2472.685962
947.976893	2462.603654
948.278286	2480.247692
948.579641	2558.385577
948.880958	2470.165385
949.182236	2495.371154
949.483476	2389.506923
949.784678	2601.235385
950.085841	2603.755962
950.386967	2439.918462
950.688054	2427.315577
950.989103	2530.659231
951.290114	2490.330000
951.591087	2581.070769
951.892021	2525.618077
952.192917	2548.303269
952.493776	2465.124231
952.794596	2455.041923
953.095378	2460.083077
953.396122	2533.179808
953.696828	2437.397885
953.997496	2533.179808
954.298126	2588.632500
954.598718	2550.823846
954.899272	2475.206538
955.199788	2523.097500
955.500266	2515.535769
955.800706	2492.850577
956.101108	2530.659231
956.401472	2497.891731
956.701798	2500.412308
957.002087	2457.562500
957.302337	2570.988462
957.602550	2495.371154
957.902724	2497.891731
958.202861	2460.083077
958.502960	2482.768269
958.803022	2429.836154
959.103045	2492.850577
959.403031	2407.150962
959.702979	2581.070769
960.002889	2470.165385
960.302762	2475.206538
960.602596	2444.959615
960.902393	2442.439038
961.202153	2550.823846
961.501875	2450.000769
961.801559	2492.850577
962.101205	2492.850577
962.400814	2460.083077
962.700385	2565.947308
962.999918	2485.288846
963.299414	2444.959615
963.598873	2460.083077
963.898293	2560.906154
964.197677	2513.015192
964.497022	2548.303269
964.796331	2447.480192
965.095601	2510.494615
965.394835	2520.576923
965.694030	2434.877308
965.993189	2472.685962
966.292309	2497.891731
966.591393	2455.041923
966.890439	2444.959615
967.189447	2462.603654
967.488419	2404.630385
967.787353	2472.685962
968.086249	2482.768269
968.385108	2427.315577
968.683930	2434.877308
968.982714	2548.303269
969.281462	2601.235385
969.580172	2470.165385
969.878844	2452.521346
970.177480	2492.850577
970.476078	2432.356731
970.774639	2550.823846
971.073162	2490.330000
971.371649	2480.247692
971.670098	2444.959615
971.968510	2490.330000
972.266885	2485.288846
972.565223	2434.877308
972.863524	2510.494615
973.161788	2558.385577
973.460014	2520.576923
973.758204	2492.850577
974.056356	2497.891731
974.354471	2450.000769
974.652550	2427.315577
974.950591	2515.535769
975.248595	2429.836154
975.546563	2472.685962
975.844493	2439.918462
976.142386	2482.768269
976.440243	2513.015192
976.738062	2475.206538
977.035845	2495.371154
977.333590	2444.959615
977.631299	2515.535769
977.928971	2475.206538
978.226606	2533.179808
978.524204	2407.150962
978.821765	2523.097500
979.119290	2487.809423
979.416777	2497.891731
979.714228	2475.206538
980.011642	2523.097500
980.309020	2475.206538
980.606360	2497.891731
980.903664	2437.397885
981.200931	2452.521346
981.498162	2525.618077
981.795356	2518.056346
982.092513	2533.179808
982.389633	2533.179808
982.686717	2434.877308
982.983764	2467.644808
983.280775	2472.685962
983.577749	2581.070769
983.874686	2480.247692
984.171587	2386.986346
984.468451	2497.891731
984.765279	2470.165385
985.062070	2515.535769
985.358824	2500.412308
985.655543	2472.685962
985.952224	2497.891731
986.248869	2419.753846
986.545478	2492.850577
986.842050	2495.371154
987.138586	2545.782692
987.435086	2492.850577
987.731549	2530.659231
988.027975	2495.371154
988.324366	2417.233269
988.620719	2507.974038
988.917037	2510.494615
989.213318	2495.371154
989.509563	2472.685962
989.805772	2457.562500
990.101944	2583.591346
990.398080	2480.247692
990.694180	2513.015192
990.990244	2460.083077
991.286271	2528.138654
991.582262	2475.206538
991.878217	2540.741538
992.174136	2434.877308
992.470019	2374.383462
992.765865	2437.397885
993.061676	2568.467885
993.357450	2434.877308
993.653188	2543.262115
993.948890	2417.233269
994.244556	2533.179808
994.540186	2457.562500
994.835780	2543.262115
995.131337	2490.330000
995.426859	2422.274423
995.722345	2455.041923
996.017795	2623.920577
996.313208	2490.330000
996.608586	2480.247692
996.903928	2525.618077
997.199234	2492.850577
997.494504	2505.453462
997.789738	2450.000769
998.084936	2530.659231
998.380099	2497.891731
998.675225	2535.700385
998.970316	2477.727115
999.265371	2460.083077
999.560390	2485.288846
999.855373	2467.644808
1000.150320	2402.109808
1000.445232	2538.220962
1000.740108	2480.247692
1001.034948	2502.932885
1001.329752	2462.603654
1001.624521	2525.618077
1001.919254	2452.521346
1002.213951	2500.412308
1002.508613	2505.453462
1002.803239	2495.371154
1003.097829	2543.262115
1003.392384	2520.576923
1003.686903	2434.877308
1003.981386	2472.685962
1004.275834	2381.945192
1004.570246	2515.535769
1004.864623	2495.371154
1005.158964	2553.344423
1005.453270	2450.000769
1005.747540	2500.412308
1006.041775	2487.809423
1006.335974	2487.809423
1006.630138	2525.618077
1006.924266	2465.124231
1007.218359	2470.165385
1007.512416	2518.056346
1007.806438	2472.685962
1008.100425	2452.521346
1008.394376	2497.891731
1008.688292	2535.700385
1008.982172	2467.644808
1009.276017	2450.000769
1009.569827	2495.371154
1009.863602	2583.591346
1010.157341	2457.562500
1010.451045	2487.809423
1010.744714	2485.288846
1011.038347	2447.480192
1011.331945	2450.000769
1011.625508	2467.644808
1011.919036	2482.768269
1012.212528	2513.015192
1012.505986	2472.685962
1012.799408	2460.083077
1013.092795	2492.850577
1013.386147	2525.618077
1013.679464	2500.412308
1013.972745	2505.453462
1014.265992	2419.753846
1014.559204	2475.206538
1014.852380	2427.315577
1015.145521	2520.576923
1015.438628	2553.344423
1015.731699	2510.494615
1016.024736	2467.644808
1016.317737	2492.850577
1016.610703	2450.000769
1016.903635	2455.041923
1017.196531	2419.753846
1017.489393	2457.562500
1017.782219	2490.330000
1018.075011	2485.288846
1018.367768	2502.932885
1018.660490	2525.618077
1018.953177	2525.618077
1019.245829	2525.618077
