Dividing Wavelength (nm)	Counts (n)	Blue Motor Position (mm): 41.500000	Red Motor Position (mm): 0.000000	
326.493990	2252.649678
326.888308	2252.649678
327.282561	2252.649678
327.676750	2211.218956
328.070874	2212.418750
328.464933	2211.637371
328.858929	2214.334389
329.252859	2219.390666
329.646726	2227.595144
330.040528	2240.797926
330.434265	2254.978692
330.827938	2274.016609
331.221547	2290.541511
331.615091	2306.774027
332.008571	2326.837819
332.401986	2343.425736
332.795338	2363.844929
333.188625	2380.833618
333.581847	2402.830693
333.975006	2421.677046
334.368100	2441.249326
334.761129	2460.604836
335.154095	2474.967084
335.546996	2501.181084
335.939833	2541.989224
336.332606	2557.682336
336.725315	2572.344532
337.117960	2583.036819
337.510540	2594.334045
337.903056	2605.792588
338.295508	2612.817436
338.687896	2623.968468
339.080220	2629.654889
339.472480	2635.734521
339.864676	2642.227527
340.256807	2646.966212
340.648875	2651.228507
341.040879	2653.812099
341.432818	2654.923673
341.824694	2660.811741
342.216506	2658.326452
342.608253	2657.620690
342.999937	2663.037410
343.391557	2659.286792
343.783113	2660.388284
344.174605	2662.276196
344.566033	2655.674805
344.957397	2658.155053
345.348697	2653.791934
345.739934	2653.595329
346.131106	2652.032571
346.522215	2650.174906
346.913260	2651.094917
347.304241	2648.715492
347.695159	2644.828762
348.086012	2643.898670
348.476802	2641.327681
348.867528	2639.744759
349.258191	2635.880714
349.648789	2636.669655
350.039324	2632.603964
350.429796	2633.518934
350.820203	2634.065899
351.210548	2633.413070
351.600828	2632.392236
351.991045	2631.167236
352.381198	2628.664303
352.771288	2629.486011
353.161314	2629.700260
353.551276	2626.471401
353.941175	2625.720269
354.331010	2627.446864
354.720782	2627.814868
355.110490	2629.629684
355.500135	2626.138685
355.889717	2625.992491
356.279235	2628.964251
356.668689	2630.088429
357.058080	2629.407873
357.447408	2628.954169
357.836672	2630.093470
358.225873	2628.734879
358.615010	2629.851494
359.004084	2629.997688
359.393095	2631.706639
359.782043	2633.486166
360.170927	2632.674541
360.559748	2630.408542
360.948505	2634.764099
361.337199	2632.392236
361.725830	2634.572535
362.114398	2635.984058
362.502903	2636.846095
362.891344	2635.923564
363.279722	2636.359624
363.668037	2636.455406
364.056289	2639.162506
364.444478	2639.217958
364.832603	2641.302475
365.220665	2640.306848
365.608665	2640.483288
365.996601	2642.587970
366.384474	2641.287352
366.772284	2641.315078
367.160031	2643.414719
367.547715	2646.651140
367.935336	2645.559730
368.322893	2642.719040
368.710388	2643.192908
369.097820	2643.442445
369.485189	2641.678041
369.872495	2647.891263
370.259738	2646.066366
370.646918	2648.430667
371.034035	2648.060142
371.421090	2647.130049
371.808081	2650.459731
372.195010	2649.007879
372.581875	2652.970226
372.968678	2651.631800
373.355418	2650.747077
373.742096	2653.370998
374.128710	2651.147849
374.515262	2653.204640
374.901751	2652.143477
375.288177	2654.172541
375.674540	2654.913591
376.060841	2654.822850
376.447079	2655.523570
376.833254	2658.049188
377.219367	2653.749084
377.605417	2655.921822
377.991404	2656.589774
378.377329	2657.948365
378.763191	2656.609939
379.148991	2660.244611
379.534727	2664.060764
379.920402	2659.440547
380.306013	2660.668068
380.691563	2665.207627
381.077049	2661.514982
381.462474	2664.731238
381.847835	2663.029848
382.233134	2667.266938
382.618371	2667.037566
383.003545	2671.562001
383.388657	2672.827331
383.773706	2675.259688
384.158693	2687.514733
384.543618	2694.282482
384.928480	2703.490149
385.313280	2716.072869
385.698017	2729.870507
386.082692	2752.217942
386.467305	2771.023967
386.851856	2799.776188
387.236344	2839.704647
387.620770	2865.159953
388.005133	2905.320305
388.389435	2950.650361
388.773674	2991.823985
389.157851	3051.211298
389.541965	3111.453086
389.926018	3141.636995
390.310008	3220.344530
390.693936	3283.595887
391.077802	3344.692151
391.461606	3392.431878
391.845348	3469.659834
392.229027	3547.833007
392.612645	3600.490379
392.996200	3706.609188
393.379694	3791.386273
393.763125	3905.407090
394.146494	3971.640290
394.529801	4064.616811
394.913047	4167.010208
395.296230	4187.348743
395.679351	4317.715502
396.062410	4409.509872
396.445408	4438.708235
396.828343	4536.433523
397.211217	4628.696721
397.594028	4577.423145
397.976778	4716.528744
398.359466	4794.822905
398.742092	4856.539231
399.124656	4812.091377
399.507158	4943.766316
399.889598	5037.395666
400.271977	5183.102656
400.654294	5199.398186
401.036549	5259.541672
401.418742	5210.193817
401.800874	5419.351290
402.182944	5491.754862
402.564952	5615.510148
402.946898	5684.944480
403.328783	5551.376589
403.710606	5569.439043
404.092367	5897.189660
404.474067	5924.747128
404.855705	5839.347461
405.237282	5782.790756
405.618797	6029.524990
406.000250	6025.608013
406.381642	6223.995061
406.762972	6241.417289
407.144240	6314.345141
407.525447	6298.989786
407.906593	6325.879301
408.287677	6483.821172
408.668700	6393.607203
409.049661	6510.307394
409.430560	6544.342744
409.811399	6405.254789
410.192176	6676.874679
410.572891	6681.452046
410.953545	6884.998715
411.334138	6614.311439
411.714669	6789.012625
412.095139	6585.289516
412.475547	6829.929151
412.855894	6893.987093
413.236180	7069.915800
413.616405	6756.930722
413.996568	6972.926521
414.376670	7000.882239
414.756711	6901.478247
415.136691	7000.113463
415.516609	7199.569236
415.896466	7196.284924
416.276262	7384.375415
416.655997	7372.049794
417.035670	7558.620377
417.415283	7901.718787
417.794834	7955.139895
418.174324	7812.802916
418.553753	7723.080460
418.933121	8041.719192
419.312428	8137.770816
419.691674	7920.708814
420.070859	8401.110611
420.449983	8076.263698
420.829045	8439.156199
421.208047	8218.913229
421.586988	8515.829628
421.965867	8534.136579
422.344686	8646.738312
422.723444	8690.092235
423.102141	8050.851242
423.480777	8800.019635
423.859352	8325.314342
424.237866	8945.159496
424.616319	8809.764186
424.994712	9231.968382
425.373044	8786.123695
425.751314	9252.095189
426.129524	9121.599880
426.507673	9235.280420
426.885762	9384.344819
427.263789	9304.278693
427.641756	9225.059481
428.019662	9324.269388
428.397508	9578.250281
428.775292	9258.497454
429.153016	9637.536771
429.530679	9474.006781
429.908282	9506.534826
430.285824	9228.134585
430.663305	9903.873531
431.040726	9356.346250
431.418086	9344.968366
431.795385	9667.516513
432.172624	9758.287529
432.549802	9673.407101
432.926920	9750.085572
433.303977	9616.931054
433.680974	9832.979785
434.057910	9917.608155
434.434786	9985.489812
434.811601	9827.442077
435.188355	10385.558302
435.565050	10119.710533
435.941683	10049.946005
436.318257	10534.589933
436.694770	10679.240802
437.071222	10743.202962
437.447614	10576.774308
437.823946	10482.335853
438.200218	10608.455440
438.576429	10439.337331
438.952580	10672.856180
439.328670	10716.820083
439.704700	10504.216981
440.080670	10503.624646
440.456580	11041.422500
440.832429	10809.315174
441.208218	10409.599565
441.583947	10730.400951
441.959616	10888.907431
442.335224	10691.657163
442.710773	10819.405043
443.086261	11041.596419
443.461689	10313.358897
443.837057	10975.559825
444.212365	11241.039589
444.587612	10868.435305
444.962800	11101.923907
445.337927	10859.111691
445.712995	10483.331481
446.088002	11546.694829
446.462949	11224.272711
446.837837	11188.472957
447.212664	11151.818728
447.587431	11699.771986
447.962139	12439.793206
448.336786	14708.831676
448.711374	15239.042593
449.085901	13061.233885
449.460369	12697.343236
449.834776	12147.358392
450.209124	13041.190257
450.583412	13464.327067
450.957640	14405.684410
451.331808	13488.955624
451.705917	12528.552802
452.079965	11799.874178
452.453954	12712.474259
452.827883	12358.872605
453.201752	12648.197027
453.575562	12174.799913
453.949311	12590.795928
454.323001	12564.375241
454.696632	12801.158237
455.070202	13083.150301
455.443713	13292.784163
455.817164	13776.815591
456.190556	13752.368515
456.563888	14118.411737
456.937160	14274.206076
457.310373	13621.679122
457.683526	13712.596332
458.056619	13256.192948
458.429653	13440.820167
458.802628	12834.472703
459.175542	13223.511148
459.548398	14176.823587
459.921194	14524.955589
460.293930	14589.868007
460.666607	15459.991325
461.039224	16508.185842
461.411782	17213.370168
461.784280	17048.436217
462.156719	17126.997558
462.529099	16799.209133
462.901419	15751.957312
463.273680	15519.343350
463.645882	15407.820424
464.018024	15136.626512
464.390106	15363.385173
464.762130	16079.881849
465.134094	16858.848503
465.505999	18893.148164
465.877845	22151.190442
466.249631	24964.315606
466.621358	24620.579489
466.993026	23186.479605
467.364634	22619.591773
467.736184	21147.252216
468.107674	20347.369814
468.479105	20473.882611
468.850477	19932.523182
469.221790	19536.401916
469.593043	18845.794086
469.964238	18275.450542
470.335373	17923.888035
470.706449	18407.748063
471.077467	17972.343606
471.448425	19828.677933
471.819324	23920.990844
472.190164	25832.543450
472.560945	22210.199669
472.931667	19882.199864
473.302330	19259.937477
473.672934	18857.033338
474.043479	19125.018556
474.413965	18926.828113
474.784393	18545.164876
475.154761	19273.488099
475.525070	19232.332119
475.895321	18928.925233
476.265513	19521.270893
476.635645	20110.919534
477.005719	19877.524194
477.375734	20061.712832
477.745691	20543.430370
478.115588	21080.688820
478.485427	21629.463787
478.855207	22704.041182
479.224928	24484.891793
479.594591	26717.202936
479.964194	26676.732553
480.333739	26898.928970
480.703226	26468.689175
481.072653	26182.008838
481.442022	26778.246268
481.811333	27689.114712
482.180584	27589.372963
482.549777	26641.081513
482.918912	26289.680322
483.287988	26434.936129
483.657005	26068.870222
484.025964	25848.876789
484.394864	25745.596149
484.763706	25399.273921
485.132489	24848.457287
485.501213	25031.456213
485.869879	24946.018738
486.238487	24766.989721
486.607036	24909.261164
486.975527	24634.180523
487.343959	24943.238541
487.712333	24867.749783
488.080648	24534.332909
488.448905	25028.300451
488.817104	24784.137205
489.185244	25488.356151
489.553326	25435.436638
489.921350	26469.190769
490.289315	28785.684141
490.657222	30522.951456
491.025070	31030.666224
491.392861	30791.526489
491.760593	29927.737380
492.128267	29011.578245
492.495883	27956.346277
492.863440	27095.012211
493.230939	26230.930715
493.598380	26081.463024
493.965763	25683.050553
494.333088	25195.669279
494.700354	25167.413612
495.067563	25018.603791
495.434713	24769.220431
495.801805	24947.720127
496.168839	24722.798966
496.535815	24583.930301
496.902733	24798.998527
497.269593	24495.435366
497.636395	24650.715507
498.003139	24600.182981
498.369825	24338.196736
498.736453	24561.446755
499.103023	24423.208234
499.469535	24428.496404
499.835989	24638.079855
500.202385	24676.674929
500.568723	24189.840620
500.935003	24401.155707
501.301226	24049.280648
501.667390	24898.831017
502.033497	25111.595436
502.399546	24846.677760
502.765537	24396.842999
503.131470	24781.871207
503.497345	24920.709625
503.863163	24160.601927
504.228923	24727.827517
504.594625	24953.073832
504.960269	24497.217414
505.325856	24982.655323
505.691385	24376.328024
506.056856	24990.363247
506.422270	24961.419463
506.787625	24499.160778
507.152924	24926.091057
507.518164	24972.794826
507.883347	24786.806496
508.248472	24455.073367
508.613540	25246.766414
508.978550	25037.409816
509.343503	25036.802357
509.708398	25255.079277
510.073236	25429.304075
510.438016	25650.552755
510.802738	25297.498066
511.167403	25562.100670
511.532010	25282.997187
511.896561	26043.540944
512.261053	26017.458014
512.625488	25848.264288
512.989866	25733.787246
513.354186	25561.536061
513.718449	25688.729413
514.082655	26064.887710
514.446803	25790.248169
514.810894	26276.107015
515.174927	25763.802276
515.538904	25799.816279
515.902822	26282.244620
516.266684	26036.140531
516.630488	25947.655678
516.994235	25902.575159
517.357925	26230.081281
517.721558	26401.152837
518.085133	26518.767997
518.448651	26398.808700
518.812112	26149.279146
519.175516	26376.559568
519.538863	26522.816043
519.902152	26326.178276
520.265385	26583.662770
520.628560	26376.685596
520.991678	26370.563115
521.354739	26432.458402
521.717743	26505.139237
522.080690	26287.981453
522.443580	26636.756203
522.806413	26592.693997
523.169189	26721.621507
523.531908	26758.595850
523.894569	26370.686623
524.257174	26466.385367
524.619722	26619.981763
524.982213	26319.662585
525.344647	26350.612749
525.707025	26511.080237
526.069345	26480.165361
526.431608	26441.920648
526.793815	26616.694931
527.155964	26119.672450
527.518057	26280.770083
527.880093	26199.108432
528.242072	26422.176969
528.603995	26145.372252
528.965860	25931.203872
529.327669	25976.470913
529.689421	25970.920603
530.051117	25811.844472
530.412755	25983.654557
530.774337	25773.640088
531.135862	25656.508878
531.497331	25857.454312
531.858743	25419.413331
532.220098	25886.710648
532.581396	25582.209832
532.942638	25470.558357
533.303824	25611.655212
533.664953	25594.318684
534.026025	25265.106132
534.387040	25507.913307
534.747999	25544.335644
535.108902	25723.732665
535.469748	25214.026641
535.830537	25384.057198
536.191270	25520.680029
536.551947	25357.117272
536.912567	24995.006150
537.273131	25404.453707
537.633638	25081.154428
537.994089	25306.874612
538.354483	24809.327851
538.714821	25324.891696
539.075103	25366.584559
539.435328	25141.665918
539.795497	24724.540685
540.155609	25074.026237
540.515665	25393.277469
540.875665	24608.722696
541.235609	24943.498161
541.595496	24885.867690
541.955328	25238.597225
542.315102	25160.358517
542.674821	24689.585324
543.034483	24568.459000
543.394090	24727.094029
543.753640	24534.000193
544.113134	25170.012327
544.472571	24759.488484
544.831953	25065.378137
545.191278	24696.902559
545.550548	24603.779844
545.909761	24801.078003
546.268918	25034.629619
546.628019	25002.255329
546.987064	24698.848444
547.346053	24435.586787
547.704986	24542.847418
548.063863	24705.147366
548.422684	24725.006991
548.781449	24235.440377
549.140158	24642.826101
549.498811	24226.346135
549.857408	23985.137006
550.215949	24372.542117
550.574434	24069.104985
550.932864	24274.201809
551.291237	24453.641680
551.649555	24290.320898
552.007817	24359.871177
552.366022	24216.987233
552.724173	24237.161931
553.082267	24201.447876
553.440305	24690.495252
553.798288	23928.151803
554.156215	24426.830303
554.514086	24547.709611
554.871902	23938.866775
555.229661	24214.322983
555.587365	24055.904724
555.945014	23954.280103
556.302606	24176.035420
556.660143	24149.720597
557.017625	24391.045673
557.375050	23912.798969
557.732421	24291.954232
558.089735	24121.560711
558.446994	24189.888511
558.804197	24210.368198
559.161345	24112.738692
559.518437	23904.501230
559.875474	24072.275871
560.232455	24251.027624
560.589381	24069.770417
560.946251	24078.536984
561.303065	24379.612336
561.659825	24459.721311
562.016528	24080.797941
562.373177	23820.656759
562.729770	24181.963817
563.086307	24025.254508
563.442789	24201.405027
563.799216	24038.825294
564.155587	24038.263206
564.511904	24017.801162
564.868164	23955.638694
565.224370	23924.108797
565.580520	23867.612586
565.936615	23981.867818
566.292654	23678.523947
566.648638	23935.206898
567.004567	23771.238328
567.360441	23717.255132
567.716260	23440.412607
568.072023	23754.421038
568.427732	23535.221587
568.783385	23301.745588
569.138982	23546.775912
569.494525	23584.007353
569.850013	23345.772505
570.205445	23434.113685
570.560823	23252.508638
570.916145	23020.318133
571.271412	23200.357902
571.626625	22960.086427
571.981782	23073.091452
572.336884	22863.976829
572.691931	23013.983923
573.046923	22745.895362
573.401860	22628.960757
573.756743	22650.584787
574.111570	22537.310060
574.466342	22463.666364
574.821059	22543.818189
575.175722	22262.758739
575.530330	22224.143500
575.884882	22233.303277
576.239380	22147.505359
576.593823	22054.654867
576.948211	22023.177902
577.302544	21877.450748
577.656823	21740.306157
578.011047	21845.787260
578.365216	21707.120241
578.719330	21581.328329
579.073389	21469.717183
579.427394	21628.969754
579.781344	21380.024974
580.135239	21274.228799
580.489080	21220.558154
580.842866	20999.894248
581.196597	21212.003316
581.550273	21172.394971
581.903895	21061.973537
582.257463	21370.484590
582.610975	20901.274155
582.964434	21228.036706
583.317837	20903.615771
583.671186	20999.934577
584.024481	20974.771658
584.377721	20741.333467
584.730906	20829.210861
585.084037	20816.108902
585.437113	20733.527240
585.790135	20936.494176
586.143103	20398.771940
586.496016	20417.656102
586.848874	20654.418933
587.201679	20574.272149
587.554428	20259.832698
587.907124	20605.628126
588.259765	20364.953359
588.612352	20435.045562
588.964884	20001.975159
589.317362	20180.686583
589.669786	20241.646736
590.022155	20256.558469
590.374470	20470.343721
590.726731	20246.798795
591.078937	20036.875067
591.431090	20112.590677
591.783188	19874.076044
592.135232	19833.555250
592.487222	19936.256157
592.839157	19949.501788
593.191038	19824.103086
593.542866	19736.029088
593.894639	19424.195913
594.246358	19644.622886
594.598022	19532.321102
594.949633	19291.011149
595.301190	19275.063459
595.652692	19444.080745
596.004141	19672.104736
596.355535	18985.446650
596.706876	19005.633951
597.058162	18902.403723
597.409395	19152.462598
597.760573	19193.421973
598.111698	18967.364031
598.462768	18922.379295
598.813785	18882.498727
599.164748	18692.232978
599.515657	18748.978726
599.866511	18540.370739
600.217312	18896.765192
600.568060	18409.961130
600.918753	18721.166680
601.269392	18612.749105
601.619978	18399.861178
601.970510	18594.916023
602.320988	18544.222180
602.671412	18753.432586
603.021783	18677.704373
603.372100	18390.487153
603.722363	18545.676553
604.072572	18489.966762
604.422728	18638.685842
604.772830	18391.250887
605.122878	18346.243466
605.472872	18331.601435
605.822813	18312.208116
606.172701	18290.737842
606.522534	18476.458990
606.872314	18506.347992
607.222041	18347.516357
607.571714	18543.723106
607.921333	18386.431544
608.270899	18456.722873
608.620411	18621.840826
608.969870	18403.329492
609.319276	18397.320437
609.668627	18438.625131
610.017926	18561.127690
610.367171	18671.521397
610.716362	18740.446573
611.065500	18539.982570
611.414585	18684.623356
611.763616	18675.393003
612.112594	18611.650134
612.461518	18585.484025
612.810389	18769.435728
613.159207	18636.059401
613.507971	18535.533752
613.856682	18797.315830
614.205340	18707.580771
614.553945	18868.837200
614.902496	18621.366958
615.250994	18833.569288
615.599439	18782.696484
615.947830	18768.664432
616.296169	18838.292849
616.644454	18797.373803
616.992686	18778.628272
617.340864	18988.211723
617.688990	18733.089009
618.037063	18900.689731
618.385082	18772.881357
618.733048	19041.957985
619.080961	18928.806766
619.428821	18955.164439
619.776628	18833.395368
620.124382	18762.282331
620.472083	18819.317946
620.819731	18827.892948
621.167326	18518.681174
621.514868	18552.678716
621.862357	18345.613322
622.209793	18335.904059
622.557176	18171.925407
622.904506	17997.151124
623.251783	17941.297660
623.599007	17682.638577
623.946179	17618.570552
624.293297	17554.147127
624.640363	17286.169471
624.987376	17320.673648
625.334336	17114.177904
625.681243	16967.213146
626.028097	16981.240157
626.374899	16892.556178
626.721647	16761.007269
627.068343	16595.533914
627.414987	16533.179882
627.761577	16505.882034
628.108115	16530.964295
628.454600	16257.148983
628.801032	16360.195209
629.147412	16297.861341
629.493739	16313.554453
629.840014	16114.002899
630.186236	16207.561673
630.532405	15975.953421
630.878521	16178.015470
631.224585	16086.994917
631.570597	15897.006432
631.916556	15929.915084
632.262462	15910.337763
632.608316	15824.378528
632.954117	15762.208498
633.299866	15757.928559
633.645562	15669.037893
633.991206	15433.757161
634.336797	15303.982737
634.682336	15282.764521
635.027823	15147.706968
635.373257	15017.635116
635.718639	14930.342496
636.063968	14886.978491
636.409245	14629.743534
636.754470	14661.681764
637.099642	14510.976470
637.444762	14283.945586
637.789829	14321.965968
638.134845	14160.893541
638.479808	14185.116285
638.824719	14107.853041
639.169577	13968.303820
639.514383	14017.699566
639.859137	13844.258668
640.203839	13935.977421
640.548489	13793.567345
640.893086	13767.305454
641.237632	13637.352070
641.582125	13799.715032
641.926566	13610.480199
642.270955	13632.741935
642.615292	13585.279471
642.959576	13590.456736
643.303809	13626.037200
643.647990	13562.377509
643.992118	13618.334317
644.336195	13386.358061
644.680219	13612.358029
645.024192	13516.538297
645.368112	13765.175567
645.711981	13800.496411
646.055797	13999.528727
646.399562	13969.521258
646.743274	14235.706784
647.086935	14508.445810
647.430544	14471.950377
647.774101	14508.488660
648.117606	14651.722964
648.461059	14627.870745
648.804460	14608.293424
649.147810	14338.909286
649.491108	14250.061470
649.834354	14255.125309
650.177548	13938.855920
650.520690	13757.006377
650.863781	13671.074868
651.206820	13723.679309
651.549807	13559.882138
651.892742	13344.632431
652.235626	13279.939303
652.578458	13283.924335
652.921238	12986.239160
653.263967	13183.839787
653.606644	13004.833456
653.949269	12995.739214
654.291843	12785.618881
654.634365	12955.651959
654.976836	12800.263433
655.319255	12799.192187
655.661622	12760.251794
656.003938	12678.050740
656.346203	12606.393258
656.688416	12685.211699
657.030577	12639.780820
657.372687	12547.043754
657.714746	12531.615303
658.056753	12726.639901
658.398708	12524.164478
658.740612	12537.299204
659.082465	12645.104279
659.424266	12611.678908
659.766016	12640.111016
660.107715	12555.175135
660.449362	12630.426959
660.790958	12578.213208
661.132503	12519.108200
661.473996	12595.522010
661.815438	12608.581119
662.156829	12632.178760
662.498168	12602.325047
662.839456	12608.911315
663.180693	12618.456740
663.521879	12711.753374
663.863013	12683.512830
664.204097	12663.864933
664.545129	12794.445941
664.886110	12766.167588
665.227040	12859.633101
665.567918	12858.440868
665.908746	12881.985577
666.249522	12863.454296
666.590248	12923.607864
666.930922	13038.727653
667.271545	13003.704237
667.612118	13089.401332
667.952639	12997.440603
668.293109	13022.532947
668.633528	12971.939927
668.973896	12945.597377
669.314213	13004.609124
669.654480	12747.119589
669.994695	12840.910256
670.334859	12859.532278
670.674973	12797.684882
671.015035	12827.901558
671.355047	12778.324331
671.695008	12747.769898
672.034918	12764.849327
672.374777	12805.120584
672.714585	12715.690515
673.054342	12746.837284
673.394049	12705.585522
673.733705	12804.465234
674.073310	12705.038557
674.412864	12709.734392
674.752368	12569.300448
675.091820	12613.728137
675.431223	12587.635125
675.770574	12452.930453
676.109875	12378.389432
676.449125	12330.460662
676.788324	12283.207406
677.127473	12114.265738
677.466571	12109.605191
677.805619	11998.997234
678.144616	11936.355857
678.483562	11901.118191
678.822458	11768.750094
679.161303	11750.937177
679.500098	11728.191491
679.838842	11686.365038
680.177535	11723.241078
680.516179	11789.806994
680.854771	11731.720299
681.193314	11945.921446
681.531805	12106.041095
681.870247	12539.527394
682.208638	12956.173718
682.546978	13251.585333
682.885268	13276.833952
683.223508	12989.374757
683.561697	12833.590501
683.899836	12733.868916
684.237925	12533.193184
684.575963	12442.643979
684.913951	12362.207328
685.251889	12320.590082
685.589776	12412.780183
685.927614	12337.553565
686.265401	12306.739512
686.603137	12363.918800
686.940824	12516.151563
687.278460	12640.872230
687.616046	12679.202643
687.953582	12836.257271
688.291068	12778.387345
688.628504	13007.157428
688.965889	13016.322245
689.303224	12977.621307
689.640510	12854.377698
689.977745	12532.336188
690.314930	12325.870691
690.652065	12230.247564
690.989150	11939.607401
691.326185	11715.376878
691.663170	11501.526091
692.000105	11271.163004
692.336990	11150.263532
692.673825	10889.857689
693.010610	10781.969435
693.347345	10563.256454
693.684030	10376.461540
694.020665	10317.011212
694.357251	10116.950502
694.693786	10047.009533
695.030272	9896.233663
695.366707	9779.931723
695.703093	9709.960507
696.039429	9700.089928
696.375716	9615.950550
696.711952	9490.740891
697.048139	9541.812821
697.384276	9491.948248
697.720363	9513.665538
698.056400	9443.432183
698.392388	9394.180110
698.728326	9354.501188
699.064214	9294.987846
699.400053	9336.053086
699.735842	9151.977873
700.071581	9115.137121
700.407270	9042.594917
700.742910	8960.852608
701.078501	8856.258748
701.414042	8733.710818
701.749533	8676.493722
702.084974	8539.470119
702.420366	8652.069332
702.755709	8530.779170
703.091002	8399.628512
703.426246	8432.259901
703.761440	8376.630768
704.096584	8339.127104
704.431679	8268.253522
704.766725	8255.060822
705.101721	8209.521559
705.436668	8256.555524
705.771565	8144.936817
706.106413	8227.223571
706.441212	8272.969521
706.775961	8229.555104
707.110661	8280.508567
707.445311	8408.616889
707.779913	8306.427659
708.114465	8433.169829
708.448967	8471.255746
708.783421	8627.886917
709.117825	8802.497362
709.452180	8836.590686
709.786485	8922.595291
710.120742	9211.972645
710.454949	9213.525321
710.789107	9320.049943
711.123216	9538.074805
711.457275	9716.947547
711.791286	9863.635041
712.125247	9860.060863
712.459159	9852.186581
712.793023	10077.889121
713.126837	9658.538218
713.460602	9815.088730
713.794318	9642.330908
714.127985	9672.620681
714.461602	9337.981327
714.795171	9292.071539
715.128691	9036.308598
715.462162	8787.023541
715.795584	8736.044873
716.128957	8569.991785
716.462281	8406.827279
716.795556	8455.121533
717.128782	8241.875684
717.461960	7989.525605
717.795088	8056.240235
718.128167	7962.210113
718.461198	7804.280845
718.794180	7746.431084
719.127113	7736.263077
719.459997	7569.748724
719.792833	7353.132864
720.125619	7418.320025
720.458357	7267.697909
720.791046	7265.870491
721.123686	7251.500682
721.456278	7091.988492
721.788821	7106.910307
722.121315	7010.899012
722.453761	7080.434167
722.786158	7017.018973
723.118506	7028.243102
723.450805	6994.081723
723.783056	7048.957203
724.115259	6970.675645
724.447412	6972.654298
724.779518	7024.021135
725.111574	7019.922677
725.443582	7094.272135
725.775542	7075.115750
726.107453	7277.500433
726.439315	7177.728437
726.771129	7254.147288
727.102895	7427.482322
727.434612	7536.088940
727.766281	7574.666370
728.097901	7649.199830
728.429473	7653.396590
728.760996	7639.641802
729.092471	7610.803881
729.423897	7549.498409
729.755276	7545.074797
730.086606	7462.856098
730.417887	7568.095226
730.749120	7787.687887
731.080305	7973.651012
731.411442	8085.171417
731.742530	8066.100732
732.073570	8178.715068
732.404562	8262.935105
732.735506	8126.274465
733.066401	8259.005525
733.397249	8177.679111
733.728048	7943.255375
734.058798	7603.955474
734.389501	7381.517081
734.720156	7202.306582
735.050762	6978.396173
735.381320	6890.518779
735.711831	6824.295661
736.042293	6718.749023
736.372707	6733.411219
736.703073	6599.399706
737.033391	6642.617518
737.363661	6653.163612
737.693883	6692.802204
738.024056	6769.778103
738.354182	6809.469628
738.684260	6847.268199
739.014290	6968.029040
739.344272	7075.602222
739.674207	7108.170596
740.004093	7182.270516
740.333931	7195.944646
740.663722	7198.939092
740.993464	7275.736029
741.323159	7252.302226
741.652806	7010.478076
741.982405	7043.318672
742.311956	7080.635814
742.641460	6905.105357
742.970915	6712.452622
743.300323	6702.347629
743.629683	6663.261043
743.958996	6528.752976
744.288260	6441.208298
744.617477	6382.415841
744.946647	6375.819492
745.275768	6219.178239
745.604842	6173.286095
745.933869	6154.548126
746.262847	6113.470284
746.591778	6100.053253
746.920662	6057.090019
747.249498	6055.744031
747.578286	6104.423933
747.907027	6179.035531
748.235720	6237.971660
748.564365	6212.786056
748.892963	6251.350882
749.221514	6387.933384
749.550017	6209.269851
749.878473	6095.916986
750.206881	6156.413353
750.535242	6106.551300
750.863555	6033.893150
751.191821	6043.678029
751.520039	6039.284664
751.848210	5952.672599
752.176334	5983.421117
752.504411	6022.689185
752.832440	5946.058606
753.160421	5877.914808
753.488356	5930.141162
753.816243	5958.769875
754.144082	5806.464014
754.471875	5779.264469
754.799620	5827.311706
755.127318	5835.861503
755.454969	5795.229803
755.782572	5759.903917
756.110129	5810.010466
756.437638	5781.938801
756.765100	5723.658021
757.092515	5725.122477
757.419882	5786.347290
757.747203	5758.918372
758.074477	5819.288710
758.401703	5802.020237
758.728882	5759.848465
759.056014	5828.362787
759.383099	5939.744560
759.710138	5955.286438
760.037129	5944.810920
760.364073	5943.979130
760.690970	6028.481471
761.017820	6009.965313
761.344623	5965.492254
761.671379	6071.575775
761.998088	6197.912131
762.324751	6458.512059
762.651366	7087.373316
762.977935	8449.460318
763.304456	10108.435993
763.630931	10959.470982
763.957359	10517.742397
764.283740	9554.146004
764.610074	8695.423255
764.936362	7697.027777
765.262602	7105.438291
765.588796	6568.154634
765.914943	6236.721454
766.241044	6070.466721
766.567097	5856.091653
766.893104	5601.783086
767.219064	5427.807826
767.544978	5359.049008
767.870845	5279.597903
768.196665	5179.157953
768.522438	5106.701449
768.848165	5069.548145
769.173846	4998.538452
769.499479	4956.739725
769.825066	4909.539402
770.150607	4843.901058
770.476101	4824.900949
770.801548	4814.238909
771.126949	4732.269747
771.452303	4682.405174
771.777611	4639.066374
772.102872	4660.156041
772.428087	4622.735556
772.753256	4582.900359
773.078378	4532.657699
773.403453	4464.418120
773.728482	4450.028146
774.053465	4404.229263
774.378401	4395.954209
774.703291	4388.082448
775.028135	4313.569153
775.352932	4269.685908
775.677683	4254.943054
776.002388	4270.361423
776.327046	4278.825520
776.651658	4209.088719
776.976224	4146.785098
777.300743	4152.171571
777.625216	4176.079243
777.949643	4166.813603
778.274024	4125.130822
778.598359	4085.953495
778.922647	4111.169346
779.246889	4097.359105
779.571086	4094.281481
779.895236	4075.024273
780.219339	4066.424065
780.543397	4063.633786
780.867409	4113.911734
781.191374	4121.889360
781.515294	4060.296542
781.839167	4052.986869
782.162995	4079.029470
782.486776	4064.694949
782.810511	4075.644335
783.134201	4064.515988
783.457844	4018.954040
783.781441	3964.791883
784.104993	3971.489056
784.428498	3991.358763
784.751958	3984.603617
785.075372	3963.869352
785.398739	3924.795368
785.722061	3940.997637
786.045337	3984.598576
786.368568	4009.416177
786.691752	3920.691869
787.014891	3983.973473
787.337983	4114.627578
787.661030	4274.109521
787.984031	4436.875776
788.306987	4607.037403
788.629897	4686.559085
788.952760	4642.154081
789.275579	4578.380964
789.598351	4506.415972
789.921078	4356.885267
790.243759	4158.578878
790.566395	4148.776354
790.888984	4136.228922
791.211529	4029.820247
791.534027	3968.880258
791.856480	3958.001448
792.178888	3896.350657
792.501249	3848.658822
792.823566	3863.741954
793.145836	3884.113257
793.468062	3832.506965
793.790241	3796.160245
794.112375	3824.133608
794.434464	3887.977301
794.756507	3910.753234
795.078505	3887.258937
795.400457	3928.424999
795.722364	4072.775919
796.044226	4176.059079
796.366042	4250.325357
796.687812	4221.182447
797.009538	4226.483220
797.331218	4186.189277
797.652852	4162.959640
797.974442	4144.488853
798.295986	4139.419973
798.617484	4052.354204
798.938938	3970.052327
799.260346	4013.136548
799.581709	4005.504241
799.903026	3927.784772
800.224299	3893.749422
800.545526	3889.421592
800.866708	3849.596476
801.187845	3789.884009
801.508936	3825.487158
801.829983	3815.460303
802.150984	3739.608582
802.471940	3734.605236
802.792851	3741.529261
803.113717	3739.233016
803.434538	3743.573449
803.755314	3682.008358
804.076045	3660.091941
804.396731	3684.803678
804.717372	3707.383006
805.037967	3689.907846
805.358518	3677.710774
805.679024	3707.226730
805.999485	3721.155438
806.319901	3730.199268
806.640272	3737.206472
806.960598	3752.123246
807.280879	3727.996284
807.601115	3741.640167
807.921306	3759.702621
808.241453	3797.533960
808.561554	3769.177469
808.881611	3703.602140
809.201623	3744.306937
809.521590	3754.197681
809.841513	3727.608115
810.161390	3757.950820
810.481223	3731.618353
810.801011	3679.376875
811.120755	3676.246319
811.440453	3709.896021
811.760107	3705.306050
812.079716	3666.559742
812.399281	3639.486225
812.718801	3661.203516
813.038276	3632.163949
813.357707	3630.114720
813.677093	3647.345384
813.996434	3594.715738
814.315731	3608.210907
814.634983	3609.967749
814.954191	3624.057774
815.273354	3653.087258
815.592473	3642.765496
815.911547	3656.059018
816.230577	3698.697098
816.549562	3749.456476
816.868502	3792.480203
817.187399	3812.813697
817.506250	3810.033501
817.825058	3791.605563
818.143821	3886.913617
818.462539	3986.534379
818.781213	4027.017365
819.099843	4095.440946
819.418429	4356.408878
819.736970	4600.443574
820.055466	4853.895145
820.373919	5228.336930
820.692327	5640.315145
821.010691	6125.715246
821.329011	7592.224709
821.647286	10476.765378
821.965517	15198.662951
822.283704	19248.925077
822.601847	21271.188983
822.919945	19340.986628
823.237999	16687.729056
823.556010	14164.271114
823.873976	12007.173986
824.191897	9886.539524
824.509775	8541.794091
824.827609	7412.384066
825.145398	6881.064095
825.463144	6763.932885
825.780845	6876.290122
826.098502	7096.749862
826.416116	8031.778036
826.733685	9400.794104
827.051210	10495.140384
827.368692	10459.597728
827.686129	9138.737283
828.003522	7623.542877
828.320872	6600.816270
828.638177	5886.704060
828.955439	5312.952697
829.272656	4812.230009
829.589830	4538.155077
829.906960	4362.112944
830.224046	4168.129344
830.541088	4041.926578
830.858086	3996.634331
831.175041	3918.138524
831.491952	3906.538829
831.808819	3912.449582
832.125642	3994.887571
832.442421	4151.201149
832.759157	4441.863997
833.075849	5018.902193
833.392497	5912.386218
833.709101	6700.066507
834.025662	7015.902357
834.342179	6605.842300
834.658653	5924.386685
834.975083	5264.734060
835.291469	4685.883570
835.607811	4279.228813
835.924110	4136.702791
836.240366	3933.950103
836.556578	3729.042323
836.872746	3621.335551
837.188871	3576.973397
837.504952	3507.103004
837.820990	3425.338010
838.136984	3383.788820
838.452935	3404.354207
838.768842	3399.640728
839.084706	3426.888164
839.400526	3594.231787
839.716303	3955.377528
840.032037	4499.809540
840.347727	4742.906582
840.663373	4437.019449
840.978977	4044.490004
841.294537	3736.321749
841.610054	3509.532841
841.925527	3402.413363
842.240957	3332.379133
842.556344	3278.632871
842.871687	3218.391082
843.186987	3166.071467
843.502244	3130.324645
843.817458	3092.798296
844.132629	3065.271076
844.447756	3076.467478
844.762840	3056.282698
845.077881	3024.160466
845.392879	3008.399298
845.707833	3001.591220
846.022745	3002.140706
846.337613	3002.866632
846.652438	2991.314828
846.967221	2986.190495
847.281960	2971.263639
847.596656	2969.219451
847.911309	2970.769606
848.225919	2963.969089
848.540485	2958.597740
848.855009	2955.396607
849.169490	2948.379321
849.483928	2937.969338
849.798323	2938.039914
850.112675	2936.215017
850.426984	2946.955195
850.741251	2942.987807
851.055474	2934.009512
851.369654	2928.882658
851.683792	2933.389450
851.997887	2940.747014
852.311938	2944.454783
852.625947	2931.118410
852.939914	2938.055038
853.253837	2938.012188
853.567718	2923.181113
853.881555	2925.608429
854.195350	2938.039914
854.509103	2934.924481
854.822812	2925.305960
855.136479	2923.702873
855.450103	2925.366453
855.763685	2922.737492
856.077224	2918.109713
856.390720	2930.276537
856.704173	2940.741973
857.017584	2928.633121
857.330953	2929.613626
857.644278	2940.068979
857.957561	2945.457972
858.270802	2948.727160
858.584000	2949.100206
858.897155	2937.054369
859.210268	2937.419852
859.523339	2935.431117
859.836367	2933.260900
860.149352	2924.948038
860.462295	2922.576175
860.775195	2933.654110
861.088054	2930.309305
861.400869	2912.473703
861.713642	2911.800708
862.026373	2926.707400
862.339062	2929.540529
862.651708	2936.993875
862.964312	2937.981941
863.276873	2930.397525
863.589392	2941.374638
863.901869	2954.511884
864.214303	2976.728249
864.526696	2990.682163
864.839045	2987.662512
865.151353	2989.068994
865.463619	2983.372490
865.775842	2987.342399
866.088023	3006.070285
866.400162	3008.512724
866.712258	2983.332161
867.024313	2972.959987
867.336325	2978.989207
867.648296	3004.920902
867.960224	2994.059736
868.272110	2978.953919
868.583954	2987.392810
868.895755	3000.250273
869.207515	2984.975577
869.519233	2997.139881
869.830909	3002.972496
870.142542	3011.660925
870.454134	3014.050432
870.765684	3013.490864
871.077191	3015.403982
871.388657	3022.968233
871.700081	3037.441386
872.011463	3051.556617
872.322803	3048.088303
872.634101	3047.753066
872.945357	3068.557908
873.256571	3094.391301
873.567744	3084.452666
873.878874	3079.434197
874.189963	3103.039400
874.501010	3104.511417
874.812015	3093.698142
875.122979	3089.481217
875.433900	3090.297884
875.744780	3095.555807
876.055618	3103.598968
876.366415	3101.980758
876.677169	3110.457458
876.987882	3106.951336
877.298554	3101.567383
877.609183	3130.165849
877.919771	3149.644867
878.230317	3178.281142
878.540822	3233.259966
878.851285	3274.231944
879.161707	3319.312462
879.472087	3430.427054
879.782425	3673.168694
880.092722	4133.378150
880.402977	4677.444678
880.713191	5342.335062
881.023363	6562.768161
881.333494	7871.882718
881.643583	8400.873677
881.953631	8070.844458
882.263637	7399.781181
882.573602	6779.638600
882.883526	6187.867632
883.193408	5608.971771
883.503248	5155.860261
883.813048	4841.730841
884.122806	4515.285883
884.432522	4188.540976
884.742197	3950.157413
885.051831	3753.504522
885.361424	3622.484934
885.670975	3549.612534
885.980485	3459.396045
886.289954	3375.125597
886.599382	3333.069771
886.908768	3295.598874
887.218113	3248.668252
887.527417	3191.287319
887.836680	3136.169863
888.145901	3134.750778
888.455082	3120.731330
888.764221	3068.903227
889.073319	3043.296686
889.382376	3038.111859
889.691392	3043.485729
890.000366	3044.025133
890.309300	3028.828574
890.618193	3043.826007
890.927044	3059.065415
891.235855	3054.871175
891.544625	3045.623178
891.853353	3057.835374
892.162041	3076.585945
892.470687	3118.840897
892.779293	3169.844771
893.087858	3219.396793
893.396381	3293.395890
893.704864	3425.650561
894.013306	3675.348993
894.321707	3986.630161
894.630068	4190.890153
894.938387	4181.185932
895.246665	4135.666833
895.554903	4007.261083
895.863100	3799.278199
896.171256	3630.729741
896.479371	3484.500991
896.787446	3357.395859
897.095480	3253.835435
897.403473	3189.888399
897.711425	3152.936741
898.019336	3144.828045
898.327207	3114.109774
898.635038	3074.201480
898.942827	3061.137329
899.250576	3050.563509
899.558284	3018.476565
899.865952	2995.715755
900.173579	2972.481077
900.481165	2968.329687
900.788711	2954.605146
901.096216	2930.261414
901.403681	2922.107348
901.711105	2927.531629
902.018489	2924.953079
902.325832	2923.733120
902.633135	2933.936415
902.940397	2971.200624
903.247619	3061.545663
903.554800	3266.158536
903.861941	3637.300885
904.169041	4081.920572
904.476101	4379.830079
904.783121	4309.276610
905.090100	4050.516704
905.397039	3765.169752
905.703938	3506.210720
906.010796	3323.186589
906.317614	3207.156871
906.624391	3109.275307
906.931129	3037.567415
907.237826	2974.132055
907.544483	2926.682195
907.851099	2896.369737
908.157675	2874.561705
908.464211	2853.366174
908.770707	2837.746158
909.077163	2825.191165
909.383578	2810.425625
909.689954	2801.202834
909.996289	2798.336938
910.302584	2799.075467
910.608839	2800.524799
910.915054	2794.780404
911.221229	2785.817233
911.527363	2788.645320
911.833458	2798.160498
912.139513	2801.769964
912.445527	2806.390182
912.751502	2815.058446
913.057436	2821.783345
913.363331	2836.722804
913.669186	2858.044364
913.975000	2899.548184
914.280775	2964.180818
914.586510	3032.516178
914.892205	3115.864096
915.197859	3253.613624
915.503475	3463.650779
915.809050	3686.709234
916.114585	3827.732992
916.420081	3843.153882
916.725536	3778.919499
917.030952	3653.689676
917.336328	3522.095396
917.641665	3386.760580
917.946961	3283.444652
918.252218	3208.318857
918.557435	3126.939511
918.862612	3066.168401
919.167750	3015.169568
919.472848	2972.153402
919.777906	2948.873354
920.082925	2919.095258
920.387904	2889.150804
920.692843	2871.708412
920.997743	2857.651154
921.302603	2845.128928
921.607423	2835.296158
921.912204	2818.191523
922.216946	2809.828248
922.521647	2799.055303
922.826310	2794.419962
923.130932	2787.848818
923.435516	2776.105450
923.740059	2768.311826
924.044564	2757.548962
924.349028	2754.695669
924.653454	2746.912128
924.957840	2740.819893
925.262186	2738.107753
925.566493	2733.709346
925.870761	2725.588047
926.174989	2720.778786
926.479178	2720.667881
926.783328	2712.171016
927.087438	2713.688403
927.391509	2712.367621
927.695541	2706.103987
927.999533	2704.994934
928.303486	2702.436548
928.607400	2701.914789
928.911275	2700.866229
929.215110	2701.463605
929.518906	2695.643593
929.822663	2697.798687
930.126381	2698.844726
930.430060	2698.696012
930.733699	2699.847916
931.037299	2701.408153
931.340861	2703.389326
931.644383	2700.170549
931.947866	2700.432689
932.251309	2699.946218
932.554714	2699.903368
932.858080	2696.757688
933.161407	2696.427493
933.464694	2695.210054
933.767943	2688.076821
934.071153	2694.272399
934.374323	2691.761905
934.677455	2690.189065
934.980548	2691.139322
935.283602	2691.784590
935.586617	2689.964733
935.889593	2695.010928
936.192530	2690.307532
936.495428	2688.913653
936.798287	2692.462625
937.101108	2696.208202
937.403890	2698.663244
937.706632	2703.875797
938.009336	2708.541385
938.312002	2720.211657
938.614628	2728.597616
938.917216	2734.876373
939.219765	2736.096332
939.522275	2733.742113
939.824747	2731.917216
940.127179	2730.450240
940.429573	2727.823799
940.731929	2726.742471
941.034246	2719.384907
941.336524	2718.911039
941.638763	2717.658312
941.940964	2715.475492
942.243126	2711.346787
942.545250	2711.248485
942.847335	2709.010213
943.149381	2703.618699
943.451389	2701.178780
943.753359	2697.045034
944.055290	2695.872966
944.357182	2695.368850
944.659036	2694.448840
944.960851	2691.494724
945.262628	2692.399611
945.564367	2692.061853
945.866067	2692.893644
946.167729	2692.704601
946.469352	2693.468335
946.770937	2694.859694
947.072484	2692.465146
947.373992	2693.012111
947.675462	2687.328210
947.976893	2682.962571
948.278286	2683.501974
948.579641	2686.282171
948.880958	2681.452745
949.182236	2684.613549
949.483476	2683.892664
949.784678	2682.034998
950.085841	2683.101202
950.386967	2684.583302
950.688054	2685.243693
950.989103	2685.173117
951.290114	2687.081193
951.591087	2690.289888
951.892021	2689.954651
952.192917	2693.380115
952.493776	2697.009746
952.794596	2697.423121
953.095378	2697.733152
953.396122	2693.881710
953.696828	2694.191741
953.997496	2691.010773
954.298126	2689.112778
954.598718	2687.232428
954.899272	2683.312931
955.199788	2681.810667
955.500266	2678.554082
955.800706	2676.451921
956.101108	2675.027795
956.401472	2672.897907
956.701798	2673.671724
957.002087	2671.559481
957.302337	2667.725683
957.602550	2666.654438
957.902724	2667.176198
958.202861	2663.987668
958.502960	2663.728048
958.803022	2661.963644
959.103045	2661.421720
959.403031	2658.782676
959.702979	2660.894920
960.002889	2658.923829
960.302762	2656.269661
960.602596	2658.954076
960.902393	2659.803510
961.202153	2656.751091
961.501875	2658.956596
961.801559	2656.655309
962.101205	2655.415186
962.400814	2659.591782
962.700385	2660.526916
962.999918	2654.686739
963.299414	2654.054074
963.598873	2655.211019
963.898293	2651.515853
964.197677	2655.926863
964.497022	2655.853766
964.796331	2655.500885
965.095601	2654.790083
965.394835	2652.151038
965.694030	2655.649599
965.993189	2656.652789
966.292309	2655.906698
966.591393	2655.067346
966.890439	2654.749753
967.189447	2653.068528
967.488419	2653.771769
967.787353	2655.405103
968.086249	2653.716317
968.385108	2654.653971
968.683930	2655.251348
968.982714	2654.863179
969.281462	2653.537356
969.580172	2653.323107
969.878844	2654.260761
970.177480	2654.628766
970.476078	2655.266472
970.774639	2657.381236
971.073162	2655.193375
971.371649	2656.559527
971.670098	2655.702531
971.968510	2654.250679
972.266885	2656.060453
972.565223	2654.749753
972.863524	2653.113899
973.161788	2655.153046
973.460014	2656.115906
973.758204	2656.289826
974.056356	2655.236225
974.354471	2655.962151
974.652550	2654.331337
974.950591	2656.587254
975.248595	2652.768580
975.546563	2656.554486
975.844493	2655.863848
976.142386	2653.590288
976.440243	2657.164466
976.738062	2653.696152
977.035845	2653.988539
977.333590	2655.024496
977.631299	2653.381080
977.928971	2647.782879
978.226606	2647.185502
978.524204	2650.366470
978.821765	2650.653816
979.119290	2654.132212
979.416777	2652.057777
979.714228	2653.910401
980.011642	2653.411327
980.309020	2653.602891
980.606360	2652.082983
980.903664	2653.943169
981.200931	2654.729589
981.498162	2656.153715
981.795356	2656.282264
982.092513	2658.623880
982.389633	2656.761174
982.686717	2663.977585
982.983764	2666.694767
983.280775	2668.549912
983.577749	2672.764317
983.874686	2669.182577
984.171587	2668.179387
984.468451	2666.624191
984.765279	2661.840136
985.062070	2659.546411
985.358824	2659.180927
985.655543	2658.664209
985.952224	2655.677326
986.248869	2656.728406
986.545478	2656.143632
986.842050	2652.808909
987.138586	2648.967550
987.435086	2652.808909
987.731549	2649.607776
988.027975	2649.396048
988.324366	2651.233548
988.620719	2651.241110
988.917037	2648.024854
989.213318	2649.401089
989.509563	2648.193733
989.805772	2647.172899
990.101944	2646.958650
990.398080	2649.209525
990.694180	2648.907056
990.990244	2649.065852
991.286271	2649.794299
991.582262	2647.510656
991.878217	2651.125164
992.174136	2648.511325
992.470019	2649.506953
992.765865	2645.090903
993.061676	2646.520070
993.357450	2647.553506
993.653188	2644.632157
993.948890	2650.157262
994.244556	2650.336223
994.540186	2650.729433
994.835780	2648.523928
995.131337	2654.041471
995.426859	2648.450832
995.722345	2652.168682
996.017795	2649.864875
996.313208	2654.943838
996.608586	2654.643889
996.903928	2654.326296
997.199234	2653.945689
997.494504	2657.146822
997.789738	2653.698673
998.084936	2654.248158
998.380099	2650.036274
998.675225	2651.593991
998.970316	2649.201963
999.265371	2652.781183
999.560390	2650.593322
999.855373	2649.501912
1000.150320	2650.895791
1000.445232	2648.004689
1000.740108	2649.756490
1001.034948	2646.885553
1001.329752	2649.751449
1001.624521	2647.140132
1001.919254	2648.234062
1002.213951	2646.721716
1002.508613	2649.204484
1002.803239	2649.096099
1003.097829	2646.091572
1003.392384	2645.950419
1003.686903	2644.982518
1003.981386	2649.305307
1004.275834	2647.359422
1004.570246	2646.479740
1004.864623	2647.480409
1005.158964	2647.213228
1005.453270	2647.583753
1005.747540	2647.707261
1006.041775	2646.583084
1006.335974	2648.740698
1006.630138	2647.926552
1006.924266	2646.593166
1007.218359	2646.835142
1007.512416	2643.457569
1007.806438	2642.439256
1008.100425	2644.518732
1008.394376	2642.645943
1008.688292	2646.585605
1008.982172	2646.310862
1009.276017	2645.506798
1009.569827	2647.084679
1009.863602	2645.751294
1010.157341	2646.681387
1010.451045	2646.250368
1010.744714	2646.174751
1011.038347	2646.636016
1011.331945	2643.248361
1011.625508	2644.765748
1011.919036	2646.202477
1012.212528	2644.629637
1012.505986	2644.927065
1012.799408	2644.269194
1013.092795	2646.789771
1013.386147	2645.940337
1013.679464	2646.736839
1013.972745	2648.402941
1014.265992	2646.681387
1014.559204	2648.488640
1014.852380	2645.668115
1015.145521	2646.835142
1015.438628	2647.046870
1015.731699	2645.287507
1016.024736	2644.669966
1016.317737	2642.900521
1016.610703	2645.456386
1016.903635	2646.351191
1017.196531	2647.699700
1017.489393	2647.074597
1017.782219	2647.404792
1018.075011	2645.141314
1018.367768	2644.221303
1018.660490	2642.895480
1018.953177	2642.895480
1019.245829	2642.895480
