Dividing Wavelength (nm)	Counts (n)	Blue Motor Position (mm): 27.200000	Red Motor Position (mm): 0.000000	
326.493990	2204.771320
326.888308	2204.771320
327.282561	2204.771320
327.676750	2163.960659
328.070874	2162.181132
328.464933	2163.658190
328.858929	2165.283962
329.252859	2168.298572
329.646726	2181.022444
330.040528	2191.767663
330.434265	2203.755527
330.827938	2222.513661
331.221547	2239.666187
331.615091	2260.095463
332.008571	2274.077103
332.401986	2297.047120
332.795338	2314.827270
333.188625	2333.895434
333.581847	2349.679287
333.975006	2370.658049
334.368100	2389.635472
334.761129	2406.851013
335.154095	2420.777200
335.546996	2450.865327
335.939833	2486.203816
336.332606	2501.659993
336.725315	2515.855882
337.117960	2526.432223
337.510540	2536.847247
337.903056	2551.728733
338.295508	2557.697459
338.687896	2569.362689
339.080220	2576.758062
339.472480	2582.716706
339.864676	2588.473704
340.256807	2591.939497
340.648875	2597.472163
341.040879	2599.362596
341.432818	2604.219748
341.824694	2604.522217
342.216506	2605.593462
342.608253	2607.854420
342.999937	2608.025819
343.391557	2607.400716
343.783113	2606.019440
344.174605	2602.828389
344.566033	2603.801332
344.957397	2601.328646
345.348697	2602.974583
345.739934	2599.481063
346.131106	2599.854108
346.522215	2595.433017
346.913260	2596.163984
347.304241	2592.811617
347.695159	2592.221802
348.086012	2589.313056
348.476802	2586.782397
348.867528	2582.943558
349.258191	2576.231262
349.648789	2578.353587
350.039324	2576.145562
350.429796	2580.039853
350.820203	2577.375603
351.210548	2575.913669
351.600828	2574.905438
351.991045	2573.597259
352.381198	2574.487022
352.771288	2570.812021
353.161314	2570.716239
353.551276	2571.474933
353.941175	2572.198338
354.331010	2573.922413
354.720782	2572.064748
355.110490	2571.951322
355.500135	2568.503173
355.889717	2573.599779
356.279235	2571.699264
356.668689	2572.399985
357.058080	2570.126424
357.447408	2570.426373
357.836672	2572.117680
358.225873	2572.601631
358.615010	2568.667010
359.004084	2572.861250
359.393095	2569.662638
359.782043	2572.929306
360.170927	2573.713205
360.559748	2575.890984
360.948505	2576.821077
361.337199	2574.628175
361.725830	2578.270408
362.114398	2575.497774
362.502903	2576.190932
362.891344	2579.079513
363.279722	2580.183526
363.668037	2578.298135
364.056289	2579.145048
364.444478	2579.283680
364.832603	2582.431881
365.220665	2584.518918
365.608665	2583.409865
365.996601	2583.558579
366.384474	2582.114288
366.772284	2582.714185
367.160031	2581.499267
367.547715	2582.464648
367.935336	2583.687128
368.322893	2580.755697
368.710388	2583.087231
369.097820	2584.324834
369.485189	2582.346181
369.872495	2585.312900
370.259738	2586.051429
370.646918	2588.418251
371.034035	2586.444639
371.421090	2585.580081
371.808081	2585.484299
372.195010	2585.335585
372.581875	2588.088055
372.968678	2587.732654
373.355418	2586.111923
373.742096	2588.662747
374.128710	2591.185844
374.515262	2589.229877
374.901751	2589.328179
375.288177	2592.710793
375.674540	2588.483786
376.060841	2592.032758
376.447079	2590.220463
376.833254	2591.069898
377.219367	2588.478745
377.605417	2590.843046
377.991404	2590.792634
378.377329	2592.103334
378.763191	2589.986050
379.148991	2592.678026
379.534727	2594.079467
379.920402	2590.727099
380.306013	2589.983529
380.691563	2593.224991
381.077049	2591.095104
381.462474	2592.988057
381.847835	2592.247007
382.233134	2596.148860
382.618371	2592.378077
383.003545	2594.170207
383.388657	2595.594333
383.773706	2596.121134
384.158693	2594.540732
384.543618	2597.356217
384.928480	2597.343614
385.313280	2595.634663
385.698017	2596.814293
386.082692	2599.468460
386.467305	2596.451330
386.851856	2598.624067
387.236344	2598.200610
387.620770	2594.787749
388.005133	2593.426637
388.389435	2593.749271
388.773674	2595.249014
389.157851	2599.554160
389.541965	2599.047524
389.926018	2600.524582
390.310008	2597.797318
390.693936	2601.580704
391.077802	2602.299068
391.461606	2601.258070
391.845348	2600.358224
392.229027	2602.573811
392.612645	2602.382247
392.996200	2603.002309
393.379694	2604.741507
393.763125	2604.154213
394.146494	2602.941815
394.529801	2604.529779
394.913047	2602.213368
395.296230	2604.446600
395.679351	2604.418873
396.062410	2605.444748
396.445408	2607.652773
396.828343	2606.352156
397.211217	2606.984821
397.594028	2607.342742
397.976778	2605.515324
398.359466	2607.836776
398.742092	2605.951384
399.124656	2605.608586
399.507158	2606.321909
399.889598	2611.899946
400.271977	2607.589759
400.654294	2608.950871
401.036549	2607.723350
401.418742	2608.487084
401.800874	2609.492795
402.182944	2608.386261
402.564952	2609.941457
402.946898	2610.259050
403.328783	2610.939606
403.710606	2609.515480
404.092367	2613.293825
404.474067	2611.252157
404.855705	2612.088989
405.237282	2610.301900
405.618797	2609.424739
406.000250	2615.988321
406.381642	2611.685697
406.762972	2610.092692
407.144240	2612.512446
407.525447	2610.674945
407.906593	2610.286776
408.287677	2614.720471
408.668700	2615.053187
409.049661	2614.360029
409.430560	2613.422374
409.811399	2615.249792
410.192176	2615.116202
410.572891	2615.338012
410.953545	2618.035030
411.334138	2616.484875
411.714669	2617.172992
412.095139	2620.772376
412.475547	2617.341871
412.855894	2619.287757
413.236180	2618.125771
413.616405	2618.634927
413.996568	2617.122581
414.376670	2617.248610
414.756711	2620.984105
415.136691	2620.535442
415.516609	2620.439660
415.896466	2620.177520
416.276262	2618.327417
416.655997	2622.060391
417.035670	2619.280195
417.415283	2622.715741
417.794834	2623.660957
418.174324	2621.848663
418.553753	2623.643313
418.933121	2623.754219
419.312428	2626.458798
419.691674	2624.976699
420.070859	2624.762450
420.449983	2625.201030
420.829045	2626.738582
421.208047	2626.126082
421.586988	2626.209261
421.965867	2626.821761
422.344686	2628.651700
422.723444	2629.687657
423.102141	2628.084570
423.480777	2626.405866
423.859352	2630.201855
424.237866	2630.282513
424.616319	2631.159674
424.994712	2632.568676
425.373044	2634.743934
425.751314	2628.843264
426.129524	2627.870321
426.507673	2631.384005
426.885762	2628.402163
427.263789	2635.512710
427.641756	2636.636887
428.019662	2635.220323
428.397508	2634.043214
428.775292	2637.090591
429.153016	2639.631333
429.530679	2637.599748
429.908282	2637.375417
430.285824	2638.713843
430.663305	2640.289203
431.040726	2641.584780
431.418086	2640.029584
431.795385	2644.410347
432.172624	2643.308855
432.549802	2642.421612
432.926920	2645.920172
433.303977	2647.298928
433.680974	2649.040647
434.057910	2650.933600
434.434786	2651.783034
434.811601	2654.482572
435.188355	2655.768066
435.565050	2656.153715
435.941683	2657.897954
436.318257	2664.953049
436.694770	2668.128976
437.071222	2669.779953
437.447614	2673.676765
437.823946	2682.239165
438.200218	2682.521470
438.576429	2689.274095
438.952580	2698.527133
439.328670	2707.417208
439.704700	2712.806202
440.080670	2725.325907
440.456580	2740.073803
440.832429	2750.894639
441.208218	2757.856473
441.583947	2780.466048
441.959616	2800.093780
442.335224	2814.110709
442.710773	2843.419977
443.086261	2869.291179
443.461689	2877.041953
443.837057	2926.823347
444.212365	2967.553349
444.587612	2988.068325
444.962800	3034.262938
445.337927	3064.764440
445.712995	3082.864703
446.088002	3192.421578
446.462949	3224.178327
446.837837	3275.867798
447.212664	3335.534895
447.587431	3439.919547
447.962139	3571.914599
448.336786	3888.020151
448.711374	4065.433478
449.085901	3895.448291
449.460369	3917.425201
449.834776	3936.095114
450.209124	4143.402484
450.583412	4314.274914
450.957640	4584.405143
451.331808	4549.109504
451.705917	4470.971620
452.079965	4438.138585
452.453954	4731.732864
452.827883	4756.621041
453.201752	4932.837094
453.575562	4935.922280
453.949311	5136.807220
454.323001	5240.544084
454.696632	5419.409263
455.070202	5628.849041
455.443713	5816.856353
455.817164	6097.290700
456.190556	6229.530248
456.563888	6490.858622
456.937160	6692.401433
457.310373	6601.569923
457.683526	6752.262614
458.056619	6730.522638
458.429653	6910.494351
458.802628	6855.969231
459.175542	7127.321939
459.548398	7660.557549
459.921194	7977.099161
460.293930	8136.092112
460.666607	8713.727684
461.039224	9351.957926
461.411782	9880.742197
461.784280	10036.980158
462.156719	10261.997101
462.529099	10247.960008
462.901419	9868.008242
463.273680	9933.124827
463.645882	9998.022121
464.018024	10005.261218
464.390106	10291.669332
464.762130	10908.482232
465.134094	11476.078346
465.505999	12797.011888
465.877845	14985.056660
466.249631	17055.609779
466.621358	17212.215744
466.993026	16548.010957
467.364634	16428.792710
467.736184	15691.095462
468.107674	15299.657427
468.479105	15556.874740
468.850477	15363.191089
469.221790	15229.688732
469.593043	14896.531477
469.964238	14676.648950
470.335373	14557.743254
470.706449	15003.890410
471.077467	14776.708292
471.448425	16311.795091
471.819324	19672.318985
472.190164	21629.945217
472.560945	18987.286671
472.931667	17069.818271
473.302330	16655.710168
473.672934	16299.219932
474.043479	16762.950633
474.413965	16710.338631
474.784393	16501.576889
475.154761	17172.846853
475.525070	17305.363664
475.895321	17066.339875
476.265513	17688.927416
476.635645	18308.744843
477.005719	18212.133650
477.375734	18479.244228
477.745691	19018.869500
478.115588	19535.159271
478.485427	20101.232957
478.855207	21146.216259
479.224928	22815.085198
479.594591	24977.735157
479.964194	25174.057852
480.333739	25483.027651
480.703226	25138.479909
481.072653	24904.141873
481.442022	25473.865354
481.811333	26381.187347
482.180584	26396.431796
482.549777	25550.707662
482.918912	25241.218625
483.287988	25378.035540
483.657005	25137.610310
484.025964	24892.796756
484.394864	24892.665686
484.763706	24640.565144
485.132489	24090.131638
485.501213	24273.352374
485.869879	24238.192847
486.238487	24041.111458
486.607036	24226.230189
486.975527	23916.423558
487.343959	24270.141159
487.712333	24263.817032
488.080648	23948.374392
488.448905	24422.225209
488.817104	24180.461553
489.185244	24825.522558
489.553326	24837.833056
489.921350	25775.099502
490.289315	28010.150512
490.657222	29841.851242
491.025070	30340.791882
491.392861	30157.480405
491.760593	29339.585961
492.128267	28459.120715
492.495883	27441.074819
492.863440	26560.541518
493.230939	25692.601019
493.598380	25539.057556
493.965763	25151.095397
494.333088	24726.063113
494.700354	24639.680421
495.067563	24542.512181
495.434713	24297.277690
495.801805	24433.282980
496.168839	24260.900724
496.535815	24074.909874
496.902733	24288.823675
497.269593	23971.490602
497.636395	24166.827752
498.003139	24157.395753
498.369825	23891.873139
498.736453	24071.996087
499.103023	23963.946516
499.469535	23992.610517
499.835989	24189.321381
500.202385	24221.705753
500.568723	23713.764133
500.935003	23998.818697
501.301226	23571.260796
501.667390	24405.995214
502.033497	24653.904037
502.399546	24375.040009
502.765537	23971.336847
503.131470	24349.993036
503.497345	24483.034127
503.863163	23689.745555
504.228923	24330.284645
504.594625	24505.706717
504.960269	24024.233675
505.325856	24528.371744
505.691385	23924.859929
506.056856	24532.200501
506.422270	24509.482541
506.787625	24098.063893
507.152924	24499.952240
507.518164	24537.034967
507.883347	24322.370034
508.248472	24029.254664
508.613540	24815.105013
508.978550	24583.103552
509.343503	24566.031684
509.708398	24846.203892
510.073236	25014.974161
510.438016	25214.387083
510.802738	24890.500510
511.167403	25130.857685
511.532010	24832.378527
511.896561	25618.012107
512.261053	25601.048624
512.625488	25425.545894
512.989866	25320.105121
513.354186	25180.094634
513.718449	25263.853405
514.082655	25652.309597
514.446803	25394.202520
514.810894	25842.441756
515.174927	25341.194788
515.538904	25352.797003
515.902822	25854.757295
516.266684	25606.707320
516.630488	25506.216959
516.994235	25498.388047
517.357925	25782.361284
517.721558	25979.974515
518.085133	26064.560035
518.448651	25989.162018
518.812112	25702.030498
519.175516	25904.621868
519.538863	26065.089357
519.902152	25833.602092
520.265385	26147.363508
520.628560	25928.821927
520.991678	25931.332422
521.354739	26014.529104
521.717743	26074.760810
522.080690	25862.906320
522.443580	26199.662958
522.806413	26194.707504
523.169189	26281.919466
523.531908	26336.159761
523.894569	25944.469668
524.257174	26013.357036
524.619722	26207.373403
524.982213	25893.115434
525.344647	25979.092313
525.707025	26095.139675
526.069345	26075.912714
526.431608	26028.140219
526.793815	26229.420890
527.155964	25673.338771
527.518057	25847.772776
527.880093	25764.049293
528.242072	26020.021441
528.603995	25715.565996
528.965860	25507.550344
529.327669	25546.697424
529.689421	25563.391205
530.051117	25385.836726
530.412755	25569.254067
530.774337	25366.791246
531.135862	25231.683282
531.497331	25438.990652
531.858743	24978.498892
532.220098	25473.807381
532.581396	25134.215093
532.942638	25091.642549
533.303824	25174.221690
533.664953	25205.721340
534.026025	24861.055131
534.387040	25098.516162
534.747999	25165.989486
535.108902	25319.953886
535.469748	24805.299969
535.830537	25006.081565
536.191270	25119.875531
536.551947	25002.961091
536.912567	24673.534290
537.273131	24981.876465
537.633638	24711.063160
537.994089	24905.563478
538.354483	24454.473470
538.714821	24958.016684
539.075103	25002.222562
539.435328	24791.209944
539.795497	24325.919006
540.155609	24756.136116
540.515665	25049.662340
540.875665	24280.777994
541.235609	24560.168822
541.595496	24533.700244
541.955328	24878.996597
542.315102	24797.947446
542.674821	24361.721281
543.034483	24234.366611
543.394090	24411.149794
543.753640	24187.166287
544.113134	24822.444933
544.472571	24427.715026
544.831953	24717.505754
545.191278	24332.361601
545.550548	24252.774384
545.909761	24472.881243
546.268918	24696.615213
546.628019	24658.070551
546.987064	24358.230282
547.346053	24121.510300
547.704986	24249.706842
548.063863	24398.965325
548.422684	24396.974069
548.781449	23957.077944
549.140158	24362.124573
549.498811	23928.381175
549.857408	23665.817718
550.215949	24113.373877
550.574434	23781.794504
550.932864	23998.299459
551.291237	24152.662110
551.649555	24017.796121
552.007817	24071.360901
552.366022	23937.692187
552.724173	23991.718232
553.082267	23919.733076
553.440305	24389.780343
553.798288	23659.236492
554.156215	24190.168295
554.514086	24261.200673
554.871902	23638.323265
555.229661	23932.504839
555.587365	23784.531850
555.945014	23633.526607
556.302606	23904.975098
556.660143	23840.266847
557.017625	24103.954482
557.375050	23633.874447
557.732421	24021.256873
558.089735	23823.247912
558.446994	23896.823552
558.804197	23911.097579
559.161345	23870.924624
559.518437	23605.535601
559.875474	23819.522499
560.232455	23998.221321
560.589381	23812.611077
560.946251	23800.567761
561.303065	24123.002481
561.659825	24209.876686
562.016528	23808.111848
562.373177	23554.428383
562.729770	23903.661878
563.086307	23771.767649
563.442789	23949.576707
563.799216	23767.268419
564.155587	23781.053454
564.511904	23759.421863
564.868164	23685.878990
565.224370	23685.400081
565.580520	23582.081633
565.936615	23718.502817
566.292654	23391.147931
566.648638	23704.180899
567.004567	23525.731615
567.360441	23481.387105
567.716260	23208.295198
568.072023	23534.135218
568.427732	23287.746303
568.783385	23073.275454
569.138982	23303.013438
569.494525	23342.526002
569.850013	23089.697013
570.205445	23187.480274
570.560823	22996.468434
570.916145	22761.220469
571.271412	22927.664246
571.626625	22697.502805
571.981782	22796.511067
572.336884	22602.550152
572.691931	22739.263724
573.046923	22472.468218
573.401860	22351.233509
573.756743	22357.242565
574.111570	22272.341972
574.466342	22211.023897
574.821059	22288.319909
575.175722	21994.758398
575.530330	21978.334318
575.884882	22005.901868
576.239380	21921.598652
576.593823	21808.669244
576.948211	21783.420625
577.302544	21629.496554
577.656823	21507.823265
578.011047	21599.242070
578.365216	21470.231381
578.719330	21358.819360
579.073389	21253.771797
579.427394	21393.522663
579.781344	21169.859270
580.135239	21053.275026
580.489080	21020.194974
580.842866	20789.489089
581.196597	20985.310190
581.550273	20960.389246
581.903895	20859.944255
582.257463	21172.901607
582.610975	20693.341682
582.964434	21000.552118
583.317837	20709.785926
583.671186	20801.008126
584.024481	20760.497413
584.377721	20536.032477
584.730906	20593.945252
585.084037	20620.207143
585.437113	20525.199037
585.790135	20739.942108
586.143103	20202.156857
586.496016	20215.861234
586.848874	20451.300763
587.201679	20384.578571
587.554428	20061.440609
587.907124	20395.112062
588.259765	20167.040180
588.612352	20253.097717
588.964884	19813.166303
589.317362	19986.634928
589.669786	20039.473782
590.022155	20081.229659
590.374470	20264.946949
590.726731	20076.052394
591.078937	19822.668878
591.431090	19929.236350
591.783188	19667.073665
592.135232	19644.045674
592.487222	19743.394213
592.839157	19760.229147
593.191038	19655.957920
593.542866	19541.216218
593.894639	19252.521940
594.246358	19471.398757
594.598022	19387.647548
594.949633	19139.237131
595.301190	19104.032233
595.652692	19266.775802
596.004141	19514.626652
596.355535	18841.446091
596.706876	18846.630917
597.058162	18747.100896
597.409395	18969.594742
597.760573	19048.564417
598.111698	18822.791301
598.462768	18756.817720
598.813785	18717.521926
599.164748	18539.362508
599.515657	18583.165094
599.866511	18370.413278
600.217312	18726.656497
600.568060	18256.941946
600.918753	18563.066013
601.269392	18475.629721
601.619978	18246.514319
601.970510	18461.040621
602.320988	18396.082833
602.671412	18610.825905
603.021783	18508.896295
603.372100	18245.921984
603.722363	18386.318118
604.072572	18329.965580
604.422728	18461.053224
604.772830	18219.193786
605.122878	18184.099794
605.472872	18165.787802
605.822813	18156.943098
606.172701	18118.632849
606.522534	18312.843301
606.872314	18341.512343
607.222041	18168.545313
607.571714	18392.760713
607.921333	18214.898723
608.270899	18291.645249
608.620411	18487.539447
608.969870	18235.358246
609.319276	18244.417199
609.668627	18268.871837
610.017926	18416.406245
610.367171	18522.426752
610.716362	18568.107167
611.065500	18384.382315
611.414585	18522.898100
611.763616	18496.658894
612.112594	18457.771433
612.461518	18413.459691
612.810389	18604.670656
613.159207	18468.050346
613.507971	18369.342033
613.856682	18649.902409
614.205340	18585.544518
614.553945	18731.982476
614.902496	18460.881825
615.250994	18709.032623
615.599439	18641.148445
615.947830	18623.327967
616.296169	18687.542184
616.644454	18649.675557
616.992686	18619.438716
617.340864	18832.921499
617.688990	18591.301516
618.037063	18763.996323
618.385082	18610.646944
618.733048	18895.567918
619.080961	18758.256970
619.428821	18801.144586
619.776628	18687.758954
620.124382	18605.683928
620.472083	18643.719434
620.819731	18674.369649
621.167326	18369.684831
621.514868	18412.484227
621.862357	18171.403648
622.209793	18186.063323
622.557176	18008.239142
622.904506	17840.310745
623.251783	17748.372702
623.599007	17518.700253
623.946179	17458.004761
624.293297	17408.079694
624.640363	17152.488153
624.987376	17172.950196
625.334336	16975.342007
625.681243	16808.585679
626.028097	16826.328020
626.374899	16748.172491
626.721647	16614.954959
627.068343	16449.504290
627.414987	16373.856736
627.761577	16353.989548
628.108115	16402.054430
628.454600	16119.906090
628.801032	16212.580142
629.147412	16148.744011
629.493739	16173.942218
629.840014	15978.852085
630.186236	16071.783235
630.532405	15848.318968
630.878521	16045.894390
631.224585	15924.659681
631.570597	15760.718837
631.916556	15793.990453
632.262462	15770.838954
632.608316	15687.448187
632.954117	15626.447705
633.299866	15616.849348
633.645562	15533.062850
633.991206	15289.436488
634.336797	15175.950032
634.682336	15134.458816
635.027823	15022.860272
635.373257	14911.486060
635.718639	14801.662003
636.063968	14754.285239
636.409245	14513.517211
636.754470	14528.073543
637.099642	14378.394123
637.444762	14153.588909
637.789829	14191.808417
638.134845	14033.332184
638.479808	14060.408221
638.824719	14007.806301
639.169577	13862.300957
639.514383	13907.779727
639.859137	13726.966141
640.203839	13813.303463
640.548489	13651.883196
640.893086	13634.483653
641.237632	13509.102595
641.582125	13665.816945
641.926566	13492.013084
642.270955	13499.685720
642.615292	13467.770175
642.959576	13469.302686
643.303809	13507.852389
643.647990	13437.440073
643.992118	13499.786543
644.336195	13272.536369
644.680219	13472.834014
645.024192	13399.477664
645.368112	13635.474240
645.711981	13695.660576
646.055797	13865.224827
646.399562	13837.382534
646.743274	14108.435294
647.086935	14389.920722
647.430544	14353.311862
647.774101	14379.117529
648.117606	14540.797415
648.461059	14498.466846
648.804460	14493.445857
649.147810	14224.790166
649.491108	14118.207571
649.834354	14136.610303
650.177548	13844.717413
650.520690	13645.667453
650.863781	13563.799115
651.206820	13616.154018
651.549807	13434.644753
651.892742	13244.936052
652.235626	13183.882637
652.578458	13185.198378
652.921238	12866.552085
653.263967	13074.482037
653.606644	12885.451371
653.949269	12876.830998
654.291843	12676.500585
654.634365	12839.397910
654.976836	12678.433868
655.319255	12690.300744
655.661622	12643.470945
656.003938	12572.345305
656.346203	12501.421312
656.688416	12564.186198
657.030577	12525.306299
657.372687	12440.904781
657.714746	12425.188983
658.056753	12608.492899
658.398708	12426.161926
658.740612	12425.297368
659.082465	12523.229343
659.424266	12495.039211
659.766016	12517.162315
660.107715	12426.328284
660.449362	12506.664112
660.790958	12456.371041
661.132503	12401.072103
661.473996	12468.260602
661.815438	12481.365081
662.156829	12493.705826
662.498168	12479.041109
662.839456	12473.621869
663.180693	12497.421156
663.521879	12583.760998
663.863013	12567.079820
664.204097	12528.807380
664.545129	12664.961384
664.886110	12629.428811
665.227040	12726.778533
665.567918	12725.246022
665.908746	12758.941094
666.249522	12739.769586
666.590248	12795.494501
666.930922	12900.700861
667.271545	12890.890776
667.612118	12969.573105
667.952639	12870.655584
668.293109	12884.790980
668.633528	12833.678721
668.973896	12813.105772
669.314213	12894.843040
669.654480	12636.950213
669.994695	12698.860623
670.334859	12722.465826
670.674973	12674.196778
671.015035	12709.106768
671.355047	12656.588027
671.695008	12618.769291
672.034918	12633.718833
672.374777	12665.142865
672.714585	12581.711769
673.054342	12620.657203
673.394049	12570.364132
673.733705	12665.445335
674.073310	12573.671129
674.412864	12588.247625
674.752368	12457.807769
675.091820	12471.151704
675.431223	12463.668111
675.770574	12335.310252
676.109875	12255.145823
676.449125	12218.456305
676.788324	12153.622026
677.127473	11994.248467
677.466571	11980.581899
677.805619	11874.387473
678.144616	11806.888944
678.483562	11771.812595
678.822458	11642.469190
679.161303	11620.479677
679.500098	11605.056267
679.838842	11566.630072
680.177535	11592.259298
680.516179	11645.655200
680.854771	11589.138824
681.193314	11803.639920
681.531805	11960.487860
681.870247	12369.063297
682.208638	12785.704580
682.546978	13101.679062
682.885268	13149.454077
683.223508	12845.164990
683.561697	12684.634487
683.899836	12585.487593
684.237925	12387.269424
684.575963	12307.193216
684.913951	12226.312944
685.251889	12176.629852
685.589776	12271.101075
685.927614	12198.049715
686.265401	12153.551450
686.603137	12203.491640
686.940824	12365.940302
687.278460	12484.941780
687.616046	12527.645394
687.953582	12703.488402
688.291068	12619.112090
688.628504	12860.401877
688.965889	12863.056045
689.303224	12831.866426
689.640510	12729.248698
689.977745	12419.679002
690.314930	12188.516893
690.652065	12109.365736
690.989150	11816.051241
691.326185	11588.405336
691.663170	11388.770602
692.000105	11144.766153
692.336990	11034.770697
692.673825	10777.941553
693.010610	10664.079531
693.347345	10456.172264
693.684030	10252.618034
694.020665	10196.205002
694.357251	10004.174849
694.693786	9946.186456
695.030272	9772.107852
695.366707	9655.143001
695.703093	9591.132950
696.039429	9586.802598
696.375716	9518.903297
696.711952	9382.875323
697.048139	9421.001569
697.384276	9374.305361
697.720363	9394.096931
698.056400	9329.439092
698.392388	9281.636350
698.728326	9248.468079
699.064214	9179.041308
699.400053	9227.272547
699.735842	9042.347901
700.071581	9002.021191
700.407270	8923.217874
700.742910	8847.950926
701.078501	8757.648737
701.414042	8631.599727
701.749533	8567.171260
702.084974	8430.392153
702.420366	8539.986838
702.755709	8423.432840
703.091002	8289.769167
703.426246	8317.619021
703.761440	8270.307792
704.096584	8229.444199
704.431679	8155.601377
704.766725	8142.091085
705.101721	8098.185156
705.436668	8139.391547
705.771565	8039.291876
706.106413	8114.614276
706.441212	8158.033734
706.775961	8107.536496
707.110661	8145.957650
707.445311	8292.864435
707.779913	8189.140174
708.114465	8317.223290
708.448967	8354.091769
708.783421	8491.730392
709.117825	8684.075617
709.452180	8711.113846
709.786485	8800.811097
710.120742	9087.057894
710.454949	9077.802336
710.789107	9176.606431
711.123216	9395.838650
711.457275	9559.784534
711.791286	9722.399555
712.125247	9719.737825
712.459159	9707.273572
712.793023	9958.459145
713.126837	9535.105566
713.460602	9677.901290
713.794318	9508.165640
714.127985	9541.308706
714.461602	9219.844407
714.795171	9165.694853
715.128691	8927.195344
715.462162	8675.984566
715.795584	8621.277964
716.128957	8468.619223
716.462281	8304.885066
716.795556	8351.011624
717.128782	8142.948081
717.461960	7878.121146
717.795088	7951.054040
718.128167	7860.078857
718.461198	7694.303033
718.794180	7633.584856
719.127113	7622.867363
719.459997	7473.243396
719.792833	7244.763180
720.125619	7305.693086
720.458357	7162.441138
720.791046	7155.890158
721.123686	7154.100549
721.456278	6991.498131
721.788821	7010.765421
722.121315	6904.984370
722.453761	6972.409802
722.786158	6914.829743
723.118506	6923.326608
723.450805	6893.155302
723.783056	6959.927905
724.115259	6873.940944
724.447412	6859.041814
724.779518	6911.326141
725.111574	6915.079280
725.443582	6989.383367
725.775542	6972.109854
726.107453	7164.621437
726.439315	7075.738333
726.771129	7132.481560
727.102895	7304.019423
727.434612	7415.028151
727.766281	7442.910773
728.097901	7524.111159
728.429473	7518.447422
728.760996	7494.494380
729.092471	7469.306255
729.423897	7416.537977
729.755276	7426.625326
730.086606	7354.188986
730.417887	7456.625232
730.749120	7645.134139
731.080305	7841.812236
731.411442	7962.595761
731.742530	7953.428423
732.073570	8062.176194
732.404562	8150.479565
732.735506	7993.578693
733.066401	8140.180488
733.397249	8071.643481
733.728048	7829.985689
734.058798	7503.235741
734.389501	7280.822553
734.720156	7098.100891
735.050762	6870.397013
735.381320	6772.775069
735.711831	6721.451082
736.042293	6609.303053
736.372707	6632.769624
736.703073	6492.560012
737.033391	6531.187853
737.363661	6542.689246
737.693883	6573.024389
738.024056	6656.873901
738.354182	6700.810077
738.684260	6731.558595
739.014290	6846.322983
739.344272	6956.943542
739.674207	6989.761454
740.004093	7055.056999
740.333931	7068.789102
740.663722	7078.614311
740.993464	7152.835219
741.323159	7151.350599
741.652806	6899.741570
741.982405	6905.312045
742.311956	6963.161806
742.641460	6807.317055
742.970915	6605.907835
743.300323	6600.254181
743.629683	6550.654269
743.958996	6417.749289
744.288260	6328.470454
744.617477	6275.969357
744.946647	6279.888854
745.275768	6109.676815
745.604842	6063.751904
745.933869	6047.549635
746.262847	6008.790724
746.591778	6001.904508
746.920662	5958.699299
747.249498	5949.257218
747.578286	5992.956460
747.907027	6070.943110
748.235720	6129.342357
748.564365	6101.890753
748.892963	6129.954857
749.221514	6281.219719
749.550017	6116.883145
749.878473	5992.172560
750.206881	6046.581734
750.535242	5993.538713
750.863555	5915.751189
751.191821	5940.639365
751.520039	5943.197751
751.848210	5846.697463
752.176334	5865.942068
752.504411	5917.021559
752.832440	5847.007494
753.160421	5771.629641
753.488356	5819.399615
753.816243	5851.874728
754.144082	5706.636565
754.471875	5674.244631
754.799620	5720.524944
755.127318	5733.987346
755.454969	5685.635118
755.782572	5646.551053
756.110129	5693.922775
756.437638	5678.872411
756.765100	5614.791783
757.092515	5619.805211
757.419882	5666.703065
757.747203	5649.684130
758.074477	5711.498758
758.401703	5700.125915
758.728882	5646.666999
759.056014	5701.550041
759.383099	5836.337892
759.710138	5844.615467
760.037129	5829.441594
760.364073	5833.383776
760.690970	5915.103400
761.017820	5897.466924
761.344623	5850.432958
761.671379	5954.227795
761.998088	6068.941772
762.324751	6308.638555
762.651366	6905.339771
762.977935	8202.305147
763.304456	9824.954268
763.630931	10733.415561
763.957359	10352.695020
764.283740	9417.886136
764.610074	8593.307122
764.936362	7596.678568
765.262602	6995.473081
765.588796	6459.043900
765.914943	6123.285410
766.241044	5956.150996
766.567097	5759.845944
766.893104	5502.220297
767.219064	5320.174150
767.544978	5259.329943
767.870845	5181.759189
768.196665	5079.295216
768.522438	5007.050440
768.848165	4972.926870
769.173846	4905.773660
769.499479	4863.352350
769.825066	4812.439217
770.150607	4751.607613
770.476101	4728.193974
770.801548	4728.703131
771.126949	4651.013909
771.452303	4595.319241
771.777611	4551.100760
772.102872	4570.025252
772.428087	4533.214746
772.753256	4492.005834
773.078378	4445.929688
773.403453	4380.634143
773.728482	4362.155793
774.053465	4318.751459
774.378401	4307.761743
774.703291	4304.631187
775.028135	4235.506885
775.352932	4187.336140
775.677683	4175.486908
776.002388	4192.674722
776.327046	4200.758212
776.651658	4128.397490
776.976224	4067.517995
777.300743	4073.950507
777.625216	4094.062191
777.949643	4091.322324
778.274024	4044.006054
778.598359	4001.042820
778.922647	4025.802447
779.246889	4018.104605
779.571086	4012.574459
779.895236	3993.967561
780.219339	3983.673524
780.543397	3977.959377
780.867409	4026.379659
781.191374	4041.881207
781.515294	3977.568687
781.839167	3973.986947
782.162995	3992.760204
782.486776	3980.643791
782.810511	3990.088393
783.134201	3983.481961
783.457844	3942.421762
783.781441	3883.145355
784.104993	3891.906880
784.428498	3910.677617
784.751958	3907.786515
785.075372	3886.714492
785.398739	3847.070858
785.722061	3860.339175
786.045337	3903.335176
786.368568	3937.821710
786.691752	3848.777289
787.014891	3894.135070
787.337983	4021.212477
787.661030	4184.744987
787.984031	4340.617464
788.306987	4508.815562
788.629897	4594.323613
788.952760	4553.008837
789.275579	4482.089885
789.598351	4420.905400
789.921078	4280.932723
790.243759	4079.147937
790.566395	4060.084814
790.888984	4057.231521
791.211529	3951.783185
791.534027	3889.285480
791.856480	3880.861712
792.178888	3818.164882
792.501249	3769.041358
792.823566	3776.847585
793.145836	3809.957883
793.468062	3761.255296
793.790241	3714.203687
794.112375	3741.907348
794.434464	3804.775577
794.756507	3830.122499
795.078505	3810.751865
795.400457	3841.800332
795.722364	3980.953822
796.044226	4083.528700
796.366042	4157.497550
796.687812	4135.230774
797.009538	4146.323833
797.331218	4103.521916
797.652852	4074.406732
797.974442	4052.815470
798.295986	4058.945513
798.617484	3974.808655
798.938938	3884.572002
799.260346	3924.994494
799.581709	3924.883588
799.903026	3852.026312
800.224299	3813.244716
800.545526	3811.659273
800.866708	3770.281482
801.187845	3707.889642
801.508936	3747.200559
801.829983	3745.489088
802.150984	3663.892971
802.471940	3652.827639
802.792851	3666.703415
803.113717	3661.132940
803.434538	3667.212571
803.755314	3608.934312
804.076045	3584.172164
804.396731	3604.828292
804.717372	3632.985657
805.037967	3617.663070
805.358518	3605.193776
805.679024	3634.797952
805.999485	3643.766165
806.319901	3649.954181
806.640272	3664.568486
806.960598	3678.081299
807.280879	3653.946775
807.601115	3664.868435
807.921306	3679.752441
808.241453	3721.576374
808.561554	3694.770039
808.881611	3628.123464
809.201623	3666.640400
809.521590	3679.434849
809.841513	3648.315806
810.161390	3682.590611
810.481223	3655.786796
810.801011	3603.948611
811.120755	3594.824122
811.440453	3631.879124
811.760107	3634.566059
812.079716	3594.289760
812.399281	3560.115778
812.718801	3586.682659
813.038276	3558.923545
813.357707	3555.863565
813.677093	3574.276379
813.996434	3522.879295
814.315731	3527.471787
814.634983	3534.587375
814.954191	3546.595404
815.273354	3575.450968
815.592473	3570.873601
815.911547	3573.812593
816.230577	3614.741721
816.549562	3664.883558
816.868502	3708.068603
817.187399	3735.308477
817.506250	3730.993250
817.825058	3707.123386
818.143821	3795.792241
818.462539	3897.358888
818.781213	3940.526289
819.099843	3998.255062
819.418429	4239.002926
819.736970	4479.743227
820.055466	4723.316658
820.373919	5085.604220
820.692327	5494.343495
821.010691	5934.663077
821.329011	7290.415869
821.647286	10002.753243
821.965517	14536.003278
822.283704	18552.240136
822.601847	20731.190665
822.919945	18936.600390
823.237999	16381.683127
823.556010	13904.820569
823.873976	11814.246508
824.191897	9730.634279
824.509775	8384.310966
824.827609	7263.317147
825.145398	6711.646037
825.463144	6591.870743
825.780845	6708.437343
826.098502	6895.774182
826.416116	7758.360975
826.733685	9076.340401
827.051210	10186.646974
827.368692	10247.486139
827.686129	9001.708639
828.003522	7493.304668
828.320872	6476.292208
828.638177	5776.154077
828.955439	5219.325867
829.272656	4724.405547
829.589830	4440.838123
829.906960	4268.145836
830.224046	4084.310079
830.541088	3957.514977
830.858086	3911.174170
831.175041	3832.806913
831.491952	3818.918534
831.808819	3828.340451
832.125642	3900.660844
832.442421	4047.686096
832.759157	4316.896314
833.075849	4861.547617
833.392497	5721.475202
833.709101	6495.156206
834.025662	6830.997875
834.342179	6482.883517
834.658653	5820.770809
834.975083	5175.293909
835.291469	4601.214871
835.607811	4190.834701
835.924110	4050.390675
836.240366	3855.318186
836.556578	3652.270591
836.872746	3541.052655
837.188871	3501.146881
837.504952	3439.163374
837.820990	3352.057277
838.136984	3309.094043
838.452935	3332.192610
838.768842	3330.304698
839.084706	3348.742718
839.400526	3505.694002
839.716303	3839.804035
840.032037	4362.874158
840.347727	4630.793841
840.663373	4351.148434
840.978977	3973.913851
841.294537	3669.967562
841.610054	3443.723098
841.925527	3332.300995
842.240957	3262.501179
842.556344	3212.959239
842.871687	3152.072183
843.186987	3103.740121
843.502244	3067.181673
843.817458	3033.640356
844.132629	3004.265552
844.447756	3007.791839
844.762840	2994.624346
845.077881	2962.444140
845.392879	2944.858075
845.707833	2943.373455
846.022745	2938.019750
846.337613	2945.762962
846.652438	2930.871393
846.967221	2929.245621
847.281960	2916.383117
847.596656	2911.014288
847.911309	2907.530851
848.225919	2902.260325
848.540485	2898.050961
848.855009	2899.535581
849.169490	2886.352964
849.483928	2882.088148
849.798323	2879.585215
850.112675	2875.862323
850.426984	2887.903119
850.741251	2885.894219
851.055474	2875.300234
851.369654	2867.977958
851.683792	2872.194883
851.997887	2882.209135
852.311938	2884.260885
852.625947	2871.378216
852.939914	2875.927858
853.253837	2880.674104
853.567718	2864.796990
853.881555	2864.532329
854.195350	2878.806357
854.509103	2875.741335
854.822812	2870.425438
855.136479	2863.766074
855.450103	2866.236239
855.763685	2859.982688
856.077224	2857.827595
856.390720	2870.990048
856.704173	2880.598487
857.017584	2872.363762
857.330953	2868.182125
857.644278	2878.304762
857.957561	2889.985115
858.270802	2888.467728
858.584000	2888.719786
858.897155	2876.439535
859.210268	2875.070862
859.523339	2872.575490
859.836367	2873.477857
860.149352	2867.310005
860.462295	2862.480580
860.775195	2872.250336
861.088054	2872.895604
861.400869	2856.242152
861.713642	2849.003055
862.026373	2866.936960
862.339062	2866.397556
862.651708	2872.799822
862.964312	2877.404916
863.276873	2871.960470
863.589392	2879.454145
863.901869	2893.251783
864.214303	2913.539907
864.526696	2931.153698
864.839045	2925.535332
865.151353	2923.874272
865.463619	2923.400403
865.775842	2923.657502
866.088023	2944.122066
866.400162	2952.414764
866.712258	2921.240269
867.024313	2912.473703
867.336325	2920.090886
867.648296	2940.769699
867.960224	2931.612443
868.272110	2919.672470
868.583954	2923.821340
868.895755	2939.552260
869.207515	2927.667740
869.519233	2929.245621
869.830909	2938.596962
870.142542	2951.038529
870.454134	2952.684466
870.765684	2954.143880
871.077191	2953.919549
871.388657	2958.549849
871.700081	2973.010398
872.011463	2984.746205
872.322803	2986.006493
872.634101	2986.104796
872.945357	2999.534429
873.256571	3028.006866
873.567744	3019.457069
873.878874	3012.729650
874.189963	3035.918957
874.501010	3036.584390
874.812015	3028.561393
875.122979	3027.742206
875.433900	3024.551155
875.744780	3030.494676
876.055618	3035.319060
876.366415	3032.067516
876.677169	3046.049156
876.987882	3040.158568
877.298554	3036.319729
877.609183	3057.732030
877.919771	3078.967891
878.230317	3105.292796
878.540822	3157.030158
878.851285	3193.681867
879.161707	3238.490163
879.472087	3339.550174
879.782425	3559.591498
880.092722	3994.728775
880.402977	4516.788147
880.713191	5146.647552
881.023363	6282.333814
881.333494	7562.948208
881.643583	8120.903116
881.953631	7829.395874
882.263637	7200.229627
882.573602	6620.620443
882.883526	6040.965888
883.193408	5476.568386
883.503248	5018.622409
883.813048	4708.977096
884.122806	4409.535078
884.432522	4098.102676
884.742197	3865.493755
885.051831	3670.106193
885.361424	3533.538815
885.670975	3462.140953
885.980485	3378.082233
886.289954	3302.903506
886.599382	3257.465066
886.908768	3218.842266
887.218113	3176.221831
887.527417	3119.949951
887.836680	3066.221333
888.145901	3062.987433
888.455082	3057.132133
888.764221	3002.861591
889.073319	2975.967035
889.382376	2972.723053
889.691392	2978.837972
890.000366	2975.798157
890.309300	2960.407514
890.618193	2973.388485
890.927044	2994.281547
891.235855	2990.079745
891.544625	2977.544916
891.853353	2987.889364
892.162041	3007.239833
892.470687	3046.162582
892.779293	3097.678133
893.087858	3144.104639
893.396381	3212.681976
893.704864	3333.578927
894.013306	3569.073909
894.321707	3874.769478
894.630068	4079.261363
894.938387	4077.723811
895.246665	4029.459804
895.554903	3911.917741
895.863100	3714.549006
896.171256	3548.296793
896.479371	3409.259249
896.787446	3288.725261
897.095480	3181.683921
897.403473	3120.539766
897.711425	3082.264805
898.019336	3071.353228
898.327207	3044.012530
898.635038	3011.171933
898.942827	2992.590240
899.250576	2985.217553
899.558284	2950.368056
899.865952	2930.773091
900.173579	2910.358938
900.481165	2905.756365
900.788711	2892.367060
901.096216	2869.558360
901.403681	2854.467666
901.711105	2863.196424
902.018489	2862.248687
902.325832	2861.789942
902.633135	2871.738659
902.940397	2903.099677
903.247619	2981.933241
903.554800	3172.289731
903.861941	3516.648429
904.169041	3941.937812
904.476101	4242.433431
904.783121	4198.721586
905.090100	3957.605718
905.397039	3680.150692
905.703938	3433.958383
906.010796	3252.189498
906.317614	3140.303609
906.624391	3045.892880
906.931129	2975.654484
907.237826	2914.006213
907.544483	2866.528626
907.851099	2837.920078
908.157675	2815.444094
908.464211	2795.443316
908.770707	2783.402520
909.077163	2768.997423
909.383578	2753.637027
909.689954	2742.223855
909.996289	2740.913155
910.302584	2743.741242
910.608839	2745.936665
910.915054	2737.969121
911.221229	2730.528378
911.527363	2733.706825
911.833458	2740.492218
912.139513	2743.579925
912.445527	2748.437077
912.751502	2757.846391
913.057436	2763.016094
913.363331	2776.952364
913.669186	2799.829120
913.975000	2833.345231
914.280775	2894.504510
914.586510	2962.539922
914.892205	3040.897097
915.197859	3166.303360
915.503475	3359.553473
915.809050	3570.475349
916.114585	3716.671332
916.420081	3739.661514
916.725536	3681.383255
917.030952	3564.433527
917.336328	3434.757406
917.641665	3303.987354
917.946961	3205.397508
918.252218	3135.804380
918.557435	3057.961403
918.862612	2997.712052
919.167750	2947.860082
919.472848	2909.030594
919.777906	2885.246431
920.082925	2857.903212
920.387904	2828.898933
920.692843	2812.278249
920.997743	2798.266362
921.302603	2785.991152
921.607423	2777.249792
921.912204	2764.150353
922.216946	2752.674167
922.521647	2744.893146
922.826310	2737.623802
923.130932	2728.363202
923.435516	2721.928169
923.740059	2713.385934
924.044564	2708.047352
924.349028	2701.514017
924.653454	2694.032945
924.957840	2688.621266
925.262186	2684.643796
925.566493	2679.055677
925.870761	2675.960408
926.174989	2671.433452
926.479178	2667.922288
926.783328	2660.718479
927.087438	2660.763850
927.391509	2660.446257
927.695541	2657.247645
927.999533	2651.871254
928.303486	2650.863024
928.607400	2647.424957
928.911275	2649.091058
929.215110	2649.814464
929.518906	2646.429329
929.822663	2645.307672
930.126381	2646.008392
930.430060	2646.262971
930.733699	2647.089720
931.037299	2649.355719
931.340861	2652.403096
931.644383	2651.452839
931.947866	2649.995945
932.251309	2650.134577
932.554714	2647.908907
932.858080	2643.946561
933.161407	2645.796664
933.464694	2642.857671
933.767943	2638.386168
934.071153	2640.374903
934.374323	2644.581746
934.677455	2641.433545
934.980548	2639.144862
935.283602	2639.031436
935.586617	2640.624440
935.889593	2640.016981
936.192530	2638.819707
936.495428	2640.770634
936.798287	2641.912455
937.101108	2647.392189
937.403890	2650.903353
937.706632	2651.021820
938.009336	2658.654127
938.312002	2667.720642
938.614628	2676.973680
938.917216	2684.424505
939.219765	2683.557427
939.522275	2681.283867
939.824747	2679.164061
940.127179	2676.444359
940.429573	2674.584173
940.731929	2673.265911
941.034246	2668.030673
941.336524	2663.092863
941.638763	2660.821823
941.940964	2661.598161
942.243126	2658.707059
942.545250	2658.770073
942.847335	2654.076759
943.149381	2650.245482
943.451389	2649.242293
943.753359	2645.085861
944.055290	2644.034781
944.357182	2643.591159
944.659036	2643.626447
944.960851	2640.057310
945.262628	2640.707619
945.564367	2639.901035
945.866067	2642.419091
946.167729	2642.371200
946.469352	2643.417239
946.770937	2641.917496
947.072484	2640.637043
947.373992	2640.808442
947.675462	2638.131590
947.976893	2633.622277
948.278286	2630.340486
948.579641	2631.648666
948.880958	2628.971813
949.182236	2631.386526
949.483476	2633.302164
949.784678	2630.794190
950.085841	2631.431896
950.386967	2632.145219
950.688054	2633.529016
950.989103	2633.433234
951.290114	2635.618574
951.591087	2637.733338
951.892021	2637.617392
952.192917	2643.470172
952.493776	2643.790285
952.794596	2645.264822
953.095378	2641.037815
953.396122	2645.867240
953.696828	2642.754328
953.997496	2640.952115
954.298126	2637.612351
954.598718	2637.110756
954.899272	2631.817544
955.199788	2632.329222
955.500266	2628.233284
955.800706	2626.720938
956.101108	2622.861935
956.401472	2622.531739
956.701798	2620.543004
957.002087	2617.288939
957.302337	2619.007972
957.602550	2617.089813
957.902724	2613.873557
958.202861	2614.886829
958.502960	2611.534462
958.803022	2613.044287
959.103045	2611.007661
959.403031	2609.744852
959.702979	2611.587394
960.002889	2605.056579
960.302762	2608.116560
960.602596	2608.187136
960.902393	2607.206631
961.202153	2610.332147
961.501875	2608.867692
961.801559	2604.900303
962.101205	2605.474995
962.400814	2607.612444
962.700385	2605.227978
962.999918	2603.826538
963.299414	2602.099942
963.598873	2602.215889
963.898293	2599.838985
964.197677	2603.881990
964.497022	2607.463730
964.796331	2604.247474
965.095601	2604.764192
965.394835	2606.642022
965.694030	2603.753441
965.993189	2603.403081
966.292309	2602.208327
966.591393	2605.316199
966.890439	2603.332505
967.189447	2601.086671
967.488419	2603.657659
967.787353	2602.674634
968.086249	2603.629933
968.385108	2606.944491
968.683930	2602.362082
968.982714	2603.342587
969.281462	2600.212030
969.580172	2607.083123
969.878844	2603.738317
970.177480	2606.974738
970.476078	2606.412650
970.774639	2604.071034
971.073162	2604.068513
971.371649	2606.914244
971.670098	2605.429625
971.968510	2604.350818
972.266885	2604.607917
972.565223	2600.978286
972.863524	2607.443566
973.161788	2603.917278
973.460014	2604.255036
973.758204	2602.467947
974.056356	2603.897114
974.354471	2604.403750
974.652550	2605.043976
974.950591	2606.155551
975.248595	2605.656477
975.546563	2606.276538
975.844493	2603.400560
976.142386	2604.681013
976.440243	2605.845520
976.738062	2601.968872
977.035845	2604.426435
977.333590	2600.489294
977.631299	2601.893255
977.928971	2597.744386
978.226606	2596.998295
978.524204	2600.519541
978.821765	2596.771443
979.119290	2603.902155
979.416777	2600.098604
979.714228	2600.867380
980.011642	2600.459047
980.309020	2604.597834
980.606360	2601.331167
980.903664	2602.175560
981.200931	2601.210179
981.498162	2604.249995
981.795356	2602.730087
982.092513	2602.301589
982.389633	2606.289141
982.686717	2611.713423
982.983764	2615.085955
983.280775	2618.944958
983.577749	2619.638117
983.874686	2616.951182
984.171587	2618.546707
984.468451	2614.370111
984.765279	2609.086982
985.062070	2610.553957
985.358824	2604.320571
985.655543	2608.769389
985.952224	2606.324429
986.248869	2605.164964
986.545478	2601.089191
986.842050	2602.029366
987.138586	2601.789912
987.435086	2604.247474
987.731549	2601.794953
988.027975	2600.791763
988.324366	2601.305961
988.620719	2600.380909
988.917037	2599.029880
989.213318	2598.825713
989.509563	2599.975096
989.805772	2598.167842
990.101944	2598.119952
990.398080	2596.970568
990.694180	2598.124993
990.990244	2598.180445
991.286271	2594.671802
991.582262	2599.110538
991.878217	2599.004674
992.174136	2598.871083
992.470019	2598.286310
992.765865	2596.121134
993.061676	2596.438727
993.357450	2595.901844
993.653188	2592.461256
993.948890	2598.233377
994.244556	2595.969899
994.540186	2598.654314
994.835780	2598.198089
995.131337	2599.856629
995.426859	2599.987699
995.722345	2600.625405
996.017795	2601.086671
996.313208	2602.031887
996.608586	2601.089191
996.903928	2604.804522
997.199234	2603.934923
997.494504	2601.331167
997.789738	2602.188163
998.084936	2603.294696
998.380099	2598.858481
998.675225	2600.433841
998.970316	2603.350149
999.265371	2597.903182
999.560390	2599.312184
999.855373	2597.489807
1000.150320	2598.165322
1000.445232	2598.588779
1000.740108	2597.169694
1001.034948	2596.831937
1001.329752	2596.552153
1001.624521	2597.535178
1001.919254	2597.305805
1002.213951	2599.574324
1002.508613	2597.126844
1002.803239	2598.006526
1003.097829	2597.555342
1003.392384	2596.136257
1003.686903	2595.818665
1003.981386	2597.172215
1004.275834	2595.180959
1004.570246	2597.005857
1004.864623	2596.282451
1005.158964	2596.703387
1005.453270	2596.526947
1005.747540	2595.707759
1006.041775	2594.790269
1006.335974	2596.514344
1006.630138	2594.853284
1006.924266	2597.124324
1007.218359	2596.403439
1007.512416	2591.195927
1007.806438	2594.298757
1008.100425	2592.869590
1008.394376	2592.433530
1008.688292	2594.160125
1008.982172	2597.278079
1009.276017	2596.224478
1009.569827	2594.568459
1009.863602	2596.433686
1010.157341	2597.928388
1010.451045	2597.449478
1010.744714	2596.181628
1011.038347	2594.765064
1011.331945	2594.397059
1011.625508	2597.076433
1011.919036	2593.194744
1012.212528	2596.935280
1012.505986	2595.354879
1012.799408	2595.707759
1013.092795	2599.150867
1013.386147	2595.357399
1013.679464	2594.954107
1013.972745	2597.880497
1014.265992	2594.220619
1014.559204	2597.076433
1014.852380	2593.303129
1015.145521	2594.472677
1015.438628	2597.346134
1015.731699	2597.499890
1016.024736	2592.282295
1016.317737	2594.795311
1016.610703	2596.375712
1016.903635	2597.527616
1017.196531	2591.798345
1017.489393	2593.257759
1017.782219	2593.822368
1018.075011	2593.580392
1018.367768	2595.213726
1018.660490	2593.066195
1018.953177	2593.066195
1019.245829	2593.066195
