Dividing Wavelength (nm)	Counts (n)	Blue Motor Position (mm): 4.200000	Red Motor Position (mm): 0.000000	
326.493990	2063.813097
326.888308	2063.813097
327.282561	2063.813097
327.676750	2037.964580
328.070874	2041.085054
328.464933	2048.614018
328.858929	2055.603578
329.252859	2066.603375
329.646726	2079.531414
330.040528	2097.132603
330.434265	2112.843359
330.827938	2134.427059
331.221547	2155.035296
331.615091	2175.953564
332.008571	2195.417459
332.401986	2216.282795
332.795338	2236.742318
333.188625	2253.826788
333.581847	2274.661877
333.975006	2290.596964
334.368100	2310.169244
334.761129	2328.161122
335.154095	2341.757114
335.546996	2359.133971
335.939833	2372.752648
336.332606	2382.320758
336.725315	2397.749210
337.117960	2406.919068
337.510540	2415.544483
337.903056	2427.955803
338.295508	2433.072575
338.687896	2441.047680
339.080220	2443.651436
339.472480	2449.136211
339.864676	2454.699125
340.256807	2455.016717
340.648875	2456.723148
341.040879	2458.411934
341.432818	2461.189610
341.824694	2462.293623
342.216506	2461.850001
342.608253	2459.941925
342.999937	2461.557614
343.391557	2457.832202
343.783113	2457.101234
344.174605	2456.907150
344.566033	2453.905143
344.957397	2456.783642
345.348697	2449.330296
345.739934	2450.935903
346.131106	2444.498350
346.522215	2444.979780
346.913260	2442.161775
347.304241	2443.069183
347.695159	2439.880653
348.086012	2439.159768
348.476802	2436.500559
348.867528	2433.312029
349.258191	2429.659713
349.648789	2432.515527
350.039324	2426.214085
350.429796	2432.260949
350.820203	2428.263314
351.210548	2430.559559
351.600828	2427.804569
351.991045	2428.202820
352.381198	2428.679209
352.771288	2428.497727
353.161314	2430.254570
353.551276	2427.471853
353.941175	2430.773808
354.331010	2432.205496
354.720782	2428.661565
355.110490	2429.518561
355.500135	2427.847419
355.889717	2428.911102
356.279235	2429.490835
356.668689	2430.887234
357.058080	2432.639035
357.447408	2432.220620
357.836672	2431.386309
358.225873	2431.179621
358.615010	2430.945208
359.004084	2433.294385
359.393095	2431.950918
359.782043	2432.417225
360.170927	2435.325970
360.559748	2436.571135
360.948505	2434.857143
361.337199	2435.147009
361.725830	2433.617019
362.114398	2437.037442
362.502903	2437.526434
362.891344	2437.100457
363.279722	2436.556012
363.668037	2437.564243
364.056289	2438.232196
364.444478	2439.754624
364.832603	2440.893925
365.220665	2439.424428
365.608665	2440.626744
365.996601	2438.640529
366.384474	2442.847372
366.772284	2440.752772
367.160031	2441.894594
367.547715	2442.325613
367.935336	2441.501384
368.322893	2440.402412
368.710388	2438.194387
369.097820	2440.031887
369.485189	2434.867225
369.872495	2443.454831
370.259738	2442.912907
370.646918	2441.589604
371.034035	2442.620520
371.421090	2443.754780
371.808081	2445.572116
372.195010	2443.979111
372.581875	2445.340223
372.968678	2445.118412
373.355418	2445.420881
373.742096	2446.373659
374.128710	2442.444080
374.515262	2444.455500
374.901751	2445.282249
375.288177	2447.006324
375.674540	2447.926334
376.060841	2446.545058
376.447079	2449.791561
376.833254	2446.779472
377.219367	2446.156889
377.605417	2447.941458
377.991404	2448.135542
378.377329	2446.696293
378.763191	2449.897426
379.148991	2445.945161
379.534727	2447.971705
379.920402	2449.037909
380.306013	2448.906839
380.691563	2448.254009
381.077049	2449.161417
381.462474	2450.424226
381.847835	2452.612087
382.233134	2447.076900
382.618371	2452.609566
383.003545	2451.540842
383.388657	2447.765017
383.773706	2450.530090
384.158693	2452.372632
384.543618	2451.581171
384.928480	2450.215018
385.313280	2452.176027
385.698017	2450.207457
386.082692	2454.129474
386.467305	2449.718465
386.851856	2455.878755
387.236344	2452.828857
387.620770	2451.903805
388.005133	2450.298197
388.389435	2449.342899
388.773674	2449.025306
389.157851	2453.403548
389.541965	2454.409258
389.926018	2454.119392
390.310008	2454.278188
390.693936	2454.489917
391.077802	2454.923456
391.461606	2456.047633
391.845348	2456.355144
392.229027	2457.494444
392.612645	2454.825153
392.996200	2457.088632
393.379694	2454.379011
393.763125	2453.857252
394.146494	2457.076029
394.529801	2458.890844
394.913047	2456.576954
395.296230	2456.917232
395.679351	2456.488734
396.062410	2456.153497
396.445408	2457.945628
396.828343	2457.025617
397.211217	2459.321863
397.594028	2457.214660
397.976778	2460.380505
398.359466	2459.183231
398.742092	2457.474280
399.124656	2455.838425
399.507158	2458.926132
399.889598	2461.136678
400.271977	2462.437296
400.654294	2459.014352
401.036549	2459.364713
401.418742	2460.957717
401.800874	2459.836060
402.182944	2458.807665
402.564952	2461.355968
402.946898	2458.404373
403.328783	2459.818416
403.710606	2460.453602
404.092367	2460.771194
404.474067	2461.479477
404.855705	2463.248922
405.237282	2459.979733
405.618797	2461.986112
406.000250	2460.698098
406.381642	2462.686833
406.762972	2460.816565
407.144240	2457.232304
407.525447	2459.856225
407.906593	2456.735751
408.287677	2463.402677
408.668700	2461.227419
409.049661	2463.014508
409.430560	2463.448047
409.811399	2462.066771
410.192176	2463.173304
410.572891	2466.502986
410.953545	2465.366206
411.334138	2464.196658
411.714669	2464.824282
412.095139	2464.700774
412.475547	2464.395784
412.855894	2464.179014
413.236180	2464.925105
413.616405	2463.742955
413.996568	2466.079529
414.376670	2462.507872
414.756711	2464.988120
415.136691	2465.154478
415.516609	2464.047944
415.896466	2463.846298
416.276262	2465.202369
416.655997	2464.196658
417.035670	2468.229582
417.415283	2464.113479
417.794834	2463.717749
418.174324	2465.444344
418.553753	2465.388891
418.933121	2463.939560
419.312428	2467.526341
419.691674	2466.228243
420.070859	2465.376288
420.449983	2466.555918
420.829045	2469.739407
421.208047	2466.384519
421.586988	2468.272431
421.965867	2467.430559
422.344686	2467.589355
422.723444	2468.141361
423.102141	2468.411063
423.480777	2466.835702
423.859352	2468.020374
424.237866	2465.227574
424.616319	2468.463995
424.994712	2472.365848
425.373044	2472.138996
425.751314	2466.429890
426.129524	2466.626495
426.507673	2468.912658
426.885762	2463.460650
427.263789	2471.864253
427.641756	2468.547174
428.019662	2472.043214
428.397508	2471.914665
428.775292	2468.595065
429.153016	2469.522638
429.530679	2470.593883
429.908282	2470.919037
430.285824	2471.899542
430.663305	2473.220324
431.040726	2468.285034
431.418086	2472.799387
431.795385	2470.878708
432.172624	2472.721250
432.549802	2469.936012
432.926920	2469.459623
433.303977	2469.605817
433.680974	2470.442648
434.057910	2473.711836
434.434786	2469.724284
434.811601	2470.508183
435.188355	2470.790488
435.565050	2471.400467
435.941683	2469.804942
436.318257	2471.408029
436.694770	2471.662607
437.071222	2473.152268
437.447614	2473.603452
437.823946	2474.228555
438.200218	2475.882053
438.576429	2472.965746
438.952580	2471.561784
439.328670	2473.449696
439.704700	2473.293421
440.080670	2471.327371
440.456580	2472.938019
440.832429	2475.256950
441.208218	2473.918524
441.583947	2471.753348
441.959616	2473.782413
442.335224	2472.496918
442.710773	2471.564305
443.086261	2473.744604
443.461689	2473.479943
443.837057	2473.580766
444.212365	2472.970787
444.587612	2473.056486
444.962800	2470.251084
445.337927	2470.467854
445.712995	2469.351238
446.088002	2474.778040
446.462949	2475.808956
446.837837	2473.802577
447.212664	2473.769810
447.587431	2477.154944
447.962139	2476.623103
448.336786	2476.791981
448.711374	2475.990438
449.085901	2475.022536
449.460369	2474.909110
449.834776	2475.866930
450.209124	2473.535396
450.583412	2474.042032
450.957640	2474.997331
451.331808	2474.377269
451.705917	2474.747793
452.079965	2475.483802
452.453954	2476.328195
452.827883	2474.788123
453.201752	2477.951447
453.575562	2474.336939
453.949311	2477.076807
454.323001	2478.437918
454.696632	2475.627475
455.070202	2477.565798
455.443713	2475.801395
455.817164	2474.873822
456.190556	2477.255767
456.563888	2477.205356
456.937160	2480.847590
457.310373	2476.706282
457.683526	2477.820377
458.056619	2477.830459
458.429653	2474.939357
458.802628	2476.285345
459.175542	2474.276446
459.548398	2477.424646
459.921194	2475.982876
460.293930	2477.522949
460.666607	2476.723926
461.039224	2477.217959
461.411782	2476.116467
461.784280	2478.054790
462.156719	2479.158803
462.529099	2479.025213
462.901419	2477.898515
463.273680	2476.305510
463.645882	2473.946250
464.018024	2475.743421
464.390106	2472.169243
464.762130	2476.444142
465.134094	2477.066724
465.505999	2478.911787
465.877845	2477.535552
466.249631	2477.618731
466.621358	2476.166878
466.993026	2479.362970
467.364634	2481.064359
467.736184	2479.214256
468.107674	2479.869606
468.479105	2479.279791
468.850477	2477.333905
469.221790	2479.083186
469.593043	2480.141828
469.964238	2482.072590
470.335373	2479.501602
470.706449	2477.550675
471.077467	2479.824235
471.448425	2477.268370
471.819324	2480.567806
472.190164	2480.633341
472.560945	2480.744246
472.931667	2478.727784
473.302330	2481.419761
473.672934	2482.614514
474.043479	2478.077476
474.413965	2482.266674
474.784393	2479.872126
475.154761	2482.327168
475.525070	2479.408340
475.895321	2481.984370
476.265513	2479.927579
476.635645	2480.782055
477.005719	2480.832466
477.375734	2479.748618
477.745691	2480.615697
478.115588	2480.499750
478.485427	2481.548310
478.855207	2480.328351
479.224928	2480.706437
479.594591	2478.422795
479.964194	2478.576550
480.333739	2480.265336
480.703226	2477.578401
481.072653	2480.923207
481.442022	2479.909935
481.811333	2477.752321
482.180584	2478.483288
482.549777	2480.741725
482.918912	2476.224852
483.287988	2479.153762
483.657005	2480.388845
484.025964	2483.842035
484.394864	2480.777013
484.763706	2482.659884
485.132489	2483.048053
485.501213	2480.638382
485.869879	2480.560244
486.238487	2479.874647
486.607036	2483.947899
486.975527	2482.475882
487.343959	2480.877837
487.712333	2482.934627
488.080648	2479.211735
488.448905	2482.307004
488.817104	2485.472848
489.185244	2480.613176
489.553326	2484.293218
489.921350	2482.695172
490.289315	2482.057467
490.657222	2481.326499
491.025070	2480.545120
491.392861	2480.116622
491.760593	2485.056953
492.128267	2482.415388
492.495883	2481.729792
492.863440	2484.323465
493.230939	2481.913794
493.598380	2480.976139
493.965763	2481.263485
494.333088	2481.621407
494.700354	2483.345481
495.067563	2482.894298
495.434713	2482.047384
495.801805	2481.069400
496.168839	2482.206181
496.535815	2482.337251
496.902733	2484.192395
497.269593	2485.888743
497.636395	2482.485965
498.003139	2480.756849
498.369825	2484.020996
498.736453	2482.836325
499.103023	2484.847745
499.469535	2482.591829
499.835989	2485.475369
500.202385	2481.941520
500.568723	2477.197794
500.935003	2480.250213
501.301226	2478.727784
501.667390	2483.108547
502.033497	2484.860348
502.399546	2483.716006
502.765537	2483.030409
503.131470	2481.142497
503.497345	2483.995790
503.863163	2482.841366
504.228923	2481.752477
504.594625	2485.840852
504.960269	2483.214411
505.325856	2483.264823
505.691385	2482.433033
506.056856	2481.001345
506.422270	2483.224494
506.787625	2486.012252
507.152924	2483.405975
507.518164	2483.683239
507.883347	2481.686942
508.248472	2485.447642
508.613540	2482.475882
508.978550	2483.945379
509.343503	2484.041161
509.708398	2483.557210
510.073236	2481.107209
510.438016	2485.871099
510.802738	2482.770790
511.167403	2482.493526
511.532010	2484.767087
511.896561	2488.270689
512.261053	2483.232055
512.625488	2485.011583
512.989866	2485.233393
513.354186	2484.078969
513.718449	2485.092241
514.082655	2486.372694
514.446803	2484.769607
514.810894	2487.078456
515.174927	2484.789772
515.538904	2485.334217
515.902822	2486.045019
516.266684	2485.671974
516.630488	2484.056284
516.994235	2486.735657
517.357925	2483.443784
517.721558	2486.279433
518.085133	2482.788434
518.448651	2481.830615
518.812112	2481.896150
519.175516	2484.683908
519.538863	2478.715182
519.902152	2486.110554
520.265385	2484.232724
520.628560	2486.355050
520.991678	2484.192395
521.354739	2483.690800
521.717743	2485.939155
522.080690	2488.933600
522.443580	2482.974957
522.806413	2485.661892
523.169189	2485.157776
523.531908	2487.612818
523.894569	2484.870430
524.257174	2483.282467
524.619722	2485.729947
524.982213	2485.435040
525.344647	2484.199957
525.707025	2486.322283
526.069345	2485.631645
526.431608	2485.858497
526.793815	2485.775318
527.155964	2485.258599
527.518057	2486.549135
527.880093	2486.105513
528.242072	2487.232211
528.603995	2483.133753
528.965860	2484.701552
529.327669	2482.196098
529.689421	2485.387149
530.051117	2483.214411
530.412755	2486.160966
530.774337	2483.983187
531.135862	2486.191213
531.497331	2483.736171
531.858743	2484.522591
532.220098	2486.226501
532.581396	2487.685915
532.942638	2487.118785
533.303824	2485.193064
533.664953	2487.126347
534.026025	2487.451501
534.387040	2488.837818
534.747999	2485.477889
535.108902	2486.816316
535.469748	2484.734319
535.830537	2486.244145
536.191270	2487.141470
536.551947	2483.864720
536.912567	2481.596201
537.273131	2485.364463
537.633638	2481.089565
537.994089	2486.952427
538.354483	2487.161635
538.714821	2487.948055
539.075103	2485.528301
539.435328	2487.799341
539.795497	2484.643578
540.155609	2482.107878
540.515665	2484.726758
540.875665	2486.685246
541.235609	2486.095431
541.595496	2487.622900
541.955328	2485.429998
542.315102	2487.169197
542.674821	2487.678353
543.034483	2485.944196
543.394090	2485.424957
543.753640	2485.918990
544.113134	2484.988898
544.472571	2485.679536
544.831953	2485.702221
545.191278	2485.976964
545.550548	2486.939824
545.909761	2486.007211
546.268918	2483.446304
546.628019	2484.777169
546.987064	2486.576861
547.346053	2483.421099
547.704986	2486.309680
548.063863	2485.704741
548.422684	2483.905049
548.781449	2487.774135
549.140158	2486.927221
549.498811	2484.540235
549.857408	2486.407982
550.215949	2488.893271
550.574434	2485.208188
550.932864	2485.641727
551.291237	2487.759012
551.649555	2485.621562
552.007817	2484.550317
552.366022	2486.042499
552.724173	2483.826912
553.082267	2485.828250
553.440305	2489.568786
553.798288	2485.987046
554.156215	2485.359422
554.514086	2483.171562
554.871902	2483.040492
555.229661	2483.710965
555.587365	2480.378762
555.945014	2486.135760
556.302606	2484.941007
556.660143	2485.659371
557.017625	2487.756491
557.375050	2488.318580
557.732421	2486.236583
558.089735	2486.871768
558.446994	2486.496203
558.804197	2488.237921
559.161345	2486.705410
559.518437	2485.314052
559.875474	2485.377066
560.232455	2485.815647
560.589381	2484.739360
560.946251	2486.486120
561.303065	2484.762046
561.659825	2487.736326
562.016528	2485.157776
562.373177	2488.515185
562.729770	2486.254227
563.086307	2487.048209
563.442789	2487.416213
563.799216	2487.693477
564.155587	2485.283805
564.511904	2488.739516
564.868164	2486.854124
565.224370	2484.941007
565.580520	2485.714824
565.936615	2491.784373
566.292654	2484.550317
566.648638	2487.748929
567.004567	2487.204485
567.360441	2488.069043
567.716260	2485.583754
568.072023	2483.668115
568.427732	2484.169710
568.783385	2484.658702
569.138982	2486.715493
569.494525	2486.501244
569.850013	2485.467807
570.205445	2485.563589
570.560823	2487.990905
570.916145	2483.842035
571.271412	2489.659527
571.626625	2487.701038
571.981782	2486.745740
572.336884	2484.913280
572.691931	2482.841366
573.046923	2484.174751
573.401860	2481.492857
573.756743	2485.727427
574.111570	2486.244145
574.466342	2487.741367
574.821059	2485.775317
575.175722	2485.188023
575.530330	2487.262458
575.884882	2487.000318
576.239380	2487.832108
576.593823	2491.053406
576.948211	2488.371512
577.302544	2488.583240
577.656823	2484.958651
578.011047	2486.566779
578.365216	2487.378404
578.719330	2487.171717
579.073389	2487.418734
579.427394	2488.784886
579.781344	2489.084835
580.135239	2487.363281
580.489080	2489.412510
580.842866	2485.152735
581.196597	2488.986532
581.550273	2489.581389
581.903895	2486.012252
582.257463	2488.396718
582.610975	2488.028713
582.964434	2487.897643
583.317837	2487.658188
583.671186	2490.849239
584.024481	2487.060812
584.377721	2485.167858
584.730906	2486.019813
585.084037	2486.397900
585.437113	2486.584423
585.790135	2486.629793
586.143103	2486.286995
586.496016	2486.276912
586.848874	2489.473004
587.201679	2488.530308
587.554428	2490.266986
587.907124	2487.436378
588.259765	2487.020482
588.612352	2487.002838
588.964884	2488.041316
589.317362	2489.228508
589.669786	2487.005359
590.022155	2486.014772
590.374470	2479.899853
590.726731	2486.125678
591.078937	2482.922024
591.431090	2485.795482
591.783188	2485.409834
592.135232	2487.411172
592.487222	2486.337406
592.839157	2488.058960
593.191038	2486.992756
593.542866	2487.320431
593.894639	2485.722385
594.246358	2485.893785
594.598022	2489.331852
594.949633	2487.733806
595.301190	2486.511326
595.652692	2488.096769
596.004141	2488.391676
596.355535	2485.215749
596.706876	2486.654999
597.058162	2485.727427
597.409395	2487.242293
597.760573	2485.571151
598.111698	2486.037458
598.462768	2486.037457
598.813785	2486.607108
599.164748	2488.391676
599.515657	2487.007880
599.866511	2486.435709
600.217312	2489.082314
600.568060	2486.450832
600.918753	2491.686070
601.269392	2487.789258
601.619978	2489.783035
601.970510	2486.443270
602.320988	2489.740185
602.671412	2487.249855
603.021783	2487.660709
603.372100	2486.453353
603.722363	2486.808754
604.072572	2488.061481
604.422728	2486.201295
604.772830	2484.353712
605.122878	2489.089876
605.472872	2488.888230
605.822813	2486.259268
606.172701	2485.344299
606.522534	2483.486634
606.872314	2487.844711
607.222041	2484.802375
607.571714	2484.865389
607.921333	2480.656026
608.270899	2486.057622
608.620411	2482.483444
608.969870	2488.220277
609.319276	2485.324134
609.668627	2487.280102
610.017926	2484.603249
610.367171	2484.101654
610.716362	2485.830770
611.065500	2487.597695
611.414585	2486.718013
611.763616	2486.778507
612.112594	2486.292036
612.461518	2487.401090
612.810389	2486.443270
613.159207	2485.858497
613.507971	2488.852942
613.856682	2486.352530
614.205340	2486.627273
614.553945	2485.830770
614.902496	2488.089207
615.250994	2486.758343
615.599439	2487.199443
615.947830	2487.446460
616.296169	2488.391676
616.644454	2485.674494
616.992686	2486.385297
617.340864	2486.924701
617.688990	2487.116264
618.037063	2489.551142
618.385082	2484.903198
618.733048	2489.236070
619.080961	2485.924032
619.428821	2489.357057
619.776628	2483.862200
620.124382	2489.944352
620.472083	2485.563589
620.819731	2486.372694
621.167326	2484.391521
621.514868	2485.591315
621.862357	2487.943014
622.209793	2488.830257
622.557176	2487.701038
622.904506	2486.745740
623.251783	2486.763384
623.599007	2488.205154
623.946179	2488.101810
624.293297	2487.055771
624.640363	2488.169866
624.987376	2485.107365
625.334336	2482.037302
625.681243	2484.598208
626.028097	2482.299442
626.374899	2486.138281
626.721647	2486.395379
627.068343	2486.793631
627.414987	2488.273209
627.761577	2487.706079
628.108115	2487.600215
628.454600	2487.643065
628.801032	2487.852273
629.147412	2487.973261
629.493739	2485.084679
629.840014	2484.061325
630.186236	2485.054433
630.532405	2485.659371
630.878521	2488.610967
631.224585	2484.492344
631.570597	2487.340596
631.916556	2485.072077
632.262462	2488.132057
632.608316	2485.626603
632.954117	2488.038796
633.299866	2486.259268
633.645562	2483.524442
633.991206	2483.985708
634.336797	2484.641058
634.682336	2485.518219
635.027823	2486.990236
635.373257	2487.900164
635.718639	2483.963023
636.063968	2490.093066
636.409245	2485.697180
636.754470	2486.095431
637.099642	2485.372025
637.444762	2486.740698
637.789829	2487.461583
638.134845	2486.014772
638.479808	2487.212046
638.824719	2487.877479
639.169577	2488.255565
639.514383	2487.980822
639.859137	2488.389156
640.203839	2486.428147
640.548489	2486.355050
640.893086	2485.079638
641.237632	2486.513847
641.582125	2486.105513
641.926566	2486.876810
642.270955	2487.015441
642.615292	2481.770121
642.959576	2483.279946
643.303809	2480.658546
643.647990	2486.959989
643.992118	2483.963023
644.336195	2486.095431
644.680219	2485.593836
645.024192	2486.755822
645.368112	2487.360760
645.711981	2488.124495
646.055797	2486.884371
646.399562	2488.477376
646.743274	2486.087869
647.086935	2486.899495
647.430544	2485.230873
647.774101	2485.039309
648.117606	2486.702890
648.461059	2486.657519
648.804460	2489.175576
649.147810	2486.415544
649.491108	2486.289515
649.834354	2487.716162
650.177548	2487.955617
650.520690	2488.532829
650.863781	2486.493682
651.206820	2485.130050
651.549807	2486.087869
651.892742	2487.625421
652.235626	2487.577530
652.578458	2485.223311
652.921238	2486.569299
653.263967	2484.608290
653.606644	2483.658033
653.949269	2485.901346
654.291843	2488.036275
654.634365	2486.100472
654.976836	2486.271871
655.319255	2485.223311
655.661622	2484.517550
656.003938	2484.996459
656.346203	2483.501757
656.688416	2487.023003
657.030577	2486.660040
657.372687	2485.119968
657.714746	2486.042499
658.056753	2485.772797
658.398708	2482.614514
658.740612	2487.827067
659.082465	2483.353043
659.424266	2483.607621
659.766016	2483.592498
660.107715	2485.548466
660.449362	2482.377580
660.790958	2485.757673
661.132503	2486.576861
661.473996	2487.428816
661.815438	2486.932262
662.156829	2484.167189
662.498168	2484.031078
662.839456	2486.483600
663.180693	2483.494195
663.521879	2490.183807
663.863013	2486.980153
664.204097	2487.885040
664.545129	2486.841522
664.886110	2487.869917
665.227040	2488.416882
665.567918	2486.342447
665.908746	2485.591315
666.249522	2487.592653
666.590248	2483.529483
666.930922	2485.379587
667.271545	2484.361274
667.612118	2483.758856
667.952639	2483.947899
668.293109	2485.548466
668.633528	2485.329175
668.973896	2485.636686
669.314213	2485.258599
669.654480	2485.782879
669.994695	2484.341109
670.334859	2489.054588
670.674973	2488.517705
671.015035	2485.074597
671.355047	2483.078300
671.695008	2484.482262
672.034918	2485.429998
672.374777	2485.906387
672.714585	2485.205667
673.054342	2486.377735
673.394049	2485.641727
673.733705	2488.895792
674.073310	2488.278250
674.412864	2484.225163
674.752368	2483.937817
675.091820	2485.155256
675.431223	2484.956130
675.770574	2486.541573
676.109875	2485.830770
676.449125	2482.405306
676.788324	2480.522435
677.127473	2483.766418
677.466571	2478.715182
677.805619	2486.428147
678.144616	2484.177272
678.483562	2489.077273
678.822458	2485.881182
679.161303	2489.092397
679.500098	2484.520070
679.838842	2486.080307
680.177535	2485.200626
680.516179	2486.518888
680.854771	2485.180461
681.193314	2487.249855
681.531805	2488.258086
681.870247	2487.093579
682.208638	2484.963692
682.546978	2488.164824
682.885268	2487.658188
683.223508	2485.422437
683.561697	2485.873620
683.899836	2486.665081
684.237925	2487.854793
684.575963	2486.667602
684.913951	2484.971253
685.251889	2487.025524
685.589776	2484.046202
685.927614	2486.304639
686.265401	2483.370687
686.603137	2487.259937
686.940824	2484.961171
687.278460	2487.953096
687.616046	2483.005203
687.953582	2487.867396
688.291068	2485.815647
688.628504	2488.079125
688.965889	2483.509319
689.303224	2486.390338
689.640510	2485.412354
689.977745	2486.425626
690.314930	2487.244814
690.652065	2486.700369
690.989150	2486.682725
691.326185	2487.481748
691.663170	2484.903198
692.000105	2485.760194
692.336990	2486.534011
692.673825	2485.694659
693.010610	2483.196767
693.347345	2481.858341
693.684030	2481.598722
694.020665	2481.122333
694.357251	2479.862044
694.693786	2485.495533
695.030272	2484.567961
695.366707	2484.963692
695.703093	2484.951089
696.039429	2486.360091
696.375716	2486.536532
696.711952	2485.893785
697.048139	2486.105513
697.384276	2488.174907
697.720363	2483.955461
698.056400	2484.903198
698.392388	2488.358909
698.728326	2486.518888
699.064214	2482.427991
699.400053	2485.021665
699.735842	2484.285657
700.071581	2484.386480
700.407270	2484.157107
700.742910	2486.844042
701.078501	2484.237766
701.414042	2484.252889
701.749533	2486.866727
702.084974	2484.820019
702.420366	2483.098465
702.755709	2484.250368
703.091002	2484.709113
703.426246	2485.528301
703.761440	2484.285657
704.096584	2483.534525
704.431679	2485.457725
704.766725	2482.919504
705.101721	2484.973774
705.436668	2484.787251
705.771565	2485.089721
706.106413	2484.726758
706.441212	2483.509319
706.775961	2485.424957
707.110661	2483.307673
707.445311	2486.823877
707.779913	2486.899495
708.114465	2484.797334
708.448967	2482.160810
708.783421	2484.935965
709.117825	2483.748774
709.452180	2486.743219
709.786485	2482.672487
710.120742	2483.716006
710.454949	2482.813640
710.789107	2484.124340
711.123216	2481.518063
711.457275	2483.862200
711.791286	2484.673825
712.125247	2483.403455
712.459159	2484.136943
712.793023	2484.204998
713.126837	2485.674494
713.460602	2485.031747
713.794318	2481.293732
714.127985	2483.330358
714.461602	2485.064515
714.795171	2486.047540
715.128691	2484.691469
715.462162	2485.346819
715.795584	2483.534525
716.128957	2485.361943
716.462281	2485.122488
716.795556	2486.660040
717.128782	2481.205512
717.461960	2483.965543
717.795088	2483.647951
718.128167	2483.171562
718.461198	2485.167858
718.794180	2484.492344
719.127113	2480.267857
719.459997	2484.497385
719.792833	2483.889926
720.125619	2485.314052
720.458357	2482.009576
720.791046	2486.259268
721.123686	2484.681387
721.456278	2483.700883
721.788821	2483.985708
722.121315	2486.781028
722.453761	2482.233907
722.786158	2487.965699
723.118506	2486.758342
723.450805	2485.440081
723.783056	2484.555358
724.115259	2484.769607
724.447412	2485.976964
724.779518	2485.130050
725.111574	2482.750625
725.443582	2486.256748
725.775542	2481.031592
726.107453	2485.467807
726.439315	2483.726088
726.771129	2486.876810
727.102895	2480.300624
727.434612	2483.111068
727.766281	2479.957826
728.097901	2483.756335
728.429473	2482.417909
728.760996	2484.570482
729.092471	2482.249030
729.423897	2484.797334
729.755276	2483.458907
730.086606	2484.323465
730.417887	2482.569144
730.749120	2487.930411
731.080305	2482.675008
731.411442	2482.680049
731.742530	2481.787765
732.073570	2484.633496
732.404562	2480.643423
732.735506	2483.451346
733.066401	2483.867241
733.397249	2485.646768
733.728048	2481.689462
734.058798	2487.575009
734.389501	2484.951089
734.720156	2483.595018
735.050762	2484.600729
735.381320	2482.473362
735.711831	2482.186016
736.042293	2484.008393
736.372707	2482.359936
736.703073	2482.773310
737.033391	2484.283136
737.363661	2484.741881
737.693883	2484.930924
738.024056	2482.143166
738.354182	2485.414875
738.684260	2483.690800
739.014290	2485.382108
739.344272	2485.881182
739.674207	2482.687611
740.004093	2484.235245
740.333931	2483.519401
740.663722	2485.296408
740.993464	2484.061325
741.323159	2484.076449
741.652806	2484.084010
741.982405	2481.039153
742.311956	2486.241624
742.641460	2485.104844
742.970915	2484.872951
743.300323	2481.424802
743.629683	2478.531179
743.958996	2479.463793
744.288260	2479.055459
744.617477	2484.101654
744.946647	2487.204485
745.275768	2485.820688
745.604842	2484.328506
745.933869	2482.249030
746.262847	2482.317086
746.591778	2483.652992
746.920662	2480.555203
747.249498	2484.020996
747.578286	2483.184164
747.907027	2483.824391
748.235720	2483.955461
748.564365	2483.078300
748.892963	2481.671818
749.221514	2484.419247
749.550017	2485.230873
749.878473	2485.402272
750.206881	2484.343630
750.535242	2481.863382
750.863555	2483.060656
751.191821	2482.889257
751.520039	2483.221973
751.848210	2485.233393
752.176334	2483.829432
752.504411	2482.128043
752.832440	2481.886067
753.160421	2483.121150
753.488356	2483.211891
753.816243	2483.156438
754.144082	2484.275574
754.471875	2484.416727
754.799620	2482.652323
755.127318	2483.733650
755.454969	2483.085862
755.782572	2483.892447
756.110129	2480.973618
756.437638	2484.583085
756.765100	2485.747591
757.092515	2483.479072
757.419882	2483.589977
757.747203	2486.861686
758.074477	2483.526963
758.401703	2483.254741
758.728882	2484.424288
759.056014	2485.016624
759.383099	2482.876654
759.710138	2482.793475
760.037129	2478.906745
760.364073	2479.443628
760.690970	2478.579070
761.017820	2483.922693
761.344623	2482.758187
761.671379	2484.139463
761.998088	2483.252220
762.324751	2482.740543
762.651366	2484.325986
762.977935	2485.460245
763.304456	2483.849597
763.630931	2482.884216
763.957359	2484.320945
764.283740	2483.998311
764.610074	2481.860862
764.936362	2483.393372
765.262602	2484.963692
765.588796	2483.869761
765.914943	2483.108547
766.241044	2481.470172
766.567097	2483.267343
766.893104	2484.378918
767.219064	2483.484113
767.544978	2481.790285
767.870845	2482.178454
768.196665	2481.689462
768.522438	2484.736840
768.848165	2484.265492
769.173846	2484.043681
769.499479	2481.298773
769.825066	2482.919504
770.150607	2484.089052
770.476101	2483.388331
770.801548	2483.131232
771.126949	2483.902529
771.452303	2483.698362
771.777611	2483.191726
772.102872	2484.683908
772.428087	2483.022848
772.753256	2482.150728
773.078378	2481.974287
773.403453	2481.699545
773.728482	2481.883547
774.053465	2481.356746
774.378401	2481.092086
774.703291	2482.208701
775.028135	2485.190544
775.352932	2482.990080
775.677683	2484.444453
776.002388	2482.193578
776.327046	2477.591004
776.651658	2480.852631
776.976224	2478.079996
777.300743	2482.047384
777.625216	2484.147025
777.949643	2482.687611
778.274024	2485.369505
778.598359	2482.851448
778.922647	2483.716006
779.246889	2482.097796
779.571086	2481.437405
779.895236	2482.705255
780.219339	2483.164000
780.543397	2481.354226
780.867409	2482.284318
781.191374	2484.595688
781.515294	2481.339102
781.839167	2482.911942
782.162995	2480.557723
782.486776	2483.506798
782.810511	2482.236427
783.134201	2482.881695
783.457844	2482.974957
783.781441	2485.074597
784.104993	2482.440594
784.428498	2482.783393
784.751958	2483.335399
785.075372	2483.877323
785.398739	2482.954792
785.722061	2482.586788
786.045337	2481.618886
786.368568	2483.146356
786.691752	2483.436222
787.014891	2480.945892
787.337983	2481.379431
787.661030	2480.235089
787.984031	2482.780872
788.306987	2482.435553
788.629897	2481.018989
788.952760	2482.841366
789.275579	2480.650985
789.598351	2482.324648
789.921078	2482.879175
790.243759	2479.995635
790.566395	2481.450007
790.888984	2483.322796
791.211529	2482.816160
791.534027	2484.386480
791.856480	2483.554689
792.178888	2482.314565
792.501249	2478.931951
792.823566	2480.940851
793.145836	2475.453555
793.468062	2483.968064
793.790241	2482.589308
794.112375	2482.695173
794.434464	2482.372539
794.756507	2480.766931
795.078505	2482.677528
795.400457	2481.626448
795.722364	2481.848259
796.044226	2483.680718
796.366042	2482.349853
796.687812	2482.385142
797.009538	2482.997642
797.331218	2486.937303
797.652852	2485.361943
797.974442	2481.921355
798.295986	2482.105357
798.617484	2480.436736
798.938938	2483.403455
799.260346	2480.189719
799.581709	2483.453866
799.903026	2484.434371
800.224299	2482.995121
800.545526	2484.331027
800.866708	2485.208188
801.187845	2482.291880
801.508936	2482.175934
801.829983	2481.772641
802.150984	2482.720378
802.471940	2483.569813
802.792851	2483.839514
803.113717	2481.366828
803.434538	2482.705255
803.755314	2483.501757
804.076045	2481.097127
804.396731	2481.845738
804.717372	2481.717189
805.037967	2482.478403
805.358518	2480.739205
805.679024	2481.104688
805.999485	2480.373721
806.319901	2481.709627
806.640272	2484.484782
806.960598	2481.379431
807.280879	2482.599391
807.601115	2482.203660
807.921306	2482.740543
808.241453	2478.027064
808.561554	2481.208032
808.881611	2481.863382
809.201623	2476.476909
809.521590	2479.952785
809.841513	2481.150059
810.161390	2481.838176
810.481223	2481.460090
810.801011	2480.701396
811.120755	2484.020996
811.440453	2479.403299
811.760107	2480.766931
812.079716	2482.123002
812.399281	2483.169041
812.718801	2482.675008
813.038276	2481.137456
813.357707	2481.016468
813.677093	2483.123671
813.996434	2481.646612
814.315731	2480.673670
814.634983	2481.344143
814.954191	2481.815491
815.273354	2485.233393
815.592473	2482.357415
815.911547	2479.557054
816.230577	2481.979329
816.549562	2484.850266
816.868502	2482.503609
817.187399	2481.596201
817.506250	2483.468990
817.825058	2482.385142
818.143821	2481.684421
818.462539	2482.985039
818.781213	2480.187198
819.099843	2482.352374
819.418429	2480.605614
819.736970	2481.187867
820.055466	2482.901860
820.373919	2480.217445
820.692327	2480.323310
821.010691	2480.257775
821.329011	2484.023517
821.647286	2482.617035
821.965517	2482.397744
822.283704	2482.125522
822.601847	2483.615183
822.919945	2479.042857
823.237999	2484.111737
823.556010	2481.969246
823.873976	2483.678197
824.191897	2479.022692
824.509775	2477.555716
824.827609	2479.655357
825.145398	2476.555047
825.463144	2480.303145
825.780845	2481.321458
826.098502	2483.683239
826.416116	2483.141315
826.733685	2481.278608
827.051210	2482.758187
827.368692	2481.644092
827.686129	2480.587970
828.003522	2481.505460
828.320872	2480.842548
828.638177	2482.087713
828.955439	2481.752477
829.272656	2482.559061
829.589830	2480.756849
829.906960	2480.240131
830.224046	2480.020840
830.541088	2483.678197
830.858086	2480.255254
831.175041	2481.197950
831.491952	2481.122333
831.808819	2478.120325
832.125642	2482.009576
832.442421	2486.463435
832.759157	2481.611324
833.075849	2481.795327
833.392497	2481.497898
833.709101	2481.762559
834.025662	2484.328506
834.342179	2480.635861
834.658653	2482.859010
834.975083	2482.206181
835.291469	2484.235245
835.607811	2482.115440
835.924110	2480.509832
836.240366	2483.143835
836.556578	2481.422281
836.872746	2483.146356
837.188871	2481.450008
837.504952	2482.433032
837.820990	2481.951602
838.136984	2478.632002
838.452935	2481.618886
838.768842	2481.248361
839.084706	2482.465800
839.400526	2482.080152
839.716303	2479.640233
840.032037	2482.327168
840.347727	2479.078145
840.663373	2481.679380
840.978977	2476.474389
841.294537	2481.482775
841.610054	2480.855151
841.925527	2479.325161
842.240957	2479.441108
842.556344	2478.813484
842.871687	2479.983032
843.186987	2481.202991
843.502244	2478.173258
843.817458	2478.669811
844.132629	2480.550162
844.447756	2482.175934
844.762840	2476.749132
845.077881	2484.265492
845.392879	2478.153093
845.707833	2480.477065
846.022745	2479.761221
846.337613	2477.986735
846.652438	2481.578557
846.967221	2479.630151
847.281960	2478.263998
847.596656	2479.998155
847.911309	2481.271047
848.225919	2481.381952
848.540485	2476.842393
848.855009	2482.044864
849.169490	2480.872795
849.483928	2481.921355
849.798323	2481.384472
850.112675	2482.962354
850.426984	2482.702734
850.741251	2480.320789
851.055474	2477.563278
851.369654	2478.231231
851.683792	2480.030923
851.997887	2481.548310
852.311938	2478.332054
852.625947	2482.654843
852.939914	2478.833649
853.253837	2480.746767
853.567718	2479.655357
853.881555	2480.726602
854.195350	2477.787609
854.509103	2482.140646
854.822812	2481.071921
855.136479	2483.456387
855.450103	2481.407158
855.763685	2480.421612
856.077224	2473.149748
856.390720	2478.606797
856.704173	2478.301807
857.017584	2484.141984
857.330953	2480.701396
857.644278	2480.595532
857.957561	2482.153248
858.270802	2480.161993
858.584000	2480.769452
858.897155	2480.562764
859.210268	2483.685759
859.523339	2480.577888
859.836367	2478.974801
860.149352	2480.499750
860.462295	2479.995635
860.775195	2481.288691
861.088054	2480.096458
861.400869	2481.830615
861.713642	2479.231900
862.026373	2478.032105
862.339062	2481.843217
862.651708	2478.584112
862.964312	2481.369349
863.276873	2481.752477
863.589392	2481.056798
863.901869	2482.337251
864.214303	2479.705768
864.526696	2479.123515
864.839045	2480.603094
865.151353	2480.499750
865.463619	2477.038998
865.775842	2481.807929
866.088023	2479.249544
866.400162	2478.574029
866.712258	2478.528659
867.024313	2479.274750
867.336325	2477.931282
867.648296	2481.639051
867.960224	2479.153762
868.272110	2481.225676
868.583954	2480.434215
868.895755	2480.703917
869.207515	2481.661736
869.519233	2481.505460
869.830909	2481.240800
870.142542	2481.739874
870.454134	2479.806591
870.765684	2480.761890
871.077191	2480.056128
871.388657	2477.674183
871.700081	2472.887608
872.011463	2478.647126
872.322803	2472.265025
872.634101	2484.421768
872.945357	2479.673001
873.256571	2482.281798
873.567744	2479.171406
873.878874	2477.989255
874.189963	2481.263485
874.501010	2481.437405
874.812015	2481.628968
875.122979	2480.285501
875.433900	2478.841210
875.744780	2478.974801
876.055618	2477.563278
876.366415	2480.441777
876.677169	2479.287352
876.987882	2480.240131
877.298554	2483.519401
877.609183	2478.528659
877.919771	2479.930100
878.230317	2479.804071
878.540822	2482.995121
878.851285	2479.851962
879.161707	2481.306335
879.472087	2479.788947
879.782425	2479.448669
880.092722	2480.192240
880.402977	2476.131590
880.713191	2482.929586
881.023363	2480.424133
881.333494	2480.265336
881.643583	2479.486478
881.953631	2482.410347
882.263637	2481.865903
882.573602	2480.300624
882.883526	2479.713330
883.193408	2479.473875
883.503248	2477.908597
883.813048	2481.558392
884.122806	2480.214925
884.432522	2480.522435
884.742197	2480.139308
885.051831	2480.227528
885.361424	2478.916828
885.670975	2479.811633
885.980485	2479.108392
886.289954	2479.405820
886.599382	2481.442446
886.908768	2476.854996
887.218113	2477.361632
887.527417	2477.916159
887.836680	2477.651498
888.145901	2479.925058
888.455082	2480.030923
888.764221	2480.519915
889.073319	2481.601242
889.382376	2481.666777
889.691392	2478.009420
890.000366	2479.368011
890.309300	2479.095789
890.618193	2480.177116
890.927044	2480.580408
891.235855	2479.796509
891.544625	2479.267188
891.853353	2480.683752
892.162041	2478.390027
892.470687	2480.736684
892.779293	2478.538741
893.087858	2479.093268
893.396381	2479.509163
893.704864	2483.055615
894.013306	2478.137969
894.321707	2478.692496
894.630068	2477.293576
894.938387	2480.300624
895.246665	2481.570995
895.554903	2479.123515
895.863100	2478.223669
896.171256	2479.453711
896.479371	2477.848103
896.787446	2479.249544
897.095480	2478.901704
897.403473	2479.652836
897.711425	2479.060501
898.019336	2478.442959
898.327207	2479.594863
898.635038	2479.443628
898.942827	2478.584112
899.250576	2481.480254
899.558284	2480.038484
899.865952	2481.202991
900.173579	2476.600418
900.481165	2478.377424
900.788711	2476.539924
901.096216	2479.249544
901.403681	2478.619400
901.711105	2478.286683
902.018489	2480.227528
902.325832	2478.367342
902.633135	2473.875674
902.940397	2476.890284
903.247619	2475.065386
903.554800	2478.621920
903.861941	2479.720892
904.169041	2477.419605
904.476101	2478.879019
904.783121	2479.718371
905.090100	2478.243834
905.397039	2480.187198
905.703938	2478.140490
906.010796	2478.301807
906.317614	2478.498412
906.624391	2481.434884
906.931129	2477.142342
907.237826	2478.591673
907.544483	2478.624441
907.851099	2477.527990
908.157675	2477.137300
908.464211	2479.771303
908.770707	2478.997486
909.077163	2477.918679
909.383578	2477.162506
909.689954	2476.204687
909.996289	2477.853144
910.302584	2475.637557
910.608839	2479.862044
910.915054	2478.558906
911.221229	2480.908083
911.527363	2477.936323
911.833458	2480.930769
912.139513	2480.819863
912.445527	2478.034626
912.751502	2478.692496
913.057436	2480.681232
913.363331	2478.722743
913.669186	2479.234420
913.975000	2477.553196
914.280775	2477.472537
914.586510	2478.193422
914.892205	2478.541262
915.197859	2477.417084
915.503475	2477.507825
915.809050	2478.750470
916.114585	2476.877681
916.420081	2478.417753
916.725536	2478.236272
917.030952	2478.032105
917.336328	2476.797023
917.641665	2474.888946
917.946961	2475.879533
918.252218	2476.678555
918.557435	2472.133955
918.862612	2477.901035
919.167750	2480.144349
919.472848	2479.461272
919.777906	2478.213587
920.082925	2481.994452
920.387904	2479.055459
920.692843	2479.005048
920.997743	2478.044708
921.302603	2476.892804
921.607423	2480.288022
921.912204	2477.318782
922.216946	2480.973618
922.521647	2478.364821
922.826310	2477.933803
923.130932	2479.115953
923.435516	2478.019502
923.740059	2477.989255
924.044564	2479.957826
924.349028	2479.451190
924.653454	2480.671149
924.957840	2477.850624
925.262186	2477.790130
925.566493	2478.518577
925.870761	2478.793319
926.174989	2477.840541
926.479178	2479.037815
926.783328	2480.308186
927.087438	2478.989924
927.391509	2479.168885
927.695541	2478.632003
927.999533	2478.261478
928.303486	2476.998669
928.607400	2477.192753
928.911275	2478.047229
929.215110	2476.534883
929.518906	2480.111581
929.822663	2477.129739
930.126381	2478.853813
930.430060	2475.509008
930.733699	2475.907259
931.037299	2477.959008
931.340861	2477.676704
931.644383	2476.164358
931.947866	2479.715851
932.251309	2478.856334
932.554714	2479.178968
932.858080	2474.964563
933.161407	2475.256950
933.464694	2473.772330
933.767943	2473.900880
934.071153	2480.172075
934.374323	2478.213587
934.677455	2479.665439
934.980548	2479.932620
935.283602	2478.576550
935.586617	2477.316261
935.889593	2478.604276
936.192530	2475.851806
936.495428	2476.935654
936.798287	2478.251395
937.101108	2476.532362
937.403890	2476.781899
937.706632	2477.926241
938.009336	2478.402630
938.312002	2480.711478
938.614628	2476.212249
938.917216	2478.402630
939.219765	2479.057980
939.522275	2479.972949
939.824747	2478.538741
940.127179	2476.439101
940.429573	2478.634523
940.731929	2475.488843
941.034246	2478.150572
941.336524	2476.912969
941.638763	2479.110912
941.940964	2477.253247
942.243126	2479.289873
942.545250	2480.764411
942.847335	2480.003196
943.149381	2477.467496
943.451389	2478.634523
943.753359	2477.787609
944.055290	2476.544965
944.357182	2478.001858
944.659036	2475.060345
944.960851	2478.032105
945.262628	2479.476396
945.564367	2479.214256
945.866067	2477.671663
946.167729	2477.318782
946.469352	2478.962198
946.770937	2478.465644
947.072484	2475.647639
947.373992	2476.315592
947.675462	2481.117291
947.976893	2477.795171
948.278286	2476.066055
948.579641	2476.234934
948.880958	2472.834676
949.182236	2476.335757
949.483476	2477.144862
949.784678	2478.717702
950.085841	2476.650829
950.386967	2478.838690
950.688054	2475.831642
950.989103	2480.209884
951.290114	2476.577732
951.591087	2480.509832
951.892021	2475.319964
952.192917	2479.950264
952.493776	2478.873978
952.794596	2479.738536
953.095378	2481.684421
953.396122	2478.969760
953.696828	2476.645788
953.997496	2476.991107
954.298126	2476.870119
954.598718	2478.155613
954.899272	2476.398771
955.199788	2479.640233
955.500266	2478.826087
955.800706	2477.346508
956.101108	2479.998155
956.401472	2475.519090
956.701798	2478.243834
957.002087	2477.399440
957.302337	2478.032105
957.602550	2476.028247
957.902724	2478.379945
958.202861	2476.537403
958.502960	2478.306848
958.803022	2476.860037
959.103045	2476.121508
959.403031	2478.939513
959.702979	2476.592856
960.002889	2480.282980
960.302762	2479.620069
960.602596	2477.873309
960.902393	2479.645274
961.202153	2476.106384
961.501875	2478.863896
961.801559	2476.625623
962.101205	2476.875160
962.400814	2479.622589
962.700385	2477.974132
962.999918	2474.762917
963.299414	2476.396251
963.598873	2473.832824
963.898293	2472.875005
964.197677	2475.990438
964.497022	2478.556385
964.796331	2476.368524
965.095601	2480.575367
965.394835	2477.452372
965.694030	2475.864409
965.993189	2477.003710
966.292309	2477.187712
966.591393	2476.595376
966.890439	2479.042857
967.189447	2476.507156
967.488419	2475.632516
967.787353	2477.666622
968.086249	2475.340129
968.385108	2476.915490
968.683930	2474.735191
968.982714	2477.018833
969.281462	2477.512866
969.580172	2477.868268
969.878844	2477.207877
970.177480	2479.211735
970.476078	2475.627475
970.774639	2475.703092
971.073162	2475.186374
971.371649	2478.004379
971.670098	2477.033957
971.968510	2477.888432
972.266885	2478.105202
972.565223	2476.066055
972.863524	2476.665952
973.161788	2476.280304
973.460014	2477.331385
973.758204	2476.779378
974.056356	2474.112608
974.354471	2474.016826
974.652550	2478.284163
974.950591	2475.451034
975.248595	2479.030254
975.546563	2477.384317
975.844493	2477.780048
976.142386	2474.538586
976.440243	2475.924903
976.738062	2474.042032
977.035845	2477.306179
977.333590	2476.776858
977.631299	2475.577063
977.928971	2475.002372
978.226606	2472.005406
978.524204	2475.277115
978.821765	2473.769810
979.119290	2476.103864
979.416777	2473.827783
979.714228	2477.858185
980.011642	2475.453555
980.309020	2476.580253
980.606360	2476.602938
980.903664	2476.615541
981.200931	2476.262660
981.498162	2477.064204
981.795356	2479.433546
982.092513	2479.736015
982.389633	2477.747280
982.686717	2480.535038
982.983764	2475.072948
983.280775	2477.376755
983.577749	2474.268884
983.874686	2477.041518
984.171587	2477.255767
984.468451	2475.186374
984.765279	2477.376755
985.062070	2478.011941
985.358824	2478.566468
985.655543	2476.043370
985.952224	2475.350211
986.248869	2476.602938
986.545478	2477.313741
986.842050	2475.821559
987.138586	2476.991107
987.435086	2475.314923
987.731549	2474.828452
988.027975	2477.588484
988.324366	2476.285345
988.620719	2477.071765
988.917037	2476.706282
989.213318	2475.677886
989.509563	2476.991107
989.805772	2474.921713
990.101944	2476.779378
990.398080	2477.275932
990.694180	2476.033288
990.990244	2473.689151
991.286271	2477.734677
991.582262	2474.667135
991.878217	2475.612351
992.174136	2478.853813
992.470019	2474.702423
992.765865	2474.014306
993.061676	2472.917855
993.357450	2473.414408
993.653188	2472.590180
993.948890	2478.178299
994.244556	2477.278453
994.540186	2474.457927
994.835780	2477.875829
995.131337	2478.977322
995.426859	2473.699233
995.722345	2479.085706
996.017795	2478.175778
996.313208	2476.113946
996.608586	2474.498256
996.903928	2474.765437
997.199234	2477.618731
997.494504	2478.442959
997.789738	2476.643267
998.084936	2478.795840
998.380099	2474.825931
998.675225	2478.437918
998.970316	2476.658391
999.265371	2474.984728
999.560390	2479.045377
999.855373	2476.872640
1000.150320	2476.050932
1000.445232	2477.301138
1000.740108	2476.368524
1001.034948	2475.390541
1001.329752	2474.636888
1001.624521	2476.744090
1001.919254	2476.953298
1002.213951	2480.086375
1002.508613	2475.498925
1002.803239	2475.856847
1003.097829	2476.124028
1003.392384	2475.824080
1003.686903	2476.050932
1003.981386	2476.277784
1004.275834	2475.612351
1004.570246	2476.605459
1004.864623	2476.670994
1005.158964	2478.105202
1005.453270	2475.367855
1005.747540	2476.156796
1006.041775	2476.413895
1006.335974	2474.750314
1006.630138	2476.116467
1006.924266	2477.369193
1007.218359	2474.304172
1007.512416	2474.586477
1007.806438	2471.574387
1008.100425	2476.121508
1008.394376	2469.772175
1008.688292	2477.681745
1008.982172	2476.789461
1009.276017	2474.538586
1009.569827	2474.813328
1009.863602	2475.002372
1010.157341	2475.556899
1010.451045	2477.099492
1010.744714	2477.207877
1011.038347	2476.008082
1011.331945	2477.369193
1011.625508	2477.548154
1011.919036	2477.356591
1012.212528	2476.895325
1012.505986	2473.973976
1012.799408	2474.130252
1013.092795	2476.668473
1013.386147	2477.689307
1013.679464	2475.637557
1013.972745	2477.033957
1014.265992	2477.472537
1014.559204	2475.390541
1014.852380	2478.226190
1015.145521	2474.911631
1015.438628	2475.037660
1015.731699	2472.839717
1016.024736	2475.327526
1016.317737	2475.209059
1016.610703	2475.740901
1016.903635	2476.383648
1017.196531	2474.972125
1017.489393	2478.284163
1017.782219	2473.953812
1018.075011	2477.845583
1018.367768	2474.619244
1018.660490	2475.635037
1018.953177	2475.635037
1019.245829	2475.635037
