Dividing Wavelength (nm)	Counts (n)	Blue Motor Position (mm): 42.500000	Red Motor Position (mm): 0.000000	
326.493990	2259.004053
326.888308	2259.004053
327.282561	2259.004053
327.676750	2221.026520
328.070874	2212.605273
328.464933	2216.000490
328.858929	2218.523588
329.252859	2225.896275
329.646726	2233.082440
330.040528	2246.055849
330.434265	2258.507499
330.827938	2276.723709
331.221547	2293.402366
331.615091	2309.125725
332.008571	2329.262614
332.401986	2345.782475
332.795338	2367.593027
333.188625	2387.619011
333.581847	2407.057700
333.975006	2425.420103
334.368100	2442.852413
334.761129	2464.428552
335.154095	2478.858854
335.546996	2504.672083
335.939833	2548.401572
336.332606	2563.504869
336.725315	2573.433421
337.117960	2587.142839
337.510540	2598.031731
337.903056	2610.367435
338.295508	2618.292129
338.687896	2628.364354
339.080220	2633.579428
339.472480	2638.050931
339.864676	2645.980666
340.256807	2651.702376
340.648875	2656.103303
341.040879	2656.302429
341.432818	2660.564724
341.824694	2664.164108
342.216506	2664.310302
342.608253	2664.965652
342.999937	2665.749551
343.391557	2663.738131
343.783113	2662.634118
344.174605	2665.353820
344.566033	2664.015394
344.957397	2663.165960
345.348697	2660.640342
345.739934	2660.766370
346.131106	2656.839312
346.522215	2655.168169
346.913260	2654.817809
347.304241	2651.359577
347.695159	2651.624238
348.086012	2648.186171
348.476802	2645.857158
348.867528	2641.368010
349.258191	2640.647125
349.648789	2641.844399
350.039324	2636.397433
350.429796	2639.754841
350.820203	2638.819707
351.210548	2639.003709
351.600828	2637.045221
351.991045	2634.635549
352.381198	2633.541619
352.771288	2636.052114
353.161314	2635.646301
353.551276	2633.839047
353.941175	2630.292595
354.331010	2632.654376
354.720782	2633.821403
355.110490	2632.669499
355.500135	2632.646814
355.889717	2632.460292
356.279235	2633.140847
356.668689	2633.264356
357.058080	2633.647483
357.447408	2633.602113
357.836672	2632.805611
358.225873	2631.930970
358.615010	2633.876856
359.004084	2635.505148
359.393095	2635.253091
359.782043	2637.259470
360.170927	2638.245016
360.559748	2639.417084
360.948505	2642.721560
361.337199	2641.236940
361.725830	2642.474544
362.114398	2641.499080
362.502903	2640.251395
362.891344	2642.610655
363.279722	2640.831127
363.668037	2645.428660
364.056289	2643.230717
364.444478	2643.394554
364.832603	2645.141314
365.220665	2644.032260
365.608665	2647.208187
365.996601	2647.626603
366.384474	2646.757004
366.772284	2647.359422
367.160031	2648.942344
367.547715	2649.164155
367.935336	2645.481592
368.322893	2647.946716
368.710388	2649.023002
369.097820	2650.331182
369.485189	2647.697179
369.872495	2651.906542
370.259738	2652.748415
370.646918	2653.943169
371.034035	2655.127840
371.421090	2652.771100
371.808081	2654.139774
372.195010	2653.058446
372.581875	2655.049702
372.968678	2655.707572
373.355418	2654.661533
373.742096	2659.642193
374.128710	2656.307470
374.515262	2656.068015
374.901751	2657.527429
375.288177	2659.339724
375.674540	2658.850732
376.060841	2658.777635
376.447079	2660.688232
376.833254	2660.637821
377.219367	2660.594971
377.605417	2661.739313
377.991404	2662.407266
378.377329	2665.222750
378.763191	2665.164777
379.148991	2664.764005
379.534727	2665.525220
379.920402	2667.856753
380.306013	2671.700633
380.691563	2677.308917
381.077049	2677.271108
381.462474	2682.166068
381.847835	2691.235104
382.233134	2698.665765
382.618371	2712.907025
383.003545	2727.995198
383.388657	2745.424987
383.773706	2768.316867
384.158693	2794.059519
384.543618	2822.451298
384.928480	2858.775332
385.313280	2900.657238
385.698017	2933.520520
386.082692	2988.075887
386.467305	3023.048892
386.851856	3067.889955
387.236344	3136.058958
387.620770	3178.036646
388.005133	3236.430852
388.389435	3300.327477
388.773674	3341.226358
389.157851	3423.303904
389.541965	3501.386336
389.926018	3522.596991
390.310008	3623.357053
390.693936	3697.046120
391.077802	3765.686470
391.461606	3804.236174
391.845348	3893.830081
392.229027	3972.663644
392.612645	4016.781302
392.996200	4128.188282
393.379694	4214.087023
393.763125	4338.313656
394.146494	4397.093510
394.529801	4478.949246
394.913047	4584.629474
395.296230	4577.723094
395.679351	4700.276064
396.062410	4781.113487
396.445408	4787.795536
396.828343	4870.755284
397.211217	4946.866625
397.594028	4857.965877
397.976778	4989.933203
398.359466	5049.189445
398.742092	5091.283080
399.124656	5017.195763
399.507158	5149.790712
399.889598	5221.987596
400.271977	5350.854612
400.654294	5347.673644
401.036549	5399.237086
401.418742	5328.408875
401.800874	5534.287077
402.182944	5600.321151
402.564952	5708.204364
402.946898	5770.271050
403.328783	5618.935612
403.710606	5632.274505
404.092367	5957.217200
404.474067	5976.983564
404.855705	5884.339759
405.237282	5821.133772
405.618797	6068.924128
406.000250	6052.069030
406.381642	6254.282313
406.762972	6274.862824
407.144240	6334.918090
407.525447	6318.234391
407.906593	6348.476273
408.287677	6494.132852
408.668700	6412.846767
409.049661	6530.091402
409.430560	6560.706329
409.811399	6416.100831
410.192176	6684.368354
410.572891	6693.258429
410.953545	6894.402988
411.334138	6625.091946
411.714669	6794.439428
412.095139	6588.001657
412.475547	6839.041036
412.855894	6903.230048
413.236180	7083.574806
413.616405	6762.266784
413.996568	6978.741492
414.376670	7015.042840
414.756711	6915.810247
415.136691	7006.152766
415.516609	7218.614715
415.896466	7202.543517
416.276262	7402.246306
416.655997	7385.486990
417.035670	7572.710402
417.415283	7910.737412
417.794834	7968.793860
418.174324	7823.434709
418.553753	7740.512770
418.933121	8057.956748
419.312428	8155.455184
419.691674	7931.728776
420.070859	8412.990090
420.449983	8088.944721
420.829045	8447.650543
421.208047	8230.487718
421.586988	8525.349847
421.965867	8546.391624
422.344686	8649.213518
422.723444	8697.802679
423.102141	8057.059423
423.480777	8810.653949
423.859352	8341.138524
424.237866	8956.308008
424.616319	8821.878078
424.994712	9240.127490
425.373044	8796.082494
425.751314	9260.014842
426.129524	9137.817272
426.507673	9250.161906
426.885762	9398.339062
427.263789	9315.593563
427.641756	9243.923478
428.019662	9333.434206
428.397508	9594.959185
428.775292	9269.197303
429.153016	9648.274428
429.530679	9484.540272
429.908282	9515.039253
430.285824	9227.731292
430.663305	9920.151417
431.040726	9367.588023
431.418086	9352.583029
431.795385	9685.268936
432.172624	9767.585937
432.549802	9681.588894
432.926920	9757.352395
433.303977	9637.037697
433.680974	9840.395322
434.057910	9932.091390
434.434786	9994.274023
434.811601	9826.713631
435.188355	10396.628676
435.565050	10133.465322
435.941683	10058.243744
436.318257	10541.476149
436.694770	10697.560355
437.071222	10753.055897
437.447614	10588.116905
437.823946	10497.771866
438.200218	10614.270411
438.576429	10444.010481
438.952580	10684.997799
439.328670	10725.349715
439.704700	10522.503767
440.080670	10511.319967
440.456580	11049.949611
440.832429	10819.243726
441.208218	10417.519217
441.583947	10732.361960
441.959616	10898.122660
442.335224	10713.185411
442.710773	10829.517598
443.086261	11045.641945
443.461689	10316.297889
443.837057	10992.916517
444.212365	11244.964127
444.587612	10887.400126
444.962800	11108.177459
445.337927	10862.038081
445.712995	10499.140539
446.088002	11560.477344
446.462949	11236.734444
446.837837	11200.460821
447.212664	11153.888121
447.587431	11718.946015
447.962139	12453.951287
448.336786	14726.662237
448.711374	15250.312093
449.085901	13086.066609
449.460369	12717.545660
449.834776	12160.503201
450.209124	13068.616655
450.583412	13477.421464
450.957640	14421.483386
451.331808	13500.315864
451.705917	12541.304401
452.079965	11806.412555
452.453954	12720.610681
452.827883	12368.798637
453.201752	12655.282368
453.575562	12184.962879
453.949311	12603.464348
454.323001	12577.641038
454.696632	12813.491420
455.070202	13098.808125
455.443713	13305.762614
455.817164	13788.972333
456.190556	13763.043159
456.563888	14128.486483
456.937160	14283.501964
457.310373	13637.843582
457.683526	13740.063059
458.056619	13262.075975
458.429653	13450.340386
458.802628	12839.171058
459.175542	13241.833221
459.548398	14191.180793
459.921194	14541.551068
460.293930	14613.964722
460.666607	15460.664319
461.039224	16525.166968
461.411782	17233.975884
461.784280	17053.477371
462.156719	17141.279147
462.529099	16811.554918
462.901419	15763.403252
463.273680	15530.756522
463.645882	15418.053966
464.018024	15152.944727
464.390106	15374.407656
464.762130	16092.020948
465.134094	16871.564814
465.505999	18906.754239
465.877845	22164.262154
466.249631	24986.416024
466.621358	24615.024138
466.993026	23194.058980
467.364634	22628.456642
467.736184	21144.436731
468.107674	20350.666729
468.479105	20493.575879
468.850477	19947.059349
469.221790	19548.467917
469.593043	18859.816055
469.964238	18287.965207
470.335373	17934.855065
470.706449	18418.195855
471.077467	17991.215165
471.448425	19852.210040
471.819324	23963.502894
472.190164	25844.806057
472.560945	22216.312068
472.931667	19900.539582
473.302330	19282.373132
473.672934	18881.576196
474.043479	19141.785434
474.413965	18943.874775
474.784393	18553.467657
475.154761	19293.453588
475.525070	19236.095340
475.895321	18937.643909
476.265513	19538.035250
476.635645	20136.568925
477.005719	19891.367202
477.375734	20076.990048
477.745691	20563.947866
478.115588	21103.716811
478.485427	21650.651757
478.855207	22733.300039
479.224928	24514.790876
479.594591	26750.073779
479.964194	26698.462446
480.333739	26915.862206
480.703226	26499.714956
481.072653	26198.639604
481.442022	26812.228686
481.811333	27721.337768
482.180584	27612.738711
482.549777	26659.244790
482.918912	26333.308988
483.287988	26470.393085
483.657005	26102.318278
484.025964	25874.044749
484.394864	25754.760967
484.763706	25426.312150
485.132489	24882.447267
485.501213	25070.101698
485.869879	24967.378107
486.238487	24811.487986
486.607036	24946.114520
486.975527	24661.866539
487.343959	24978.430836
487.712333	24901.412088
488.080648	24549.085846
488.448905	25058.809514
488.817104	24815.704911
489.185244	25508.467834
489.553326	25464.836647
489.921350	26496.627249
490.289315	28827.802981
490.657222	30561.334801
491.025070	31073.654664
491.392861	30832.609372
491.760593	29963.816918
492.128267	29053.253463
492.495883	27997.988729
492.863440	27131.583261
493.230939	26273.246161
493.598380	26105.272394
493.965763	25721.189403
494.333088	25231.317798
494.700354	25198.378899
495.067563	25044.570775
495.434713	24802.940709
495.801805	24969.689476
496.168839	24751.001701
496.535815	24606.338230
496.902733	24834.576470
497.269593	24528.349059
497.636395	24688.176321
498.003139	24628.486539
498.369825	24378.820874
498.736453	24586.193779
499.103023	24448.902995
499.469535	24453.956752
499.835989	24671.709392
500.202385	24701.847931
500.568723	24223.167688
500.935003	24432.947743
501.301226	24093.748666
501.667390	24936.254023
502.033497	25139.931762
502.399546	24885.744182
502.765537	24415.855711
503.131470	24821.139275
503.497345	24959.090450
503.863163	24204.069276
504.228923	24750.399283
504.594625	24974.629806
504.960269	24529.538772
505.325856	25010.858058
505.691385	24417.060547
506.056856	25016.400807
506.422270	24998.842468
506.787625	24538.310379
507.152924	24974.332378
507.518164	24994.875080
507.883347	24821.535005
508.248472	24486.915816
508.613540	25276.773883
508.978550	25067.835700
509.343503	25063.704474
509.708398	25301.208355
510.073236	25477.263092
510.438016	25678.231210
510.802738	25335.402502
511.167403	25584.107827
511.532010	25327.923950
511.896561	26071.816776
512.261053	26040.450717
512.625488	25871.022577
512.989866	25760.021411
513.354186	25589.247283
513.718449	25726.381791
514.082655	26097.032628
514.446803	25822.123385
514.810894	26313.875340
515.174927	25789.166842
515.538904	25819.207078
515.902822	26321.127040
516.266684	26077.750214
516.630488	25981.111295
516.994235	25926.785301
517.357925	26263.705777
517.721558	26420.394921
518.085133	26548.929220
518.448651	26432.377743
518.812112	26188.955548
519.175516	26402.793732
519.538863	26561.383391
519.902152	26350.310279
520.265385	26607.822500
520.628560	26401.510758
520.991678	26396.434317
521.354739	26446.634127
521.717743	26554.429119
522.080690	26326.170714
522.443580	26655.166497
522.806413	26635.256459
523.169189	26751.601249
523.531908	26778.026977
523.894569	26408.838076
524.257174	26501.076067
524.619722	26633.865101
524.982213	26358.113986
525.344647	26384.645578
525.707025	26553.499026
526.069345	26505.449268
526.431608	26482.688459
526.793815	26650.170713
527.155964	26140.099205
527.518057	26312.678066
527.880093	26230.466929
528.242072	26460.214995
528.603995	26175.215883
528.965860	25964.087319
529.327669	26014.377869
529.689421	26007.499215
530.051117	25838.055952
530.412755	26014.420719
530.774337	25792.289837
531.135862	25691.491966
531.497331	25881.109926
531.858743	25465.610465
532.220098	25929.124396
532.581396	25614.556396
532.942638	25514.786920
533.303824	25631.277903
533.664953	25620.227694
534.026025	25283.546673
534.387040	25526.202613
534.747999	25585.874751
535.108902	25745.044143
535.469748	25254.222281
535.830537	25419.400728
536.191270	25549.255810
536.551947	25376.855910
536.912567	25009.663305
537.273131	25434.922441
537.633638	25103.395999
537.994089	25321.980430
538.354483	24838.256513
538.714821	25349.167373
539.075103	25384.778083
539.435328	25149.008359
539.795497	24753.055971
540.155609	25107.948161
540.515665	25405.078810
540.875665	24626.933864
541.235609	24967.912469
541.595496	24903.093313
541.955328	25270.515290
542.315102	25189.992940
542.674821	24693.020870
543.034483	24582.969961
543.394090	24754.535550
543.753640	24565.351128
544.113134	25194.431676
544.472571	24779.864827
544.831953	25076.687966
545.191278	24722.347783
545.550548	24616.244097
545.909761	24814.623583
546.268918	25051.454470
546.628019	25022.795511
546.987064	24724.686878
547.346053	24455.257370
547.704986	24559.392485
548.063863	24722.398194
548.422684	24747.578758
548.781449	24255.000054
549.140158	24662.053062
549.498811	24239.221242
549.857408	24000.522608
550.215949	24398.899790
550.574434	24088.984775
550.932864	24286.083808
551.291237	24467.454441
551.649555	24316.784435
552.007817	24382.468149
552.366022	24218.900351
552.724173	24263.938019
553.082267	24225.511824
553.440305	24711.353026
553.798288	23936.179840
554.156215	24435.450676
554.514086	24562.303751
554.871902	23946.955307
555.229661	24229.711105
555.587365	24068.958792
555.945014	23972.995387
556.302606	24196.913358
556.660143	24176.292519
557.017625	24413.675412
557.375050	23934.695221
557.732421	24307.138187
558.089735	24130.470951
558.446994	24199.091137
558.804197	24230.366455
559.161345	24127.607575
559.518437	23933.013996
559.875474	24089.781278
560.232455	24277.324803
560.589381	24093.650363
560.946251	24087.348921
561.303065	24398.834255
561.659825	24489.282637
562.016528	24094.774540
562.373177	23825.498787
562.729770	24198.907135
563.086307	24039.765470
563.442789	24209.780904
563.799216	24055.824065
564.155587	24045.169587
564.511904	24036.894532
564.868164	23981.492252
565.224370	23949.334731
565.580520	23874.161045
565.936615	24001.803061
566.292654	23693.385268
566.648638	23952.261121
567.004567	23780.801397
567.360441	23727.556730
567.716260	23442.073667
568.072023	23761.498818
568.427732	23554.977869
568.783385	23307.736999
569.138982	23560.308889
569.494525	23588.796449
569.850013	23353.513197
570.205445	23452.067754
570.560823	23264.244444
570.916145	23026.221324
571.271412	23210.898954
571.626625	22954.415129
571.981782	23067.987284
572.336884	22877.779508
572.691931	23011.697760
573.046923	22749.736721
573.401860	22620.433645
573.756743	22663.454852
574.111570	22547.931771
574.466342	22470.406386
574.821059	22558.671949
575.175722	22263.935848
575.530330	22225.708779
575.884882	22243.970358
576.239380	22154.353767
576.593823	22047.849309
576.948211	22027.777955
577.302544	21883.232951
577.656823	21733.092266
578.011047	21848.761541
578.365216	21707.649563
578.719330	21593.999270
579.073389	21493.786172
579.427394	21631.732306
579.781344	21385.527393
580.135239	21276.774582
580.489080	21226.015203
580.842866	21015.126094
581.196597	21208.376206
581.550273	21183.911487
581.903895	21054.018596
582.257463	21369.841843
582.610975	20905.849002
582.964434	21230.932849
583.317837	20898.194010
583.671186	21000.758806
584.024481	20986.759521
584.377721	20747.133314
584.730906	20825.634162
585.084037	20811.907100
585.437113	20744.653067
585.790135	20948.343408
586.143103	20404.276880
586.496016	20423.365209
586.848874	20664.634832
587.201679	20562.727907
587.554428	20272.380130
587.907124	20602.122003
588.259765	20369.649194
588.612352	20438.644946
588.964884	20004.750314
589.317362	20181.024340
589.669786	20242.057590
590.022155	20243.179247
590.374470	20479.695062
590.726731	20244.895760
591.078937	20031.607061
591.431090	20113.523290
591.783188	19879.643999
592.135232	19835.158337
592.487222	19934.063255
592.839157	19951.132602
593.191038	19823.137705
593.542866	19722.302026
593.894639	19430.141954
594.246358	19648.149173
594.598022	19535.335712
594.949633	19303.024219
595.301190	19274.511453
595.652692	19448.668195
596.004141	19668.583490
596.355535	18997.530296
596.706876	19019.729017
597.058162	18911.651720
597.409395	19149.944541
597.760573	19194.160502
598.111698	18972.712696
598.462768	18916.748326
598.813785	18892.097084
599.164748	18694.869501
599.515657	18742.460514
599.866511	18544.600267
600.217312	18902.870030
600.568060	18413.253003
600.918753	18726.664059
601.269392	18617.689436
601.619978	18410.240914
601.970510	18593.297813
602.320988	18541.938538
602.671412	18747.491586
603.021783	18686.294499
603.372100	18388.889107
603.722363	18544.509526
604.072572	18483.728334
604.422728	18635.706520
604.772830	18381.713024
605.122878	18347.274382
605.472872	18328.806115
605.822813	18318.345721
606.172701	18301.261250
606.522534	18482.843612
606.872314	18501.518566
607.222041	18344.663064
607.571714	18569.866530
607.921333	18387.933808
608.270899	18460.473492
608.620411	18622.186145
608.969870	18411.864166
609.319276	18405.950892
609.668627	18423.887318
610.017926	18563.421415
610.367171	18674.840997
610.716362	18735.385255
611.065500	18549.172593
611.414585	18690.203913
611.763616	18678.642027
612.112594	18610.314228
612.461518	18582.986133
612.810389	18768.523280
613.159207	18632.260891
613.507971	18548.305515
613.856682	18800.658115
614.205340	18719.558552
614.553945	18874.294249
614.902496	18620.547770
615.250994	18828.686930
615.599439	18791.508421
615.947830	18775.142315
616.296169	18846.779631
616.644454	18798.936561
616.992686	18781.421072
617.340864	18996.776643
617.688990	18741.860617
618.037063	18917.302853
618.385082	18773.463610
618.733048	19040.622079
619.080961	18933.779864
619.428821	18959.164595
619.776628	18832.901335
620.124382	18771.570657
620.472083	18826.856991
620.819731	18835.547941
621.167326	18523.752575
621.514868	18567.293021
621.862357	18353.157408
622.209793	18346.490483
622.557176	18185.513837
622.904506	18006.368874
623.251783	17949.728990
623.599007	17676.269079
623.946179	17627.039691
624.293297	17563.634578
624.640363	17291.739946
624.987376	17328.706727
625.334336	17125.802805
625.681243	16969.902602
626.028097	16988.456568
626.374899	16903.268630
626.721647	16770.736696
627.068343	16602.284019
627.414987	16541.220523
627.761577	16505.801376
628.108115	16543.935184
628.454600	16269.779594
628.801032	16370.375819
629.147412	16302.708411
629.493739	16322.583160
629.840014	16119.709485
630.186236	16215.393106
630.532405	15981.836448
630.878521	16183.487643
631.224585	16086.253868
631.570597	15904.832823
631.916556	15930.638489
632.262462	15917.549133
632.608316	15825.923642
632.954117	15774.186280
633.299866	15761.858138
633.645562	15675.389747
633.991206	15445.916424
634.336797	15320.968905
634.682336	15281.133707
635.027823	15153.579912
635.373257	15019.439849
635.718639	14940.344146
636.063968	14880.165372
636.409245	14632.614471
636.754470	14672.663917
637.099642	14509.587632
637.444762	14290.930104
637.789829	14324.557121
638.134845	14160.419672
638.479808	14191.929404
638.824719	14124.088077
639.169577	13979.240603
639.514383	14024.711811
639.859137	13848.319317
640.203839	13945.606025
640.548489	13789.254638
640.893086	13775.406588
641.237632	13659.031552
641.582125	13809.081496
641.926566	13623.592240
642.270955	13642.196619
642.615292	13597.232047
642.959576	13601.756483
643.303809	13631.060710
643.647990	13568.101739
643.992118	13633.132624
644.336195	13397.289803
644.680219	13620.812044
645.024192	13532.579249
645.368112	13771.116567
645.711981	13816.040809
646.055797	14003.783461
646.399562	13986.759484
646.743274	14249.133898
647.086935	14522.392163
647.430544	14483.882788
647.774101	14533.908678
648.117606	14658.344520
648.461059	14636.584379
648.804460	14613.725267
649.147810	14341.800388
649.491108	14258.767543
649.834354	14275.773875
650.177548	13952.376294
650.520690	13765.326801
650.863781	13682.548535
651.206820	13732.917223
651.549807	13572.802615
651.892742	13352.632742
652.235626	13294.198207
652.578458	13294.351962
652.921238	13000.818177
653.263967	13195.351262
653.606644	13020.017411
653.949269	13007.611131
654.291843	12798.922486
654.634365	12962.742342
654.976836	12823.606495
655.319255	12810.494454
655.661622	12773.414247
656.003938	12702.119729
656.346203	12619.722069
656.688416	12695.702340
657.030577	12651.342707
657.372687	12561.151423
657.714746	12549.287068
658.056753	12737.576684
658.398708	12546.370760
658.740612	12551.855536
659.082465	12662.040035
659.424266	12632.206487
659.766016	12659.610199
660.107715	12562.225189
660.449362	12640.998259
660.790958	12601.750356
661.132503	12538.040253
661.473996	12608.447529
661.815438	12623.303809
662.156829	12647.360195
662.498168	12617.864404
662.839456	12618.706277
663.180693	12634.258236
663.521879	12740.291346
663.863013	12703.748022
664.204097	12672.203001
664.545129	12808.203250
664.886110	12782.185855
665.227040	12871.779762
665.567918	12867.545192
665.908746	12902.571129
666.249522	12891.422617
666.590248	12950.230198
666.930922	13057.576528
667.271545	13032.133824
667.612118	13103.304834
667.952639	13004.341943
668.293109	13041.205381
668.633528	12980.419147
668.973896	12964.199235
669.314213	13032.312785
669.654480	12779.004887
669.994695	12849.094569
670.334859	12876.120195
670.674973	12820.062564
671.015035	12848.729086
671.355047	12799.446766
671.695008	12767.664811
672.034918	12782.211061
672.374777	12829.950788
672.714585	12736.296231
673.054342	12775.420626
673.394049	12731.461765
673.733705	12827.440293
674.073310	12721.114797
674.412864	12737.750604
674.752368	12591.705857
675.091820	12633.025674
675.431223	12610.027930
675.770574	12478.547076
676.109875	12392.348387
676.449125	12354.703570
676.788324	12311.899133
677.127473	12131.844241
677.466571	12126.046914
677.805619	12016.832837
678.144616	11953.868825
678.483562	11921.832293
678.822458	11786.885645
679.161303	11769.299580
679.500098	11751.237126
679.838842	11710.534850
680.177535	11739.408058
680.516179	11799.652367
680.854771	11751.877352
681.193314	11963.696555
681.531805	12135.894808
681.870247	12569.812126
682.208638	12983.501813
682.546978	13276.145835
682.885268	13311.328048
683.223508	13013.663037
683.561697	12855.832071
683.899836	12759.029315
684.237925	12554.658417
684.575963	12469.508288
684.913951	12383.070143
685.251889	12349.342303
685.589776	12446.026593
685.927614	12360.735311
686.265401	12338.466014
686.603137	12388.194476
686.940824	12537.538659
687.278460	12673.372549
687.616046	12708.156511
687.953582	12856.368954
688.291068	12803.557827
688.628504	13033.537786
688.965889	13043.841904
689.303224	13004.505781
689.640510	12889.534705
689.977745	12568.435891
690.314930	12348.883558
690.652065	12254.142633
690.989150	11961.783437
691.326185	11732.332799
691.663170	11531.657067
692.000105	11292.179574
692.336990	11175.819661
692.673825	10909.112376
693.010610	10801.398042
693.347345	10587.453993
693.684030	10396.187575
694.020665	10337.884110
694.357251	10142.367999
694.693786	10064.328417
695.030272	9911.921733
695.366707	9804.169591
695.703093	9735.015042
696.039429	9731.725689
696.375716	9636.379826
696.711952	9507.220423
697.048139	9563.338548
697.384276	9511.291155
697.720363	9538.987254
698.056400	9464.847005
698.392388	9416.507380
698.728326	9379.175116
699.064214	9315.923758
699.400053	9360.033854
699.735842	9173.488477
700.071581	9135.304257
700.407270	9057.925066
700.742910	8980.540834
701.078501	8876.854382
701.414042	8756.574972
701.749533	8701.800314
702.084974	8558.255979
702.420366	8681.088734
702.755709	8555.808499
703.091002	8418.706758
703.426246	8451.766645
703.761440	8404.969614
704.096584	8354.205195
704.431679	8298.129920
704.766725	8278.973536
705.101721	8232.700784
705.436668	8277.950181
705.771565	8169.603182
706.106413	8249.780214
706.441212	8289.736399
706.775961	8249.139987
707.110661	8297.247718
707.445311	8427.866535
707.779913	8326.955238
708.114465	8453.639434
708.448967	8489.338365
708.783421	8655.832553
709.117825	8823.632400
709.452180	8857.476186
709.786485	8949.454559
710.120742	9240.354342
710.454949	9239.295699
710.789107	9343.360238
711.123216	9561.952231
711.457275	9741.394622
711.791286	9883.663546
712.125247	9892.223425
712.459159	9876.958811
712.793023	10102.250497
713.126837	9683.126446
713.460602	9842.812555
713.794318	9669.926184
714.127985	9695.648672
714.461602	9358.009831
714.795171	9310.333119
715.128691	9053.957678
715.462162	8812.430956
715.795584	8758.344417
716.128957	8592.240918
716.462281	8428.015249
716.795556	8474.398906
717.128782	8264.966690
717.461960	8011.245417
717.795088	8079.253102
718.128167	7984.381108
718.461198	7823.036458
718.794180	7770.555526
719.127113	7757.582117
719.459997	7584.340344
719.792833	7364.871191
720.125619	7440.075124
720.458357	7283.423789
720.791046	7284.605939
721.123686	7269.051459
721.456278	7103.086592
721.788821	7129.451827
722.121315	7027.542381
722.453761	7099.197342
722.786158	7038.141407
723.118506	7048.735392
723.450805	7011.778693
723.783056	7071.037457
724.115259	6992.274469
724.447412	6992.113152
724.779518	7041.975205
725.111574	7038.499329
725.443582	7114.252748
725.775542	7099.494770
726.107453	7294.315202
726.439315	7200.983279
726.771129	7278.163345
727.102895	7455.400232
727.434612	7555.701549
727.766281	7594.558763
728.097901	7667.862181
728.429473	7673.157913
728.760996	7658.314236
729.092471	7632.727859
729.423897	7569.461379
729.755276	7563.099443
730.086606	7483.552555
730.417887	7591.161025
730.749120	7811.671177
731.080305	7989.263465
731.411442	8100.932585
731.742530	8090.300791
732.073570	8203.162143
732.404562	8290.694218
732.735506	8145.377918
733.066401	8277.030171
733.397249	8204.268677
733.728048	7960.322201
734.058798	7628.052189
734.389501	7395.367651
734.720156	7224.848102
735.050762	6992.924778
735.381320	6908.334216
735.711831	6850.320618
736.042293	6740.032775
736.372707	6756.938284
736.703073	6625.694364
737.033391	6664.599469
737.363661	6670.023751
737.693883	6706.909873
738.024056	6788.067409
738.354182	6827.252298
738.684260	6861.731270
739.014290	6989.393450
739.344272	7093.223575
739.674207	7127.357227
740.004093	7201.779782
740.333931	7212.202367
740.663722	7218.786114
740.993464	7294.368134
741.323159	7276.870289
741.652806	7024.870570
741.982405	7061.023205
742.311956	7102.085923
742.641460	6925.363234
742.970915	6734.366518
743.300323	6723.893521
743.629683	6678.666809
743.958996	6541.948196
744.288260	6456.112469
744.617477	6404.387710
744.946647	6394.358335
745.275768	6230.533438
745.604842	6190.874680
745.933869	6168.791906
746.262847	6133.100537
746.591778	6123.413960
746.920662	6075.359161
747.249498	6075.323873
747.578286	6120.376664
747.907027	6196.603952
748.235720	6258.247181
748.564365	6226.989507
748.892963	6270.663543
749.221514	6409.706128
749.550017	6223.140586
749.878473	6113.034224
750.206881	6176.467063
750.535242	6120.706860
750.863555	6048.787239
751.191821	6059.348456
751.520039	6059.522376
751.848210	5966.447552
752.176334	5998.821842
752.504411	6043.766249
752.832440	5962.051666
753.160421	5895.180760
753.488356	5938.486793
753.816243	5969.386545
754.144082	5828.153579
754.471875	5794.241737
754.799620	5836.085834
755.127318	5850.400191
755.454969	5806.330424
755.782572	5777.764726
756.110129	5822.230223
756.437638	5798.251975
756.765100	5737.758129
757.092515	5746.514613
757.419882	5798.894722
757.747203	5770.616369
758.074477	5834.936451
758.401703	5819.878525
758.728882	5772.801710
759.056014	5840.673284
759.383099	5958.409433
759.710138	5971.168593
760.037129	5962.122242
760.364073	5966.064425
760.690970	6048.300767
761.017820	6019.994688
761.344623	5986.042517
761.671379	6090.734680
761.998088	6216.647579
762.324751	6484.521892
762.651366	7112.906760
762.977935	8477.658012
763.304456	10137.725097
763.630931	10996.473051
763.957359	10548.937057
764.283740	9582.298328
764.610074	8715.597952
764.936362	7712.869603
765.262602	7124.198945
765.588796	6586.270021
765.914943	6252.858187
766.241044	6087.974648
766.567097	5873.710486
766.893104	5613.992761
767.219064	5435.611532
767.544978	5377.814703
767.870845	5291.999141
768.196665	5190.583728
768.522438	5118.066730
768.848165	5086.128500
769.173846	5014.609651
769.499479	4966.912773
769.825066	4920.692954
770.150607	4859.765569
770.476101	4834.421168
770.801548	4829.105271
771.126949	4747.103342
771.452303	4694.188871
771.777611	4653.811749
772.102872	4671.299512
772.428087	4637.717866
772.753256	4593.166668
773.078378	4543.418042
773.403453	4476.448833
773.728482	4459.780258
774.053465	4412.592538
774.378401	4404.725817
774.703291	4399.689704
775.028135	4324.659691
775.352932	4279.367444
775.677683	4264.611987
776.002388	4281.366262
776.327046	4294.405206
776.651658	4215.538875
776.976224	4157.847910
777.300743	4161.769928
777.625216	4184.767672
777.949643	4172.013553
778.274024	4136.052482
778.598359	4093.318621
778.922647	4118.549596
779.246889	4108.495014
779.571086	4101.981843
779.895236	4085.784616
780.219339	4075.916557
780.543397	4070.643511
780.867409	4126.771717
781.191374	4131.046616
781.515294	4069.993202
781.839167	4060.377201
782.162995	4086.238320
782.486776	4069.446237
782.810511	4084.322682
783.134201	4072.435641
783.457844	4024.882437
783.781441	3973.540805
784.104993	3978.397957
784.428498	4001.675485
784.751958	3995.926049
785.075372	3971.647852
785.398739	3937.476391
785.722061	3947.861167
786.045337	3989.294411
786.368568	4021.749359
786.691752	3930.620421
787.014891	3992.026716
787.337983	4125.854228
787.661030	4287.161068
787.984031	4446.471612
788.306987	4612.862457
788.629897	4701.314542
788.952760	4655.745032
789.275579	4584.775668
789.598351	4516.694885
789.921078	4366.375239
790.243759	4166.654806
790.566395	4155.907066
790.888984	4146.553205
791.211529	4040.620919
791.534027	3979.443996
791.856480	3965.162407
792.178888	3903.602357
792.501249	3860.218187
792.823566	3871.316287
793.145836	3895.478538
793.468062	3844.434335
793.790241	3798.690905
794.112375	3826.881037
794.434464	3899.050195
794.756507	3919.885284
795.078505	3893.721696
795.400457	3936.407666
795.722364	4082.157506
796.044226	4182.342877
796.366042	4261.052933
796.687812	4233.119899
797.009538	4234.884303
797.331218	4195.205381
797.652852	4172.590765
797.974442	4150.646622
798.295986	4146.570849
798.617484	4062.940627
798.938938	3973.568532
799.260346	4023.107950
799.581709	4011.949356
799.903026	3937.680557
800.224299	3904.391298
800.545526	3899.322418
800.866708	3854.564533
801.187845	3801.914723
801.508936	3835.153570
801.829983	3823.367353
802.150984	3748.576794
802.471940	3740.044641
802.792851	3747.898759
803.113717	3747.790374
803.434538	3747.266094
803.755314	3689.993545
804.076045	3668.364475
804.396731	3691.067311
804.717372	3714.775858
805.037967	3695.493444
805.358518	3688.458514
805.679024	3716.983883
805.999485	3729.659864
806.319901	3736.044486
806.640272	3747.558481
806.960598	3758.785131
807.280879	3735.174887
807.601115	3749.839603
807.921306	3764.126233
808.241453	3805.572080
808.561554	3773.490177
808.881611	3711.849468
809.201623	3752.037546
809.521590	3761.761932
809.841513	3732.291347
810.161390	3765.641100
810.481223	3738.209661
810.801011	3688.967671
811.120755	3686.028678
811.440453	3717.382134
811.760107	3716.202504
812.079716	3672.387316
812.399281	3643.688027
812.718801	3668.014115
813.038276	3638.767861
813.357707	3640.885145
813.677093	3654.488699
813.996434	3598.700770
814.315731	3611.303654
814.634983	3616.581743
814.954191	3630.782673
815.273354	3658.463649
815.592473	3652.389058
815.911547	3664.167714
816.230577	3706.969631
816.549562	3757.819750
816.868502	3800.520843
817.187399	3823.107733
817.506250	3819.652022
817.825058	3798.327942
818.143821	3896.411151
818.462539	3994.315400
818.781213	4036.761916
819.099843	4102.067543
819.418429	4366.453377
819.736970	4614.289103
820.055466	4864.854614
820.373919	5237.844546
820.692327	5653.260828
821.010691	6142.403986
821.329011	7616.639017
821.647286	10499.853862
821.965517	15212.972266
822.283704	19232.697602
822.601847	21243.573542
822.919945	19326.828547
823.237999	16685.624375
823.556010	14163.857739
823.873976	12014.430727
824.191897	9899.218026
824.509775	8555.193478
824.827609	7425.317146
825.145398	6894.523975
825.463144	6777.264216
825.780845	6885.835547
826.098502	7109.204032
826.416116	8048.983494
826.733685	9417.029140
827.051210	10514.057313
827.368692	10470.988216
827.686129	9146.825814
828.003522	7628.878938
828.320872	6607.778103
828.638177	5891.760338
828.955439	5324.149100
829.272656	4821.127645
829.589830	4542.046848
829.906960	4363.569837
830.224046	4178.768699
830.541088	4049.614337
830.858086	4002.406452
831.175041	3921.256478
831.491952	3913.737597
831.808819	3923.499792
832.125642	4001.436030
832.442421	4159.440915
832.759157	4449.919761
833.075849	5033.755953
833.392497	5928.555719
833.709101	6710.990687
834.025662	7030.632609
834.342179	6616.012828
834.658653	5930.793992
834.975083	5276.459784
835.291469	4687.821894
835.607811	4285.502529
835.924110	4143.228564
836.240366	3937.171401
836.556578	3731.809917
836.872746	3626.679174
837.188871	3580.313161
837.504952	3515.879653
837.820990	3429.527208
838.136984	3388.829973
838.452935	3411.522728
838.768842	3405.604413
839.084706	3433.393773
839.400526	3605.309722
839.716303	3965.001091
840.032037	4507.333462
840.347727	4748.189711
840.663373	4440.694450
840.978977	4052.754976
841.294537	3741.614961
841.610054	3513.585928
841.925527	3407.802356
842.240957	3339.048579
842.556344	3280.540948
842.871687	3218.877554
843.186987	3170.101870
843.502244	3135.650624
843.817458	3097.635283
844.132629	3069.513207
844.447756	3078.519228
844.762840	3057.341341
845.077881	3027.328831
845.392879	3011.267715
845.707833	3004.696571
846.022745	3005.838392
846.337613	3006.972652
846.652438	2997.142402
846.967221	2992.738954
847.281960	2978.051552
847.596656	2975.646922
847.911309	2973.557364
848.225919	2969.831951
848.540485	2966.552680
848.855009	2964.886579
849.169490	2949.125412
849.483928	2940.149637
849.798323	2944.323713
850.112675	2939.559822
850.426984	2952.011472
850.741251	2946.259516
851.055474	2936.953546
851.369654	2931.874583
851.683792	2938.402877
851.997887	2947.925617
852.311938	2949.369908
852.625947	2936.593103
852.939914	2940.399174
853.253837	2941.790533
853.567718	2928.721341
853.881555	2927.793769
854.195350	2946.357818
854.509103	2938.448248
854.822812	2929.036413
855.136479	2928.514654
855.450103	2930.372319
855.763685	2924.827050
856.077224	2921.583068
856.390720	2934.599327
856.704173	2943.610389
857.017584	2937.679472
857.330953	2931.456167
857.644278	2944.452262
857.957561	2949.432922
858.270802	2955.948613
858.584000	2952.833180
858.897155	2937.679472
859.210268	2941.072168
859.523339	2936.169646
859.836367	2937.782815
860.149352	2928.781835
860.462295	2924.547266
860.775195	2933.485232
861.088054	2936.023453
861.400869	2917.388828
861.713642	2915.155596
862.026373	2931.791404
862.339062	2933.830551
862.651708	2940.197528
862.964312	2939.461520
863.276873	2938.218875
863.589392	2945.092488
863.901869	2959.555559
864.214303	2981.058601
864.526696	2994.163080
864.839045	2992.456649
865.151353	2990.238542
865.463619	2988.332986
865.775842	2990.823316
866.088023	3009.967097
866.400162	3013.090092
866.712258	2984.365598
867.024313	2973.801860
867.336325	2987.869199
867.648296	3009.193280
867.960224	3001.182887
868.272110	2983.899291
868.583954	2991.950013
868.895755	3005.714884
869.207515	2992.199551
869.519233	2996.434120
869.830909	3011.214783
870.142542	3015.771986
870.454134	3016.525638
870.765684	3019.620907
871.077191	3017.125536
871.388657	3030.872762
871.700081	3042.621171
872.011463	3053.694066
872.322803	3052.809343
872.634101	3050.341698
872.945357	3070.075295
873.256571	3095.802824
873.567744	3088.795620
873.878874	3084.510639
874.189963	3107.543671
874.501010	3104.438320
874.812015	3093.914912
875.122979	3094.615632
875.433900	3092.957092
875.744780	3103.934205
876.055618	3108.332612
876.366415	3102.525202
876.677169	3116.461472
876.987882	3111.354783
877.298554	3108.478805
877.609183	3133.503093
877.919771	3156.067297
878.230317	3181.199970
878.540822	3234.537898
878.851285	3272.424690
879.161707	3324.184737
879.472087	3431.904113
879.782425	3683.437525
880.092722	4137.146412
880.402977	4680.126572
880.713191	5342.405638
881.023363	6558.228602
881.333494	7858.992488
881.643583	8376.655974
881.953631	8053.926346
882.263637	7386.800210
882.573602	6770.841786
882.883526	6186.569535
883.193408	5611.605774
883.503248	5157.967463
883.813048	4841.677909
884.122806	4516.909134
884.432522	4194.010628
884.742197	3951.677321
885.051831	3758.888474
885.361424	3629.040954
885.670975	3554.469686
885.980485	3459.937969
886.289954	3381.706823
886.599382	3334.816531
886.908768	3299.223464
887.218113	3256.184613
887.527417	3192.824871
887.836680	3143.852582
888.145901	3138.546767
888.455082	3123.362812
888.764221	3073.493198
889.073319	3044.375493
889.382376	3044.403219
889.691392	3047.430432
890.000366	3044.677962
890.309300	3033.219419
890.618193	3044.950184
890.927044	3062.591702
891.235855	3062.594223
891.544625	3050.558468
891.853353	3062.170766
892.162041	3077.611820
892.470687	3123.156125
892.779293	3175.407684
893.087858	3221.624983
893.396381	3295.215747
893.704864	3428.345058
894.013306	3682.998944
894.321707	3995.031244
894.630068	4192.215977
894.938387	4181.977393
895.246665	4142.018687
895.554903	4005.504241
895.863100	3802.554949
896.171256	3632.322745
896.479371	3487.455107
896.787446	3361.632948
897.095480	3256.426588
897.403473	3192.174562
897.711425	3156.188285
898.019336	3148.180412
898.327207	3114.901235
898.635038	3078.751121
898.942827	3063.544480
899.250576	3052.882440
899.558284	3021.886906
899.865952	3001.132475
900.173579	2979.503405
900.481165	2975.089874
900.788711	2958.398614
901.096216	2935.214348
901.403681	2921.721699
901.711105	2930.291661
902.018489	2926.462904
902.325832	2927.082966
902.633135	2940.510080
902.940397	2975.374700
903.247619	3062.984912
903.554800	3271.429062
903.861941	3639.559322
904.169041	4086.767641
904.476101	4375.532495
904.783121	4307.008091
905.090100	4045.478071
905.397039	3768.025566
905.703938	3511.929909
906.010796	3323.584840
906.317614	3213.836400
906.624391	3115.022223
906.931129	3040.783671
907.237826	2974.668938
907.544483	2932.615633
907.851099	2900.868966
908.157675	2879.146634
908.464211	2856.577389
908.770707	2844.304700
909.077163	2828.256186
909.383578	2815.035760
909.689954	2804.219965
909.996289	2803.176446
910.302584	2803.725932
910.608839	2805.772640
910.915054	2797.159829
911.221229	2789.961061
911.527363	2792.441309
911.833458	2800.106383
912.139513	2806.301961
912.445527	2807.436221
912.751502	2819.134218
913.057436	2824.820640
913.363331	2839.482836
913.669186	2864.038296
913.975000	2900.962228
914.280775	2964.921867
914.586510	3036.158412
914.892205	3121.348871
915.197859	3256.592946
915.503475	3463.829740
915.809050	3685.824511
916.114585	3830.089731
916.420081	3843.095908
916.725536	3778.521248
917.030952	3654.859224
917.336328	3520.091537
917.641665	3384.834859
917.946961	3282.902728
918.252218	3209.861450
918.557435	3129.061836
918.862612	3071.265007
919.167750	3018.837008
919.472848	2980.650267
919.777906	2949.813529
920.082925	2921.212543
920.387904	2891.951165
920.692843	2875.015409
920.997743	2861.278265
921.302603	2848.947602
921.607423	2838.409070
921.912204	2823.565393
922.216946	2811.159113
922.521647	2805.480253
922.826310	2796.852318
923.130932	2788.544497
923.435516	2779.349432
923.740059	2771.833072
924.044564	2763.941146
924.349028	2760.150198
924.653454	2750.584608
924.957840	2743.736201
925.262186	2739.867115
925.566493	2736.242526
925.870761	2731.060220
926.174989	2725.449415
926.479178	2722.268447
926.783328	2718.686707
927.087438	2716.234186
927.391509	2716.483723
927.695541	2710.779658
927.999533	2709.733618
928.303486	2707.712116
928.607400	2707.089533
928.911275	2706.177084
929.215110	2706.091385
929.518906	2700.651980
929.822663	2701.146013
930.126381	2703.936291
930.430060	2705.022660
930.733699	2703.427135
931.037299	2707.732280
931.340861	2706.353525
931.644383	2706.600541
931.947866	2706.043494
932.251309	2702.975952
932.554714	2703.356559
932.858080	2700.732638
933.161407	2697.612164
933.464694	2695.814992
933.767943	2694.113603
934.071153	2695.769622
934.374323	2698.133923
934.677455	2695.033614
934.980548	2696.805579
935.283602	2694.612677
935.586617	2694.595033
935.889593	2693.017152
936.192530	2691.719055
936.495428	2697.108048
936.798287	2696.369519
937.101108	2698.428831
937.403890	2705.307485
937.706632	2707.754965
938.009336	2714.469782
938.312002	2723.495968
938.614628	2733.036352
938.917216	2739.337794
939.219765	2739.113463
939.522275	2740.096488
939.824747	2736.610530
940.127179	2735.299830
940.429573	2733.515262
940.731929	2727.811196
941.034246	2726.533263
941.336524	2721.121585
941.638763	2720.960268
941.940964	2716.206460
942.243126	2716.360215
942.545250	2716.251830
942.847335	2712.171016
943.149381	2708.473330
943.451389	2703.172557
943.753359	2702.003009
944.055290	2698.693491
944.357182	2699.757175
944.659036	2700.319263
944.960851	2697.173583
945.262628	2695.671320
945.564367	2694.506813
945.866067	2694.355578
946.167729	2696.500589
946.469352	2696.291382
946.770937	2695.814992
947.072484	2696.092256
947.373992	2695.895651
947.675462	2693.433047
947.976893	2687.607994
948.278286	2691.028417
948.579641	2686.957685
948.880958	2685.687314
949.182236	2688.679239
949.483476	2684.487520
949.784678	2687.855011
950.085841	2688.671677
950.386967	2689.808458
950.688054	2689.027079
950.989103	2688.565813
951.290114	2690.715865
951.591087	2692.901206
951.892021	2695.033614
952.192917	2697.218954
952.493776	2699.200127
952.794596	2698.905220
953.095378	2698.408666
953.396122	2698.880014
953.696828	2698.786753
953.997496	2696.445137
954.298126	2691.721576
954.598718	2692.147553
954.899272	2691.141843
955.199788	2686.503981
955.500266	2686.501461
955.800706	2681.636747
956.101108	2677.739935
956.401472	2679.242199
956.701798	2676.870336
957.002087	2674.586694
957.302337	2673.568381
957.602550	2671.115859
957.902724	2669.583348
958.202861	2668.123934
958.502960	2667.123265
958.803022	2666.064623
959.103045	2665.502534
959.403031	2663.176042
959.702979	2665.545384
960.002889	2664.343069
960.302762	2661.661175
960.602596	2664.151505
960.902393	2660.156391
961.202153	2661.416679
961.501875	2662.445075
961.801559	2661.245280
962.101205	2660.060609
962.400814	2660.284940
962.700385	2660.864673
962.999918	2659.753098
963.299414	2656.418375
963.598873	2656.856956
963.898293	2656.468787
964.197677	2658.359219
964.497022	2660.713438
964.796331	2659.496000
965.095601	2659.022131
965.394835	2660.710918
965.694030	2659.324600
965.993189	2660.050527
966.292309	2658.538180
966.591393	2659.647234
966.890439	2658.086997
967.189447	2657.502223
967.488419	2658.218067
967.787353	2656.216729
968.086249	2658.303767
968.385108	2659.959786
968.683930	2657.943324
968.982714	2657.708911
969.281462	2659.206133
969.580172	2658.810403
969.878844	2656.446102
970.177480	2656.486431
970.476078	2657.401400
970.774639	2659.727893
971.073162	2661.083963
971.371649	2661.716628
971.670098	2658.127326
971.968510	2659.453150
972.266885	2661.078922
972.565223	2660.479025
972.863524	2659.072543
973.161788	2658.492810
973.460014	2658.540701
973.758204	2658.233191
974.056356	2657.260248
974.354471	2659.324600
974.652550	2659.551452
974.950591	2658.817964
975.248595	2660.153870
975.546563	2656.219250
975.844493	2659.246462
976.142386	2659.274189
976.440243	2657.189672
976.738062	2659.100269
977.035845	2658.021462
977.333590	2656.189003
977.631299	2657.474497
977.928971	2655.231183
978.226606	2651.326810
978.524204	2654.291008
978.821765	2652.788744
979.119290	2654.976605
979.416777	2657.860145
979.714228	2656.355361
980.011642	2658.233191
980.309020	2656.131029
980.606360	2655.495844
980.903664	2656.544404
981.200931	2655.813437
981.498162	2658.664209
981.795356	2658.041627
982.092513	2661.058757
982.389633	2662.555980
982.686717	2663.975065
982.983764	2670.689882
983.280775	2674.120387
983.577749	2674.369924
983.874686	2674.349759
984.171587	2672.676096
984.468451	2669.570746
984.765279	2664.615291
985.062070	2664.085970
985.358824	2663.279386
985.655543	2661.330980
985.952224	2658.457522
986.248869	2658.334014
986.545478	2658.502892
986.842050	2654.051553
987.138586	2656.811585
987.435086	2655.140443
987.731549	2656.592295
988.027975	2654.527942
988.324366	2652.997952
988.620719	2653.807057
988.917037	2654.096924
989.213318	2652.866882
989.509563	2654.880823
989.805772	2655.573982
990.101944	2654.374187
990.398080	2653.159269
990.694180	2653.539876
990.990244	2653.814619
991.286271	2651.228507
991.582262	2653.749084
991.878217	2653.441574
992.174136	2654.275885
992.470019	2652.072901
992.765865	2651.364618
993.061676	2649.353198
993.357450	2648.783548
993.653188	2648.476037
993.948890	2655.130360
994.244556	2653.542397
994.540186	2652.887047
994.835780	2653.451656
995.131337	2657.325783
995.426859	2656.383087
995.722345	2654.636327
996.017795	2654.641368
996.313208	2654.903508
996.608586	2657.081287
996.903928	2658.641524
997.199234	2657.955927
997.494504	2657.282933
997.789738	2657.166987
998.084936	2653.822181
998.380099	2654.938797
998.675225	2656.438540
998.970316	2655.621873
999.265371	2655.795793
999.560390	2653.076090
999.855373	2654.225473
1000.150320	2653.391162
1000.445232	2652.887047
1000.740108	2651.344454
1001.034948	2653.033240
1001.329752	2653.098775
1001.624521	2651.362098
1001.919254	2651.140287
1002.213951	2651.909063
1002.508613	2651.377221
1002.803239	2652.375370
1003.097829	2648.748260
1003.392384	2652.546769
1003.686903	2651.246151
1003.981386	2649.519556
1004.275834	2651.215904
1004.570246	2652.524084
1004.864623	2649.343116
1005.158964	2651.543579
1005.453270	2650.371511
1005.747540	2650.517705
1006.041775	2648.647437
1006.335974	2648.602066
1006.630138	2650.109371
1006.924266	2652.219094
1007.218359	2651.306645
1007.512416	2649.338075
1007.806438	2647.336737
1008.100425	2647.435039
1008.394376	2644.884215
1008.688292	2649.892602
1008.982172	2649.040647
1009.276017	2649.207005
1009.569827	2649.065852
1009.863602	2649.222128
1010.157341	2648.803712
1010.451045	2650.512663
1010.744714	2649.277581
1011.038347	2648.801192
1011.331945	2649.448980
1011.625508	2653.542397
1011.919036	2648.193733
1012.212528	2651.924187
1012.505986	2651.846049
1012.799408	2649.590132
1013.092795	2649.383445
1013.386147	2651.034423
1013.679464	2649.365801
1013.972745	2647.896305
1014.265992	2648.871768
1014.559204	2651.006697
1014.852380	2650.933600
1015.145521	2652.917294
1015.438628	2649.517036
1015.731699	2647.813126
1016.024736	2648.239103
1016.317737	2649.907725
1016.610703	2648.622231
1016.903635	2650.663898
1017.196531	2650.800009
1017.489393	2647.344298
1017.782219	2649.575009
1018.075011	2651.707417
1018.367768	2649.900163
1018.660490	2648.355050
1018.953177	2648.355050
1019.245829	2648.355050
