Dividing Wavelength (nm)	Counts (n)	Blue Motor Position (mm): 30.600000	Red Motor Position (mm): 0.000000	
326.493990	2052.110058
326.888308	2052.110058
327.282561	2052.110058
327.676750	2029.117355
328.070874	2029.661800
328.464933	2036.752183
328.858929	2045.203677
329.252859	2055.238094
329.646726	2067.977090
330.040528	2087.138515
330.434265	2101.042018
330.827938	2126.507406
331.221547	2145.157155
331.615091	2166.244302
332.008571	2185.584688
332.401986	2205.809798
332.795338	2228.610936
333.188625	2246.524677
333.581847	2264.388005
333.975006	2283.123453
334.368100	2298.413273
334.761129	2317.141160
335.154095	2330.653973
335.546996	2383.606253
335.939833	2487.547283
336.332606	2497.715290
336.725315	2510.139214
337.117960	2522.870648
337.510540	2530.281144
337.903056	2539.176260
338.295508	2547.683207
338.687896	2553.236038
339.080220	2560.830537
339.472480	2562.678119
339.864676	2565.770867
340.256807	2570.534758
340.648875	2572.273956
341.040879	2572.886456
341.432818	2574.504666
341.824694	2578.189750
342.216506	2573.761096
342.608253	2574.812177
342.999937	2575.480130
343.391557	2571.318657
343.783113	2571.545509
344.174605	2569.549212
344.566033	2566.552246
344.957397	2568.414953
345.348697	2566.552246
345.739934	2564.460167
346.131106	2562.378171
346.522215	2561.576627
346.913260	2561.551422
347.304241	2558.756102
347.695159	2554.597150
348.086012	2554.798796
348.476802	2552.419371
348.867528	2550.133208
349.258191	2545.225645
349.648789	2543.420912
350.039324	2542.447969
350.429796	2547.574823
350.820203	2548.567930
351.210548	2545.490305
351.600828	2542.458051
351.991045	2541.555685
352.381198	2543.337733
352.771288	2542.019471
353.161314	2543.491488
353.551276	2542.581560
353.941175	2539.629964
354.331010	2542.082485
354.720782	2545.573484
355.110490	2547.809236
355.500135	2541.568288
355.889717	2542.483257
356.279235	2542.826056
356.668689	2545.780172
357.058080	2545.838145
357.447408	2545.931406
357.836672	2547.209339
358.225873	2546.715306
358.615010	2545.144986
359.004084	2544.053577
359.393095	2547.849565
359.782043	2547.186654
360.170927	2548.958619
360.559748	2547.501726
360.948505	2548.162117
361.337199	2552.759649
361.725830	2551.932900
362.114398	2553.374670
362.502903	2549.750080
362.891344	2552.913404
363.279722	2549.954247
363.668037	2555.272664
364.056289	2553.273847
364.444478	2553.369629
364.832603	2554.445915
365.220665	2554.208981
365.608665	2555.428940
365.996601	2554.125802
366.384474	2554.778631
366.772284	2555.123950
367.160031	2555.219732
367.547715	2556.752243
367.935336	2556.767367
368.322893	2553.152859
368.710388	2550.183620
369.097820	2556.958930
369.485189	2551.643034
369.872495	2558.128478
370.259738	2559.403890
370.646918	2560.008828
371.034035	2558.052861
371.421090	2560.026472
371.808081	2559.224929
372.195010	2558.887172
372.581875	2556.926163
372.968678	2560.122254
373.355418	2558.546894
373.742096	2561.115362
374.128710	2560.686864
374.515262	2563.338511
374.901751	2561.334652
375.288177	2562.768860
375.674540	2563.013356
376.060841	2565.370096
376.447079	2564.001422
376.833254	2561.057388
377.219367	2564.979406
377.605417	2565.922102
377.991404	2565.849005
378.377329	2564.198027
378.763191	2566.441341
379.148991	2565.425548
379.534727	2565.821279
379.920402	2567.845302
380.306013	2568.369582
380.691563	2567.578121
381.077049	2566.466547
381.462474	2567.918399
381.847835	2567.159705
382.233134	2569.773543
382.618371	2566.733728
383.003545	2567.265569
383.388657	2569.856722
383.773706	2568.609037
384.158693	2570.683472
384.543618	2572.478122
384.928480	2569.952504
385.313280	2570.948132
385.698017	2572.185736
386.082692	2568.629202
386.467305	2572.578946
386.851856	2571.018708
387.236344	2574.890315
387.620770	2571.467371
388.005133	2570.625498
388.389435	2573.511559
388.773674	2569.556774
389.157851	2574.852506
389.541965	2576.707651
389.926018	2576.198494
390.310008	2574.018195
390.693936	2576.982393
391.077802	2576.367373
391.461606	2575.631364
391.845348	2576.042218
392.229027	2580.082703
392.612645	2577.819225
392.996200	2576.684965
393.379694	2575.890984
393.763125	2577.368042
394.146494	2577.173957
394.529801	2581.285018
394.913047	2579.757549
395.296230	2580.881726
395.679351	2580.233938
396.062410	2580.528845
396.445408	2579.296283
396.828343	2578.981211
397.211217	2581.710996
397.594028	2579.223186
397.976778	2579.467682
398.359466	2585.015472
398.742092	2581.653023
399.124656	2580.725450
399.507158	2582.938517
399.889598	2583.913980
400.271977	2583.382138
400.654294	2584.266861
401.036549	2586.782397
401.418742	2582.802406
401.800874	2584.949937
402.182944	2587.389856
402.564952	2586.122005
402.946898	2585.517067
403.328783	2586.041347
403.710606	2589.365988
404.092367	2589.340782
404.474067	2586.540421
404.855705	2588.161152
405.237282	2589.834815
405.618797	2589.854980
406.000250	2589.925556
406.381642	2591.947059
406.762972	2590.112079
407.144240	2588.778693
407.525447	2591.896647
407.906593	2584.735688
408.287677	2590.495206
408.668700	2595.453181
409.049661	2592.017635
409.430560	2593.325814
409.811399	2592.594847
410.192176	2592.098293
410.572891	2595.027204
410.953545	2598.556011
411.334138	2594.800352
411.714669	2596.721031
412.095139	2597.840167
412.475547	2598.414859
412.855894	2599.591968
413.236180	2594.787749
413.616405	2600.307812
413.996568	2597.769591
414.376670	2597.600713
414.756711	2599.738162
415.136691	2599.677668
415.516609	2599.342431
415.896466	2600.191866
416.276262	2601.106835
416.655997	2602.689757
417.035670	2603.697988
417.415283	2605.170005
417.794834	2605.774944
418.174324	2604.123966
418.553753	2603.801332
418.933121	2602.835951
419.312428	2609.490274
419.691674	2605.132197
420.070859	2607.516662
420.449983	2608.892897
420.829045	2610.647219
421.208047	2611.688217
421.586988	2613.029164
421.965867	2614.254164
422.344686	2615.005296
422.723444	2614.801130
423.102141	2618.783641
423.480777	2622.249434
423.859352	2622.254476
424.237866	2627.030969
424.616319	2629.886782
424.994712	2630.232102
425.373044	2632.664458
425.751314	2637.965232
426.129524	2638.393730
426.507673	2643.155099
426.885762	2646.260450
427.263789	2653.673467
427.641756	2664.070847
428.019662	2668.675941
428.397508	2677.530727
428.775292	2686.700586
429.153016	2696.538398
429.530679	2701.738348
429.908282	2716.569423
430.285824	2725.552759
430.663305	2742.140676
431.040726	2751.161821
431.418086	2764.011722
431.795385	2782.953857
432.172624	2803.609985
432.549802	2816.316213
432.926920	2839.334122
433.303977	2856.869776
433.680974	2877.301572
434.057910	2907.578742
434.434786	2930.170673
434.811601	2951.560289
435.188355	3000.588031
435.565050	3012.986748
435.941683	3038.247970
436.318257	3088.878799
436.694770	3113.600617
437.071222	3160.425375
437.447614	3169.418793
437.823946	3196.091538
438.200218	3242.132397
438.576429	3262.773401
438.952580	3308.652942
439.328670	3349.110722
439.704700	3390.276785
440.080670	3416.783172
440.456580	3485.423522
440.832429	3524.409286
441.208218	3522.833925
441.583947	3581.785178
441.959616	3639.987820
442.335224	3687.515818
442.710773	3744.763161
443.086261	3826.606294
443.461689	3820.292249
443.837057	3896.373343
444.212365	3984.240654
444.587612	4038.710322
444.962800	4064.251327
445.337927	4147.967249
445.712995	4098.329527
446.088002	4304.351403
446.462949	4385.450965
446.837837	4447.515131
447.212664	4528.143346
447.587431	4854.747100
447.962139	5212.444692
448.336786	5511.475856
448.711374	5465.785358
449.085901	5179.984703
449.460369	5256.975725
449.834776	5316.859591
450.209124	5720.237598
450.583412	5728.532817
450.957640	5879.938832
451.331808	5814.386188
451.705917	5719.231888
452.079965	5772.889930
452.453954	5936.853459
452.827883	6010.920612
453.201752	6076.453091
453.575562	6171.526732
453.949311	6424.368324
454.323001	6553.227778
454.696632	6605.686025
455.070202	6982.587892
455.443713	7112.508509
455.817164	7285.006711
456.190556	7553.614512
456.563888	7561.297230
456.937160	7783.420551
457.310373	7609.697348
457.683526	7734.891883
458.056619	7856.502158
458.429653	8011.454624
458.802628	8217.108496
459.175542	8354.474897
459.548398	8797.640211
459.921194	9247.492615
460.293930	9557.533659
460.666607	10199.869921
461.039224	10792.301279
461.411782	11084.428583
461.784280	10935.681777
462.156719	11002.245172
462.529099	11048.840558
462.901419	10762.576116
463.273680	10625.686104
463.645882	10903.410831
464.018024	10989.594397
464.390106	11398.850390
464.762130	12388.398643
465.134094	13791.407211
465.505999	15594.012921
465.877845	17275.935928
466.249631	18144.478845
466.621358	17782.662631
466.993026	17254.432887
467.364634	16825.024881
467.736184	16381.650359
468.107674	16054.489557
468.479105	16035.711259
468.850477	15934.091680
469.221790	15684.478947
469.593043	15250.675056
469.964238	15050.178285
470.335373	15230.041613
470.706449	16057.322686
471.077467	17144.286196
471.448425	19339.716257
471.819324	20732.513968
472.190164	20336.059986
472.560945	18901.829031
472.931667	17711.489100
473.302330	17554.079071
473.672934	17210.872276
474.043479	17684.082867
474.413965	17560.269608
474.784393	17478.166856
475.154761	18122.199466
475.525070	18306.796437
475.895321	18215.574238
476.265513	18753.210775
476.635645	19347.761939
477.005719	19452.078535
477.375734	19854.433188
477.745691	20480.975515
478.115588	21144.623254
478.485427	22400.828381
478.855207	24233.242434
479.224928	25926.046772
479.594591	27074.232575
479.964194	26591.400942
480.333739	26985.984656
480.703226	27301.006360
481.072653	27831.381115
481.442022	28338.180914
481.811333	28670.486214
482.180584	28204.764257
482.549777	28027.938224
482.918912	27873.726807
483.287988	27857.088479
483.657005	27701.011835
484.025964	27377.954532
484.394864	27588.258868
484.763706	27544.635243
485.132489	27102.775588
485.501213	27178.687803
485.869879	27389.191264
486.238487	27381.054842
486.607036	27645.796077
486.975527	27402.608295
487.343959	27729.239776
487.712333	28060.703203
488.080648	28043.190235
488.448905	28477.382295
488.817104	28422.763914
489.185244	29312.149481
489.553326	30484.000981
489.921350	32410.752666
490.289315	34782.484480
490.657222	35433.831804
491.025070	35818.713818
491.392861	35445.665913
491.760593	34627.854648
492.128267	33644.539782
492.495883	32721.393607
492.863440	31911.738929
493.230939	31040.856917
493.598380	30560.228268
493.965763	30447.409765
494.333088	30005.056077
494.700354	29847.038589
495.067563	29830.435549
495.434713	29764.809808
495.801805	30063.374665
496.168839	29926.837534
496.535815	29802.202567
496.902733	29939.528639
497.269593	29783.328487
497.636395	29945.051223
498.003139	30239.696583
498.369825	30000.655150
498.736453	30426.340263
499.103023	30277.260741
499.469535	30374.244979
499.835989	30525.121672
500.202385	30379.429806
500.568723	30467.224021
500.935003	30799.012602
501.301226	30713.983460
501.667390	31394.246843
502.033497	31589.972161
502.399546	31397.359755
502.765537	31009.505981
503.131470	31492.241832
503.497345	31907.403537
503.863163	30921.726890
504.228923	31673.388134
504.594625	32075.599114
504.960269	31587.703642
505.325856	32244.054311
505.691385	31943.833435
506.056856	32262.424276
506.422270	32752.731940
506.787625	32313.498726
507.152924	32756.114554
507.518164	32964.593992
507.883347	32522.121837
508.248472	32707.071689
508.613540	33392.179620
508.978550	33634.255828
509.343503	33489.088241
509.708398	33848.651060
510.073236	34465.403465
510.438016	34554.677259
510.802738	34255.073924
511.167403	34827.549875
511.532010	35082.125624
511.896561	35557.463582
512.261053	36302.803219
512.625488	36095.173216
512.989866	36037.444442
513.354186	36100.471468
513.718449	36067.378814
514.082655	36952.431509
514.446803	36665.239495
514.810894	37261.101359
515.174927	37293.715104
515.538904	37302.958060
515.902822	37925.124665
516.266684	37647.228538
516.630488	38020.311732
516.994235	38017.231587
517.357925	38610.789643
517.721558	38879.082372
518.085133	39250.043239
518.448651	39441.715470
518.812112	39344.148978
519.175516	39488.013427
519.538863	39951.166916
519.902152	39997.948824
520.265385	40537.374970
520.628560	40587.461354
520.991678	40541.748171
521.354739	40777.565787
521.717743	41136.821095
522.080690	41029.056349
522.443580	41726.333626
522.806413	41732.216652
523.169189	41878.667212
523.531908	42129.394040
523.894569	41986.623522
524.257174	42179.800537
524.619722	42522.306612
524.982213	42644.078204
525.344647	42694.116697
525.707025	42823.447499
526.069345	43267.807566
526.431608	43171.143441
526.793815	43564.366044
527.155964	43125.994868
527.518057	43379.000297
527.880093	43235.196342
528.242072	43860.569121
528.603995	43606.056387
528.965860	43531.296075
529.327669	43753.666412
529.689421	43816.761494
530.051117	43747.168365
530.412755	44043.010999
530.774337	44127.195748
531.135862	44057.537084
531.497331	44203.619640
531.858743	44206.306575
532.220098	44620.533145
532.581396	44341.394375
532.942638	44113.556906
533.303824	44347.990724
533.664953	44420.432105
534.026025	44103.998878
534.387040	44658.929094
534.747999	44744.202732
535.108902	45057.540690
535.469748	44394.124844
535.830537	44644.778575
536.191270	44887.132046
536.551947	44629.680319
536.912567	44910.593576
537.273131	45067.572586
537.633638	44687.787179
537.994089	44897.791566
538.354483	44638.300692
538.714821	45287.079548
539.075103	45555.263892
539.435328	45421.141473
539.795497	45188.378797
540.155609	45314.795812
540.515665	45877.680968
540.875665	45202.436054
541.235609	45467.227701
541.595496	45591.855107
541.955328	46169.493200
542.315102	45615.828314
542.674821	45497.484707
543.034483	45396.303708
543.394090	45414.315751
543.753640	45388.792389
544.113134	46464.151162
544.472571	45561.744295
544.831953	46684.109308
545.191278	45947.810980
545.550548	45628.423637
545.909761	46284.222299
546.268918	46423.070800
546.628019	46847.326746
546.987064	46282.329346
547.346053	45574.294247
547.704986	46467.591750
548.063863	46128.906870
548.422684	46325.070769
548.781449	45914.720846
549.140158	46453.544575
549.498811	46238.811586
549.857408	45607.306243
550.215949	46457.980790
550.574434	46298.965154
550.932864	46213.182359
551.291237	46939.345448
551.649555	46684.779781
552.007817	46875.400932
552.366022	46539.080353
552.724173	46607.345138
553.082267	47009.566200
553.440305	47361.100981
553.798288	46620.537837
554.156215	47000.411465
554.514086	47191.710650
554.871902	46827.804877
555.229661	47007.864811
555.587365	46691.212293
555.945014	46816.505131
556.302606	46827.688931
556.660143	46939.668081
557.017625	47148.074422
557.375050	46849.086108
557.732421	47257.580887
558.089735	47317.792428
558.446994	47186.296451
558.804197	47667.532559
559.161345	47525.387144
559.518437	46882.821510
559.875474	47131.262174
560.232455	47366.215232
560.589381	47403.287877
560.946251	47217.896924
561.303065	47880.798572
561.659825	47568.761232
562.016528	47367.054584
562.373177	46953.324567
562.729770	47573.520081
563.086307	47100.707741
563.442789	47627.362124
563.799216	47493.680807
564.155587	47372.801499
564.511904	47359.545785
564.868164	47398.755880
565.224370	47715.249601
565.580520	47444.348075
565.936615	47644.673447
566.292654	47290.476936
566.648638	47662.889656
567.004567	47584.313191
567.360441	47679.301133
567.716260	47418.270186
568.072023	47771.755894
568.427732	47703.811223
568.783385	47252.411184
569.138982	47648.988674
569.494525	47783.930281
569.850013	47372.559524
570.205445	47510.175462
570.560823	47282.448899
570.916145	47147.998805
571.271412	47387.148623
571.626625	47045.668423
571.981782	47126.215979
572.336884	46715.883700
572.691931	47047.339566
573.046923	46699.426854
573.401860	46537.714200
573.756743	46554.985193
574.111570	46713.272383
574.466342	46608.202134
574.821059	46751.925430
575.175722	46263.455266
575.530330	46358.327261
575.884882	46000.934659
576.239380	45905.664413
576.593823	45991.691703
576.948211	45917.087668
577.302544	45471.706767
577.656823	45467.162166
578.011047	45731.517753
578.365216	45556.561989
578.719330	45272.382064
579.073389	45240.088433
579.427394	45312.045862
579.781344	45242.908958
580.135239	44995.564745
580.489080	45050.878805
580.842866	44537.570877
581.196597	45039.085026
581.550273	45025.010124
581.903895	44973.925592
582.257463	45404.959369
582.610975	44842.089336
582.964434	45180.378486
583.317837	44682.761148
583.671186	44640.959901
584.024481	44903.851033
584.377721	44458.331500
584.730906	44676.578173
585.084037	44793.207788
585.437113	44479.393441
585.790135	44609.089726
586.143103	44181.733471
586.496016	44334.114948
586.848874	44445.592504
587.201679	44467.730731
587.554428	43962.317249
587.907124	44237.796142
588.259765	44011.793654
588.612352	44180.954612
588.964884	43633.349193
589.317362	43938.099546
589.669786	43950.127739
590.022155	43782.736226
590.374470	44231.918157
590.726731	43813.996421
591.078937	43164.574818
591.431090	43497.290972
591.783188	43038.921538
592.135232	42811.215139
592.487222	43090.479939
592.839157	43238.021909
593.191038	42876.944223
593.542866	42679.933411
593.894639	42089.977258
594.246358	42380.171279
594.598022	42372.604507
594.949633	41961.866416
595.301190	41941.338837
595.652692	41876.708724
596.004141	42359.938608
596.355535	41279.027004
596.706876	41283.720318
597.058162	41010.988854
597.409395	41510.365554
597.760573	41711.678991
598.111698	41319.333549
598.462768	41253.748138
598.813785	41266.048553
599.164748	40864.359332
599.515657	41154.092088
599.866511	40647.957721
600.217312	41336.639830
600.568060	40296.105347
600.918753	41104.572834
601.269392	41014.691581
601.619978	40743.757288
601.970510	40951.956942
602.320988	41088.030287
602.671412	41353.129445
603.021783	41231.078069
603.372100	40786.854112
603.722363	40897.341081
604.072572	40928.961719
604.422728	40924.210431
604.772830	40716.081354
605.122878	40865.145752
605.472872	40734.796637
605.822813	40993.566626
606.172701	40738.670764
606.522534	41071.265930
606.872314	41270.409151
607.222041	41106.478390
607.571714	41424.083685
607.921333	40939.648965
608.270899	41146.006077
608.620411	41548.567417
608.969870	41276.292178
609.319276	41301.949130
609.668627	41320.462768
610.017926	41720.851371
610.367171	41865.887887
610.716362	41892.666497
611.065500	41785.083233
611.414585	42003.960050
611.763616	42187.374871
612.112594	42084.963831
612.461518	42208.577964
612.810389	42596.746810
613.159207	42399.100812
613.507971	42363.885832
613.856682	42863.265052
614.205340	42705.068604
614.553945	43378.531469
614.902496	42703.417626
615.250994	43139.197649
615.599439	43198.574880
615.947830	43308.461952
616.296169	43302.349552
616.644454	43347.979557
616.992686	43515.875185
617.340864	43962.423114
617.688990	43485.562727
618.037063	44172.046893
618.385082	43983.555631
618.733048	44321.111292
619.080961	44196.904823
619.428821	44222.753339
619.776628	44241.380403
620.124382	44045.511411
620.472083	44150.591743
620.819731	44238.083488
621.167326	43814.245958
621.514868	43794.456909
621.862357	43254.763581
622.209793	43346.298332
622.557176	42891.303950
622.904506	42661.429855
623.251783	42303.243272
623.599007	41973.413178
623.946179	41901.944740
624.293297	41645.062664
624.640363	41101.953954
624.987376	40968.590229
625.334336	40745.141085
625.681243	40340.109579
626.028097	40255.897104
626.374899	40065.621273
626.721647	40032.372343
627.068343	39838.585348
627.414987	39536.418586
627.761577	39291.194178
628.108115	39604.758988
628.454600	38870.739262
628.801032	39101.903892
629.147412	38989.203857
629.493739	38918.053011
629.840014	38480.647216
630.186236	38906.420549
630.532405	38352.135601
630.878521	38576.396371
631.224585	38365.114052
631.570597	38020.140332
631.916556	38196.316056
632.262462	38077.301976
632.608316	38002.516458
632.954117	37859.619912
633.299866	37826.756630
633.645562	37734.937053
633.991206	37186.774587
634.336797	36804.571947
634.682336	36693.611109
635.027823	36453.266538
635.373257	36316.545404
635.718639	36000.223083
636.063968	35896.085447
636.409245	35248.408083
636.754470	35212.263010
637.099642	34968.072039
637.444762	34402.930966
637.789829	34549.590734
638.134845	34175.189279
638.479808	34097.595839
638.824719	34038.160636
639.169577	33531.194478
639.514383	33623.757625
639.859137	33250.127466
640.203839	33411.966149
640.548489	33124.643065
640.893086	33123.919659
641.237632	32842.436752
641.582125	32949.069759
641.926566	32751.015427
642.270955	32782.678914
642.615292	32705.665207
642.959576	32590.946189
643.303809	32596.430965
643.647990	32696.175235
643.992118	32655.362053
644.336195	32510.781761
644.680219	32590.280757
645.024192	32800.131389
645.368112	33329.702080
645.711981	33344.323947
646.055797	34078.792336
646.399562	33891.521032
646.743274	34757.543372
647.086935	35161.745608
647.430544	35116.481087
647.774101	35145.477804
648.117606	35415.648362
648.461059	35560.755455
648.804460	35144.479656
649.147810	34626.294411
649.491108	34268.750574
649.834354	34125.859068
650.177548	33300.564211
650.520690	32810.866526
650.863781	32793.570327
651.206820	32628.522950
651.549807	32215.685218
651.892742	31635.251805
652.235626	31549.360626
652.578458	31425.310432
652.921238	30743.552348
653.263967	31047.828832
653.606644	30754.640366
653.949269	30668.144248
654.291843	30284.401535
654.634365	30645.554838
654.976836	30190.673882
655.319255	30264.927558
655.661622	30151.791463
656.003938	30007.974905
656.346203	29821.943725
656.688416	30067.412630
657.030577	29832.300776
657.372687	29662.875157
657.714746	29823.201493
658.056753	30008.403403
658.398708	29396.422450
658.740612	29469.874582
659.082465	29683.596820
659.424266	29580.636294
659.766016	29579.628063
660.107715	29443.007753
660.449362	29536.669870
660.790958	29524.739980
661.132503	29450.647621
661.473996	29527.008499
661.815438	29596.064745
662.156829	29726.716329
662.498168	29534.928152
662.839456	29506.685087
663.180693	29633.805343
663.521879	29725.146010
663.863013	29677.875110
664.204097	29661.256947
664.545129	30076.920246
664.886110	30011.954896
665.227040	30120.125455
665.567918	30108.331675
665.908746	30188.135661
666.249522	30280.308118
666.590248	30302.572374
666.930922	30393.882794
667.271545	30395.740459
667.612118	30441.138570
667.952639	30255.606464
668.293109	30297.909307
668.633528	30153.321453
668.973896	30110.209505
669.314213	30094.672669
669.654480	29913.657437
669.994695	29900.459697
670.334859	29810.439812
670.674973	29647.169442
671.015035	29827.993110
671.355047	29779.782035
671.695008	29702.067608
672.034918	29627.997934
672.374777	29717.750637
672.714585	29594.328067
673.054342	29720.309023
673.394049	29573.382073
673.733705	29797.347936
674.073310	29505.303811
674.412864	29561.172399
674.752368	29251.138917
675.091820	29490.770165
675.431223	29083.034080
675.770574	28888.748011
676.109875	28732.129443
676.449125	28513.754220
676.788324	28417.632019
677.127473	27942.125183
677.466571	27841.927209
677.805619	27563.897492
678.144616	27502.224016
678.483562	27457.178785
678.822458	27143.167833
679.161303	27096.660668
679.500098	27017.098657
679.838842	26935.278210
680.177535	27023.337085
680.516179	27267.205423
680.854771	27409.413853
681.193314	28175.162601
681.531805	29213.259687
681.870247	29977.251593
682.208638	30677.039364
682.546978	30942.219180
682.885268	31064.305844
683.223508	30622.506682
683.561697	30349.618943
683.899836	30184.692553
684.237925	29766.178482
684.575963	29633.454983
684.913951	29270.191958
685.251889	29445.858525
685.589776	29494.722429
685.927614	29496.191926
686.265401	29682.031542
686.603137	29796.614448
686.940824	30292.154830
687.278460	30636.289197
687.616046	30805.951750
687.953582	31483.997025
688.291068	31381.833001
688.628504	31703.834183
688.965889	31694.160208
689.303224	31416.939597
689.640510	31110.465169
689.977745	30475.584774
690.314930	29734.993904
690.652065	29296.350505
690.989150	28614.791546
691.326185	27778.731304
691.663170	27128.871121
692.000105	26412.755052
692.336990	25807.052856
692.673825	25386.030810
693.010610	24895.546705
693.347345	24402.153855
693.684030	23787.813642
694.020665	23573.617535
694.357251	22921.254419
694.693786	22922.950767
695.030272	22702.581768
695.366707	22215.369372
695.703093	21937.299326
696.039429	22014.323116
696.375716	21778.941560
696.711952	21785.028753
697.048139	21644.294862
697.384276	21480.409471
697.720363	21604.696598
698.056400	21501.484014
698.392388	21344.348728
698.728326	21338.173315
699.064214	21170.139054
699.400053	21171.021256
699.735842	20780.727564
700.071581	20595.374419
700.407270	20338.215079
700.742910	20162.114972
701.078501	19917.079607
701.414042	19709.563030
701.749533	19410.811650
702.084974	19111.667060
702.420366	19337.755248
702.755709	18922.008770
703.091002	18618.145660
703.426246	18681.734775
703.761440	18626.579511
704.096584	18393.398419
704.431679	18314.428744
704.766725	18273.582795
705.101721	18204.715592
705.436668	18339.052260
705.771565	18067.964212
706.106413	18375.709010
706.441212	18458.976269
706.775961	18568.341581
707.110661	18631.419018
707.445311	19003.589763
707.779913	18882.531494
708.114465	19192.275110
708.448967	19505.759262
708.783421	20131.878132
709.117825	20498.329687
709.452180	20726.721682
709.786485	21179.901249
710.120742	21949.196449
710.454949	22055.252244
710.789107	22568.212333
711.123216	23282.006950
711.457275	23502.567513
711.791286	24041.386201
712.125247	24184.658313
712.459159	23898.262802
712.793023	24635.632375
713.126837	23611.393422
713.460602	23857.772254
713.794318	23505.372915
714.127985	23230.345205
714.461602	22338.101304
714.795171	22304.895223
715.128691	21330.432623
715.462162	20815.390537
715.795584	20382.005062
716.128957	20119.192068
716.462281	19746.156766
716.795556	19471.466813
717.128782	18982.704262
717.461960	18401.791940
717.795088	18355.677985
718.128167	18018.553342
718.461198	17575.004901
718.794180	17446.889017
719.127113	17119.226620
719.459997	16936.051254
719.792833	16563.658698
720.125619	16607.874659
720.458357	16280.063548
720.791046	16140.700850
721.123686	16000.045096
721.456278	15780.512928
721.788821	15774.627381
722.121315	15517.969636
722.453761	15618.061745
722.786158	15504.960938
723.118506	15583.096302
723.450805	15470.335773
723.783056	15651.562733
724.115259	15541.751279
724.447412	15532.969589
724.779518	15753.096613
725.111574	15799.565969
725.443582	16078.074595
725.775542	16033.150353
726.107453	16551.655711
726.439315	16474.087477
726.771129	16886.864716
727.102895	17323.935275
727.434612	17591.658353
727.766281	17746.300788
728.097901	18069.179130
728.429473	18145.212333
728.760996	18152.814393
729.092471	18271.394934
729.423897	18159.950146
729.755276	18036.159572
730.086606	18155.221544
730.417887	18738.306603
730.749120	19295.470050
731.080305	19508.100878
731.411442	19899.443131
731.742530	20012.395224
732.073570	20162.034314
732.404562	20484.224538
732.735506	20324.238480
733.066401	20109.936509
733.397249	19605.269118
733.728048	18979.606473
734.058798	18113.132950
734.389501	17355.578597
734.720156	16855.085282
735.050762	16283.824248
735.381320	15908.817855
735.711831	15641.213244
736.042293	15274.257573
736.372707	15315.307689
736.703073	15118.826198
737.033391	15318.017309
737.363661	15322.259440
737.693883	15443.206803
738.024056	15653.816129
738.354182	15871.392329
738.684260	16243.053917
739.014290	16508.127868
739.344272	16747.731390
739.674207	17090.431549
740.004093	17261.361952
740.333931	17316.013101
740.663722	17388.391468
740.993464	17414.973472
741.323159	17260.852796
741.652806	16955.865509
741.982405	16783.964683
742.311956	16423.529745
742.641460	16313.909855
742.970915	15978.292517
743.300323	15631.640093
743.629683	15417.098668
743.958996	15107.085350
744.288260	14797.770232
744.617477	14495.237987
744.946647	14457.331031
745.275768	14148.394000
745.604842	13947.733392
745.933869	13779.240386
746.262847	13741.930806
746.591778	13662.852747
746.920662	13544.224314
747.249498	13561.722159
747.578286	13723.344072
747.907027	13902.547009
748.235720	14163.789684
748.564365	14233.450868
748.892963	14153.417510
749.221514	14263.851546
749.550017	14133.310867
749.878473	14098.847019
750.206881	13877.268143
750.535242	13802.301144
750.863555	13718.880130
751.191821	13621.979071
751.520039	13640.084375
751.848210	13570.463520
752.176334	13615.864152
752.504411	13539.273901
752.832440	13371.690824
753.160421	13479.516063
753.488356	13371.569836
753.816243	13274.804888
754.144082	13113.818161
754.471875	13057.362279
754.799620	13031.637271
755.127318	13018.061443
755.454969	12998.647960
755.782572	12962.664204
756.110129	12979.904950
756.437638	12884.695198
756.765100	12898.601221
757.092515	12927.403853
757.419882	12960.622536
757.747203	12975.675422
758.074477	13066.474164
758.401703	13054.617370
758.728882	13251.960899
759.056014	13292.932877
759.383099	13466.983755
759.710138	13586.007918
760.037129	13704.326319
760.364073	13773.430456
760.690970	13791.976861
761.017820	13817.293536
761.344623	14044.929358
761.671379	14412.157251
761.998088	15122.894409
762.324751	16906.457160
762.651366	20335.944039
762.977935	24814.636186
763.304456	27745.991530
763.630931	28752.500746
763.957359	27521.156069
764.283740	25240.883388
764.610074	22975.469508
764.936362	20346.656491
765.262602	18475.975040
765.588796	16564.119964
765.914943	15288.322393
766.241044	14196.751268
766.567097	13411.697421
766.893104	12699.800798
767.219064	12241.620407
767.544978	11773.791248
767.870845	11384.178111
768.196665	11173.258755
768.522438	10936.437950
768.848165	10741.315049
769.173846	10536.866014
769.499479	10405.710314
769.825066	10235.541125
770.150607	10004.520168
770.476101	9926.026882
770.801548	9803.489035
771.126949	9646.389037
771.452303	9532.481645
771.777611	9341.550464
772.102872	9329.970933
772.428087	9191.366929
772.753256	9036.580821
773.078378	8946.681924
773.403453	8764.303060
773.728482	8654.741143
774.053465	8583.597860
774.378401	8478.338567
774.703291	8355.636883
775.028135	8237.913337
775.352932	8204.034263
775.677683	8097.118952
776.002388	7989.694484
776.327046	8004.457503
776.651658	7908.612565
776.976224	7807.804612
777.300743	7805.838562
777.625216	7719.239101
777.949643	7675.464241
778.274024	7689.219029
778.598359	7605.762728
778.922647	7625.055223
779.246889	7578.013696
779.571086	7584.693225
779.895236	7593.419462
780.219339	7601.828107
780.543397	7614.015096
780.867409	7684.404728
781.191374	7691.379164
781.515294	7670.039960
781.839167	7754.063391
782.162995	7722.742703
782.486776	7668.290679
782.810511	7623.810058
783.134201	7530.664659
783.457844	7534.385030
783.781441	7474.138201
784.104993	7411.580002
784.428498	7386.139819
784.751958	7378.114302
785.075372	7346.912080
785.398739	7289.596682
785.722061	7335.050245
786.045337	7341.490319
786.368568	7497.539237
786.691752	7522.956734
787.014891	7867.338118
787.337983	8226.759785
787.661030	8823.544180
787.984031	9452.539027
788.306987	9855.622127
788.629897	10050.036746
788.952760	9998.569086
789.275579	9771.896124
789.598351	9375.346359
789.921078	9010.094598
790.243759	8602.169470
790.566395	8310.284142
790.888984	8063.300371
791.211529	7852.713731
791.534027	7635.568550
791.856480	7435.011285
792.178888	7363.431942
792.501249	7268.305368
792.823566	7111.008766
793.145836	7112.374918
793.468062	7088.124448
793.790241	7042.570061
794.112375	7109.650175
794.434464	7263.412929
794.756507	7306.174516
795.078505	7471.252140
795.400457	7783.823843
795.722364	8138.963049
796.044226	8427.667409
796.366042	8702.067496
796.687812	8640.530131
797.009538	8717.833704
797.331218	8606.260367
797.652852	8525.279271
797.974442	8369.036270
798.295986	8278.968494
798.617484	8088.801048
798.938938	7948.004142
799.260346	7846.941610
799.581709	7640.261864
799.903026	7566.688744
800.224299	7454.865869
800.545526	7289.831095
800.866708	7191.800818
801.187845	7121.272555
801.508936	7025.964500
801.829983	6982.121585
802.150984	6830.597103
802.471940	6794.041176
802.792851	6773.717765
803.113717	6745.126861
803.434538	6715.192489
803.755314	6652.218395
804.076045	6659.487739
804.396731	6604.995387
804.717372	6636.588298
805.037967	6640.651468
805.358518	6685.321132
805.679024	6771.398834
805.999485	6777.468383
806.319901	6818.543705
806.640272	6845.828950
806.960598	6931.412619
807.280879	6929.630571
807.601115	7004.627817
807.921306	6948.860052
808.241453	6965.019471
808.561554	6978.335679
808.881611	6948.446677
809.201623	6950.765608
809.521590	6898.672845
809.841513	6873.283074
810.161390	6920.972389
810.481223	6786.643283
810.801011	6769.747856
811.120755	6747.145843
811.440453	6664.740621
811.760107	6630.894314
812.079716	6602.789882
812.399281	6536.687752
812.718801	6523.303488
813.038276	6476.188865
813.357707	6420.171563
813.677093	6462.519776
813.996434	6366.511001
814.315731	6407.336785
814.634983	6405.640437
814.954191	6413.305512
815.273354	6523.041348
815.592473	6580.754998
815.911547	6711.792231
816.230577	6799.440252
816.549562	6936.927641
816.868502	7036.024123
817.187399	7131.251519
817.506250	7284.069057
817.825058	7315.263717
818.143821	7581.202226
818.462539	7856.681119
818.781213	8229.653407
819.099843	8777.856202
819.418429	9785.043453
819.736970	10759.337174
820.055466	11931.193715
820.373919	13464.453096
820.692327	15793.877027
821.010691	19952.511357
821.329011	28962.512694
821.647286	42007.728313
821.965517	55483.481155
822.283704	60850.553159
822.601847	62797.023317
822.919945	60040.429653
823.237999	55769.314578
823.556010	49532.109173
823.873976	42784.822178
824.191897	36269.501357
824.509775	31440.872474
824.827609	26942.184591
825.145398	24361.509552
825.463144	23024.600593
825.780845	23341.167411
826.098502	25135.334229
826.416116	28948.120200
826.733685	32628.023876
827.051210	33803.562980
827.368692	32013.088806
827.686129	28032.959213
828.003522	23884.049268
828.320872	20170.780716
828.638177	17309.620918
828.955439	15175.395505
829.272656	13372.875495
829.589830	11902.496947
829.906960	10632.658019
830.224046	9695.336120
830.541088	8945.179660
830.858086	8496.769026
831.175041	8118.571582
831.491952	8007.930858
831.808819	8060.492448
832.125642	8461.178480
832.442421	9349.898615
832.759157	11154.399798
833.075849	14089.079784
833.392497	17325.984504
833.709101	19504.488891
834.025662	19336.217697
834.342179	17612.311960
834.658653	15408.773202
834.975083	13472.927275
835.291469	11868.779189
835.607811	10542.648217
835.924110	9634.270103
836.240366	8776.855533
836.556578	7973.857699
836.872746	7326.931467
837.188871	6826.193656
837.504952	6415.574031
837.820990	6106.412668
838.136984	5889.915275
838.452935	5797.652078
838.768842	5827.997303
839.084706	6251.282827
839.400526	7474.097871
839.716303	9058.777021
840.032037	10152.604062
840.347727	10066.546525
840.663373	9084.842307
840.978977	8038.576032
841.294537	7226.257104
841.610054	6629.727287
841.925527	6203.205343
842.240957	5845.948852
842.556344	5510.807903
842.871687	5229.718206
843.186987	4950.460968
843.502244	4728.274633
843.817458	4566.844284
844.132629	4429.583747
844.447756	4341.020756
844.762840	4258.620576
845.077881	4185.009647
845.392879	4122.481696
845.707833	4074.913368
846.022745	4029.941234
846.337613	4002.746730
846.652438	3962.861121
846.967221	3944.327319
847.281960	3914.818925
847.596656	3897.464752
847.911309	3875.714694
848.225919	3849.503215
848.540485	3834.041996
848.855009	3819.316786
849.169490	3800.006646
849.483928	3791.255203
849.798323	3779.756331
850.112675	3763.309566
850.426984	3768.166718
850.741251	3755.319338
851.055474	3749.393461
851.369654	3754.865634
851.683792	3751.306579
851.997887	3755.682301
852.311938	3757.025768
852.625947	3763.712859
852.939914	3753.499481
853.253837	3762.699587
853.567718	3759.770676
853.881555	3750.386568
854.195350	3764.985750
854.509103	3762.346706
854.822812	3760.904936
855.136479	3746.799788
855.450103	3759.722785
855.763685	3748.004623
856.077224	3753.691045
856.390720	3767.493724
856.704173	3788.197743
857.017584	3802.297850
857.330953	3814.494922
857.644278	3834.883869
857.957561	3842.536340
858.270802	3841.170187
858.584000	3845.840817
858.897155	3833.285823
859.210268	3820.693021
859.523339	3797.002118
859.836367	3793.201088
860.149352	3787.693628
860.462295	3779.216927
860.775195	3769.490021
861.088054	3765.936008
861.400869	3763.690173
861.713642	3767.342489
862.026373	3773.633849
862.339062	3781.896301
862.651708	3799.063950
862.964312	3835.032583
863.276873	3845.999613
863.589392	3902.820978
863.901869	3955.556489
864.214303	4000.299250
864.526696	4029.127088
864.839045	4074.799942
865.151353	4100.628294
865.463619	4112.444758
865.775842	4115.391313
866.088023	4137.123727
866.400162	4127.273312
866.712258	4134.837564
867.024313	4132.949652
867.336325	4132.228767
867.648296	4136.077688
867.960224	4136.150784
868.272110	4147.851302
868.583954	4149.217455
868.895755	4164.361081
869.207515	4161.878313
869.519233	4206.900858
869.830909	4215.667424
870.142542	4240.694233
870.454134	4254.512035
870.765684	4287.854227
871.077191	4319.547961
871.388657	4346.114842
871.700081	4386.484402
872.011463	4425.069393
872.322803	4457.572233
872.634101	4489.817973
872.945357	4535.291702
873.256571	4586.177109
873.567744	4618.143065
873.878874	4633.042195
874.189963	4673.870500
874.501010	4681.351573
874.812015	4681.013815
875.122979	4721.922779
875.433900	4718.487232
875.744780	4735.710335
876.055618	4761.619345
876.366415	4755.958129
876.677169	4781.360503
876.987882	4820.817614
877.298554	4877.485225
877.609183	4953.616730
877.919771	5066.455397
878.230317	5208.620977
878.540822	5429.060552
878.851285	5749.652731
879.161707	6209.136260
879.472087	6967.560212
879.782425	8199.126700
880.092722	10395.136494
880.402977	13710.882340
880.713191	17488.410481
881.023363	21215.587577
881.333494	23432.797944
881.643583	24650.909592
881.953631	24642.445494
882.263637	23764.294138
882.573602	22272.205861
882.883526	20704.792663
883.193408	19015.615435
883.503248	17306.298798
883.813048	15760.381080
884.122806	14324.040403
884.432522	12855.799304
884.742197	11603.896802
885.051831	10511.297282
885.361424	9514.494808
885.670975	8701.081950
885.980485	8012.977053
886.289954	7438.771986
886.599382	6971.207487
886.908768	6596.790909
887.218113	6233.495116
887.527417	5943.091887
887.836680	5680.833419
888.145901	5464.116736
888.455082	5301.289988
888.764221	5149.153006
889.073319	5017.838510
889.382376	4949.596410
889.691392	4888.732039
890.000366	4863.677504
890.309300	4847.903734
890.618193	4851.210731
890.927044	4838.640614
891.235855	4859.730281
891.544625	4890.108274
891.853353	4953.405002
892.162041	5070.097631
892.470687	5259.503863
892.779293	5506.628787
893.087858	5875.179983
893.396381	6458.270083
893.704864	7260.204234
894.013306	8419.445288
894.321707	9609.515517
894.630068	10437.169635
894.938387	10637.063988
895.246665	10388.434280
895.554903	9778.769737
895.863100	9080.716123
896.171256	8514.103033
896.479371	8005.160744
896.787446	7505.842017
897.095480	7080.323262
897.403473	6758.458192
897.711425	6445.677281
898.019336	6172.519839
898.327207	5907.879427
898.635038	5674.995763
898.942827	5427.432260
899.250576	5228.614193
899.558284	5038.343403
899.865952	4911.545781
900.173579	4768.876086
900.481165	4660.153521
900.788711	4572.563473
901.096216	4495.620342
901.403681	4433.160445
901.711105	4406.381836
902.018489	4394.998911
902.325832	4466.260662
902.633135	4589.453859
902.940397	4934.367084
903.247619	5728.651284
903.554800	7178.615680
903.861941	9104.525492
904.169041	10624.967739
904.476101	11252.878739
904.783121	10881.176822
905.090100	10129.296287
905.397039	9292.086662
905.703938	8535.006178
906.010796	7840.047832
906.317614	7287.597864
906.624391	6759.400888
906.931129	6331.825342
907.237826	5929.942037
907.544483	5560.221293
907.851099	5185.799673
908.157675	4835.177341
908.464211	4510.002753
908.770707	4279.208648
909.077163	4077.078543
909.383578	3930.902726
909.689954	3819.722598
909.996289	3748.874222
910.302584	3687.583874
910.608839	3653.561127
910.915054	3621.595170
911.221229	3611.117132
911.527363	3620.392855
911.833458	3633.774598
912.139513	3664.162673
912.445527	3692.385573
912.751502	3772.295423
913.057436	3873.582286
913.363331	4009.375847
913.669186	4214.460068
913.975000	4472.947752
914.280775	4892.742277
914.586510	5473.548735
914.892205	6269.614983
915.197859	7315.263717
915.503475	8541.514307
915.809050	9606.594168
916.114585	10265.591443
916.420081	10524.931082
916.725536	10486.522531
917.030952	10035.538388
917.336328	9622.912383
917.641665	9202.475112
917.946961	8722.695897
918.252218	8299.269221
918.557435	7783.460880
918.862612	7352.727051
919.167750	6974.335523
919.472848	6555.355145
919.777906	6180.409245
920.082925	5816.904244
920.387904	5456.222289
920.692843	5185.272873
920.997743	4942.644659
921.302603	4708.840985
921.607423	4549.636305
921.912204	4381.266808
922.216946	4266.782204
922.521647	4143.836023
922.826310	4041.616547
923.130932	3946.366465
923.435516	3851.461703
923.740059	3777.210548
924.044564	3700.484187
924.349028	3640.862460
924.653454	3581.069334
924.957840	3510.838499
925.262186	3463.923001
925.566493	3401.594175
925.870761	3344.878674
926.174989	3310.873570
926.479178	3273.148096
926.783328	3230.918350
927.087438	3204.868187
927.391509	3168.166067
927.695541	3141.200935
927.999533	3116.390896
928.303486	3093.693101
928.607400	3077.206007
928.911275	3063.010118
929.215110	3049.139383
929.518906	3042.500184
929.822663	3041.539844
930.126381	3039.344421
930.430060	3049.431770
930.733699	3050.558468
931.037299	3058.251269
931.340861	3056.456618
931.644383	3063.350396
931.947866	3062.561455
932.251309	3054.944272
932.554714	3058.846125
932.858080	3053.079045
933.161407	3045.660987
933.464694	3033.186652
933.767943	3025.095600
934.071153	3023.174920
934.374323	3013.188395
934.677455	3010.078003
934.980548	3002.163391
935.283602	2996.338338
935.586617	2994.369767
935.889593	3004.759585
936.192530	3010.342663
936.495428	3022.217101
936.798287	3043.858775
937.101108	3075.108887
937.403890	3129.029069
937.706632	3195.811754
938.009336	3274.357973
938.312002	3345.181143
938.614628	3407.900658
938.917216	3462.335038
939.219765	3493.290243
939.522275	3526.645037
939.824747	3529.364740
940.127179	3527.486910
940.429573	3517.192874
940.731929	3514.866381
941.034246	3502.049248
941.336524	3489.259840
941.638763	3473.289465
941.940964	3461.082311
942.243126	3416.047163
942.545250	3394.294584
942.847335	3357.191692
943.149381	3319.257009
943.451389	3286.711320
943.753359	3248.900146
944.055290	3226.283009
944.357182	3204.275852
944.659036	3188.950744
944.960851	3176.710822
945.262628	3165.716066
945.564367	3167.682116
945.866067	3161.877227
946.167729	3158.418996
946.469352	3156.641989
946.770937	3151.726864
947.072484	3136.792446
947.373992	3140.895945
947.675462	3133.077115
947.976893	3115.725464
948.278286	3108.660287
948.579641	3099.440016
948.880958	3095.021445
949.182236	3096.891713
949.483476	3090.386104
949.784678	3089.854262
950.085841	3092.742843
950.386967	3102.767178
950.688054	3117.384003
950.989103	3138.332518
951.290114	3161.136178
951.591087	3192.056095
951.892021	3217.400496
952.192917	3248.645567
952.493776	3272.054165
952.794596	3277.957356
953.095378	3286.055970
953.396122	3278.945422
953.696828	3272.107097
953.997496	3261.195520
954.298126	3235.767940
954.598718	3215.031153
954.899272	3186.435208
955.199788	3160.695077
955.500266	3125.480097
955.800706	3094.010694
956.101108	3055.473593
956.401472	3023.129550
956.701798	2989.121926
957.002087	2948.752366
957.302337	2922.790424
957.602550	2892.954355
957.902724	2865.086856
958.202861	2843.994669
958.502960	2819.136739
958.803022	2799.231743
959.103045	2780.140893
959.403031	2763.976434
959.702979	2745.775348
960.002889	2736.444172
960.302762	2721.998746
960.602596	2708.478371
960.902393	2700.112576
961.202153	2693.039837
961.501875	2687.655885
961.801559	2679.469051
962.101205	2675.047959
962.400814	2668.086126
962.700385	2662.815599
962.999918	2656.098262
963.299414	2649.360760
963.598873	2646.681387
963.898293	2641.725932
964.197677	2643.084523
964.497022	2637.539254
964.796331	2635.583286
965.095601	2634.965745
965.394835	2633.788636
965.694030	2633.163532
965.993189	2628.906278
966.292309	2629.722945
966.591393	2626.945269
966.890439	2627.857718
967.189447	2625.652213
967.488419	2627.721607
967.787353	2629.070116
968.086249	2629.987606
968.385108	2630.524488
968.683930	2634.562453
968.982714	2635.369037
969.281462	2643.029071
969.580172	2647.674494
969.878844	2651.654485
970.177480	2662.603871
970.476078	2667.002278
970.774639	2675.491581
971.073162	2683.595236
971.371649	2689.937007
971.670098	2694.469004
971.968510	2701.604758
972.266885	2703.994265
972.565223	2710.179760
972.863524	2711.145141
973.161788	2716.579505
973.460014	2719.087479
973.758204	2719.578992
974.056356	2722.520505
974.354471	2723.566544
974.652550	2726.215671
974.950591	2723.160732
975.248595	2720.183930
975.546563	2719.644527
975.844493	2715.903991
976.142386	2708.848896
976.440243	2704.984851
976.738062	2701.070395
977.035845	2694.884900
977.333590	2686.645134
977.631299	2681.919052
977.928971	2675.907476
978.226606	2667.140909
978.524204	2668.950684
978.821765	2659.962306
979.119290	2666.087308
979.416777	2664.721156
979.714228	2666.339366
980.011642	2672.920592
980.309020	2678.319668
980.606360	2693.138140
980.903664	2716.604711
981.200931	2755.895464
981.498162	2801.273410
981.795356	2878.135883
982.092513	2967.472691
982.389633	3069.878690
982.686717	3166.845284
982.983764	3239.238774
983.280775	3290.529994
983.577749	3298.346303
983.874686	3283.938685
984.171587	3250.228490
984.468451	3211.726677
984.765279	3166.010973
985.062070	3116.141359
985.358824	3074.256932
985.655543	3015.577902
985.952224	2964.037145
986.248869	2901.189080
986.545478	2840.672548
986.842050	2788.426030
987.138586	2741.102198
987.435086	2702.418904
987.731549	2672.711384
988.027975	2647.777837
988.324366	2633.329891
988.620719	2618.259361
988.917037	2607.519183
989.213318	2599.251691
989.509563	2589.345823
989.805772	2588.451018
990.101944	2581.627817
990.398080	2579.034143
990.694180	2578.255285
990.990244	2579.898701
991.286271	2579.956674
991.582262	2581.869792
991.878217	2581.542117
992.174136	2583.661922
992.470019	2588.902202
992.765865	2590.512850
993.061676	2593.585434
993.357450	2604.151692
993.653188	2610.823659
993.948890	2629.057513
994.244556	2645.773979
994.540186	2669.878256
994.835780	2701.685416
995.131337	2736.885273
995.426859	2781.234824
995.722345	2827.492452
996.017795	2880.270812
996.313208	2920.579878
996.608586	2944.371603
996.903928	2960.188224
997.199234	2955.585650
997.494504	2953.304528
997.789738	2942.561829
998.084936	2917.845052
998.380099	2884.396996
998.675225	2852.486492
998.970316	2823.857780
999.265371	2788.320166
999.560390	2752.134763
999.855373	2721.809702
1000.150320	2693.060002
1000.445232	2667.352638
1000.740108	2648.297076
1001.034948	2627.038531
1001.329752	2612.078907
1001.624521	2602.099942
1001.919254	2587.107551
1002.213951	2584.856676
1002.508613	2571.598441
1002.803239	2568.530899
1003.097829	2560.381874
1003.392384	2556.147305
1003.686903	2552.714279
1003.981386	2548.056253
1004.275834	2546.349822
1004.570246	2543.158772
1004.864623	2541.280942
1005.158964	2538.437731
1005.453270	2534.188038
1005.747540	2536.040663
1006.041775	2533.242822
1006.335974	2531.601927
1006.630138	2529.824920
1006.924266	2529.509848
1007.218359	2527.556401
1007.512416	2524.118334
1007.806438	2521.476769
1008.100425	2525.718900
1008.394376	2521.287726
1008.688292	2525.194620
1008.982172	2524.158663
1009.276017	2525.376102
1009.569827	2523.001718
1009.863602	2524.388035
1010.157341	2522.399300
1010.451045	2522.452232
1010.744714	2520.090452
1011.038347	2518.583147
1011.331945	2518.620955
1011.625508	2517.257323
1011.919036	2514.777076
1012.212528	2515.482837
1012.505986	2516.460821
1012.799408	2518.847807
1013.092795	2515.102230
1013.386147	2513.763804
1013.679464	2511.465038
1013.972745	2515.923938
1014.265992	2515.175327
1014.559204	2511.182733
1014.852380	2511.717095
1015.145521	2515.422343
1015.438628	2513.441170
1015.731699	2511.583505
1016.024736	2512.006962
1016.317737	2515.780265
1016.610703	2515.482837
1016.903635	2519.588857
1017.196531	2519.006604
1017.489393	2518.313445
1017.782219	2518.999042
1018.075011	2522.069105
1018.367768	2523.364681
1018.660490	2522.232942
1018.953177	2522.232942
1019.245829	2522.232942
