Dividing Wavelength (nm)	Counts (n)	Blue Motor Position (mm): 17.500000	Red Motor Position (mm): 0.000000	
326.493990	2104.212903
326.888308	2104.212903
327.282561	2104.212903
327.676750	2078.934038
328.070874	2081.792372
328.464933	2087.829153
328.858929	2098.130751
329.252859	2109.934613
329.646726	2126.562859
330.040528	2139.057359
330.434265	2159.766419
330.827938	2181.849193
331.221547	2200.430886
331.615091	2219.980481
332.008571	2239.812380
332.401986	2262.742068
332.795338	2283.194030
333.188625	2300.739766
333.581847	2320.067549
333.975006	2339.438183
334.368100	2355.012828
334.761129	2375.212731
335.154095	2390.303425
335.546996	2426.917326
335.939833	2487.577530
336.332606	2498.161432
336.725315	2512.470748
337.117960	2517.960564
337.510540	2525.174455
337.903056	2536.489325
338.295508	2541.792619
338.687896	2549.959288
339.080220	2559.232491
339.472480	2561.717780
339.864676	2564.694581
340.256807	2568.430076
340.648875	2568.664490
341.040879	2570.592731
341.432818	2572.473081
341.824694	2572.989800
342.216506	2574.176991
342.608253	2571.220355
342.999937	2571.895869
343.391557	2571.306054
343.783113	2567.071485
344.174605	2567.230281
344.566033	2566.947977
344.957397	2562.562173
345.348697	2562.166442
345.739934	2559.126627
346.131106	2561.775753
346.522215	2557.480690
346.913260	2553.331820
347.304241	2555.348282
347.695159	2550.387786
348.086012	2550.498692
348.476802	2552.285781
348.867528	2547.579864
349.258191	2546.004503
349.648789	2547.884853
350.039324	2542.989893
350.429796	2544.759338
350.820203	2542.763041
351.210548	2543.375541
351.600828	2540.620551
351.991045	2540.628113
352.381198	2543.544420
352.771288	2538.883873
353.161314	2538.667104
353.551276	2543.693134
353.941175	2539.130890
354.331010	2540.900335
354.720782	2541.522917
355.110490	2541.273380
355.500135	2541.797660
355.889717	2540.912938
356.279235	2542.057280
356.668689	2542.606765
357.058080	2541.782537
357.447408	2542.319420
357.836672	2539.377906
358.225873	2540.257588
358.615010	2537.895807
359.004084	2546.896787
359.393095	2546.916952
359.782043	2546.929555
360.170927	2547.688248
360.559748	2545.195398
360.948505	2544.514842
361.337199	2549.646737
361.725830	2546.397713
362.114398	2548.537683
362.502903	2548.797302
362.891344	2548.802343
363.279722	2549.848383
363.668037	2547.385779
364.056289	2548.288146
364.444478	2550.158414
364.832603	2551.264947
365.220665	2555.136553
365.608665	2552.394166
365.996601	2553.167983
366.384474	2551.517005
366.772284	2554.879454
367.160031	2554.425751
367.547715	2555.136553
367.935336	2551.141439
368.322893	2554.035061
368.710388	2553.409958
369.097820	2557.616801
369.485189	2554.090514
369.872495	2556.175031
370.259738	2556.356512
370.646918	2555.441543
371.034035	2556.764846
371.421090	2557.543704
371.808081	2558.264589
372.195010	2557.765515
372.581875	2555.496996
372.968678	2554.773590
373.355418	2557.309291
373.742096	2559.860114
374.128710	2559.608057
374.515262	2560.460012
374.901751	2559.837429
375.288177	2559.217367
375.674540	2558.055381
376.060841	2561.909343
376.447079	2561.901782
376.833254	2563.746844
377.219367	2555.353323
377.605417	2559.134188
377.991404	2558.647717
378.377329	2556.699311
378.763191	2557.629404
379.148991	2562.252142
379.534727	2563.063768
379.920402	2562.073181
380.306013	2561.692574
380.691563	2562.738613
381.077049	2563.809858
381.462474	2562.930177
381.847835	2562.662996
382.233134	2566.005281
382.618371	2562.327759
383.003545	2563.280537
383.388657	2567.240364
383.773706	2565.677606
384.158693	2566.184242
384.543618	2564.344221
384.928480	2568.062072
385.313280	2564.671896
385.698017	2567.038718
386.082692	2568.190621
386.467305	2567.063923
386.851856	2565.876732
387.236344	2568.394788
387.620770	2570.020560
388.005133	2567.391598
388.389435	2570.738924
388.773674	2570.050807
389.157851	2568.430076
389.541965	2570.678431
389.926018	2568.208265
390.310008	2569.244222
390.693936	2569.619788
391.077802	2570.713719
391.461606	2572.699933
391.845348	2571.573235
392.229027	2574.328226
392.612645	2570.454099
392.996200	2571.288410
393.379694	2573.025088
393.763125	2573.962742
394.146494	2573.632547
394.529801	2574.434090
394.913047	2573.567012
395.296230	2574.479461
395.679351	2572.457958
396.062410	2576.324523
396.445408	2573.657752
396.828343	2575.777558
397.211217	2570.549881
397.594028	2572.102557
397.976778	2568.563667
398.359466	2572.891497
398.742092	2570.360838
399.124656	2576.760583
399.507158	2575.202866
399.889598	2579.465162
400.271977	2574.192115
400.654294	2578.051118
401.036549	2576.470716
401.418742	2577.040367
401.800874	2578.572877
402.182944	2578.262847
402.564952	2578.242682
402.946898	2578.230079
403.328783	2577.443659
403.710606	2576.458113
404.092367	2578.177147
404.474067	2580.657395
404.855705	2580.319637
405.237282	2580.241499
405.618797	2580.710327
406.000250	2578.572877
406.381642	2580.173444
406.762972	2580.715368
407.144240	2580.372569
407.525447	2581.731160
407.906593	2582.459607
408.287677	2579.538258
408.668700	2581.743763
409.049661	2582.986408
409.430560	2581.867272
409.811399	2582.991449
410.192176	2583.301480
410.572891	2585.222159
410.953545	2583.387179
411.334138	2584.115626
411.714669	2582.449525
412.095139	2584.584453
412.475547	2582.333578
412.855894	2583.195616
413.236180	2584.740729
413.616405	2586.981522
413.996568	2582.429360
414.376670	2583.457756
414.756711	2582.746953
415.136691	2586.026223
415.516609	2585.542273
415.896466	2584.488672
416.276262	2587.054619
416.655997	2583.538414
417.035670	2583.417426
417.415283	2585.575040
417.794834	2581.746284
418.174324	2585.176789
418.553753	2585.373394
418.933121	2586.235431
419.312428	2589.360947
419.691674	2587.641913
420.070859	2584.851635
420.449983	2586.598394
420.829045	2584.899526
421.208047	2586.081676
421.586988	2588.607294
421.965867	2589.595360
422.344686	2588.476224
422.723444	2590.409507
423.102141	2586.510174
423.480777	2591.069898
423.859352	2586.825246
424.237866	2589.003025
424.616319	2588.990422
424.994712	2591.513519
425.373044	2588.861872
425.751314	2589.497058
426.129524	2592.385639
426.507673	2589.963365
426.885762	2587.387335
427.263789	2589.023189
427.641756	2589.837336
428.019662	2592.388160
428.397508	2591.231215
428.775292	2590.401945
429.153016	2593.754312
429.530679	2593.431678
429.908282	2591.735330
430.285824	2590.858169
430.663305	2589.802048
431.040726	2592.279775
431.418086	2593.290526
431.795385	2594.714652
432.172624	2593.466967
432.549802	2593.192224
432.926920	2593.414034
433.303977	2595.165835
433.680974	2595.745568
434.057910	2594.896134
434.434786	2596.224478
434.811601	2594.477718
435.188355	2599.826382
435.565050	2597.202462
435.941683	2595.145671
436.318257	2594.288675
436.694770	2591.258941
437.071222	2593.240115
437.447614	2595.795980
437.823946	2593.338417
438.200218	2595.506113
438.576429	2594.709611
438.952580	2595.614498
439.328670	2595.886720
439.704700	2596.257245
440.080670	2596.544591
440.456580	2597.119282
440.832429	2599.029880
441.208218	2596.683223
441.583947	2596.400918
441.959616	2595.465784
442.335224	2598.639190
442.710773	2597.751947
443.086261	2600.259921
443.461689	2601.215220
443.837057	2597.726742
444.212365	2600.214551
444.587612	2598.550970
444.962800	2599.975096
445.337927	2601.492483
445.712995	2600.020467
446.088002	2604.267639
446.462949	2602.422576
446.837837	2601.989037
447.212664	2602.825869
447.587431	2605.588421
447.962139	2606.689913
448.336786	2611.244596
448.711374	2609.147476
449.085901	2609.336519
449.460369	2606.213524
449.834776	2604.933071
450.209124	2607.451127
450.583412	2608.746704
450.957640	2609.346601
451.331808	2608.529934
451.705917	2606.286621
452.079965	2609.160078
452.453954	2609.659153
452.827883	2607.554471
453.201752	2607.370469
453.575562	2607.408277
453.949311	2610.342229
454.323001	2610.221241
454.696632	2610.725357
455.070202	2614.067642
455.443713	2612.028495
455.817164	2610.934565
456.190556	2607.877105
456.563888	2610.490943
456.937160	2609.104626
457.310373	2611.650408
457.683526	2613.808022
458.056619	2615.496809
458.429653	2611.650408
458.802628	2615.716099
459.175542	2614.627210
459.548398	2617.830863
459.921194	2618.239197
460.293930	2619.796913
460.666607	2622.640124
461.039224	2623.091307
461.411782	2625.493417
461.784280	2624.981740
462.156719	2624.495268
462.529099	2622.965278
462.901419	2620.976543
463.273680	2625.125413
463.645882	2621.941924
464.018024	2624.558283
464.390106	2624.893520
464.762130	2627.761936
465.134094	2632.273769
465.505999	2640.448000
465.877845	2650.457211
466.249631	2650.956285
466.621358	2648.697848
466.993026	2648.281953
467.364634	2649.043167
467.736184	2644.916983
468.107674	2643.901190
468.479105	2644.990079
468.850477	2643.903711
469.221790	2643.760038
469.593043	2638.539923
469.964238	2642.061169
470.335373	2641.335243
470.706449	2646.905718
471.077467	2649.224649
471.448425	2661.174704
471.819324	2664.683347
472.190164	2663.450785
472.560945	2657.136740
472.931667	2653.524753
473.302330	2652.375370
473.672934	2652.551810
474.043479	2656.632624
474.413965	2655.745381
474.784393	2655.899136
475.154761	2657.492141
475.525070	2659.080104
475.895321	2657.434168
476.265513	2660.922646
476.635645	2667.234171
477.005719	2669.341373
477.375734	2674.669873
477.745691	2674.102743
478.115588	2682.087931
478.485427	2685.286543
478.855207	2695.376412
479.224928	2701.907227
479.594591	2709.829400
479.964194	2707.444934
480.333739	2713.774103
480.703226	2715.961964
481.072653	2718.414485
481.442022	2723.296843
481.811333	2726.475290
482.180584	2725.981257
482.549777	2727.740620
482.918912	2726.150136
483.287988	2732.822103
483.657005	2729.913357
484.025964	2730.392267
484.394864	2734.147926
484.763706	2737.243195
485.132489	2735.657752
485.501213	2739.831827
485.869879	2742.727970
486.238487	2742.622106
486.607036	2746.274422
486.975527	2747.610328
487.343959	2754.216760
487.712333	2756.097110
488.080648	2760.298912
488.448905	2766.998605
488.817104	2769.551950
489.185244	2776.380193
489.553326	2787.223715
489.921350	2802.626960
490.289315	2819.053560
490.657222	2827.288285
491.025070	2834.189624
491.392861	2835.901096
491.760593	2831.706856
492.128267	2827.958758
492.495883	2825.612101
492.863440	2824.498006
493.230939	2823.376349
493.598380	2823.094045
493.965763	2821.251503
494.333088	2825.130671
494.700354	2822.244610
495.067563	2828.795590
495.434713	2832.231136
495.801805	2840.743124
496.168839	2842.878053
496.535815	2846.313599
496.902733	2856.312728
497.269593	2859.256762
497.636395	2865.623739
498.003139	2875.206973
498.369825	2875.383413
498.736453	2886.274826
499.103023	2888.989487
499.469535	2893.718090
499.835989	2901.519275
500.202385	2909.491860
500.568723	2919.357398
500.935003	2931.259562
501.301226	2936.114193
501.667390	2948.543158
502.033497	2962.983543
502.399546	2965.942701
502.765537	2969.509317
503.131470	2984.128663
503.497345	2999.846981
503.863163	3000.134327
504.228923	3013.206039
504.594625	3031.016435
504.960269	3036.138247
505.325856	3055.992832
505.691385	3062.463153
506.056856	3079.529979
506.422270	3099.871035
506.787625	3109.799588
507.152924	3130.511168
507.518164	3149.385248
507.883347	3154.849859
508.248472	3175.140503
508.613540	3200.225285
508.978550	3225.418451
509.343503	3242.596183
509.708398	3263.141405
510.073236	3297.595171
510.438016	3320.386228
510.802738	3334.355265
511.167403	3373.063765
511.532010	3401.374885
511.896561	3431.241201
512.261053	3479.132162
512.625488	3491.432578
512.989866	3521.770242
513.354186	3550.124211
513.718449	3580.045980
514.082655	3630.994401
514.446803	3659.590347
514.810894	3713.329047
515.174927	3745.582349
515.538904	3779.474026
515.902822	3837.071729
516.266684	3865.793703
516.630488	3919.381169
516.994235	3959.874237
517.357925	4023.667518
517.721558	4076.768512
518.085133	4130.083756
518.448651	4187.767158
518.812112	4237.051999
519.175516	4288.305410
519.538863	4354.657077
519.902152	4411.700253
520.265385	4490.223786
520.628560	4553.661666
520.991678	4604.433647
521.354739	4676.837219
521.717743	4759.071042
522.080690	4818.634795
522.443580	4913.952932
522.806413	4987.067307
523.169189	5056.703285
523.531908	5142.712932
523.894569	5207.020411
524.257174	5290.958143
524.619722	5393.147372
524.982213	5475.671061
525.344647	5549.836516
525.707025	5640.519312
526.069345	5751.643987
526.431608	5835.508622
526.793815	5947.704542
527.155964	6007.785014
527.518057	6106.619356
527.880093	6187.025759
528.242072	6325.478529
528.603995	6394.749024
528.965860	6497.512945
529.327669	6600.851558
529.689421	6696.988883
530.051117	6790.149406
530.412755	6908.316572
530.774337	7024.469798
531.135862	7111.349043
531.497331	7232.702219
531.858743	7329.794842
532.220098	7482.425857
532.581396	7570.517500
532.942638	7640.471072
533.303824	7792.393805
533.664953	7910.787823
534.026025	7991.771439
534.387040	8169.295672
534.747999	8285.542159
535.108902	8433.678985
535.469748	8489.708890
535.830537	8623.798541
536.191270	8779.245040
536.551947	8863.495324
536.912567	9033.407414
537.273131	9183.671608
537.633638	9238.809228
537.994089	9425.619266
538.354483	9501.859156
538.714821	9728.380884
539.075103	9926.704917
539.435328	10026.847438
539.795497	10149.886880
540.155609	10291.593715
540.515665	10522.145845
540.875665	10563.924407
541.235609	10769.152301
541.595496	10917.931874
541.955328	11198.981242
542.315102	11228.645912
542.674821	11335.861172
543.034483	11491.824390
543.394090	11641.397945
543.753640	11786.545367
544.113134	12161.965135
544.472571	12102.802154
544.831953	12553.123386
545.191278	12535.292825
545.550548	12641.081438
545.909761	12927.665993
546.268918	13152.803924
546.628019	13404.912028
546.987064	13470.573057
547.346053	13450.925159
547.704986	13849.693032
548.063863	13902.282348
548.422684	14130.394560
548.781449	14259.143109
549.140158	14546.713209
549.498811	14679.834959
549.857408	14696.916909
550.215949	15120.676301
550.574434	15292.050326
550.932864	15395.933383
551.291237	15796.427851
551.649555	15869.295209
552.007817	16129.575023
552.366022	16200.854418
552.724173	16457.986032
553.082267	16771.565965
553.440305	17064.754432
553.798288	17030.272940
554.156215	17334.536821
554.514086	17612.581662
554.871902	17716.101756
555.229661	17932.969674
555.587365	18082.094566
555.945014	18318.197007
556.302606	18487.133634
556.660143	18781.617677
557.017625	19013.563686
557.375050	19133.633888
557.732421	19475.958481
558.089735	19669.606844
558.446994	19846.732826
558.804197	20239.819318
559.161345	20415.856410
559.518437	20312.721964
559.875474	20641.803446
560.232455	20924.070253
560.589381	21212.988862
560.946251	21294.413579
561.303065	21795.360598
561.659825	21928.494951
562.016528	21981.532930
562.373177	22046.094988
562.729770	22494.208194
563.086307	22473.335297
563.442789	22918.930447
563.799216	23144.128872
564.155587	23246.575200
564.511904	23487.348269
564.868164	23731.811463
565.224370	24061.959149
565.580520	24141.795903
565.936615	24464.848165
566.292654	24523.723801
566.648638	24870.945875
567.004567	25067.639095
567.360441	25309.964840
567.716260	25446.854852
568.072023	25814.690204
568.427732	26002.581569
568.783385	25972.984955
569.138982	26398.528916
569.494525	26590.191065
569.850013	26658.715469
570.205445	26848.905601
570.560823	27030.510647
570.916145	27185.639554
571.271412	27403.092246
571.626625	27465.380743
571.981782	27710.821921
572.336884	27726.268016
572.691931	28127.400189
573.046923	28101.677702
573.401860	28211.158960
573.756743	28400.603001
574.111570	28673.145422
574.466342	28772.771225
574.821059	29057.790502
575.175722	28947.795046
575.530330	29171.713017
575.884882	29181.502938
576.239380	29347.432517
576.593823	29540.304542
576.948211	29686.087150
577.302544	29557.910772
577.656823	29765.485323
578.011047	30109.929721
578.365216	30114.436513
578.719330	30150.337090
579.073389	30239.676418
579.427394	30488.243112
579.781344	30640.475875
580.135239	30599.619844
580.489080	30830.194659
580.842866	30654.218061
581.196597	31135.287811
581.550273	31280.064708
581.903895	31370.523172
582.257463	31838.261591
582.610975	31573.449779
582.964434	31947.553806
583.317837	31862.703625
583.671186	31913.939393
584.024481	32249.990270
584.377721	32057.405590
584.730906	32445.309775
585.084037	32653.993380
585.437113	32594.031376
585.790135	32776.480816
586.143103	32642.728922
586.496016	32896.503127
586.848874	33072.300764
587.201679	33257.792541
587.554428	33016.984183
587.907124	33316.607683
588.259765	33270.627318
588.612352	33613.340080
588.964884	33284.389668
589.317362	33669.455684
589.669786	33764.975467
590.022155	33725.299066
590.374470	34214.618664
590.726731	33984.167357
591.078937	33743.006119
591.431090	33974.937005
591.783188	33831.644727
592.135232	33705.842733
592.487222	34051.973397
592.839157	34250.431021
593.191038	34104.010708
593.542866	34045.586255
593.894639	33681.700647
594.246358	34039.793969
594.598022	34160.970705
594.949633	33963.102896
595.301190	34038.256418
595.652692	34020.869478
596.004141	34414.626443
596.355535	33718.072572
596.706876	33784.709064
597.058162	33755.770321
597.409395	34270.890544
597.760573	34461.957837
598.111698	34217.620671
598.462768	34323.787371
598.813785	34463.618897
599.164748	34097.235397
599.515657	34536.428282
599.866511	34186.055487
600.217312	34829.894012
600.568060	34022.180178
600.918753	34784.614368
601.269392	34840.845918
601.619978	34627.642919
601.970510	34913.546919
602.320988	35164.661915
602.671412	35521.936050
603.021783	35404.840128
603.372100	35188.188980
603.722363	35348.507755
604.072572	35505.022979
604.422728	35609.805882
604.772830	35514.512951
605.122878	35702.812650
605.472872	35723.340228
605.822813	36040.806892
606.172701	35971.042364
606.522534	36269.027488
606.872314	36573.689621
607.222041	36428.879956
607.571714	36852.818309
607.921333	36433.177540
608.270899	36745.807216
608.620411	37150.755543
608.969870	37024.761985
609.319276	37105.342308
609.668627	37210.294090
610.017926	37717.512305
610.367171	37922.011752
610.716362	38072.717046
611.065500	38067.254956
611.414585	38303.516193
611.763616	38646.826332
612.112594	38639.461206
612.461518	38909.294007
612.810389	39257.567161
613.159207	39178.242085
613.507971	39297.964448
613.856682	39800.191920
614.205340	39749.077141
614.553945	40467.436522
614.902496	39985.146813
615.250994	40484.699954
615.599439	40595.459145
615.947830	40845.051713
616.296169	40945.703391
616.644454	41100.386155
616.992686	41312.099493
617.340864	41841.685308
617.688990	41618.984775
618.037063	42222.282341
618.385082	42236.342119
618.733048	42540.782441
619.080961	42598.445679
619.428821	42664.850278
619.776628	42790.927015
620.124382	42678.718492
620.472083	42854.863970
620.819731	43014.378680
621.167326	42731.701019
621.514868	42751.177517
621.862357	42358.421221
622.209793	42433.136162
622.557176	42160.757579
622.904506	41942.331944
623.251783	41659.024139
623.599007	41466.031126
623.946179	41292.489405
624.293297	41310.042703
624.640363	40754.174833
624.987376	40768.584971
625.334336	40572.970558
625.681243	40259.352815
626.028097	40237.552345
626.374899	40138.415534
626.721647	40140.114403
627.068343	40053.051156
627.414987	39856.494047
627.761577	39656.420733
628.108115	40018.214262
628.454600	39500.165128
628.801032	39713.100946
629.147412	39683.514414
629.493739	39701.715500
629.840014	39367.371054
630.186236	39729.903112
630.532405	39338.399543
630.878521	39569.728010
631.224585	39465.671033
631.570597	39190.698776
631.916556	39366.312411
632.262462	39328.743212
632.608316	39372.266014
632.954117	39287.834249
633.299866	39287.372983
633.645562	39218.420081
633.991206	38757.991336
634.336797	38344.387348
634.682336	38356.123154
635.027823	38134.635018
635.373257	37976.443611
635.718639	37761.844212
636.063968	37647.856162
636.409245	37085.220543
636.754470	37156.073960
637.099642	36936.665301
637.444762	36474.056256
637.789829	36625.777343
638.134845	36306.289177
638.479808	36254.587103
638.824719	36179.781421
639.169577	35815.734496
639.514383	35882.065998
639.859137	35602.690293
640.203839	35844.272468
640.548489	35492.039487
640.893086	35574.613587
641.237632	35340.923339
641.582125	35451.927026
641.926566	35405.215694
642.270955	35361.937389
642.615292	35400.865179
642.959576	35381.625615
643.303809	35388.181636
643.647990	35555.353859
643.992118	35518.334146
644.336195	35515.886665
644.680219	35608.810254
645.024192	35935.114060
645.368112	36452.792669
645.711981	36449.982226
646.055797	37327.185845
646.399562	37244.130315
646.743274	38216.064777
647.086935	38641.608737
647.430544	38532.205617
647.774101	38638.266452
648.117606	38889.968743
648.461059	39201.633039
648.804460	38805.431114
649.147810	38214.789365
649.491108	37951.051319
649.834354	37582.147242
650.177548	36763.617613
650.520690	36326.143761
650.863781	36366.571295
651.206820	36217.340538
651.549807	35770.205315
651.892742	35311.651879
652.235626	35122.646418
652.578458	35004.504457
652.921238	34393.335130
653.263967	34745.164818
653.606644	34416.584931
653.949269	34361.732136
654.291843	33955.362204
654.634365	34351.367524
654.976836	33962.818071
655.319255	33972.209740
655.661622	33976.754341
656.003938	33768.055613
656.346203	33646.097498
656.688416	33859.890312
657.030577	33653.933972
657.372687	33501.943183
657.714746	33772.837147
658.056753	33898.485386
658.398708	33351.152189
658.740612	33401.609098
659.082465	33696.065415
659.424266	33517.298538
659.766016	33653.288704
660.107715	33516.786861
660.449362	33652.207377
660.790958	33625.302738
661.132503	33641.031138
661.473996	33680.936912
661.815438	33802.343020
662.156829	34001.367774
662.498168	33760.841721
662.839456	33782.385092
663.180693	33939.820327
663.521879	34096.244810
663.863013	34075.724793
664.204097	34058.610076
664.545129	34523.928741
664.886110	34489.232999
665.227040	34557.097013
665.567918	34675.334755
665.908746	34740.572327
666.249522	34906.322945
666.590248	34905.012245
666.930922	35017.775295
667.271545	34976.014377
667.612118	35041.241866
667.952639	34837.551524
668.293109	34899.840021
668.633528	34780.987258
668.973896	34715.316147
669.314213	34762.037560
669.654480	34498.899412
669.994695	34542.507913
670.334859	34426.619348
670.674973	34316.202955
671.015035	34487.027495
671.355047	34410.709467
671.695008	34371.005339
672.034918	34269.055564
672.374777	34356.272567
672.714585	34170.803476
673.054342	34429.371818
673.394049	34155.599356
673.733705	34458.499605
674.073310	34101.774956
674.412864	34187.285528
674.752368	33793.538645
675.091820	34110.546564
675.431223	33674.577497
675.770574	33386.581419
676.109875	33251.642333
676.449125	32975.001454
676.788324	32882.314799
677.127473	32348.297811
677.466571	32284.922945
677.805619	31924.235949
678.144616	31944.622375
678.483562	31861.541639
678.822458	31532.629036
679.161303	31465.329632
679.500098	31380.111447
679.838842	31259.280031
680.177535	31427.689857
680.516179	31731.358883
680.854771	31964.292958
681.193314	32847.107381
681.531805	33985.541072
681.870247	34719.588524
682.208638	35435.623934
682.546978	35639.531046
682.885268	35721.613633
683.223508	35197.799940
683.561697	34861.562540
683.899836	34679.806259
684.237925	34155.707740
684.575963	34022.172616
684.913951	33544.835841
685.251889	33706.513206
685.589776	33688.523849
685.927614	33693.393603
686.265401	33836.990871
686.603137	33927.303142
686.940824	34433.308959
687.278460	34815.103266
687.616046	34931.634579
687.953582	35523.871853
688.291068	35368.566506
688.628504	35646.719731
688.965889	35577.292960
689.303224	35192.287438
689.640510	34850.378740
689.977745	34095.907053
690.314930	33304.876918
690.652065	32780.256640
690.989150	32052.777811
691.326185	31145.370118
691.663170	30456.947628
692.000105	29688.925319
692.336990	29025.864875
692.673825	28559.933710
693.010610	28044.120328
693.347345	27464.493500
693.684030	26796.245707
694.020665	26518.334458
694.357251	25834.108728
694.693786	25792.042820
695.030272	25565.039663
695.366707	25004.339847
695.703093	24727.459513
696.039429	24720.001126
696.375716	24459.295334
696.711952	24420.342338
697.048139	24253.712039
697.384276	24078.549587
697.720363	24207.981212
698.056400	23996.817359
698.392388	23776.818885
698.728326	23731.173757
699.064214	23544.832547
699.400053	23471.093069
699.735842	23107.769549
700.071581	22837.689732
700.407270	22541.411038
700.742910	22351.871215
701.078501	22081.564546
701.414042	21788.860030
701.749533	21507.160353
702.084974	21142.846247
702.420366	21349.147907
702.755709	20913.322513
703.091002	20606.928744
703.426246	20623.955241
703.761440	20527.891013
704.096584	20252.477655
704.431679	20216.173786
704.766725	20106.765624
705.101721	20054.912315
705.436668	20144.347426
705.771565	19823.351954
706.106413	20163.208903
706.441212	20163.939870
706.775961	20298.725200
707.110661	20361.084273
707.445311	20717.700538
707.779913	20557.394366
708.114465	20796.279523
708.448967	21086.730643
708.783421	21778.245881
709.117825	22050.561450
709.452180	22271.535388
709.786485	22663.543072
710.120742	23468.718685
710.454949	23471.246824
710.789107	23929.487709
711.123216	24630.805470
711.457275	24743.608849
711.791286	25277.472082
712.125247	25336.115825
712.459159	25032.502253
712.793023	25693.294178
713.126837	24577.258334
713.460602	24850.511558
713.794318	24457.719973
714.127985	24070.539193
714.461602	23181.357793
714.795171	23140.221977
715.128691	22114.485801
715.462162	21581.247671
715.795584	21161.460708
716.128957	20905.599465
716.462281	20499.829430
716.795556	20261.836557
717.128782	19762.724518
717.461960	19215.577844
717.795088	19125.600809
718.128167	18715.888592
718.461198	18263.046783
718.794180	18121.460937
719.127113	17761.648581
719.459997	17553.355666
719.792833	17197.291408
720.125619	17166.411820
720.458357	16848.183942
720.791046	16671.983012
721.123686	16508.742889
721.456278	16274.606499
721.788821	16239.076446
722.121315	15974.168853
722.453761	16052.783127
722.786158	15969.289016
723.118506	15966.128213
723.450805	15847.812332
723.783056	16004.559449
724.115259	15895.519291
724.447412	15828.734085
724.779518	16066.895837
725.111574	16081.890749
725.443582	16301.589275
725.775542	16281.076820
726.107453	16745.132675
726.439315	16627.358718
726.771129	17028.707661
727.102895	17407.240342
727.434612	17598.373169
727.766281	17716.868011
728.097901	17975.509450
728.429473	18003.255961
728.760996	17987.900607
729.092471	18077.938135
729.423897	17962.609138
729.755276	17831.702975
730.086606	17955.420452
730.417887	18481.343868
730.749120	18990.578545
731.080305	19160.727569
731.411442	19483.895778
731.742530	19552.722651
732.073570	19648.948196
732.404562	19937.617268
732.735506	19738.481609
733.066401	19435.803170
733.397249	18903.578312
733.728048	18276.531870
734.058798	17443.085466
734.389501	16751.318171
734.720156	16304.959286
735.050762	15778.854388
735.381320	15425.885399
735.711831	15189.528380
736.042293	14839.014433
736.372707	14850.969529
736.703073	14634.358710
737.033391	14825.829295
737.363661	14787.889571
737.693883	14889.753646
738.024056	15049.623758
738.354182	15240.696092
738.684260	15515.454100
739.014290	15737.211937
739.344272	15907.391208
739.674207	16187.989393
740.004093	16289.881195
740.333931	16285.679393
740.663722	16329.176989
740.993464	16312.599155
741.323159	16127.956813
741.652806	15853.254257
741.982405	15650.057949
742.311956	15313.437421
742.641460	15199.656058
742.970915	14889.042843
743.300323	14556.843408
743.629683	14355.650958
743.958996	14069.041197
744.288260	13805.671156
744.617477	13512.253317
744.946647	13438.702882
745.275768	13161.517558
745.604842	12974.750370
745.933869	12805.113022
746.262847	12749.879620
746.591778	12679.457222
746.920662	12582.720000
747.249498	12581.043816
747.578286	12699.231148
747.907027	12837.242817
748.235720	13056.142319
748.564365	13078.451946
748.892963	12979.980567
749.221514	13031.158361
749.550017	12884.125547
749.878473	12851.330321
750.206881	12631.223462
750.535242	12530.783512
750.863555	12442.041561
751.191821	12341.659585
751.520039	12357.582069
751.848210	12270.488575
752.176334	12303.699696
752.504411	12212.043958
752.832440	12046.673947
753.160421	12101.635127
753.488356	11982.053916
753.816243	11896.918910
754.144082	11756.311047
754.471875	11689.636746
754.799620	11636.820577
755.127318	11607.730599
755.454969	11568.328941
755.782572	11514.827175
756.110129	11530.311079
756.437638	11441.105341
756.765100	11436.044023
757.092515	11439.411513
757.419882	11453.975407
757.747203	11456.599327
758.074477	11529.600276
758.401703	11487.831796
758.728882	11638.343006
759.056014	11681.681806
759.383099	11793.940740
759.710138	11899.381514
760.037129	11981.040644
760.364073	11993.056235
760.690970	11982.986530
761.017820	11987.689926
761.344623	12177.441478
761.671379	12517.638704
761.998088	13193.430583
762.324751	14817.934848
762.651366	17738.708810
762.977935	21333.545536
763.304456	23417.528289
763.630931	23772.115488
763.957359	22555.059962
764.283740	20653.629993
764.610074	18785.441392
764.936362	16682.511462
765.262602	15176.819631
765.588796	13740.063059
765.914943	12728.429511
766.241044	11886.153526
766.567097	11260.516087
766.893104	10716.129445
767.219064	10359.379590
767.544978	9987.231531
767.870845	9681.457824
768.196665	9490.960182
768.522438	9298.604874
768.848165	9134.724524
769.173846	8966.082805
769.499479	8845.992438
769.825066	8692.741361
770.150607	8507.483998
770.476101	8447.164072
770.801548	8336.533430
771.126949	8196.671658
771.452303	8104.915096
771.777611	7946.416178
772.102872	7924.792149
772.428087	7806.398130
772.753256	7685.546549
773.078378	7595.957683
773.403453	7449.829757
773.728482	7338.639547
774.053465	7279.368181
774.378401	7190.812752
774.703291	7097.546364
775.028135	6998.568350
775.352932	6960.356403
775.677683	6879.052674
776.002388	6791.800383
776.327046	6794.510004
776.651658	6707.882816
776.976224	6634.763400
777.300743	6616.131295
777.625216	6548.637807
777.949643	6506.617269
778.274024	6514.153794
778.598359	6441.969512
778.922647	6445.768022
779.246889	6402.426702
779.571086	6415.967241
779.895236	6418.099649
780.219339	6418.260966
780.543397	6418.137457
780.867409	6463.868285
781.191374	6458.247398
781.515294	6429.469971
781.839167	6476.793803
782.162995	6446.791376
782.486776	6402.260343
782.810511	6357.787284
783.134201	6282.653927
783.457844	6274.368791
783.781441	6226.412294
784.104993	6179.300191
784.428498	6153.552498
784.751958	6134.650692
785.075372	6111.058092
785.398739	6074.913018
785.722061	6098.734991
786.045337	6103.030054
786.368568	6210.570468
786.691752	6236.078707
787.014891	6489.958776
787.337983	6774.751201
787.661030	7205.832869
787.984031	7623.479863
788.306987	7863.549691
788.629897	7937.195908
788.952760	7846.273657
789.275579	7670.460896
789.598351	7380.100517
789.921078	7113.708303
790.243759	6836.371745
790.566395	6639.852445
790.888984	6448.359175
791.211529	6313.384801
791.534027	6151.321787
791.856480	6016.176014
792.178888	5956.768537
792.501249	5893.242437
792.823566	5790.735614
793.145836	5785.034069
793.468062	5766.742243
793.790241	5728.769751
794.112375	5765.996152
794.434464	5871.194950
794.756507	5897.441718
795.078505	6017.809348
795.400457	6228.148972
795.722364	6470.479758
796.044226	6654.726369
796.366042	6809.986346
796.687812	6747.586944
797.009538	6776.818074
797.331218	6686.667120
797.652852	6620.310412
797.974442	6499.940261
798.295986	6428.658346
798.617484	6299.907276
798.938938	6196.238468
799.260346	6128.596266
799.581709	5988.404298
799.903026	5939.552997
800.224299	5864.563313
800.545526	5749.257001
800.866708	5689.047980
801.187845	5638.386904
801.508936	5558.885387
801.829983	5535.600298
802.150984	5431.160193
802.471940	5398.853958
802.792851	5385.600765
803.113717	5362.761818
803.434538	5337.929094
803.755314	5305.592612
804.076045	5300.238907
804.396731	5262.800778
804.717372	5277.783087
805.037967	5274.798724
805.358518	5302.746881
805.679024	5359.061611
805.999485	5366.073856
806.319901	5383.385178
806.640272	5394.599225
806.960598	5440.962717
807.280879	5436.075318
807.601115	5473.931863
807.921306	5439.989774
808.241453	5429.826808
808.561554	5441.958344
808.881611	5408.492645
809.201623	5410.932563
809.521590	5357.425756
809.841513	5338.471018
810.161390	5357.718143
810.481223	5267.050471
810.801011	5255.957412
811.120755	5236.294391
811.440453	5181.101318
811.760107	5152.439838
812.079716	5129.603411
812.399281	5080.530299
812.718801	5069.076797
813.038276	5039.036562
813.357707	5002.846118
813.677093	5025.498543
813.996434	4966.194409
814.315731	4983.795598
814.634983	4983.513293
814.954191	4990.767513
815.273354	5049.761616
815.592473	5093.932206
815.911547	5164.369728
816.230577	5216.349066
816.549562	5299.802847
816.868502	5354.678327
817.187399	5409.480711
817.506250	5490.716384
817.825058	5519.317371
818.143821	5674.426113
818.462539	5849.117217
818.781213	6078.600623
819.099843	6443.925480
819.418429	7074.392345
819.736970	7687.217691
820.055466	8381.591263
820.373919	9316.868975
820.692327	10806.391304
821.010691	13626.599289
821.329011	19990.453602
821.647286	29424.547047
821.965517	39287.115884
822.283704	44141.983973
822.601847	45230.636269
822.919945	40654.808649
823.237999	35708.199123
823.556010	30711.440198
823.873976	26201.593720
824.191897	22167.571672
824.509775	19206.942347
824.827609	16559.792133
825.145398	15081.753552
825.463144	14399.294747
825.780845	14765.194296
826.098502	16075.894296
826.416116	18481.542994
826.733685	20608.655339
827.051210	20935.516193
827.368692	19441.900446
827.686129	16934.884227
828.003522	14552.878540
828.320872	12422.199579
828.638177	10835.869452
828.955439	9638.484508
829.272656	8603.981765
829.589830	7790.800800
829.906960	7080.318221
830.224046	6564.373769
830.541088	6173.863307
830.858086	5926.314927
831.175041	5733.256378
831.491952	5681.178738
831.808819	5722.138113
832.125642	5981.392053
832.442421	6549.547735
832.759157	7693.821603
833.075849	9439.409342
833.392497	11215.995137
833.709101	12212.626211
834.025662	11884.479863
834.342179	10821.812194
834.658653	9561.853928
834.975083	8497.074016
835.291469	7632.579145
835.607811	6915.359064
835.924110	6416.148722
836.240366	5935.058808
836.556578	5494.101519
836.872746	5157.380169
837.188871	4893.682452
837.504952	4674.261190
837.820990	4514.754041
838.136984	4403.052154
838.452935	4362.102861
838.768842	4404.929984
839.084706	4709.345100
839.400526	5465.820646
839.716303	6335.956567
840.032037	6853.627615
840.347727	6650.509444
840.663373	6052.152209
840.978977	5497.065718
841.294537	5076.809927
841.610054	4759.491978
841.925527	4526.948592
842.240957	4326.935772
842.556344	4145.038338
842.871687	3993.473527
843.186987	3846.181094
843.502244	3731.275554
843.817458	3649.324037
844.132629	3576.960794
844.447756	3533.185934
844.762840	3485.610045
845.077881	3448.451700
845.392879	3413.456010
845.707833	3389.003893
846.022745	3363.288968
846.337613	3350.439066
846.652438	3330.249245
846.967221	3318.619303
847.281960	3302.643887
847.596656	3291.119809
847.911309	3278.400978
848.225919	3265.979575
848.540485	3257.061774
848.855009	3252.605394
849.169490	3236.564442
849.483928	3227.984398
849.798323	3227.271075
850.112675	3215.459652
850.426984	3215.051318
850.741251	3209.279197
851.055474	3203.857436
851.369654	3206.856922
851.683792	3205.521017
851.997887	3205.316850
852.311938	3207.441696
852.625947	3207.809701
852.939914	3199.718649
853.253837	3207.814742
853.567718	3203.789380
853.881555	3195.970551
854.195350	3201.092363
854.509103	3199.222095
854.822812	3197.210675
855.136479	3192.255220
855.450103	3195.476518
855.763685	3191.090714
856.077224	3191.065508
856.390720	3199.948021
856.704173	3214.932851
857.017584	3215.003427
857.330953	3215.280691
857.644278	3227.986919
857.957561	3232.425655
858.270802	3226.008266
858.584000	3228.196127
858.897155	3222.232442
859.210268	3212.999568
859.523339	3201.001622
859.836367	3198.614636
860.149352	3192.814788
860.462295	3188.512164
860.775195	3180.148889
861.088054	3175.344670
861.400869	3176.103363
861.713642	3175.165709
862.026373	3182.924045
862.339062	3185.384128
862.651708	3197.387115
862.964312	3209.995041
863.276873	3219.275805
863.589392	3251.294694
863.901869	3274.902417
864.214303	3298.011066
864.526696	3314.268788
864.839045	3330.700428
865.151353	3340.787777
865.463619	3343.230216
865.775842	3345.082840
866.088023	3345.750793
866.400162	3343.220134
866.712258	3342.199300
867.024313	3344.533355
867.336325	3342.857171
867.648296	3342.431193
867.960224	3339.530009
868.272110	3342.458920
868.583954	3341.632171
868.895755	3348.170547
869.207515	3348.561237
869.519233	3365.660830
869.830909	3372.053013
870.142542	3382.619272
870.454134	3388.595560
870.765684	3402.856984
871.077191	3422.920776
871.388657	3431.876386
871.700081	3448.701237
872.011463	3468.230667
872.322803	3483.901094
872.634101	3503.405318
872.945357	3524.399203
873.256571	3552.208728
873.567744	3566.449988
873.878874	3572.517017
874.189963	3586.538986
874.501010	3587.854727
874.812015	3585.135025
875.122979	3602.494238
875.433900	3598.373095
875.744780	3600.734875
876.055618	3609.206534
876.366415	3606.449023
876.677169	3612.170733
876.987882	3631.218733
877.298554	3649.898728
877.609183	3694.618804
877.919771	3734.781677
878.230317	3802.832212
878.540822	3907.726021
878.851285	4061.768559
879.161707	4284.063279
879.472087	4660.216535
879.782425	5302.094052
880.092722	6496.509756
880.402977	8402.600272
880.713191	10689.570126
881.023363	12918.803645
881.333494	14101.120580
881.643583	14471.005161
881.953631	14036.613975
882.263637	13231.161099
882.573602	12247.652148
882.883526	11347.740651
883.193408	10442.835892
883.503248	9566.786697
883.813048	8781.057335
884.122806	8041.804891
884.432522	7308.392624
884.742197	6671.919224
885.051831	6136.057173
885.361424	5665.654505
885.670975	5292.241116
885.980485	4979.684537
886.289954	4721.375814
886.599382	4517.146068
886.908768	4344.642825
887.218113	4184.215666
887.527417	4057.896953
887.836680	3940.306998
888.145901	3839.564580
888.455082	3766.614043
888.764221	3703.206410
889.073319	3644.731546
889.382376	3610.325671
889.691392	3590.458483
890.000366	3582.231320
890.309300	3575.513983
890.618193	3578.926844
890.927044	3575.791246
891.235855	3583.174016
891.544625	3595.890327
891.853353	3628.224287
892.162041	3687.253678
892.470687	3779.877318
892.779293	3899.450967
893.087858	4073.458995
893.396381	4354.586501
893.704864	4768.233339
894.013306	5323.629861
894.321707	5856.898238
894.630068	6175.539490
894.938387	6183.547363
895.246665	6002.779148
895.554903	5699.215987
895.863100	5373.595257
896.171256	5116.461123
896.479371	4889.957039
896.787446	4673.507537
897.095480	4485.843024
897.403473	4347.458309
897.711425	4207.994788
898.019336	4087.748146
898.327207	3973.800425
898.635038	3873.173953
898.942827	3769.910957
899.250576	3685.310313
899.558284	3604.145216
899.865952	3554.802402
900.173579	3490.729337
900.481165	3449.222997
900.788711	3407.194897
901.096216	3379.466030
901.403681	3350.842359
901.711105	3342.534537
902.018489	3342.607634
902.325832	3376.398488
902.633135	3434.255811
902.940397	3610.915486
903.247619	4031.115823
903.554800	4781.879742
903.861941	5699.831008
904.169041	6335.520508
904.476101	6488.527089
904.783121	6213.050716
905.090100	5819.439944
905.397039	5432.102889
905.703938	5096.493113
906.010796	4789.010454
906.317614	4549.230492
906.624391	4319.111901
906.931129	4136.289416
907.237826	3961.038744
907.544483	3797.881799
907.851099	3629.045995
908.157675	3478.726349
908.464211	3344.490505
908.770707	3247.760845
909.077163	3170.066582
909.383578	3113.540124
909.689954	3074.178794
909.996289	3043.034546
910.302584	3025.531660
910.608839	3013.014475
910.915054	3000.557784
911.221229	2997.056702
911.527363	3001.376971
911.833458	3009.047087
912.139513	3021.037471
912.445527	3034.787218
912.751502	3066.798545
913.057436	3111.637088
913.363331	3169.126407
913.669186	3259.234511
913.975000	3374.220710
914.280775	3560.178793
914.586510	3825.028413
914.892205	4199.790310
915.197859	4677.747148
915.503475	5233.864555
915.809050	5686.335839
916.114585	5944.589109
916.420081	5989.399926
916.725536	5918.934677
917.030952	5693.211973
917.336328	5499.021685
917.641665	5296.251354
917.946961	5081.006688
918.252218	4888.711874
918.557435	4674.767826
918.862612	4487.010051
919.167750	4321.556861
919.472848	4139.730003
919.777906	3980.061538
920.082925	3829.147036
920.387904	3680.042308
920.692843	3580.343408
920.997743	3481.511587
921.302603	3394.889440
921.607423	3335.550018
921.912204	3268.356479
922.216946	3224.251424
922.521647	3176.037828
922.826310	3137.437713
923.130932	3099.409769
923.435516	3061.008780
923.740059	3036.342414
924.044564	3007.401150
924.349028	2980.819146
924.653454	2953.871658
924.957840	2929.543049
925.262186	2909.804412
925.566493	2885.871534
925.870761	2865.376723
926.174989	2852.068077
926.479178	2837.902434
926.783328	2820.520536
927.087438	2812.691624
927.391509	2800.547484
927.695541	2791.899385
927.999533	2778.482354
928.303486	2771.233175
928.607400	2763.041300
928.911275	2760.636669
929.215110	2753.735330
929.518906	2752.560741
929.822663	2753.279105
930.126381	2749.974629
930.430060	2755.802203
930.733699	2755.829929
931.037299	2760.072060
931.340861	2756.177769
931.644383	2763.003491
931.947866	2759.996443
932.251309	2756.175248
932.554714	2756.233221
932.858080	2755.640886
933.161407	2752.296080
933.464694	2745.261150
933.767943	2746.622262
934.071153	2743.249730
934.374323	2739.526837
934.677455	2737.497773
934.980548	2735.536764
935.283602	2728.668192
935.586617	2730.697257
935.889593	2731.836557
936.192530	2731.821434
936.495428	2737.596076
936.798287	2746.536562
937.101108	2759.421751
937.403890	2782.197684
937.706632	2807.317754
938.009336	2838.565346
938.312002	2864.020652
938.614628	2887.703993
938.917216	2903.606313
939.219765	2913.610483
939.522275	2923.581885
939.824747	2922.475352
940.127179	2917.368663
940.429573	2911.936820
940.731929	2908.561767
941.034246	2901.937691
941.336524	2899.223030
941.638763	2894.887637
941.940964	2888.808006
942.243126	2871.874770
942.545250	2864.050899
942.847335	2847.568847
943.149381	2835.011332
943.451389	2821.175886
943.753359	2809.576191
944.055290	2802.873977
944.357182	2795.854170
944.659036	2789.978705
944.960851	2787.601801
945.262628	2784.264557
945.564367	2783.306738
945.866067	2785.545010
946.167729	2778.850358
946.469352	2777.156530
946.770937	2779.961932
947.072484	2770.184615
947.373992	2769.226795
947.675462	2767.779984
947.976893	2761.196237
948.278286	2758.194230
948.579641	2754.746081
948.880958	2752.752305
949.182236	2754.930083
949.483476	2750.950092
949.784678	2751.766759
950.085841	2750.009917
950.386967	2751.983529
950.688054	2757.692635
950.989103	2767.744696
951.290114	2774.149482
951.591087	2787.569034
951.892021	2797.064047
952.192917	2808.590645
952.493776	2816.381748
952.794596	2822.168993
953.095378	2825.440702
953.396122	2819.766883
953.696828	2816.840493
953.997496	2813.745225
954.298126	2803.604944
954.598718	2796.333080
954.899272	2787.241359
955.199788	2775.293824
955.500266	2763.343769
955.800706	2749.261306
956.101108	2737.769995
956.401472	2723.586709
956.701798	2711.924000
957.002087	2699.124510
957.302337	2692.311391
957.602550	2682.171110
957.902724	2671.998061
958.202861	2661.903151
958.502960	2654.621204
958.803022	2649.025523
959.103045	2642.419091
959.403031	2636.357103
959.702979	2630.456433
960.002889	2628.293778
960.302762	2622.539301
960.602596	2616.918414
960.902393	2615.380862
961.202153	2611.862137
961.501875	2610.342229
961.801559	2608.166971
962.101205	2605.389295
962.400814	2603.614809
962.700385	2601.449634
962.999918	2601.424428
963.299414	2598.913933
963.598873	2596.234560
963.898293	2595.367482
964.197677	2597.167173
964.497022	2592.967892
964.796331	2592.015114
965.095601	2592.589806
965.394835	2591.541246
965.694030	2590.371698
965.993189	2591.395052
966.292309	2588.695514
966.591393	2587.377253
966.890439	2586.545462
967.189447	2587.420102
967.488419	2587.964547
967.787353	2587.624269
968.086249	2587.893971
968.385108	2589.212233
968.683930	2591.979826
968.982714	2589.965885
969.281462	2592.385639
969.580172	2592.718355
969.878844	2596.519385
970.177480	2599.352514
970.476078	2603.476177
970.774639	2606.773092
971.073162	2606.745366
971.371649	2606.584049
971.670098	2609.356683
971.968510	2610.899277
972.266885	2609.190325
972.565223	2615.128805
972.863524	2614.087806
973.161788	2615.224587
973.460014	2617.230966
973.758204	2616.726850
974.056356	2617.495626
974.354471	2619.040740
974.652550	2616.086624
974.950591	2617.924124
975.248595	2616.384052
975.546563	2617.367077
975.844493	2616.164762
976.142386	2612.993876
976.440243	2610.001951
976.738062	2612.628392
977.035845	2607.486415
977.333590	2607.466251
977.631299	2602.503235
977.928971	2601.731938
978.226606	2599.765888
978.524204	2598.366968
978.821765	2597.953593
979.119290	2597.741865
979.416777	2597.003336
979.714228	2598.084663
980.011642	2599.874273
980.309020	2602.432659
980.606360	2603.143461
980.903664	2614.140738
981.200931	2629.163377
981.498162	2644.004534
981.795356	2671.317505
982.092513	2707.679348
982.389633	2747.559916
982.686717	2786.288581
982.983764	2812.676500
983.280775	2832.974706
983.577749	2830.479335
983.874686	2821.221256
984.171587	2806.977476
984.468451	2790.825619
984.765279	2776.569236
985.062070	2758.632811
985.358824	2741.220665
985.655543	2719.306769
985.952224	2700.447813
986.248869	2678.425532
986.545478	2652.231697
986.842050	2635.585807
987.138586	2614.496140
987.435086	2603.781167
987.731549	2592.259610
988.027975	2588.740885
988.324366	2583.591346
988.620719	2578.257805
988.917037	2578.000707
989.213318	2574.156827
989.509563	2572.662125
989.805772	2568.707339
990.101944	2569.486198
990.398080	2567.343707
990.694180	2567.207596
990.990244	2568.719942
991.286271	2569.433266
991.582262	2566.910168
991.878217	2569.249263
992.174136	2570.459140
992.470019	2569.309757
992.765865	2574.494584
993.061676	2575.795202
993.357450	2576.435428
993.653188	2580.307034
993.948890	2582.951120
994.244556	2591.730289
994.540186	2600.454006
994.835780	2609.023967
995.131337	2626.529374
995.426859	2638.592855
995.722345	2655.889054
996.017795	2672.930675
996.313208	2686.191430
996.608586	2696.671989
996.903928	2697.289530
997.199234	2694.559745
997.494504	2689.561441
997.789738	2682.914680
998.084936	2678.672549
998.380099	2663.917092
998.675225	2657.366112
998.970316	2643.429842
999.265371	2632.049437
999.560390	2620.671553
999.855373	2608.381220
1000.150320	2601.668924
1000.445232	2590.742223
1000.740108	2586.691656
1001.034948	2582.086562
1001.329752	2578.469534
1001.624521	2574.255129
1001.919254	2565.627194
1002.213951	2562.955383
1002.508613	2560.666699
1002.803239	2562.292471
1003.097829	2555.713765
1003.392384	2560.099569
1003.686903	2557.952038
1003.981386	2557.596636
1004.275834	2555.645710
1004.570246	2556.779969
1004.864623	2551.786707
1005.158964	2554.776111
1005.453270	2553.198230
1005.747540	2554.143446
1006.041775	2549.775286
1006.335974	2553.871224
1006.630138	2550.055070
1006.924266	2553.223435
1007.218359	2552.202602
1007.512416	2548.668753
1007.806438	2546.964843
1008.100425	2550.203784
1008.394376	2548.711603
1008.688292	2551.864844
1008.982172	2548.905687
1009.276017	2549.762683
1009.569827	2545.689431
1009.863602	2548.683876
1010.157341	2549.245965
1010.451045	2549.475338
1010.744714	2546.359904
1011.038347	2549.661860
1011.331945	2546.203629
1011.625508	2545.351674
1011.919036	2545.165151
1012.212528	2547.363094
1012.505986	2546.397713
1012.799408	2545.376879
1013.092795	2545.767569
1013.386147	2542.652136
1013.679464	2547.068187
1013.972745	2545.268495
1014.265992	2543.410829
1014.559204	2544.650953
1014.852380	2546.188505
1015.145521	2544.361087
1015.438628	2545.492826
1015.731699	2541.666590
1016.024736	2542.999975
1016.317737	2544.905532
1016.610703	2547.116078
1016.903635	2542.037115
1017.196531	2545.192877
1017.489393	2543.158772
1017.782219	2539.753472
1018.075011	2545.132383
1018.367768	2546.790923
1018.660490	2549.800492
1018.953177	2549.800492
1019.245829	2549.800492
