Dividing Wavelength (nm)	Counts (n)	Blue Motor Position (mm): 44.000000	Red Motor Position (mm): 0.000000	
326.493990	2049.332382
326.888308	2049.332382
327.282561	2049.332382
327.676750	2021.036386
328.070874	2025.558301
328.464933	2029.069464
328.858929	2039.008099
329.252859	2052.072249
329.646726	2062.361244
330.040528	2078.250961
330.434265	2099.312902
330.827938	2119.096910
331.221547	2140.478964
331.615091	2158.896820
332.008571	2181.755932
332.401986	2201.938191
332.795338	2223.446274
333.188625	2241.347412
333.581847	2257.753847
333.975006	2275.075251
334.368100	2294.995371
334.761129	2313.178813
335.154095	2326.638693
335.546996	2376.982176
335.939833	2487.713641
336.332606	2494.741010
336.725315	2509.473782
337.117960	2521.411234
337.510540	2529.782070
337.903056	2540.502084
338.295508	2544.729091
338.687896	2551.678322
339.080220	2557.568910
339.472480	2562.657955
339.864676	2566.078378
340.256807	2566.695919
340.648875	2569.453430
341.040879	2570.048286
341.432818	2571.661456
341.824694	2572.712536
342.216506	2570.983420
342.608253	2572.382341
342.999937	2572.571384
343.391557	2571.046435
343.783113	2569.382854
344.174605	2567.905796
344.566033	2565.871690
344.957397	2563.658624
345.348697	2561.894220
345.739934	2562.148798
346.131106	2557.367264
346.522215	2557.180741
346.913260	2557.536143
347.304241	2555.973385
347.695159	2554.501368
348.086012	2552.217725
348.476802	2551.542211
348.867528	2548.341078
349.258191	2546.075079
349.648789	2542.805891
350.039324	2539.496373
350.429796	2546.889226
350.820203	2545.044163
351.210548	2544.381252
351.600828	2542.989893
351.991045	2539.075437
352.381198	2541.759852
352.771288	2540.527289
353.161314	2540.880170
353.551276	2541.253216
353.941175	2538.631816
354.331010	2542.216076
354.720782	2544.315717
355.110490	2542.596683
355.500135	2541.477547
355.889717	2542.533669
356.279235	2542.906714
356.668689	2540.464275
357.058080	2542.384955
357.447408	2544.729091
357.836672	2544.681200
358.225873	2544.492157
358.615010	2543.451159
359.004084	2547.272353
359.393095	2545.631458
359.782043	2545.807898
360.170927	2544.555171
360.559748	2547.426108
360.948505	2550.168496
361.337199	2550.145811
361.725830	2548.323434
362.114398	2547.524411
362.502903	2548.943496
362.891344	2551.443908
363.279722	2547.766386
363.668037	2554.521532
364.056289	2553.513302
364.444478	2553.422561
364.832603	2554.067829
365.220665	2555.965823
365.608665	2555.257541
365.996601	2555.459187
366.384474	2553.498178
366.772284	2555.703683
367.160031	2559.507234
367.547715	2556.626214
367.935336	2555.749053
368.322893	2554.430792
368.710388	2556.202757
369.097820	2553.409958
369.485189	2556.051523
369.872495	2559.666030
370.259738	2559.116544
370.646918	2561.226267
371.034035	2560.787687
371.421090	2560.785166
371.808081	2561.138047
372.195010	2564.145095
372.581875	2563.741803
372.968678	2561.763150
373.355418	2562.685681
373.742096	2565.707853
374.128710	2564.203068
374.515262	2564.571073
374.901751	2565.934705
375.288177	2567.230281
375.674540	2566.794222
376.060841	2563.691391
376.447079	2565.957390
376.833254	2567.787329
377.219367	2565.856567
377.605417	2568.276321
377.991404	2568.641804
378.377329	2569.138358
378.763191	2568.835889
379.148991	2571.711867
379.534727	2572.851168
379.920402	2571.573235
380.306013	2570.436455
380.691563	2573.554409
381.077049	2571.550550
381.462474	2572.863771
381.847835	2576.158165
382.233134	2577.894842
382.618371	2579.266036
383.003545	2581.216963
383.388657	2582.164700
383.773706	2584.576892
384.158693	2589.171903
384.543618	2591.455546
384.928480	2594.946545
385.313280	2598.472832
385.698017	2602.856116
386.082692	2606.689913
386.467305	2615.005296
386.851856	2624.555762
387.236344	2629.491052
387.620770	2629.606998
388.005133	2637.075468
388.389435	2649.917807
388.773674	2655.145484
389.157851	2668.809531
389.541965	2680.384021
389.926018	2689.145546
390.310008	2703.396888
390.693936	2715.893908
391.077802	2727.833881
391.461606	2746.160996
391.845348	2753.251379
392.229027	2771.659152
392.612645	2792.587502
392.996200	2810.730615
393.379694	2833.214161
393.763125	2857.749457
394.146494	2876.076572
394.529801	2901.307547
394.913047	2930.601692
395.296230	2946.239351
395.679351	2968.004533
396.062410	3005.225892
396.445408	3007.953156
396.828343	3042.220400
397.211217	3075.305492
397.594028	3078.728436
397.976778	3115.581791
398.359466	3149.932213
398.742092	3173.577745
399.124656	3198.884338
399.507158	3246.137593
399.889598	3270.161212
400.271977	3326.423009
400.654294	3338.249556
401.036549	3388.252761
401.418742	3408.893766
401.800874	3471.169660
402.182944	3505.411697
402.564952	3583.118563
402.946898	3599.144391
403.328783	3617.680714
403.710606	3670.776667
404.092367	3738.623036
404.474067	3803.913540
404.855705	3811.878563
405.237282	3810.033501
405.618797	3901.351482
406.000250	3976.938543
406.381642	4063.893406
406.762972	4079.253801
407.144240	4066.834919
407.525447	4132.710197
407.906593	4164.361081
408.287677	4249.168412
408.668700	4285.573105
409.049661	4334.898275
409.430560	4379.908217
409.811399	4383.225296
410.192176	4432.595836
410.572891	4508.407228
410.953545	4613.207776
411.334138	4535.077453
411.714669	4645.486284
412.095139	4582.809618
412.475547	4680.610523
412.855894	4695.328172
413.236180	4794.848110
413.616405	4740.073453
413.996568	4834.509388
414.376670	4851.412377
414.756711	4846.966079
415.136691	4915.074588
415.516609	5001.205223
415.896466	5042.575452
416.276262	5123.241475
416.655997	5234.461932
417.035670	5317.504859
417.415283	5447.259118
417.794834	5508.330176
418.174324	5467.816943
418.553753	5476.598633
418.933121	5628.044977
419.312428	5638.011338
419.691674	5580.285085
420.070859	5789.785357
420.449983	5682.907854
420.829045	5867.630855
421.208047	5799.716430
421.586988	5948.201096
421.965867	6021.010481
422.344686	6097.462100
422.723444	6256.397078
423.102141	5904.920270
423.480777	6265.450990
423.859352	6091.049752
424.237866	6442.965140
424.616319	6431.083141
424.994712	6577.947076
425.373044	6508.966447
425.751314	6794.852802
426.129524	6540.577002
426.507673	6796.473533
426.885762	6833.692372
427.263789	6868.932558
427.641756	6953.848274
428.019662	7020.265476
428.397508	7054.227729
428.775292	7052.861577
429.153016	7197.688885
429.530679	7146.717779
429.908282	7195.644697
430.285824	7140.625544
430.663305	7387.553863
431.040726	7298.980790
431.418086	7297.385264
431.795385	7428.248577
432.172624	7606.236596
432.549802	7484.306208
432.926920	7620.248483
433.303977	7572.995228
433.680974	7615.179603
434.057910	7804.699261
434.434786	7848.990839
434.811601	7816.137639
435.188355	8145.226683
435.565050	8040.378245
435.941683	8057.634114
436.318257	8361.751802
436.694770	8308.635685
437.071222	8519.383642
437.447614	8292.410731
437.823946	8268.666897
438.200218	8407.381806
438.576429	8303.967576
438.952580	8455.134136
439.328670	8467.588307
439.704700	8551.258858
440.080670	8444.313299
440.456580	8695.231691
440.832429	8674.293258
441.208218	8427.546422
441.583947	8536.286631
441.959616	8641.152713
442.335224	8676.617230
442.710773	8762.616794
443.086261	8941.965925
443.461689	8674.164709
443.837057	8820.355650
444.212365	9024.159418
444.587612	9016.383438
444.962800	8911.230010
445.337927	9049.944920
445.712995	8612.004762
446.088002	9241.410463
446.462949	9309.249271
446.837837	9319.346702
447.212664	9374.902738
447.587431	10274.068143
447.962139	11235.312838
448.336786	11983.541057
448.711374	11578.058368
449.085901	10439.791035
449.460369	10425.660681
449.834776	10348.518424
450.209124	11268.062694
450.583412	11034.795903
450.957640	11237.349464
451.331808	10832.030613
451.705917	10349.365338
452.079965	10277.695254
452.453954	10472.566097
452.827883	10422.555330
453.201752	10389.230782
453.575562	10413.829093
453.949311	10763.465879
454.323001	10835.793834
454.696632	10757.023285
455.070202	11336.251862
455.443713	11388.694985
455.817164	11547.027545
456.190556	11859.163188
456.563888	11691.925430
456.937160	11908.899212
457.310373	11413.331104
457.683526	11450.222268
458.056619	11490.823721
458.429653	11568.404558
458.802628	11743.385529
459.175542	11801.996504
459.548398	12342.461128
459.921194	12919.262390
460.293930	13252.265889
460.666607	14078.818515
461.039224	14804.419514
461.411782	15059.746395
461.784280	14658.100024
462.156719	14574.517693
462.529099	14476.084123
462.901419	13900.011309
463.273680	13550.409810
463.645882	13785.768680
464.018024	13747.569337
464.390106	14150.596984
464.762130	15321.382280
465.134094	16985.389026
465.505999	19256.620398
465.877845	21258.964185
466.249631	22144.152992
466.621358	21491.681491
466.993026	20663.871097
467.364634	19956.740885
467.736184	19259.292209
468.107674	18710.658395
468.479105	18575.129495
468.850477	18312.744999
469.221790	17882.578300
469.593043	17258.364987
469.964238	16910.371616
470.335373	17032.596912
470.706449	17892.816883
471.077467	19024.523154
471.448425	21355.131756
471.819324	22838.660154
472.190164	22323.865085
472.560945	20656.972278
472.931667	19259.967724
473.302330	19014.443367
473.672934	18564.275890
474.043479	18999.549278
474.413965	18801.905800
474.784393	18656.770981
475.154761	19274.060270
475.525070	19417.410520
475.895321	19256.169215
476.265513	19766.427245
476.635645	20357.144612
477.005719	20414.596122
477.375734	20796.972682
477.745691	21400.766802
478.115588	22056.661246
478.485427	23320.919616
478.855207	25187.356416
479.224928	26907.887101
479.594591	28081.578621
479.964194	27533.292647
480.333739	27920.917048
480.703226	28198.369553
481.072653	28700.667602
481.442022	29201.357522
481.811333	29495.032460
482.180584	28997.430246
482.549777	28775.392625
482.918912	28590.601569
483.287988	28546.677996
483.657005	28372.823723
484.025964	28018.324743
484.394864	28227.555313
484.763706	28156.238110
485.132489	27675.455706
485.501213	27741.275531
485.869879	27934.462629
486.238487	27897.659685
486.607036	28174.658486
486.975527	27894.365291
487.343959	28216.127017
487.712333	28545.478201
488.080648	28517.383851
488.448905	28947.343862
488.817104	28874.441216
489.185244	29774.249369
489.553326	30918.598854
489.921350	32847.732484
490.289315	35255.001913
490.657222	35908.393424
491.025070	36313.631617
491.392861	35918.384991
491.760593	35102.973316
492.128267	34108.915750
492.495883	33172.322298
492.863440	32337.300534
493.230939	31457.309157
493.598380	30953.985233
493.965763	30846.946413
494.333088	30392.254501
494.700354	30221.782843
495.067563	30189.983244
495.434713	30111.782345
495.801805	30404.703631
496.168839	30272.655647
496.535815	30144.605298
496.902733	30289.044438
497.269593	30113.866862
497.636395	30276.668405
498.003139	30569.229248
498.369825	30350.140702
498.736453	30754.476528
499.103023	30607.022778
499.469535	30708.231504
499.835989	30846.754850
500.202385	30712.163604
500.568723	30791.448351
500.935003	31117.187548
501.301226	31034.885670
501.667390	31712.832642
502.033497	31912.270771
502.399546	31717.725082
502.765537	31329.359631
503.131470	31785.452984
503.497345	32237.243712
503.863163	31212.049460
504.228923	31977.553713
504.594625	32398.064082
504.960269	31889.416700
505.325856	32571.134455
505.691385	32253.861876
506.056856	32585.436208
506.422270	33064.802048
506.787625	32627.403814
507.152924	33073.825713
507.518164	33285.415543
507.883347	32849.630478
508.248472	33020.472662
508.613540	33708.796849
508.978550	33948.990186
509.343503	33801.680109
509.708398	34173.712221
510.073236	34780.223523
510.438016	34879.773708
510.802738	34594.043629
511.167403	35138.684849
511.532010	35393.716823
511.896561	35881.851749
512.261053	36641.200753
512.625488	36414.742040
512.989866	36359.344801
513.354186	36417.073574
513.718449	36379.980764
514.082655	37284.603219
514.446803	36991.233271
514.810894	37608.346119
515.174927	37638.754359
515.538904	37634.650859
515.902822	38281.224211
516.266684	37976.516708
516.630488	38349.050415
516.994235	38357.973257
517.357925	38952.537024
517.721558	39213.467147
518.085133	39592.151063
518.448651	39783.644333
518.812112	39683.786637
519.175516	39845.249753
519.538863	40282.108584
519.902152	40339.101348
520.265385	40901.820147
520.628560	40928.392068
520.991678	40878.061188
521.354739	41113.541046
521.717743	41480.819351
522.080690	41386.401060
522.443580	42064.897518
522.806413	42101.244237
523.169189	42236.057294
523.531908	42468.736791
523.894569	42339.123684
524.257174	42529.119732
524.619722	42867.197153
524.982213	43013.919935
525.344647	43048.300604
525.707025	43175.380531
526.069345	43637.525789
526.431608	43536.662383
526.793815	43910.617696
527.155964	43460.641783
527.518057	43742.046553
527.880093	43594.497021
528.242072	44223.809461
528.603995	43969.929392
528.965860	43884.791865
529.327669	44116.178306
529.689421	44175.033777
530.051117	44107.338643
530.412755	44400.602727
530.774337	44472.686185
531.135862	44400.970731
531.497331	44551.517229
531.858743	44557.954782
532.220098	44966.371423
532.581396	44700.876535
532.942638	44467.566894
533.303824	44710.616044
533.664953	44771.916475
534.026025	44457.184637
534.387040	45025.247058
534.747999	45082.776706
535.108902	45400.737403
535.469748	44738.801135
535.830537	44999.471639
536.191270	45247.035142
536.551947	44981.860368
536.912567	45254.453200
537.273131	45422.865547
537.633638	45032.057657
537.994089	45230.835395
538.354483	44985.348846
538.714821	45636.580224
539.075103	45914.788902
539.435328	45771.224402
539.795497	45520.295928
540.155609	45640.615667
540.515665	46248.417504
540.875665	45537.312343
541.235609	45838.927098
541.595496	45950.873481
541.955328	46523.344391
542.315102	45960.428988
542.674821	45842.097984
543.034483	45729.909625
543.394090	45761.973884
543.753640	45730.691004
544.113134	46803.682956
544.472571	45897.094452
544.831953	47032.669808
545.191278	46297.311655
545.550548	45977.301730
545.909761	46635.396638
546.268918	46779.140099
546.628019	47192.471864
546.987064	46626.831718
547.346053	45906.919660
547.704986	46817.689802
548.063863	46467.344733
548.422684	46666.629107
548.781449	46274.553366
549.140158	46806.001887
549.498811	46572.155363
549.857408	45967.834443
550.215949	46800.877554
550.574434	46637.264386
550.932864	46577.617453
551.291237	47277.700132
551.649555	47041.217084
552.007817	47216.190493
552.366022	46889.846358
552.724173	46962.542317
553.082267	47367.803195
553.440305	47710.979743
553.798288	46955.368755
554.156215	47362.179788
554.514086	47555.901248
554.871902	47184.700926
555.229661	47350.040690
555.587365	47030.711320
555.945014	47163.008841
556.302606	47188.025567
556.660143	47288.102553
557.017625	47497.824635
557.375050	47202.181127
557.732421	47610.839743
558.089735	47668.583639
558.446994	47533.052218
558.804197	48014.716824
559.161345	47880.879231
559.518437	47220.997233
559.875474	47484.962131
560.232455	47705.888178
560.589381	47779.665464
560.946251	47571.029751
561.303065	48219.901868
561.659825	47925.458154
562.016528	47724.671517
562.373177	47309.915626
562.729770	47929.571736
563.086307	47455.022718
563.442789	47995.653701
563.799216	47846.256586
564.155587	47731.719050
564.511904	47705.739464
564.868164	47758.482536
565.224370	48075.024148
565.580520	47808.949527
565.936615	47988.487701
566.292654	47651.310126
566.648638	48007.276081
567.004567	47955.944532
567.360441	48041.694559
567.716260	47781.255948
568.072023	48134.885329
568.427732	48069.108354
568.783385	47604.543342
569.138982	48017.270169
569.494525	48137.794075
569.850013	47733.997652
570.205445	47863.086478
570.560823	47651.148809
570.916145	47507.972478
571.271412	47739.106861
571.626625	47397.840910
571.981782	47479.132037
572.336884	47073.435099
572.691931	47398.418122
573.046923	47060.948161
573.401860	46914.311077
573.756743	46900.271464
574.111570	47061.671566
574.466342	46971.941548
574.821059	47111.626880
575.175722	46618.486088
575.530330	46715.167857
575.884882	46343.503748
576.239380	46253.751045
576.593823	46352.845006
576.948211	46276.511855
577.302544	45817.751731
577.656823	45830.160531
578.011047	46078.979282
578.365216	45918.486588
578.719330	45626.238297
579.073389	45600.344410
579.427394	45650.329971
579.781344	45588.333861
580.135239	45340.175501
580.489080	45392.810188
580.842866	44889.322427
581.196597	45390.534107
581.550273	45393.049643
581.903895	45325.052039
582.257463	45760.343071
582.610975	45174.505542
582.964434	45528.770108
583.317837	45018.978384
583.671186	44983.065204
584.024481	45252.656029
584.377721	44797.175176
584.730906	44995.010218
585.084037	45130.687832
585.437113	44852.267426
585.790135	44968.735724
586.143103	44516.944996
586.496016	44677.500704
586.848874	44778.711950
587.201679	44810.945088
587.554428	44319.682125
587.907124	44593.996512
588.259765	44355.975912
588.612352	44521.242579
588.964884	43959.786590
589.317362	44291.998629
589.669786	44281.593687
590.022155	44128.365295
590.374470	44610.944871
590.726731	44152.860262
591.078937	43505.392106
591.431090	43856.765570
591.783188	43395.764654
592.135232	43167.004654
592.487222	43450.221718
592.839157	43583.585443
593.191038	43225.698808
593.542866	43029.106411
593.894639	42435.376955
594.246358	42734.198911
594.598022	42724.890421
594.949633	42306.179744
595.301190	42278.097996
595.652692	42214.902092
596.004141	42697.015360
596.355535	41611.428085
596.706876	41621.336473
597.058162	41355.776050
597.409395	41841.700431
597.760573	42068.774165
598.111698	41664.468586
598.462768	41589.582245
598.813785	41594.290683
599.164748	41210.255583
599.515657	41485.439568
599.866511	40982.372744
600.217312	41674.780266
600.568060	40617.582249
600.918753	41438.783690
601.269392	41360.053469
601.619978	41089.013312
601.970510	41295.587194
602.320988	41431.647936
602.671412	41674.147601
603.021783	41561.523183
603.372100	41121.377520
603.722363	41247.250090
604.072572	41272.902002
604.422728	41262.514704
604.772830	41044.464636
605.122878	41192.475433
605.472872	41073.179048
605.822813	41326.066010
606.172701	41070.552607
606.522534	41395.979252
606.872314	41604.461211
607.222041	41432.726743
607.571714	41765.856272
607.921333	41270.295725
608.270899	41480.804228
608.620411	41863.692465
608.969870	41593.055600
609.319276	41624.325877
609.668627	41649.657676
610.017926	42060.196642
610.367171	42179.074611
610.716362	42222.678072
611.065500	42123.914306
611.414585	42354.249666
611.763616	42521.366437
612.112594	42414.403235
612.461518	42544.495251
612.810389	42927.764095
613.159207	42720.597878
613.507971	42704.141031
613.856682	43185.959393
614.205340	43010.262578
614.553945	43703.746386
614.902496	43027.601627
615.250994	43457.470897
615.599439	43503.279862
615.947830	43626.513389
616.296169	43629.172598
616.644454	43666.656097
616.992686	43816.469107
617.340864	44274.737718
617.688990	43806.807736
618.037063	44491.378784
618.385082	44307.006144
618.733048	44639.192976
619.080961	44491.283002
619.428821	44538.790836
619.776628	44543.300148
620.124382	44358.350296
620.472083	44458.550790
620.819731	44566.799487
621.167326	44116.198471
621.514868	44101.765647
621.862357	43572.129421
622.209793	43677.877705
622.557176	43218.956265
622.904506	42984.822395
623.251783	42625.693116
623.599007	42299.648929
623.946179	42230.622930
624.293297	41962.143679
624.640363	41434.397886
624.987376	41258.874991
625.334336	41054.241954
625.681243	40649.172639
626.028097	40565.610473
626.374899	40381.608358
626.721647	40357.128515
627.068343	40147.711422
627.414987	39855.130415
627.761577	39603.786046
628.108115	39920.292369
628.454600	39162.644755
628.801032	39397.408769
629.147412	39278.404771
629.493739	39195.434940
629.840014	38766.924260
630.186236	39195.497954
630.532405	38642.417842
630.878521	38872.503666
631.224585	38646.057556
631.570597	38300.708270
631.916556	38486.000921
632.262462	38352.536373
632.608316	38300.998137
632.954117	38152.395003
633.299866	38104.982952
633.645562	38026.976137
633.991206	37480.991449
634.336797	37086.115348
634.682336	36989.247056
635.027823	36744.350323
635.373257	36622.331714
635.718639	36288.753523
636.063968	36178.896699
636.409245	35516.589906
636.754470	35490.285166
637.099642	35255.528713
637.444762	34687.551992
637.789829	34823.942930
638.134845	34452.820745
638.479808	34362.468145
638.824719	34330.595450
639.169577	33829.096424
639.514383	33901.147115
639.859137	33526.143242
640.203839	33700.191599
640.548489	33399.985847
640.893086	33379.997672
641.237632	33123.218939
641.582125	33221.594536
641.926566	33017.707589
642.270955	33056.642941
642.615292	32981.035715
642.959576	32857.653475
643.303809	32880.936044
643.647990	32952.250727
643.992118	32911.556012
644.336195	32760.583537
644.680219	32840.395085
645.024192	33054.003897
645.368112	33566.490117
645.711981	33592.525156
646.055797	34318.022812
646.399562	34130.779235
646.743274	35007.367833
647.086935	35389.499897
647.430544	35358.194332
647.774101	35399.085651
648.117606	35671.870048
648.461059	35807.550183
648.804460	35410.675264
649.147810	34915.727218
649.491108	34552.933019
649.834354	34399.379473
650.177548	33589.238324
650.520690	33084.228134
650.863781	33082.982969
651.206820	32906.328336
651.549807	32486.992556
651.892742	31907.398495
652.235626	31812.496254
652.578458	31686.162418
652.921238	31009.490857
653.263967	31307.647381
653.606644	31010.345333
653.949269	30919.889389
654.291843	30532.471675
654.634365	30900.841389
654.976836	30426.408318
655.319255	30514.875527
655.661622	30377.851925
656.003938	30248.921894
656.346203	30049.219105
656.688416	30313.935135
657.030577	30083.932491
657.372687	29907.965975
657.714746	30087.405846
658.056753	30259.863719
658.398708	29627.219076
658.740612	29714.274762
659.082465	29899.789223
659.424266	29799.755087
659.766016	29806.782455
660.107715	29665.120991
660.449362	29776.838001
660.790958	29769.009089
661.132503	29684.063127
661.473996	29764.827452
661.815438	29830.077627
662.156829	29959.390785
662.498168	29772.074111
662.839456	29751.269269
663.180693	29860.453100
663.521879	29961.319026
663.863013	29910.738609
664.204097	29893.054242
664.545129	30302.761417
664.886110	30240.682128
665.227040	30342.805823
665.567918	30337.996562
665.908746	30414.692677
666.249522	30501.944968
666.590248	30525.068740
666.930922	30621.745468
667.271545	30613.679622
667.612118	30672.766986
667.952639	30486.423255
668.293109	30519.911640
668.633528	30391.944470
668.973896	30348.086432
669.314213	30329.739152
669.654480	30139.274278
669.994695	30112.765370
670.334859	30039.056139
670.674973	29865.126249
671.015035	30069.807178
671.355047	29995.266156
671.695008	29925.993141
672.034918	29840.822847
672.374777	29936.246848
672.714585	29810.550718
673.054342	29941.794637
673.394049	29794.424067
673.733705	30018.095022
674.073310	29738.673946
674.412864	29789.254363
674.752368	29481.270110
675.091820	29712.154956
675.431223	29295.856472
675.770574	29113.149933
676.109875	28949.541805
676.449125	28747.207534
676.788324	28643.377409
677.127473	28145.349218
677.466571	28061.285457
677.805619	27790.288149
678.144616	27710.607672
678.483562	27674.888576
678.822458	27345.439090
679.161303	27295.226677
679.500098	27218.520480
679.838842	27138.408984
680.177535	27216.146097
680.516179	27481.036046
680.854771	27599.475435
681.193314	28370.192241
681.531805	29378.475942
681.870247	30137.759411
682.208638	30854.263648
682.546978	31125.412190
682.885268	31260.512593
683.223508	30824.548567
683.561697	30558.549564
683.899836	30392.103267
684.237925	29975.056171
684.575963	29835.073411
684.913951	29472.881630
685.251889	29639.453956
685.589776	29665.907411
685.927614	29661.365331
686.265401	29850.907675
686.603137	29960.908172
686.940824	30464.204369
687.278460	30801.460082
687.616046	30969.093571
687.953582	31627.032204
688.291068	31539.104398
688.628504	31877.080996
688.965889	31865.693030
689.303224	31607.371704
689.640510	31308.537145
689.977745	30669.896049
690.314930	29947.566759
690.652065	29492.562295
690.989150	28833.610390
691.326185	28001.910747
691.663170	27356.398558
692.000105	26621.582330
692.336990	26009.331674
692.673825	25592.201399
693.010610	25097.283600
693.347345	24596.999492
693.684030	23978.452436
694.020665	23772.944758
694.357251	23094.982663
694.693786	23111.777267
695.030272	22881.933419
695.366707	22376.391388
695.703093	22104.670675
696.039429	22177.023835
696.375716	21934.299839
696.711952	21924.386410
697.048139	21802.130868
697.384276	21636.259262
697.720363	21756.137901
698.056400	21637.569962
698.392388	21487.358701
698.728326	21483.015747
699.064214	21322.265954
699.400053	21328.582520
699.735842	20949.283584
700.071581	20739.720298
700.407270	20489.250569
700.742910	20307.862292
701.078501	20064.508152
701.414042	19859.239929
701.749533	19563.039373
702.084974	19245.476927
702.420366	19473.949581
702.755709	19069.354135
703.091002	18763.124204
703.426246	18825.957145
703.761440	18766.090923
704.096584	18528.481177
704.431679	18456.090208
704.766725	18409.968692
705.101721	18335.165530
705.436668	18456.775805
705.771565	18179.600564
706.106413	18500.059152
706.441212	18570.728567
706.775961	18672.917797
707.110661	18755.038193
707.445311	19127.604668
707.779913	18994.644235
708.114465	19294.113980
708.448967	19598.256873
708.783421	20230.863708
709.117825	20596.498596
709.452180	20820.076290
709.786485	21282.304727
710.120742	22029.691073
710.454949	22147.669197
710.789107	22658.461589
711.123216	23369.481051
711.457275	23577.973092
711.791286	24133.372135
712.125247	24291.581187
712.459159	24020.107490
712.793023	24769.845534
713.126837	23746.468618
713.460602	23990.697399
713.794318	23656.877232
714.127985	23398.349219
714.461602	22486.427173
714.795171	22471.260862
715.128691	21501.947800
715.462162	20977.612348
715.795584	20548.206863
716.128957	20274.641088
716.462281	19905.366486
716.795556	19620.639597
717.128782	19147.091248
717.461960	18540.438794
717.795088	18506.877313
718.128167	18151.629722
718.461198	17710.800982
718.794180	17574.215960
719.127113	17245.893172
719.459997	17050.671969
719.792833	16684.464909
720.125619	16731.985346
720.458357	16397.993780
720.791046	16256.859117
721.123686	16114.267559
721.456278	15890.505864
721.788821	15882.845830
722.121315	15610.358862
722.453761	15724.654423
722.786158	15604.848881
723.118506	15678.290931
723.450805	15567.246914
723.783056	15746.273411
724.115259	15636.207378
724.447412	15627.682787
724.779518	15855.442118
725.111574	15899.567338
725.443582	16160.063922
725.775542	16124.120495
726.107453	16635.013711
726.439315	16553.488171
726.771129	16967.802961
727.102895	17403.451915
727.434612	17668.833377
727.766281	17830.581318
728.097901	18157.217841
728.429473	18232.452021
728.760996	18253.529085
729.092471	18378.499289
729.423897	18270.053987
729.755276	18140.090521
730.086606	18258.108973
730.417887	18837.604731
730.749120	19385.684019
731.080305	19596.673951
731.411442	19998.232102
731.742530	20112.386510
732.073570	20279.198291
732.404562	20600.801221
732.735506	20435.733680
733.066401	20229.283306
733.397249	19749.030223
733.728048	19114.132184
734.058798	18248.145133
734.389501	17499.206112
734.720156	16972.924773
735.050762	16405.205151
735.381320	16020.623086
735.711831	15744.690489
736.042293	15383.111208
736.372707	15420.224183
736.703073	15206.817017
737.033391	15413.244706
737.363661	15401.357665
737.693883	15524.381983
738.024056	15730.623149
738.354182	15942.127279
738.684260	16305.670089
739.014290	16582.270638
739.344272	16804.053681
739.674207	17161.126170
740.004093	17326.256726
740.333931	17382.163122
740.663722	17465.246379
740.993464	17500.847007
741.323159	17344.961927
741.652806	17047.899334
741.982405	16884.797843
742.311956	16526.233172
742.641460	16410.944504
742.970915	16087.650267
743.300323	15739.349386
743.629683	15522.874678
743.958996	15213.307503
744.288260	14895.543411
744.617477	14584.146297
744.946647	14561.461105
745.275768	14236.846085
745.604842	14033.911917
745.933869	13857.879865
746.262847	13831.741483
746.591778	13755.468825
746.920662	13631.569866
747.249498	13647.610818
747.578286	13807.836331
747.907027	13976.505777
748.235720	14247.263630
748.564365	14311.818125
748.892963	14232.120003
749.221514	14334.581455
749.550017	14195.334704
749.878473	14174.640767
750.206881	13946.573926
750.535242	13878.730078
750.863555	13801.267708
751.191821	13696.744424
751.520039	13719.689236
751.848210	13640.606135
752.176334	13688.865100
752.504411	13602.696658
752.832440	13433.134927
753.160421	13552.096076
753.488356	13441.175568
753.816243	13346.364067
754.144082	13183.643182
754.471875	13133.377837
754.799620	13102.462962
755.127318	13090.359151
755.454969	13057.639542
755.782572	13040.978529
756.110129	13040.207232
756.437638	12952.846557
756.765100	12957.083646
757.092515	12981.198006
757.419882	13021.476825
757.747203	13035.889484
758.074477	13120.122123
758.401703	13103.193929
758.728882	13299.262046
759.056014	13342.673942
759.383099	13520.147763
759.710138	13644.460097
760.037129	13766.259415
760.364073	13822.271675
760.690970	13853.400800
761.017820	13868.831772
761.344623	14094.194034
761.671379	14471.549605
761.998088	15177.583366
762.324751	16923.529028
762.651366	20337.118628
762.977935	24810.459590
763.304456	27783.686758
763.630931	28855.264667
763.957359	27652.498291
764.283740	25394.658745
764.610074	23137.348520
764.936362	20495.725931
765.262602	18619.753788
765.588796	16694.602670
765.914943	15395.031017
766.241044	14293.299447
766.567097	13511.275333
766.893104	12789.800518
767.219064	12329.691886
767.544978	11843.321363
767.870845	11458.477157
768.196665	11247.071330
768.522438	11001.287353
768.848165	10801.662702
769.173846	10594.597308
769.499479	10468.175252
769.825066	10302.379263
770.150607	10071.930477
770.476101	9982.664245
770.801548	9860.116316
771.126949	9703.396925
771.452303	9591.168238
771.777611	9394.222960
772.102872	9384.080158
772.428087	9246.839786
772.753256	9087.330117
773.078378	9005.396243
773.403453	8821.474786
773.728482	8704.590593
774.053465	8629.318604
774.378401	8530.562401
774.703291	8404.024398
775.028135	8289.582644
775.352932	8249.185358
775.677683	8140.309037
776.002388	8032.698047
776.327046	8045.437042
776.651658	7951.467414
776.976224	7850.757763
777.300743	7845.376332
777.625216	7756.760409
777.949643	7714.576033
778.274024	7733.533292
778.598359	7644.667832
778.922647	7667.675658
779.246889	7611.693645
779.571086	7618.103472
779.895236	7628.573949
780.219339	7638.585680
780.543397	7639.382183
780.867409	7721.827733
781.191374	7730.979948
781.515294	7693.267076
781.839167	7793.369268
782.162995	7765.012777
782.486776	7706.220321
782.810511	7658.669637
783.134201	7569.758807
783.457844	7568.112870
783.781441	7514.056577
784.104993	7445.930424
784.428498	7426.615243
784.751958	7405.442397
785.075372	7379.472893
785.398739	7325.588000
785.722061	7374.015844
786.045337	7372.931996
786.368568	7532.855040
786.691752	7551.862711
787.014891	7901.370948
787.337983	8248.444308
787.661030	8843.802057
787.984031	9473.142223
788.306987	9880.863185
788.629897	10088.352036
788.952760	10035.150219
789.275579	9815.665942
789.598351	9416.474613
789.921078	9058.146877
790.243759	8653.090165
790.566395	8365.673820
790.888984	8107.957432
791.211529	7905.413953
791.534027	7677.649581
791.856480	7474.465876
792.178888	7402.067345
792.501249	7307.074362
792.823566	7149.041751
793.145836	7152.608367
793.468062	7119.545960
793.790241	7076.232366
794.112375	7137.174875
794.434464	7294.521889
794.756507	7331.927251
795.078505	7491.018504
795.400457	7805.352091
795.722364	8157.005339
796.044226	8442.823638
796.366042	8722.043068
796.687812	8669.920057
797.009538	8745.023167
797.331218	8642.891911
797.652852	8557.562821
797.974442	8410.542610
798.295986	8322.342582
798.617484	8122.123075
798.938938	7980.862382
799.260346	7882.638020
799.581709	7682.163935
799.903026	7603.514373
800.224299	7493.960017
800.545526	7326.397105
800.866708	7233.657518
801.187845	7162.579769
801.508936	7058.656383
801.829983	7017.596185
802.150984	6863.909048
802.471940	6820.328273
802.792851	6802.802702
803.113717	6771.978567
803.434538	6740.604946
803.755314	6681.573034
804.076045	6681.033631
804.396731	6631.526979
804.717372	6656.147975
805.037967	6663.331619
805.358518	6704.918618
805.679024	6789.995650
805.999485	6797.267515
806.319901	6845.135791
806.640272	6862.081630
806.960598	6946.672191
807.280879	6944.885102
807.601115	7023.867380
807.921306	6967.779503
808.241453	6982.209805
808.561554	7004.910121
808.881611	6965.626930
809.201623	6972.855944
809.521590	6922.812410
809.841513	6902.166365
810.161390	6944.360822
810.481223	6809.643548
810.801011	6793.574870
811.120755	6777.707838
811.440453	6695.940323
811.760107	6662.295662
812.079716	6630.732998
812.399281	6561.351597
812.718801	6553.535288
813.038276	6510.526684
813.357707	6449.503517
813.677093	6486.112376
813.996434	6395.595938
814.315731	6436.898112
814.634983	6432.744201
814.954191	6444.056550
815.273354	6545.872734
815.592473	6612.519309
815.911547	6737.975984
816.230577	6819.413304
816.549562	6964.119625
816.868502	7066.137455
817.187399	7168.135121
817.506250	7319.664644
817.825058	7353.112700
818.143821	7622.403576
818.462539	7894.709063
818.781213	8262.947708
819.099843	8805.171695
819.418429	9812.681579
819.736970	10776.845102
820.055466	11964.634209
820.373919	13495.360410
820.692327	15840.749675
821.010691	19979.647888
821.329011	28950.113976
821.647286	41951.668161
821.965517	55435.088598
822.283704	60856.864683
822.601847	62876.040883
822.919945	60200.813963
823.237999	56039.031432
823.556010	49905.210010
823.873976	43162.820496
824.191897	36620.201827
824.509775	31756.836874
824.827609	27204.322070
825.145398	24610.630772
825.463144	23216.499676
825.780845	23515.598896
826.098502	25273.555106
826.416116	29050.334635
826.733685	32706.814590
827.051210	33894.772576
827.368692	32125.004942
827.686129	28173.042796
828.003522	24047.969947
828.320872	20325.541618
828.638177	17463.454248
828.955439	15306.639425
829.272656	13485.769615
829.589830	12002.084941
829.906960	10722.352749
830.224046	9776.392833
830.541088	9019.473665
830.858086	8560.350579
831.175041	8182.732867
831.491952	8060.636121
831.808819	8103.559026
832.125642	8505.989296
832.442421	9392.357733
832.759157	11179.933243
833.075849	14100.659314
833.392497	17330.040112
833.709101	19529.200627
834.025662	19383.405417
834.342179	17695.554013
834.658653	15502.808365
834.975083	13570.087954
835.291469	11947.380860
835.607811	10615.747469
835.924110	9710.124345
836.240366	8834.435593
836.556578	8027.987088
836.872746	7378.467183
837.188871	6876.774073
837.504952	6457.307223
837.820990	6142.492206
838.136984	5922.402991
838.452935	5828.909752
838.768842	5857.430080
839.084706	6276.017248
839.400526	7479.670867
839.716303	9069.101304
840.032037	10172.541826
840.347727	10113.746848
840.663373	9136.705698
840.978977	8083.233093
841.294537	7273.986749
841.610054	6674.833011
841.925527	6237.253296
842.240957	5876.798193
842.556344	5546.519437
842.871687	5259.695427
843.186987	4975.722190
843.502244	4747.864557
843.817458	4586.025874
844.132629	4447.316005
844.447756	4358.458107
844.762840	4274.580869
845.077881	4199.553376
845.392879	4137.000219
845.707833	4088.209411
846.022745	4043.572514
846.337613	4018.092002
846.652438	3970.521154
846.967221	3956.640337
847.281960	3922.418464
847.596656	3903.897265
847.911309	3883.853637
848.225919	3863.084083
848.540485	3842.795960
848.855009	3831.796162
849.169490	3810.429231
849.483928	3798.451450
849.798323	3787.612969
850.112675	3770.132768
850.426984	3777.341618
850.741251	3762.414762
851.055474	3756.952671
851.369654	3762.024072
851.683792	3759.049791
851.997887	3763.664968
852.311938	3770.137809
852.625947	3771.468674
852.939914	3758.631376
853.253837	3770.629322
853.567718	3768.259979
853.881555	3753.333123
854.195350	3769.742079
854.509103	3768.625463
854.822812	3765.119341
855.136479	3760.060543
855.450103	3768.738889
855.763685	3754.825304
856.077224	3757.408896
856.390720	3772.247532
856.704173	3794.176551
857.017584	3808.740445
857.330953	3817.496929
857.644278	3835.695494
857.957561	3843.801670
858.270802	3844.961135
858.584000	3850.662680
858.897155	3842.939632
859.210268	3828.053105
859.523339	3804.339518
859.836367	3803.754744
860.149352	3795.179741
860.462295	3787.350829
860.775195	3775.511679
861.088054	3774.478243
861.400869	3772.338273
861.713642	3774.896658
862.026373	3781.452679
862.339062	3787.184471
862.651708	3807.492759
862.964312	3842.614478
863.276873	3855.938248
863.589392	3908.603182
863.901869	3955.412816
864.214303	4002.131709
864.526696	4033.331410
864.839045	4079.089964
865.151353	4109.392340
865.463619	4117.039770
865.775842	4122.706027
866.088023	4140.541629
866.400162	4131.180207
866.712258	4141.297802
867.024313	4143.299140
867.336325	4143.062206
867.648296	4145.842403
867.960224	4146.492711
868.272110	4156.804392
868.583954	4158.503260
868.895755	4171.663193
869.207515	4168.046165
869.519233	4213.149368
869.830909	4228.305597
870.142542	4251.867950
870.454134	4261.529322
870.765684	4288.935554
871.077191	4329.731092
871.388657	4355.985421
871.700081	4395.198036
872.011463	4436.301084
872.322803	4470.081856
872.634101	4500.328779
872.945357	4540.511817
873.256571	4594.936113
873.567744	4626.292090
873.878874	4646.013084
874.189963	4686.896842
874.501010	4691.496895
874.812015	4690.836504
875.122979	4735.876693
875.433900	4731.543821
875.744780	4746.543774
876.055618	4771.179893
876.366415	4771.295840
876.677169	4793.164365
876.987882	4838.617929
877.298554	4891.068614
877.609183	4974.383763
877.919771	5080.915947
878.230317	5227.091765
878.540822	5445.650990
878.851285	5766.671667
879.161707	6227.418005
879.472087	6985.685681
879.782425	8226.144764
880.092722	10410.335573
880.402977	13720.987333
880.713191	17503.838932
881.023363	21244.909448
881.333494	23495.857737
881.643583	24716.442071
881.953631	24716.051382
882.263637	23866.107802
882.573602	22397.919635
882.883526	20833.929381
883.193408	19151.219953
883.503248	17444.620498
883.813048	15889.200205
884.122806	14447.231079
884.432522	12977.119712
884.742197	11691.675893
885.051831	10599.686353
885.361424	9592.635213
885.670975	8767.572249
885.980485	8071.275477
886.289954	7487.562793
886.599382	7019.292533
886.908768	6643.832436
887.218113	6270.587926
887.527417	5983.920192
887.836680	5707.367533
888.145901	5493.247044
888.455082	5329.369214
888.764221	5175.908930
889.073319	5043.349269
889.382376	4967.774811
889.691392	4906.151746
890.000366	4883.151482
890.309300	4865.623390
890.618193	4866.424933
890.927044	4851.089743
891.235855	4877.094535
891.544625	4904.964554
891.853353	4971.626252
892.162041	5085.052214
892.470687	5272.313435
892.779293	5525.573443
893.087858	5894.376696
893.396381	6474.351364
893.704864	7275.952799
894.013306	8437.303575
894.321707	9619.933062
894.630068	10446.531058
894.938387	10658.879581
895.246665	10425.834601
895.554903	9817.052259
895.863100	9117.203994
896.171256	8554.800268
896.479371	8042.470323
896.787446	7541.001545
897.095480	7113.725947
897.403473	6789.594879
897.711425	6471.430015
898.019336	6201.514036
898.327207	5927.560092
898.635038	5698.018713
898.942827	5451.518893
899.250576	5253.149489
899.558284	5061.096651
899.865952	4936.743988
900.173579	4789.625475
900.481165	4680.292930
900.788711	4586.600566
901.096216	4513.282024
901.403681	4452.306748
901.711105	4422.422788
902.018489	4411.889297
902.325832	4480.658197
902.633135	4604.025314
902.940397	4947.075833
903.247619	5741.717955
903.554800	7180.362440
903.861941	9104.157488
904.169041	10646.657304
904.476101	11282.944180
904.783121	10936.006932
905.090100	10187.806439
905.397039	9353.238379
905.703938	8590.526926
906.010796	7891.391984
906.317614	7340.507294
906.624391	6798.114429
906.931129	6367.461258
907.237826	5964.335309
907.544483	5592.096509
907.851099	5219.401484
908.157675	4859.369838
908.464211	4531.445301
908.770707	4296.333448
909.077163	4094.415072
909.383578	3949.870067
909.689954	3833.069053
909.996289	3760.710852
910.302584	3700.075853
910.608839	3667.394053
910.915054	3634.850884
911.221229	3621.428812
911.527363	3630.361737
911.833458	3644.144251
912.139513	3669.927233
912.445527	3700.325390
912.751502	3782.264305
913.057436	3889.633320
913.363331	4023.072662
913.669186	4224.113878
913.975000	4483.821521
914.280775	4903.991612
914.586510	5488.331919
914.892205	6285.789525
915.197859	7328.201838
915.503475	8558.994508
915.809050	9623.164441
916.114585	10275.199883
916.420081	10543.626201
916.725536	10504.751343
917.030952	10069.760260
917.336328	9664.600205
917.641665	9243.316019
917.946961	8762.175693
918.252218	8335.547885
918.557435	7823.389339
918.862612	7389.814820
919.167750	7015.998139
919.472848	6586.396049
919.777906	6213.612805
920.082925	5852.242733
920.387904	5477.236339
920.692843	5213.962079
920.997743	4965.448318
921.302603	4733.156990
921.607423	4563.305394
921.912204	4400.952513
922.216946	4279.929533
922.521647	4162.016945
922.826310	4054.867220
923.130932	3962.205771
923.435516	3860.450080
923.740059	3790.405768
924.044564	3716.116805
924.349028	3652.666322
924.653454	3593.107610
924.957840	3518.944675
925.262186	3473.178560
925.566493	3410.025505
925.870761	3355.006352
926.174989	3317.059066
926.479178	3282.527162
926.783328	3238.447313
927.087438	3209.324567
927.391509	3176.189063
927.695541	3144.823004
927.999533	3118.225876
928.303486	3096.538832
928.607400	3083.031061
928.911275	3068.487332
929.215110	3051.412944
929.518906	3041.897766
929.822663	3042.820297
930.126381	3038.908362
930.430060	3043.205945
930.733699	3050.220711
931.037299	3057.074159
931.340861	3055.763459
931.644383	3063.567166
931.947866	3061.923749
932.251309	3058.682288
932.554714	3057.611042
932.858080	3051.823798
933.161407	3042.112015
933.464694	3033.531971
933.767943	3031.886034
934.071153	3021.990249
934.374323	3013.016995
934.677455	3007.139010
934.980548	3000.817403
935.283602	2996.867659
935.586617	2991.403048
935.889593	3001.313957
936.192530	3006.309740
936.495428	3018.353057
936.798287	3041.970863
937.101108	3074.945050
937.403890	3126.574027
937.706632	3189.006197
938.009336	3269.757920
938.312002	3341.047397
938.614628	3405.788415
938.917216	3456.653657
939.219765	3489.181703
939.522275	3522.463400
939.824747	3529.447919
940.127179	3522.115561
940.429573	3521.130015
940.731929	3515.551978
941.034246	3504.723580
941.336524	3489.834532
941.638763	3473.566728
941.940964	3463.320583
942.243126	3416.710075
942.545250	3395.239801
942.847335	3358.265458
943.149381	3322.831187
943.451389	3290.245169
943.753359	3255.158738
944.055290	3227.329048
944.357182	3207.197200
944.659036	3189.238090
944.960851	3183.798685
945.262628	3165.257321
945.564367	3169.181859
945.866067	3163.107269
946.167729	3158.774397
946.469352	3157.531753
946.770937	3153.488747
947.072484	3137.178094
947.373992	3139.900317
947.675462	3130.022176
947.976893	3116.098509
948.278286	3106.432097
948.579641	3102.593258
948.880958	3093.708224
949.182236	3098.371292
949.483476	3090.370981
949.784678	3091.520364
950.085841	3090.602874
950.386967	3101.660645
950.688054	3119.438274
950.989103	3139.494504
951.290114	3161.123575
951.591087	3190.324458
951.892021	3215.699106
952.192917	3244.978128
952.493776	3272.462499
952.794596	3277.601955
953.095378	3280.001544
953.396122	3276.840741
953.696828	3272.873353
953.997496	3260.076384
954.298126	3235.962024
954.598718	3213.581822
954.899272	3188.676001
955.199788	3160.914367
955.500266	3129.041672
955.800706	3097.093359
956.101108	3054.538459
956.401472	3023.895805
956.701798	2992.333141
957.002087	2951.976184
957.302337	2924.232194
957.602550	2893.685322
957.902724	2865.928729
958.202861	2838.882939
958.502960	2819.504743
958.803022	2798.591517
959.103045	2779.004113
959.403031	2760.326638
959.702979	2745.545975
960.002889	2733.749675
960.302762	2720.554455
960.602596	2709.370655
960.902393	2700.641897
961.202153	2690.355423
961.501875	2684.084227
961.801559	2677.014009
962.101205	2672.124090
962.400814	2666.316681
962.700385	2658.823006
962.999918	2652.153559
963.299414	2644.710295
963.598873	2648.057622
963.898293	2637.088071
964.197677	2636.011784
964.497022	2637.718215
964.796331	2634.287710
965.095601	2631.860394
965.394835	2630.305198
965.694030	2627.706483
965.993189	2627.005763
966.292309	2622.345216
966.591393	2624.404528
966.890439	2625.566514
967.189447	2621.843622
967.488419	2620.530401
967.787353	2624.265896
968.086249	2625.805968
968.385108	2627.141874
968.683930	2629.796042
968.982714	2631.948614
969.281462	2638.008081
969.580172	2644.097795
969.878844	2649.106182
970.177480	2657.724034
970.476078	2664.559839
970.774639	2674.148113
971.073162	2680.794875
971.371649	2685.374763
971.670098	2691.388859
971.968510	2695.063861
972.266885	2701.400591
972.565223	2705.294882
972.863524	2705.506611
973.161788	2710.678835
973.460014	2714.699155
973.758204	2717.370966
974.056356	2717.023127
974.354471	2722.989332
974.652550	2720.025134
974.950591	2718.187633
975.248595	2719.374825
975.546563	2717.108826
975.844493	2713.701006
976.142386	2708.309492
976.440243	2703.230530
976.738062	2697.274407
977.035845	2691.053623
977.333590	2685.389886
977.631299	2679.411078
977.928971	2670.581497
978.226606	2666.956907
978.524204	2663.944818
978.821765	2660.438695
979.119290	2660.133706
979.416777	2660.325269
979.714228	2663.269303
980.011642	2668.668379
980.309020	2675.473937
980.606360	2689.831143
980.903664	2714.658826
981.200931	2747.955647
981.498162	2799.962710
981.795356	2870.196066
982.092513	2961.877010
982.389633	3068.983885
982.686717	3164.886796
982.983764	3241.577870
983.280775	3289.239459
983.577749	3301.441572
983.874686	3287.200312
984.171587	3251.219076
984.468451	3211.547716
984.765279	3167.848474
985.062070	3120.897688
985.358824	3075.391192
985.655543	3018.156452
985.952224	2966.351034
986.248869	2901.030283
986.545478	2840.922085
986.842050	2789.482152
987.138586	2741.056828
987.435086	2702.854964
987.731549	2669.784995
988.027975	2646.376397
988.324366	2627.260341
988.620719	2613.863475
988.917037	2601.835282
989.213318	2593.018304
989.509563	2586.079156
989.805772	2582.131932
990.101944	2577.370562
990.398080	2575.641447
990.694180	2573.589697
990.990244	2573.332598
991.286271	2575.144893
991.582262	2575.911148
991.878217	2578.288052
992.174136	2583.581264
992.470019	2582.825091
992.765865	2585.801892
993.061676	2590.964034
993.357450	2601.840323
993.653188	2607.468771
993.948890	2627.207409
994.244556	2646.041160
994.540186	2667.493790
994.835780	2700.291537
995.131337	2733.414438
995.426859	2779.200718
995.722345	2826.038079
996.017795	2877.735111
996.313208	2915.306831
996.608586	2943.696089
996.903928	2954.093469
997.199234	2956.724951
997.494504	2954.428705
997.789738	2940.215172
998.084936	2914.555699
998.380099	2883.126625
998.675225	2853.774507
998.970316	2823.451967
999.265371	2785.678601
999.560390	2749.856162
999.855373	2720.322562
1000.150320	2690.357943
1000.445232	2664.307781
1000.740108	2642.633340
1001.034948	2622.932511
1001.329752	2610.120418
1001.624521	2595.231370
1001.919254	2585.900195
1002.213951	2579.412230
1002.508613	2569.791187
1002.803239	2562.136195
1003.097829	2556.754764
1003.392384	2552.028682
1003.686903	2547.592467
1003.981386	2547.365615
1004.275834	2539.970242
1004.570246	2538.755324
1004.864623	2535.105528
1005.158964	2529.882893
1005.453270	2530.785260
1005.747540	2529.638397
1006.041775	2529.035979
1006.335974	2523.936852
1006.630138	2526.296112
1006.924266	2523.939373
1007.218359	2523.097500
1007.512416	2521.716224
1007.806438	2520.849145
1008.100425	2519.669515
1008.394376	2516.060049
1008.688292	2521.370905
1008.982172	2520.367715
1009.276017	2521.741430
1009.569827	2515.513084
1009.863602	2517.388393
1010.157341	2515.818074
1010.451045	2515.558454
1010.744714	2514.824967
1011.038347	2515.162724
1011.331945	2513.776407
1011.625508	2513.247085
1011.919036	2511.034019
1012.212528	2508.889008
1012.505986	2509.975377
1012.799408	2508.636950
1013.092795	2510.086282
1013.386147	2508.331960
1013.679464	2510.466889
1013.972745	2507.205262
1014.265992	2507.177536
1014.559204	2507.248112
1014.852380	2508.342043
1015.145521	2507.976559
1015.438628	2508.218534
1015.731699	2508.644512
1016.024736	2511.149965
1016.317737	2512.138032
1016.610703	2513.020233
1016.903635	2512.788340
1017.196531	2516.309586
1017.489393	2514.492250
1017.782219	2516.218846
1018.075011	2518.842766
1018.367768	2519.528363
1018.660490	2520.297139
1018.953177	2520.297139
1019.245829	2520.297139
