Dividing Wavelength (nm)	Counts (n)	Blue Motor Position (mm): 42.400000	Red Motor Position (mm): 0.000000	
326.493990	2050.196940
326.888308	2050.196940
327.282561	2050.196940
327.676750	2022.969668
328.070874	2025.228105
328.464933	2030.246574
328.858929	2040.689324
329.252859	2050.098637
329.646726	2061.431151
330.040528	2081.283215
330.434265	2094.115472
330.827938	2120.846191
331.221547	2139.672380
331.615091	2159.746254
332.008571	2180.972033
332.401986	2199.069775
332.795338	2219.352857
333.188625	2239.716598
333.581847	2260.733169
333.975006	2278.772938
334.368100	2296.686678
334.761129	2313.572023
335.154095	2325.827068
335.546996	2379.525438
335.939833	2486.067704
336.332606	2499.036073
336.725315	2510.456807
337.117960	2519.256141
337.510540	2530.487832
337.903056	2540.411343
338.295508	2543.428473
338.687896	2553.538508
339.080220	2555.917932
339.472480	2560.719631
339.864676	2565.112997
340.256807	2566.219530
340.648875	2570.983420
341.040879	2569.846640
341.432818	2575.076837
341.824694	2574.184553
342.216506	2571.976528
342.608253	2574.587845
342.999937	2573.206569
343.391557	2570.799418
343.783113	2570.837227
344.174605	2568.510734
344.566033	2565.531413
344.957397	2566.995868
345.348697	2562.118551
345.739934	2560.207954
346.131106	2562.942780
346.522215	2558.098231
346.913260	2557.563869
347.304241	2555.116389
347.695159	2553.717468
348.086012	2552.270657
348.476802	2550.319731
348.867528	2547.337888
349.258191	2543.806560
349.648789	2545.419729
350.039324	2539.541744
350.429796	2545.167672
350.820203	2543.945192
351.210548	2542.561395
351.600828	2543.342774
351.991045	2541.656508
352.381198	2539.582073
352.771288	2541.202804
353.161314	2540.802032
353.551276	2536.416228
353.941175	2540.348328
354.331010	2537.258101
354.720782	2544.134235
355.110490	2546.027188
355.500135	2541.898483
355.889717	2542.730274
356.279235	2542.798329
356.668689	2544.154400
357.058080	2542.967208
357.447408	2543.325130
357.836672	2542.954605
358.225873	2540.136600
358.615010	2547.534493
359.004084	2546.080120
359.393095	2546.637168
359.782043	2547.441232
360.170927	2548.837632
360.559748	2549.180430
360.948505	2549.326623
361.337199	2550.412992
361.725830	2553.225956
362.114398	2550.264278
362.502903	2550.155893
362.891344	2550.687735
363.279722	2550.440718
363.668037	2552.515153
364.056289	2554.082952
364.444478	2553.256203
364.832603	2552.570606
365.220665	2552.989022
365.608665	2555.209650
365.996601	2555.817109
366.384474	2555.980947
366.772284	2555.610422
367.160031	2552.936090
367.547715	2558.814075
367.935336	2551.975750
368.322893	2555.534804
368.710388	2549.699669
369.097820	2556.341389
369.485189	2551.675801
369.872495	2558.947666
370.259738	2557.556307
370.646918	2560.744837
371.034035	2560.664178
371.421090	2558.574620
371.808081	2558.178890
372.195010	2558.683005
372.581875	2561.437996
372.968678	2563.232646
373.355418	2561.470763
373.742096	2561.979920
374.128710	2563.565362
374.515262	2565.740620
374.901751	2562.723490
375.288177	2565.899417
375.674540	2565.758264
376.060841	2566.038048
376.447079	2563.870352
376.833254	2566.332956
377.219367	2562.831875
377.605417	2568.382185
377.991404	2567.119376
378.377329	2567.694068
378.763191	2568.951835
379.148991	2570.524675
379.534727	2569.029973
379.920402	2568.775395
380.306013	2570.237330
380.691563	2572.899059
381.077049	2569.763461
381.462474	2569.897052
381.847835	2573.554409
382.233134	2572.357135
382.618371	2574.779409
383.003545	2576.241344
383.388657	2574.938206
383.773706	2576.458113
384.158693	2575.931313
384.543618	2579.878536
384.928480	2580.004565
385.313280	2575.283525
385.698017	2578.751838
386.082692	2582.830132
386.467305	2584.690318
386.851856	2588.942531
387.236344	2589.640731
387.620770	2587.536049
388.005133	2589.862542
388.389435	2593.295567
388.773674	2596.990733
389.157851	2607.418360
389.541965	2609.734770
389.926018	2618.050153
390.310008	2622.851852
390.693936	2628.828140
391.077802	2636.919192
391.461606	2648.007210
391.845348	2652.826553
392.229027	2663.176042
392.612645	2674.611899
392.996200	2685.846111
393.379694	2700.750282
393.763125	2713.101109
394.146494	2728.123747
394.529801	2745.248547
394.913047	2761.413007
395.296230	2774.557816
395.679351	2792.859725
396.062410	2815.804536
396.445408	2819.928200
396.828343	2847.989783
397.211217	2868.766899
397.594028	2879.262581
397.976778	2904.743093
398.359466	2932.320725
398.742092	2952.313941
399.124656	2973.673310
399.507158	3011.146727
399.889598	3031.185314
400.271977	3073.130234
400.654294	3088.757811
401.036549	3133.553504
401.418742	3154.718789
401.800874	3202.037579
402.182944	3237.580235
402.564952	3298.358906
402.946898	3319.120898
403.328783	3340.311388
403.710606	3390.629665
404.092367	3452.003193
404.474067	3504.582427
404.855705	3524.346271
405.237282	3529.326931
405.618797	3611.149899
406.000250	3682.225127
406.381642	3759.642127
406.762972	3787.635654
407.144240	3784.535345
407.525447	3853.838607
407.906593	3891.057446
408.287677	3970.011997
408.668700	4017.829862
409.049661	4068.712749
409.430560	4118.232003
409.811399	4132.574086
410.192176	4186.516952
410.572891	4271.951907
410.953545	4374.231878
411.334138	4314.968073
411.714669	4432.542904
412.095139	4387.802664
412.475547	4486.064834
412.855894	4516.031973
413.236180	4616.739104
413.616405	4575.469698
413.996568	4675.879400
414.376670	4700.906208
414.756711	4706.824523
415.136691	4782.663642
415.516609	4874.377353
415.896466	4919.624230
416.276262	5009.250904
416.655997	5124.451352
417.035670	5208.578127
417.415283	5343.502089
417.794834	5410.529271
418.174324	5376.206575
418.553753	5399.869751
418.933121	5553.168719
419.312428	5566.452159
419.691674	5523.383061
420.070859	5729.074741
420.449983	5628.745697
420.829045	5818.378782
421.208047	5759.969452
421.586988	5909.157359
421.965867	5985.024204
422.344686	6060.321399
422.723444	6224.715946
423.102141	5875.169900
423.480777	6233.651391
423.859352	6078.048616
424.237866	6419.508651
424.616319	6409.355767
424.994712	6569.397279
425.373044	6498.082596
425.751314	6788.052286
426.129524	6533.317741
426.507673	6787.449868
426.885762	6828.300858
427.263789	6863.062134
427.641756	6950.125382
428.019662	7020.361258
428.397508	7055.029273
428.775292	7053.557256
429.153016	7197.746859
429.530679	7148.807337
429.908282	7197.736776
430.285824	7139.307283
430.663305	7392.398412
431.040726	7296.271169
431.418086	7299.714277
431.795385	7436.664783
432.172624	7611.814633
432.549802	7488.024059
432.926920	7624.946838
433.303977	7582.114675
433.680974	7630.822303
434.057910	7812.593708
434.434786	7857.565842
434.811601	7822.035789
435.188355	8156.405442
435.565050	8050.700007
435.941683	8054.864000
436.318257	8371.080458
436.694770	8314.279257
437.071222	8526.781535
437.447614	8306.861199
437.823946	8275.575798
438.200218	8417.096110
438.576429	8319.529618
438.952580	8473.708268
439.328670	8478.515008
439.704700	8554.588540
440.080670	8455.250083
440.456580	8702.495994
440.832429	8693.406793
441.208218	8434.273842
441.583947	8552.814054
441.959616	8656.959251
442.335224	8689.144498
442.710773	8776.096840
443.086261	8952.633006
443.461689	8684.592336
443.837057	8836.625974
444.212365	9035.938074
444.587612	9034.183752
444.962800	8926.066126
445.337927	9066.066530
445.712995	8622.026575
446.088002	9260.818906
446.462949	9325.030603
446.837837	9328.297270
447.212664	9389.723730
447.587431	10288.241348
447.962139	11248.992009
448.336786	11995.675114
448.711374	11603.659868
449.085901	10468.364295
449.460369	10448.507190
449.834776	10365.045847
450.209124	11282.540888
450.583412	11047.940712
450.957640	11258.454255
451.331808	10854.788902
451.705917	10366.190189
452.079965	10299.314242
452.453954	10490.747018
452.827883	10452.381317
453.201752	10407.517568
453.575562	10426.862996
453.949311	10781.437593
454.323001	10861.377690
454.696632	10775.234453
455.070202	11364.026099
455.443713	11413.033676
455.817164	11566.869527
456.190556	11880.477187
456.563888	11712.700025
456.937160	11928.645412
457.310373	11439.840012
457.683526	11478.220836
458.056619	11520.601817
458.429653	11591.871129
458.802628	11764.122315
459.175542	11823.723877
459.548398	12371.717465
459.921194	12951.429992
460.293930	13275.550979
460.666607	14094.370475
461.039224	14822.492051
461.411782	15088.627165
461.784280	14691.790055
462.156719	14604.182363
462.529099	14512.488816
462.901419	13942.437659
463.273680	13589.294750
463.645882	13821.676819
464.018024	13778.680818
464.390106	14180.528835
464.762130	15345.957905
465.134094	17006.834095
465.505999	19265.974259
465.877845	21273.321391
466.249631	22156.594559
466.621358	21539.796783
466.993026	20715.434539
467.364634	20015.026706
467.736184	19313.688780
468.107674	18773.085524
468.479105	18617.656668
468.850477	18354.432820
469.221790	17930.801978
469.593043	17297.464176
469.964238	16962.295501
470.335373	17071.229794
470.706449	17941.955530
471.077467	19074.259178
471.448425	21399.398128
471.819324	22891.993041
472.190164	22360.158872
472.560945	20704.500276
472.931667	19296.132962
473.302330	19057.774605
473.672934	18610.588971
474.043479	19037.252068
474.413965	18845.602522
474.784393	18701.828814
475.154761	19321.747064
475.525070	19450.742630
475.895321	19295.454927
476.265513	19810.270160
476.635645	20394.242463
477.005719	20452.188006
477.375734	20824.409162
477.745691	21434.008170
478.115588	22096.337647
478.485427	23349.913813
478.855207	25218.306580
479.224928	26933.818796
479.594591	28104.236087
479.964194	27569.997288
480.333739	27958.420712
480.703226	28252.698068
481.072653	28757.367980
481.442022	29234.029240
481.811333	29549.996161
482.180584	29050.231292
482.549777	28821.773761
482.918912	28638.855494
483.287988	28587.776003
483.657005	28413.868798
484.025964	28080.149454
484.394864	28273.623898
484.763706	28212.033601
485.132489	27724.581750
485.501213	27801.676116
485.869879	27974.862436
486.238487	27947.584752
486.607036	28216.752121
486.975527	27947.274721
487.343959	28270.563917
487.712333	28594.483258
488.080648	28574.336286
488.448905	29010.214613
488.817104	28929.699824
489.185244	29831.181640
489.553326	30972.027523
489.921350	32902.323139
490.289315	35308.833874
490.657222	35954.961083
491.025070	36357.978648
491.392861	35971.430533
491.760593	35192.562181
492.128267	34191.625962
492.495883	33246.281066
492.863440	32413.099323
493.230939	31548.715358
493.598380	31028.357376
493.965763	30928.441707
494.333088	30473.747274
494.700354	30296.001230
495.067563	30286.463367
495.434713	30196.604800
495.801805	30497.319709
496.168839	30363.608144
496.535815	30226.720653
496.902733	30381.839477
497.269593	30203.589318
497.636395	30358.330056
498.003139	30650.439716
498.369825	30426.877146
498.736453	30828.057210
499.103023	30685.236280
499.469535	30790.225871
499.835989	30939.345722
500.202385	30809.614149
500.568723	30877.221063
500.935003	31213.314790
501.301226	31106.288573
501.667390	31797.942443
502.033497	31999.528103
502.399546	31804.712712
502.765537	31416.710224
503.131470	31883.541235
503.497345	32327.871055
503.863163	31320.164566
504.228923	32092.706270
504.594625	32491.965654
504.960269	31994.849912
505.325856	32663.437982
505.691385	32345.948633
506.056856	32673.248067
506.422270	33178.107022
506.787625	32708.657132
507.152924	33189.542879
507.518164	33378.878536
507.883347	32942.014664
508.248472	33125.353867
508.613540	33801.586847
508.978550	34050.818973
509.343503	33897.038575
509.708398	34270.575472
510.073236	34875.529057
510.438016	34984.677599
510.802738	34671.659754
511.167403	35252.118373
511.532010	35494.766751
511.896561	35989.344273
512.261053	36740.027533
512.625488	36529.269494
512.989866	36464.916644
513.354186	36528.278907
513.718449	36498.034505
514.082655	37386.275730
514.446803	37090.473425
514.810894	37717.275371
515.174927	37725.237873
515.538904	37731.199038
515.902822	38388.641117
516.266684	38083.739529
516.630488	38453.636713
516.994235	38477.446083
517.357925	39058.567613
517.721558	39318.217283
518.085133	39685.714878
518.448651	39884.595959
518.812112	39787.357142
519.175516	39937.069329
519.538863	40386.624306
519.902152	40448.945570
520.265385	40983.272590
520.628560	41023.314475
520.991678	40986.173774
521.354739	41201.350385
521.717743	41579.865421
522.080690	41483.818837
522.443580	42163.963753
522.806413	42186.858153
523.169189	42337.369363
523.531908	42557.839185
523.894569	42415.189655
524.257174	42632.090340
524.619722	42996.036442
524.982213	43109.613638
525.344647	43149.847087
525.707025	43270.958288
526.069345	43728.722783
526.431608	43623.473573
526.793815	44015.997976
527.155964	43570.100357
527.518057	43823.829192
527.880093	43688.234756
528.242072	44317.925283
528.603995	44026.909554
528.965860	43971.093898
529.327669	44204.443869
529.689421	44245.821659
530.051117	44208.375969
530.412755	44498.582593
530.774337	44552.989246
531.135862	44503.515362
531.497331	44639.941588
531.858743	44628.823323
532.220098	45043.178443
532.581396	44778.054080
532.942638	44535.952666
533.303824	44788.217046
533.664953	44850.326582
534.026025	44511.492988
534.387040	45091.699548
534.747999	45176.726170
535.108902	45479.835627
535.469748	44807.151620
535.830537	45062.695270
536.191270	45319.715978
536.551947	45034.938677
536.912567	45337.097877
537.273131	45486.124467
537.633638	45102.845540
537.994089	45305.313402
538.354483	45043.780861
538.714821	45703.957765
539.075103	45980.092008
539.435328	45834.352251
539.795497	45600.377177
540.155609	45731.893319
540.515665	46307.232646
540.875665	45614.943591
541.235609	45896.313073
541.595496	46019.884356
541.955328	46605.104345
542.315102	46029.732250
542.674821	45915.681186
543.034483	45805.433672
543.394090	45840.477253
543.753640	45790.242155
544.113134	46871.864562
544.472571	45969.064484
544.831953	47102.971219
545.191278	46373.191103
545.550548	46057.405664
545.909761	46698.370732
546.268918	46842.555294
546.628019	47267.123791
546.987064	46693.692541
547.346053	45983.083933
547.704986	46897.496309
548.063863	46543.065385
548.422684	46743.116013
548.781449	46342.775301
549.140158	46895.925989
549.498811	46641.458626
549.857408	46046.426031
550.215949	46875.400932
550.574434	46695.474589
550.932864	46651.147723
551.291237	47367.251189
551.649555	47128.013151
552.007817	47297.209397
552.366022	46969.506671
552.724173	47021.107922
553.082267	47448.073488
553.440305	47797.750604
553.798288	47041.368319
554.156215	47437.139225
554.514086	47639.481058
554.871902	47267.572454
555.229661	47431.909028
555.587365	47124.791853
555.945014	47243.513547
556.302606	47278.151315
556.660143	47364.718009
557.017625	47606.050647
557.375050	47292.831155
557.732421	47699.816108
558.089735	47758.895911
558.446994	47632.834297
558.804197	48132.100092
559.161345	47970.979773
559.518437	47321.359045
559.875474	47574.571161
560.232455	47801.871747
560.589381	47864.417343
560.946251	47671.557920
561.303065	48342.868213
561.659825	48021.431641
562.016528	47822.356476
562.373177	47394.773368
562.729770	48026.187970
563.086307	47562.956343
563.442789	48111.322976
563.799216	47955.112742
564.155587	47829.925768
564.511904	47810.310639
564.868164	47860.122280
565.224370	48172.399075
565.580520	47903.839166
565.936615	48114.075446
566.292654	47758.185108
566.648638	48118.630128
567.004567	48067.298579
567.360441	48153.346034
567.716260	47876.087614
568.072023	48232.809743
568.427732	48175.857307
568.783385	47710.079897
569.138982	48112.363974
569.494525	48255.167260
569.850013	47844.015793
570.205445	47978.652410
570.560823	47758.704347
570.916145	47609.929814
571.271412	47868.266264
571.626625	47509.729320
571.981782	47573.721727
572.336884	47172.481169
572.691931	47508.050616
573.046923	47165.421033
573.401860	47009.883793
573.756743	47001.656630
574.111570	47168.652413
574.466342	47078.995491
574.821059	47219.923468
575.175722	46726.243272
575.530330	46834.590271
575.884882	46467.652244
576.239380	46372.477780
576.593823	46437.307018
576.948211	46391.891263
577.302544	45935.011490
577.656823	45927.696776
578.011047	46193.685697
578.365216	46003.346851
578.719330	45729.173617
579.073389	45707.335338
579.427394	45753.751762
579.781344	45696.877465
580.135239	45449.581142
580.489080	45509.122210
580.842866	45000.578172
581.196597	45491.342061
581.550273	45478.582900
581.903895	45417.095947
582.257463	45870.146964
582.610975	45277.748372
582.964434	45624.113450
583.317837	45100.269510
583.671186	45081.854175
584.024481	45337.564183
584.377721	44885.405451
584.730906	45121.994363
585.084037	45230.447226
585.437113	44942.436024
585.790135	45050.747735
586.143103	44617.999966
586.496016	44781.666066
586.848874	44875.313061
587.201679	44908.753555
587.554428	44424.046612
587.907124	44683.653433
588.259765	44463.266789
588.612352	44611.091064
588.964884	44062.653855
589.317362	44386.482455
589.669786	44392.277261
590.022155	44241.032563
590.374470	44690.912694
590.726731	44261.202220
591.078937	43599.364255
591.431090	43956.240138
591.783188	43489.756967
592.135232	43258.867080
592.487222	43531.233061
592.839157	43681.908108
593.191038	43336.828524
593.542866	43114.377528
593.894639	42534.859085
594.246358	42823.762571
594.598022	42823.581089
594.949633	42409.377204
595.301190	42378.636248
595.652692	42326.666993
596.004141	42803.091320
596.355535	41704.535676
596.706876	41727.772875
597.058162	41457.403191
597.409395	41944.257665
597.760573	42159.983762
598.111698	41758.654983
598.462768	41662.474809
598.813785	41698.619882
599.164748	41308.767291
599.515657	41574.922570
599.866511	41080.874369
600.217312	41756.399067
600.568060	40698.981760
600.918753	41535.785572
601.269392	41453.738272
601.619978	41164.428974
601.970510	41362.800898
602.320988	41521.698068
602.671412	41773.775924
603.021783	41650.595330
603.372100	41210.300953
603.722363	41326.396206
604.072572	41364.197298
604.422728	41350.598785
604.772830	41140.753195
605.122878	41280.677982
605.472872	41155.024701
605.822813	41413.615729
606.172701	41152.035297
606.522534	41485.346307
606.872314	41711.363919
607.222041	41520.120186
607.571714	41849.645290
607.921333	41345.918074
608.270899	41564.394120
608.620411	41962.249543
608.969870	41700.051570
609.319276	41706.809237
609.668627	41738.563465
610.017926	42136.353353
610.367171	42268.504681
610.716362	42304.990032
611.065500	42201.348950
611.414585	42414.415837
611.763616	42592.355965
612.112594	42481.226249
612.461518	42617.972589
612.810389	43019.802962
613.159207	42801.914210
613.507971	42780.774132
613.856682	43274.754276
614.205340	43095.765588
614.553945	43797.542095
614.902496	43104.829583
615.250994	43543.793095
615.599439	43595.401908
615.947830	43709.483219
616.296169	43708.805184
616.644454	43749.726751
616.992686	43903.194597
617.340864	44351.547258
617.688990	43884.716248
618.037063	44557.443105
618.385082	44370.060896
618.733048	44708.128235
619.080961	44574.477164
619.428821	44610.813801
619.776628	44622.446263
620.124382	44432.422490
620.472083	44545.064552
620.819731	44649.509698
621.167326	44209.374117
621.514868	44197.383733
621.862357	43669.854709
622.209793	43772.769865
622.557176	43322.463756
622.904506	43077.486365
623.251783	42715.541601
623.599007	42400.981163
623.946179	42322.684482
624.293297	42062.455079
624.640363	41512.737417
624.987376	41365.434901
625.334336	41154.898672
625.681243	40741.806362
626.028097	40652.835038
626.374899	40468.492644
626.721647	40426.414133
627.068343	40223.616076
627.414987	39932.968351
627.761577	39688.626144
628.108115	39999.652734
628.454600	39252.100030
628.801032	39473.618412
629.147412	39377.407991
629.493739	39279.150861
629.840014	38840.008388
630.186236	39266.205178
630.532405	38709.576094
630.878521	38950.296231
631.224585	38731.845391
631.570597	38381.838080
631.916556	38557.113958
632.262462	38430.497817
632.608316	38378.152996
632.954117	38231.205882
633.299866	38194.541570
633.645562	38116.544838
633.991206	37577.474092
634.336797	37165.284148
634.682336	37066.162461
635.027823	36838.501433
635.373257	36690.500717
635.718639	36369.001131
636.063968	36269.004803
636.409245	35611.827385
636.754470	35569.781641
637.099642	35336.300601
637.444762	34772.560969
637.789829	34916.261580
638.134845	34539.606729
638.479808	34464.783403
638.824719	34397.100872
639.169577	33879.500401
639.514383	33993.259078
639.859137	33610.393526
640.203839	33773.805048
640.548489	33479.091633
640.893086	33463.169148
641.237632	33198.117882
641.582125	33300.959941
641.926566	33092.760287
642.270955	33120.151397
642.615292	33050.243196
642.959576	32931.965124
643.303809	32951.728967
643.647990	33022.534494
643.992118	32986.964112
644.336195	32829.823785
644.680219	32920.191509
645.024192	33115.269039
645.368112	33635.223729
645.711981	33653.513035
646.055797	34382.418511
646.399562	34182.967780
646.743274	35056.529165
647.086935	35453.552798
647.430544	35413.173156
647.774101	35463.980425
648.117606	35744.452581
648.461059	35892.458337
648.804460	35471.436291
649.147810	34990.328733
649.491108	34630.407992
649.834354	34489.210314
650.177548	33654.874147
650.520690	33183.140614
650.863781	33156.800585
651.206820	32994.712366
651.549807	32568.429876
651.892742	31989.740702
652.235626	31898.715108
652.578458	31758.692019
652.921238	31067.849775
653.263967	31371.392772
653.606644	31087.545563
653.949269	30990.979741
654.291843	30608.240217
654.634365	30977.860138
654.976836	30510.925783
655.319255	30580.168552
655.661622	30458.182711
656.003938	30320.350003
656.346203	30133.986107
656.688416	30378.555166
657.030577	30159.053245
657.372687	29978.297632
657.714746	30140.325358
658.056753	30322.810086
658.398708	29706.902074
658.740612	29771.333061
659.082465	29978.816871
659.424266	29871.062208
659.766016	29889.379240
660.107715	29755.725649
660.449362	29839.280253
660.790958	29822.682254
661.132503	29745.068650
661.473996	29822.878859
661.815438	29902.166127
662.156829	30005.900470
662.498168	29832.762042
662.839456	29806.721961
663.180693	29926.174622
663.521879	30025.964263
663.863013	29967.552413
664.204097	29950.415011
664.545129	30371.091737
664.886110	30297.049790
665.227040	30408.981050
665.567918	30404.373435
665.908746	30476.461935
666.249522	30557.679965
666.590248	30577.587481
666.930922	30674.226400
667.271545	30673.376966
667.612118	30734.412736
667.952639	30552.459850
668.293109	30577.544631
668.633528	30458.888473
668.973896	30409.628838
669.314213	30377.635155
669.654480	30202.800378
669.994695	30180.962099
670.334859	30108.654309
670.674973	29935.878843
671.015035	30127.155344
671.355047	30065.655788
671.695008	29996.153399
672.034918	29905.324410
672.374777	29999.984676
672.714585	29855.308602
673.054342	29998.414357
673.394049	29851.411790
673.733705	30070.144935
674.073310	29788.273859
674.412864	29853.627377
674.752368	29549.623115
675.091820	29774.375398
675.431223	29376.328411
675.770574	29174.009263
676.109875	29003.683798
676.449125	28815.588265
676.788324	28700.803713
677.127473	28217.352018
677.466571	28140.678588
677.805619	27848.815945
678.144616	27779.578218
678.483562	27734.142298
678.822458	27402.893120
679.161303	27352.184154
679.500098	27272.753213
679.838842	27202.570269
680.177535	27289.036140
680.516179	27517.773455
680.854771	27634.541701
681.193314	28400.744154
681.531805	29409.607588
681.870247	30158.271866
682.208638	30888.185572
682.546978	31160.012150
682.885268	31300.904838
683.223508	30858.210872
683.561697	30594.515676
683.899836	30430.751272
684.237925	30024.459478
684.575963	29876.965399
684.913951	29504.109058
685.251889	29672.617187
685.589776	29697.049139
685.927614	29701.523163
686.265401	29882.752644
686.603137	29992.485960
686.940824	30493.634626
687.278460	30809.099951
687.616046	30989.936222
687.953582	31651.983395
688.291068	31567.649932
688.628504	31895.166136
688.965889	31903.844482
689.303224	31645.175316
689.640510	31351.712107
689.977745	30742.155948
690.314930	30005.754277
690.652065	29566.644571
690.989150	28907.523788
691.326185	28063.246465
691.663170	27440.401825
692.000105	26688.974995
692.336990	26087.303201
692.673825	25665.083881
693.010610	25159.125955
693.347345	24662.063144
693.684030	24040.279667
694.020665	23842.111910
694.357251	23156.666221
694.693786	23160.794926
695.030272	22923.580911
695.366707	22430.430036
695.703093	22156.463489
696.039429	22223.876319
696.375716	21973.774595
696.711952	21981.101912
697.048139	21834.958862
697.384276	21674.693019
697.720363	21796.242800
698.056400	21692.508457
698.392388	21526.956965
698.728326	21529.936287
699.064214	21370.802183
699.400053	21367.079291
699.735842	20987.102320
700.071581	20791.119902
700.407270	20545.167047
700.742910	20367.063082
701.078501	20106.984914
701.414042	19913.326468
701.749533	19609.158369
702.084974	19292.662127
702.420366	19521.074288
702.755709	19105.053066
703.091002	18801.016037
703.426246	18865.275625
703.761440	18804.635585
704.096584	18558.634839
704.431679	18493.944232
704.766725	18434.672866
705.101721	18368.507722
705.436668	18496.842896
705.771565	18210.220532
706.106413	18527.669552
706.441212	18590.131968
706.775961	18700.813022
707.110661	18771.303476
707.445311	19137.591194
707.779913	19006.478344
708.114465	19309.275250
708.448967	19614.242372
708.783421	20235.098277
709.117825	20599.931622
709.452180	20832.089360
709.786485	21279.582504
710.120742	22036.773894
710.454949	22144.924288
710.789107	22653.175940
711.123216	23360.928734
711.457275	23578.441919
711.791286	24141.964782
712.125247	24300.380521
712.459159	24031.281208
712.793023	24792.944101
713.126837	23774.061374
713.460602	24031.722309
713.794318	23701.073028
714.127985	23431.129322
714.461602	22530.040716
714.795171	22527.157176
715.128691	21551.925800
715.462162	21027.721417
715.795584	20600.660069
716.128957	20331.089408
716.462281	19949.514391
716.795556	19672.397123
717.128782	19198.188384
717.461960	18586.625846
717.795088	18559.620385
718.128167	18203.520839
718.461198	17751.873783
718.794180	17620.728166
719.127113	17277.612112
719.459997	17084.961897
719.792833	16727.004686
720.125619	16761.720592
720.458357	16428.265909
720.791046	16287.713499
721.123686	16147.987838
721.456278	15910.120993
721.788821	15903.335600
722.121315	15648.117104
722.453761	15743.399953
722.786158	15628.418796
723.118506	15705.321598
723.450805	15576.136989
723.783056	15768.139416
724.115259	15653.987528
724.447412	15644.250539
724.779518	15865.501741
725.111574	15910.166364
725.443582	16178.002868
725.775542	16132.284643
726.107453	16646.008467
726.439315	16566.693473
726.771129	16984.839541
727.102895	17404.177841
727.434612	17664.797933
727.766281	17840.653544
728.097901	18161.911155
728.429473	18254.353314
728.760996	18263.636598
729.092471	18391.354231
729.423897	18273.290408
729.755276	18159.672883
730.086606	18271.518443
730.417887	18841.778807
730.749120	19401.271266
731.080305	19611.994018
731.411442	20001.977679
731.742530	20133.075406
732.073570	20289.825043
732.404562	20614.298911
732.735506	20465.577310
733.066401	20264.369737
733.397249	19770.044273
733.728048	19156.366971
734.058798	18289.285989
734.389501	17534.882357
734.720156	17011.529930
735.050762	16430.191630
735.381320	16048.747683
735.711831	15774.977741
736.042293	15403.301030
736.372707	15429.620894
736.703073	15228.405759
737.033391	15416.619758
737.363661	15411.258491
737.693883	15527.709145
738.024056	15729.330093
738.354182	15942.238184
738.684260	16300.875951
739.014290	16573.141109
739.344272	16801.286088
739.674207	17151.369017
740.004093	17334.221749
740.333931	17387.743679
740.663722	17468.407182
740.993464	17507.899581
741.323159	17361.733846
741.652806	17063.237045
741.982405	16901.095893
742.311956	16545.901234
742.641460	16452.418077
742.970915	16109.922085
743.300323	15764.779487
743.629683	15555.995059
743.958996	15236.222068
744.288260	14923.383183
744.617477	14613.778199
744.946647	14587.773407
745.275768	14270.571404
745.604842	14058.331266
745.933869	13882.848700
746.262847	13852.130429
746.591778	13772.664201
746.920662	13655.089370
747.249498	13663.858457
747.578286	13811.329851
747.907027	13986.721675
748.235720	14249.401079
748.564365	14323.695084
748.892963	14242.663577
749.221514	14346.806253
749.550017	14218.829001
749.878473	14187.054609
750.206881	13970.262308
750.535242	13887.849525
750.863555	13807.044870
751.191821	13706.471330
751.520039	13728.753230
751.848210	13645.672494
752.176334	13696.260473
752.504411	13622.435296
752.832440	13442.017441
753.160421	13556.706211
753.488356	13449.410293
753.816243	13350.754912
754.144082	13195.139534
754.471875	13150.001042
754.799620	13108.144342
755.127318	13085.136516
755.454969	13075.016399
755.782572	13042.500957
756.110129	13062.786560
756.437638	12961.325777
756.765100	12960.594810
757.092515	12993.523627
757.419882	13028.660469
757.747203	13039.219166
758.074477	13130.348104
758.401703	13114.493675
758.728882	13305.986945
759.056014	13342.759642
759.383099	13523.109441
759.710138	13642.305003
760.037129	13757.886058
760.364073	13827.683354
760.690970	13854.782076
761.017820	13866.432183
761.344623	14090.881996
761.671379	14469.245798
761.998088	15164.360420
762.324751	16912.370433
762.651366	20303.758792
762.977935	24742.938376
763.304456	27742.838289
763.630931	28830.754577
763.957359	27666.066557
764.283740	25421.064309
764.610074	23168.013858
764.936362	20543.092612
765.262602	18671.493671
765.588796	16732.121457
765.914943	15434.777994
766.241044	14333.999202
766.567097	13543.200960
766.893104	12824.375271
767.219064	12344.830471
767.544978	11862.462624
767.870845	11478.089766
768.196665	11258.408885
768.522438	11025.522700
768.848165	10819.155506
769.173846	10603.666344
769.499479	10479.258228
769.825066	10314.591459
770.150607	10081.080171
770.476101	9996.595474
770.801548	9880.409481
771.126949	9721.018278
771.452303	9609.548285
771.777611	9411.367924
772.102872	9396.630111
772.428087	9266.704453
772.753256	9102.103218
773.078378	9016.101133
773.403453	8830.548863
773.728482	8713.636944
774.053465	8645.793095
774.378401	8547.422540
774.703291	8419.344464
775.028135	8298.732338
775.352932	8264.026514
775.677683	8156.463415
776.002388	8045.873102
776.327046	8057.767705
776.651658	7966.122048
776.976224	7860.197324
777.300743	7857.616253
777.625216	7773.764221
777.949643	7730.616985
778.274024	7744.838080
778.598359	7654.006570
778.922647	7669.588776
779.246889	7627.018753
779.571086	7623.101776
779.895236	7633.945298
780.219339	7652.166549
780.543397	7647.309397
780.867409	7721.323618
781.191374	7733.613951
781.515294	7703.886267
781.839167	7795.438662
782.162995	7770.245495
782.486776	7716.133750
782.810511	7668.830083
783.134201	7580.095693
783.457844	7575.402378
783.781441	7518.666713
784.104993	7451.158101
784.428498	7434.267715
784.751958	7416.890858
785.075372	7393.479739
785.398739	7330.924061
785.722061	7378.600773
786.045337	7380.662605
786.368568	7538.488529
786.691752	7561.077940
787.014891	7899.062099
787.337983	8257.699866
787.661030	8843.963373
787.984031	9461.434143
788.306987	9872.325991
788.629897	10084.535882
788.952760	10033.499241
789.275579	9826.209515
789.598351	9429.662271
789.921078	9072.927540
790.243759	8657.135691
790.566395	8369.240436
790.888984	8119.300029
791.211529	7904.665342
791.534027	7681.390118
791.856480	7482.987946
792.178888	7411.506905
792.501249	7311.119888
792.823566	7152.936042
793.145836	7153.641804
793.468062	7131.064996
793.790241	7080.650937
794.112375	7143.463714
794.434464	7298.471633
794.756507	7334.498239
795.078505	7500.004361
795.400457	7803.585166
795.722364	8152.004514
796.044226	8437.424563
796.366042	8713.336995
796.687812	8666.744131
797.009538	8748.221780
797.331218	8646.461048
797.652852	8562.137668
797.974442	8411.586129
798.295986	8325.851225
798.617484	8135.257801
798.938938	7994.743199
799.260346	7886.953248
799.581709	7688.402362
799.903026	7615.925694
800.224299	7503.565936
800.545526	7333.230389
800.866708	7239.001141
801.187845	7163.509862
801.508936	7061.073616
801.829983	7019.852101
802.150984	6873.824998
802.471940	6824.169632
802.792851	6808.635317
803.113717	6779.694053
803.434538	6740.133598
803.755314	6691.312543
804.076045	6688.597882
804.396731	6633.276260
804.717372	6667.840931
805.037967	6663.923954
805.358518	6702.282094
805.679024	6788.019518
805.999485	6802.855634
806.319901	6842.211922
806.640272	6863.427618
806.960598	6944.169258
807.280879	6944.902746
807.601115	7020.741865
807.921306	6971.474668
808.241453	6987.266083
808.561554	7008.605287
808.881611	6969.501057
809.201623	6980.233673
809.521590	6924.312153
809.841513	6907.688949
810.161390	6950.770649
810.481223	6820.202244
810.801011	6800.314892
811.120755	6777.899402
811.440453	6701.896446
811.760107	6672.128432
812.079716	6638.939996
812.399281	6574.428350
812.718801	6563.736063
813.038276	6524.304158
813.357707	6460.589014
813.677093	6499.073183
813.996434	6409.151601
814.315731	6452.240863
814.634983	6438.284429
814.954191	6452.311439
815.273354	6557.989148
815.592473	6625.782584
815.911547	6747.602067
816.230577	6834.383010
816.549562	6976.074721
816.868502	7080.272851
817.187399	7179.245824
817.506250	7332.101170
817.825058	7364.382199
818.143821	7637.060731
818.462539	7907.972339
818.781213	8275.346425
819.099843	8813.247623
819.418429	9814.750972
819.736970	10782.289548
820.055466	11962.990793
820.373919	13499.539527
820.692327	15851.802405
821.010691	19982.854062
821.329011	28963.591501
821.647286	42010.296781
821.965517	55519.222936
822.283704	60944.313579
822.601847	62967.401714
822.919945	60330.638798
823.237999	56200.560084
823.556010	50097.270410
823.873976	43367.897155
824.191897	36795.510472
824.509775	31920.394590
824.827609	27349.242640
825.145398	24713.477872
825.463144	23306.514519
825.780845	23588.186470
826.098502	25345.953637
826.416116	29109.636249
826.733685	32740.497059
827.051210	33911.937705
827.368692	32151.231545
827.686129	28194.586167
828.003522	24087.104425
828.320872	20367.007629
828.638177	17510.687339
828.955439	15345.242061
829.272656	13521.866797
829.589830	12038.648430
829.906960	10758.707030
830.224046	9816.107043
830.541088	9054.270230
830.858086	8590.216895
831.175041	8205.566774
831.491952	8088.120492
831.808819	8129.505845
832.125642	8528.311525
832.442421	9402.966841
832.759157	11191.152331
833.075849	14108.195839
833.392497	17332.926173
833.709101	19526.622077
834.025662	19397.997037
834.342179	17717.992188
834.658653	15531.200144
834.975083	13593.388167
835.291469	11966.738891
835.607811	10651.065793
835.924110	9732.111338
836.240366	8860.634469
836.556578	8045.850417
836.872746	7403.738487
837.188871	6897.430201
837.504952	6473.486806
837.820990	6159.596841
838.136984	5939.162307
838.452935	5842.326783
838.768842	5870.650506
839.084706	6291.007119
839.400526	7492.876169
839.716303	9072.960307
840.032037	10183.763434
840.347727	10121.046439
840.663373	9155.630189
840.978977	8105.330991
841.294537	7289.037114
841.610054	6688.880187
841.925527	6247.887610
842.240957	5890.212703
842.556344	5556.783226
842.871687	5270.526346
843.186987	4987.185774
843.502244	4763.136732
843.817458	4597.754118
844.132629	4454.532417
844.447756	4365.319117
844.762840	4283.554123
845.077881	4206.948749
845.392879	4148.126045
845.707833	4098.692491
846.022745	4050.367990
846.337613	4023.455790
846.652438	3976.399139
846.967221	3960.302735
847.281960	3929.806275
847.596656	3908.003285
847.911309	3888.080645
848.225919	3866.469218
848.540485	3848.116897
848.855009	3837.381760
849.169490	3816.415602
849.483928	3802.134013
849.798323	3793.001962
850.112675	3776.600568
850.426984	3783.544758
850.741251	3764.794186
851.055474	3763.014659
851.369654	3766.760236
851.683792	3763.100358
851.997887	3771.889610
852.311938	3772.673510
852.625947	3774.274076
852.939914	3762.634052
853.253837	3773.870784
853.567718	3772.905403
853.881555	3764.370729
854.195350	3774.347173
854.509103	3773.588479
854.822812	3772.101339
855.136479	3762.248403
855.450103	3775.957821
855.763685	3756.622476
856.077224	3759.793362
856.390720	3778.407822
856.704173	3799.474804
857.017584	3811.439983
857.330953	3822.956499
857.644278	3841.724714
857.957561	3852.454810
858.270802	3848.005992
858.584000	3852.364070
858.897155	3844.830065
859.210268	3829.830112
859.523339	3805.846823
859.836367	3807.225578
860.149352	3794.847025
860.462295	3792.548259
860.775195	3780.217596
861.088054	3778.170888
861.400869	3773.835496
861.713642	3775.015126
862.026373	3786.123308
862.339062	3790.287301
862.651708	3809.652894
862.964312	3843.239581
863.276873	3855.494626
863.589392	3912.275662
863.901869	3958.404741
864.214303	4003.744878
864.526696	4037.812996
864.839045	4085.895522
865.151353	4112.427114
865.463619	4120.419864
865.775842	4128.440339
866.088023	4143.891476
866.400162	4137.070795
866.712258	4142.847957
867.024313	4145.539933
867.336325	4145.048421
867.648296	4154.669463
867.960224	4148.728463
868.272110	4160.555010
868.583954	4163.156245
868.895755	4179.240047
869.207515	4174.718132
869.519233	4218.805543
869.830909	4230.737954
870.142542	4256.276439
870.454134	4268.813789
870.765684	4302.549190
871.077191	4333.930373
871.388657	4359.794013
871.700081	4397.640475
872.011463	4442.521868
872.322803	4471.621929
872.634101	4507.459491
872.945357	4547.929874
873.256571	4601.560190
873.567744	4632.018841
873.878874	4654.058766
874.189963	4690.806257
874.501010	4698.279767
874.812015	4701.317062
875.122979	4741.573197
875.433900	4741.500100
875.744780	4756.618520
876.055618	4778.865132
876.366415	4780.017036
876.677169	4798.213081
876.987882	4848.775854
877.298554	4899.830139
877.609183	4984.103108
877.919771	5086.423408
878.230317	5239.379577
878.540822	5453.520231
878.851285	5778.034427
879.161707	6240.257823
879.472087	7000.567167
879.782425	8234.792863
880.092722	10427.624210
880.402977	13762.831430
880.713191	17560.473775
881.023363	21346.723112
881.333494	23598.210804
881.643583	24845.546021
881.953631	24847.350754
882.263637	24000.512525
882.573602	22524.273636
882.883526	20956.109306
883.193408	19263.551984
883.503248	17553.968166
883.813048	15986.083620
884.122806	14546.808991
884.432522	13062.277404
884.742197	11766.277408
885.051831	10657.586525
885.361424	9644.554057
885.670975	8805.963156
885.980485	8101.953418
886.289954	7525.941098
886.599382	7042.892695
886.908768	6663.026629
887.218113	6287.790863
887.527417	5998.584908
887.836680	5726.871757
888.145901	5507.347151
888.455082	5341.399928
888.764221	5189.792267
889.073319	5055.942071
889.382376	4980.712932
889.691392	4917.827058
890.000366	4895.494747
890.309300	4877.366758
890.618193	4881.150144
890.927044	4864.136249
891.235855	4882.213827
891.544625	4916.418056
891.853353	4982.643694
892.162041	5095.978915
892.470687	5285.642246
892.779293	5535.857397
893.087858	5911.350261
893.396381	6490.614126
893.704864	7297.619678
894.013306	8451.219680
894.321707	9632.200709
894.630068	10460.452204
894.938387	10674.076139
895.246665	10441.021077
895.554903	9838.139406
895.863100	9139.062437
896.171256	8572.474554
896.479371	8063.769198
896.787446	7563.623723
897.095480	7130.432331
897.403473	6813.535318
897.711425	6491.274517
898.019336	6217.615481
898.327207	5944.029541
898.635038	5714.455395
898.942827	5460.451817
899.250576	5268.535090
899.558284	5074.180966
899.865952	4952.202687
900.173579	4799.682577
900.481165	4695.865055
900.788711	4600.178913
901.096216	4526.512532
901.403681	4465.864931
901.711105	4434.511475
902.018489	4418.180657
902.325832	4489.891070
902.633135	4613.646356
902.940397	4958.914983
903.247619	5751.230612
903.554800	7195.246446
903.861941	9132.534143
904.169041	10677.287354
904.476101	11316.684623
904.783121	10984.275980
905.090100	10237.532381
905.397039	9396.960306
905.703938	8630.442782
906.010796	7932.825227
906.317614	7371.732201
906.624391	6829.230951
906.931129	6394.582666
907.237826	5990.309854
907.544483	5612.921515
907.851099	5235.424792
908.157675	4876.653434
908.464211	4549.550605
908.770707	4313.395233
909.077163	4104.502420
909.383578	3957.288125
909.689954	3837.961493
909.996289	3770.291564
910.302584	3703.332438
910.608839	3672.074764
910.915054	3640.265083
911.221229	3628.781335
911.527363	3638.518323
911.833458	3648.051145
912.139513	3680.372503
912.445527	3707.992985
912.751502	3788.404430
913.057436	3893.968712
913.363331	4031.216646
913.669186	4234.080239
913.975000	4493.271164
914.280775	4918.815125
914.586510	5505.373539
914.892205	6306.473379
915.197859	7359.514965
915.503475	8583.726409
915.809050	9650.989090
916.114585	10313.104318
916.420081	10579.413352
916.725536	10542.154184
917.030952	10100.463408
917.336328	9685.762969
917.641665	9272.184187
917.946961	8797.541908
918.252218	8368.348152
918.557435	7854.614246
918.862612	7416.661485
919.167750	7039.580657
919.472848	6610.492765
919.777906	6238.853862
920.082925	5872.752667
920.387904	5501.212067
920.692843	5232.243824
920.997743	4982.089167
921.302603	4744.950770
921.607423	4582.736521
921.912204	4415.188732
922.216946	4293.860762
922.521647	4172.419366
922.826310	4069.433634
923.130932	3973.064416
923.435516	3872.074981
923.740059	3801.554280
924.044564	3722.992938
924.349028	3662.335255
924.653454	3596.989298
924.957840	3523.222094
925.262186	3479.845486
925.566493	3418.509767
925.870761	3360.276878
926.174989	3325.301353
926.479178	3288.362298
926.783328	3243.400247
927.087438	3216.775393
927.391509	3180.935309
927.695541	3150.280053
927.999533	3121.948768
928.303486	3099.906323
928.607400	3085.627255
928.911275	3074.642581
929.215110	3054.961916
929.518906	3048.393293
929.822663	3045.650905
930.126381	3041.955739
930.430060	3048.171482
930.733699	3050.240875
931.037299	3062.569017
931.340861	3059.844273
931.644383	3068.953638
931.947866	3066.453226
932.251309	3063.436096
932.554714	3058.936866
932.858080	3055.128274
933.161407	3047.967315
933.464694	3036.213865
933.767943	3028.205992
934.071153	3027.989222
934.374323	3015.093951
934.677455	3011.728981
934.980548	3004.313443
935.283602	2998.695077
935.586617	2994.934377
935.889593	3004.993999
936.192530	3010.511542
936.495428	3023.830270
936.798287	3046.691903
937.101108	3076.838003
937.403890	3129.223153
937.706632	3187.330013
938.009336	3270.990482
938.312002	3343.888087
938.614628	3405.705236
938.917216	3460.074080
939.219765	3491.185561
939.522275	3526.713093
939.824747	3528.633773
940.127179	3525.447763
940.429573	3522.246631
940.731929	3522.208822
941.034246	3505.152078
941.336524	3491.298987
941.638763	3478.383551
941.940964	3461.170531
942.243126	3419.865837
942.545250	3400.878331
942.847335	3364.224102
943.149381	3328.956189
943.451389	3293.569810
943.753359	3262.352465
944.055290	3234.245511
944.357182	3209.470761
944.659036	3196.245294
944.960851	3185.603418
945.262628	3170.096829
945.564367	3172.120852
945.866067	3164.957372
946.167729	3161.095848
946.469352	3160.374963
946.770937	3153.471103
947.072484	3139.534833
947.373992	3144.220586
947.675462	3137.483084
947.976893	3117.454580
948.278286	3109.003085
948.579641	3101.884976
948.880958	3096.639655
949.182236	3100.765840
949.483476	3094.209819
949.784678	3093.052874
950.085841	3094.177052
950.386967	3104.796242
950.688054	3122.357102
950.989103	3140.636326
951.290114	3162.388904
951.591087	3189.154911
951.892021	3218.512070
952.192917	3245.552819
952.493776	3273.541306
952.794596	3278.935340
953.095378	3285.934982
953.396122	3281.844086
953.696828	3273.271604
953.997496	3262.728031
954.298126	3240.935122
954.598718	3219.159858
954.899272	3193.576003
955.199788	3166.159688
955.500266	3134.967548
955.800706	3098.767022
956.101108	3058.717576
956.401472	3027.895961
956.701798	2993.825323
957.002087	2954.821915
957.302337	2930.800817
957.602550	2899.555746
957.902724	2869.084491
958.202861	2843.490553
958.502960	2823.237718
958.803022	2800.774336
959.103045	2782.477468
959.403031	2765.077926
959.702979	2750.864392
960.002889	2738.526168
960.302762	2723.022100
960.602596	2709.279914
960.902393	2701.110725
961.202153	2693.372553
961.501875	2686.267047
961.801559	2680.618434
962.101205	2673.510407
962.400814	2666.432627
962.700385	2662.692091
962.999918	2653.701193
963.299414	2647.165337
963.598873	2647.581232
963.898293	2640.200983
964.197677	2641.100829
964.497022	2638.824748
964.796331	2632.150261
965.095601	2630.882410
965.394835	2631.857874
965.694030	2628.513068
965.993189	2626.930146
966.292309	2624.538118
966.591393	2625.823612
966.890439	2623.963427
967.189447	2624.238170
967.488419	2625.281688
967.787353	2627.618263
968.086249	2627.645990
968.385108	2629.183542
968.683930	2629.959879
968.982714	2637.040180
969.281462	2640.102681
969.580172	2644.178454
969.878844	2647.936634
970.177480	2659.609426
970.476078	2668.202072
970.774639	2673.278514
971.073162	2680.668846
971.371649	2688.487675
971.670098	2692.006401
971.968510	2699.437062
972.266885	2702.701209
972.565223	2705.204142
972.863524	2706.182125
973.161788	2712.692776
973.460014	2715.672097
973.758204	2718.656461
974.056356	2717.733929
974.354471	2721.335834
974.652550	2722.218036
974.950591	2721.608056
975.248595	2720.259547
975.546563	2719.135370
975.844493	2715.694783
976.142386	2705.443596
976.440243	2704.863864
976.738062	2700.503266
977.035845	2692.165197
977.333590	2686.607325
977.631299	2677.797909
977.928971	2673.162568
978.226606	2671.287258
978.524204	2665.449602
978.821765	2658.303767
979.119290	2660.872235
979.416777	2664.164108
979.714228	2666.972031
980.011642	2667.806342
980.309020	2677.036694
980.606360	2691.431709
980.903664	2713.998434
981.200931	2751.302973
981.498162	2798.629325
981.795356	2873.727394
982.092513	2966.671148
982.389633	3071.932960
982.686717	3167.911488
982.983764	3249.391658
983.280775	3295.641724
983.577749	3305.459371
983.874686	3292.511168
984.171587	3256.010693
984.468451	3218.890157
984.765279	3174.893487
985.062070	3126.445477
985.358824	3081.256574
985.655543	3020.427492
985.952224	2971.170377
986.248869	2907.225861
986.545478	2845.295286
986.842050	2789.570372
987.138586	2744.469689
987.435086	2705.183977
987.731549	2672.451765
988.027975	2647.268681
988.324366	2630.711011
988.620719	2614.725512
988.917037	2605.739656
989.213318	2595.490990
989.509563	2589.300453
989.805772	2585.045719
990.101944	2578.126735
990.398080	2577.851992
990.694180	2575.396951
990.990244	2576.460634
991.286271	2572.599110
991.582262	2576.495922
991.878217	2576.841241
992.174136	2583.495564
992.470019	2584.995308
992.765865	2588.188878
993.061676	2591.281626
993.357450	2602.977103
993.653188	2607.292331
993.948890	2626.524333
994.244556	2646.593166
994.540186	2669.419511
994.835780	2698.015456
995.131337	2740.472054
995.426859	2781.708692
995.722345	2828.730055
996.017795	2877.064638
996.313208	2919.100299
996.608586	2948.139866
996.903928	2959.757205
997.199234	2959.419448
997.494504	2960.021866
997.789738	2941.926644
998.084936	2915.899167
998.380099	2884.555793
998.675225	2854.671832
998.970316	2824.316525
999.265371	2784.521656
999.560390	2754.443612
999.855373	2720.781307
1000.150320	2692.825588
1000.445232	2666.946825
1000.740108	2646.368835
1001.034948	2625.493417
1001.329752	2608.219903
1001.624521	2599.594489
1001.919254	2584.914649
1002.213951	2580.070100
1002.508613	2570.784295
1002.803239	2563.986299
1003.097829	2558.551935
1003.392384	2552.953734
1003.686903	2548.741850
1003.981386	2546.503577
1004.275834	2541.548123
1004.570246	2539.471168
1004.864623	2536.577545
1005.158964	2535.960004
1005.453270	2528.415917
1005.747540	2527.349713
1006.041775	2529.449354
1006.335974	2523.309228
1006.630138	2527.193438
1006.924266	2527.329549
1007.218359	2524.917357
1007.512416	2519.178003
1007.806438	2520.387880
1008.100425	2520.231604
1008.394376	2513.965450
1008.688292	2522.074146
1008.982172	2519.921573
1009.276017	2521.638086
1009.569827	2519.596419
1009.863602	2518.298322
1010.157341	2516.997704
1010.451045	2517.849659
1010.744714	2515.835718
1011.038347	2515.379493
1011.331945	2515.893691
1011.625508	2513.486540
1011.919036	2510.388751
1012.212528	2511.701972
1012.505986	2508.077382
1012.799408	2508.805829
1013.092795	2508.180726
1013.386147	2510.169461
1013.679464	2508.679800
1013.972745	2509.743483
1014.265992	2507.227948
1014.559204	2507.890859
1014.852380	2507.979080
1015.145521	2507.225427
1015.438628	2507.134686
1015.731699	2510.429080
1016.024736	2511.172651
1016.317737	2511.553258
1016.610703	2510.925634
1016.903635	2512.145593
1017.196531	2511.459996
1017.489393	2515.283712
1017.782219	2513.322703
1018.075011	2516.690193
1018.367768	2520.460977
1018.660490	2519.687159
1018.953177	2519.687159
1019.245829	2519.687159
