Dividing Wavelength (nm)	Counts (n)	Blue Motor Position (mm): 34.300000	Red Motor Position (mm): 0.000000	
326.493990	2131.941770
326.888308	2131.941770
327.282561	2131.941770
327.676750	2098.841554
328.070874	2095.968096
328.464933	2098.458426
328.858929	2108.427308
329.252859	2115.111878
329.646726	2126.691408
330.040528	2139.006947
330.434265	2159.486635
330.827938	2175.343584
331.221547	2194.625998
331.615091	2212.328009
332.008571	2231.605382
332.401986	2251.366705
332.795338	2268.620054
333.188625	2286.750564
333.581847	2309.032464
333.975006	2325.237253
334.368100	2348.718947
334.761129	2362.284692
335.154095	2377.423277
335.546996	2399.629560
335.939833	2423.544794
336.332606	2440.311672
336.725315	2451.334154
337.117960	2463.652214
337.510540	2470.782926
337.903056	2480.361118
338.295508	2491.950731
338.687896	2496.369302
339.080220	2508.858761
339.472480	2512.339678
339.864676	2515.918897
340.256807	2520.758405
340.648875	2521.552386
341.040879	2525.484486
341.432818	2528.821730
341.824694	2530.205527
342.216506	2529.666123
342.608253	2531.420445
342.999937	2528.337779
343.391557	2529.971113
343.783113	2530.412214
344.174605	2527.760567
344.566033	2524.619928
344.957397	2524.166225
345.348697	2522.096831
345.739934	2521.307890
346.131106	2520.826460
346.522215	2516.866634
346.913260	2514.812364
347.304241	2513.163906
347.695159	2514.119205
348.086012	2511.636437
348.476802	2510.605521
348.867528	2507.769872
349.258191	2506.207114
349.648789	2504.921620
350.039324	2502.456496
350.429796	2503.978924
350.820203	2501.312154
351.210548	2500.843326
351.600828	2499.719149
351.991045	2500.253511
352.381198	2498.254694
352.771288	2497.173366
353.161314	2497.566576
353.551276	2497.564056
353.941175	2493.725217
354.331010	2497.886690
354.720782	2497.223778
355.110490	2497.511124
355.500135	2495.277893
355.889717	2496.833088
356.279235	2494.115907
356.668689	2498.844509
357.058080	2499.683861
357.447408	2495.030876
357.836672	2496.268479
358.225873	2498.156391
358.615010	2493.475680
359.004084	2502.015395
359.393095	2500.200579
359.782043	2500.538337
360.170927	2497.750578
360.559748	2498.663027
360.948505	2502.088491
361.337199	2504.838441
361.725830	2503.356342
362.114398	2502.156547
362.502903	2502.247288
362.891344	2508.047135
363.279722	2505.481188
363.668037	2507.802639
364.056289	2505.445900
364.444478	2505.319871
364.832603	2506.963287
365.220665	2506.852382
365.608665	2505.708040
365.996601	2510.416477
366.384474	2505.211486
366.772284	2513.725995
367.160031	2508.258864
367.547715	2507.989162
367.935336	2509.292300
368.322893	2508.095026
368.710388	2510.418998
369.097820	2512.637106
369.485189	2510.562671
369.872495	2510.711385
370.259738	2509.158710
370.646918	2511.434791
371.034035	2510.842455
371.421090	2511.223062
371.808081	2513.592404
372.195010	2513.902435
372.581875	2514.144411
372.968678	2515.399658
373.355418	2511.505367
373.742096	2513.907477
374.128710	2513.725995
374.515262	2515.223218
374.901751	2513.683145
375.288177	2514.111643
375.674540	2516.544000
376.060841	2516.130625
376.447079	2516.712879
376.833254	2516.904442
377.219367	2511.250788
377.605417	2515.724812
377.991404	2514.439318
378.377329	2514.220028
378.763191	2515.606345
379.148991	2521.020545
379.534727	2516.831346
379.920402	2516.208763
380.306013	2517.592560
380.691563	2521.832170
381.077049	2520.080369
381.462474	2520.090452
381.847835	2519.898888
382.233134	2519.104906
382.618371	2520.617252
383.003545	2518.683970
383.388657	2521.557427
383.773706	2518.326048
384.158693	2521.978364
384.543618	2521.728827
384.928480	2520.697911
385.313280	2519.641789
385.698017	2521.000380
386.082692	2524.604805
386.467305	2520.884433
386.851856	2525.446678
387.236344	2522.555576
387.620770	2524.541791
388.005133	2524.554393
388.389435	2522.626152
388.773674	2524.332583
389.157851	2523.833508
389.541965	2527.896678
389.926018	2524.703107
390.310008	2526.648993
390.693936	2525.817203
391.077802	2527.011956
391.461606	2526.742254
391.845348	2528.005063
392.229027	2531.135620
392.612645	2528.463808
392.996200	2529.504807
393.379694	2526.608664
393.763125	2527.652182
394.146494	2528.166380
394.529801	2531.092770
394.913047	2531.579241
395.296230	2533.714170
395.679351	2532.002698
396.062410	2529.845084
396.445408	2532.257277
396.828343	2532.968079
397.211217	2529.204858
397.594028	2531.067564
397.976778	2529.829961
398.359466	2535.450848
398.742092	2531.175949
399.124656	2533.429345
399.507158	2531.354910
399.889598	2534.845909
400.271977	2538.094933
400.654294	2537.545447
401.036549	2535.672658
401.418742	2538.848585
401.800874	2538.069727
402.182944	2539.274563
402.564952	2537.437062
402.946898	2538.717515
403.328783	2538.962011
403.710606	2539.090561
404.092367	2543.168854
404.474067	2542.652136
404.855705	2544.754297
405.237282	2545.089534
405.618797	2548.192364
406.000250	2553.384752
406.381642	2555.227294
406.762972	2559.983623
407.144240	2564.135013
407.525447	2571.679100
407.906593	2575.371745
408.287677	2586.152252
408.668700	2587.914136
409.049661	2598.679520
409.430560	2610.627054
409.811399	2619.935545
410.192176	2636.674696
410.572891	2645.403454
410.953545	2665.368944
411.334138	2672.560150
411.714669	2692.475228
412.095139	2699.694160
412.475547	2727.324725
412.855894	2745.785430
413.236180	2766.179418
413.616405	2777.559823
413.996568	2805.003864
414.376670	2821.604384
414.756711	2837.589883
415.136691	2867.005015
415.516609	2903.359296
415.896466	2935.995726
416.276262	2970.290696
416.655997	2994.891527
417.035670	3057.568193
417.415283	3108.256994
417.794834	3132.673823
418.174324	3155.671567
418.553753	3167.084739
418.933121	3250.483068
419.312428	3306.117242
419.691674	3332.679081
420.070859	3404.964186
420.449983	3422.167124
420.829045	3504.179135
421.208047	3515.070548
421.586988	3585.124942
421.965867	3634.440030
422.344686	3740.909199
422.723444	3721.805747
423.102141	3684.609593
423.480777	3863.752036
423.859352	3809.279848
424.237866	3979.413749
424.616319	4025.706665
424.994712	4126.028147
425.373044	4115.577835
425.751314	4243.376127
426.129524	4181.180891
426.507673	4339.402546
426.885762	4431.741361
427.263789	4452.999906
427.641756	4417.565636
428.019662	4542.586251
428.397508	4595.460393
428.775292	4613.732056
429.153016	4717.340370
429.530679	4716.576635
429.908282	4821.165454
430.285824	4759.184467
430.663305	5012.313405
431.040726	4856.178788
431.418086	4889.954519
431.795385	5005.422148
432.172624	5054.033994
432.549802	5083.865022
432.926920	5129.452176
433.303977	5166.439122
433.680974	5236.349844
434.057910	5281.039672
434.434786	5313.464374
434.811601	5315.168284
435.188355	5548.740065
435.565050	5461.087003
435.941683	5473.221060
436.318257	5693.711047
436.694770	5698.910997
437.071222	5752.843782
437.447614	5714.654521
437.823946	5652.204707
438.200218	5811.301002
438.576429	5707.349889
438.952580	5814.479449
439.328670	5874.978336
439.704700	5798.383045
440.080670	5795.794412
440.456580	6075.185241
440.832429	5972.585157
441.208218	5832.375545
441.583947	5989.926726
441.959616	6004.946844
442.335224	5945.899809
442.710773	6081.365695
443.086261	6113.437516
443.461689	5920.961221
443.837057	6073.675415
444.212365	6225.993879
444.587612	6128.860926
444.962800	6281.159225
445.337927	6261.682727
445.712995	5883.911261
446.088002	6458.186904
446.462949	6294.924096
446.837837	6230.578808
447.212664	6400.596763
447.587431	6546.485234
447.962139	7084.772080
448.336786	8004.417174
448.711374	7747.338492
449.085901	6828.676424
449.460369	6752.799497
449.834776	6687.289703
450.209124	7078.110196
450.583412	7233.039977
450.957640	7375.240844
451.331808	7140.234855
451.705917	6698.160951
452.079965	6621.346369
452.453954	6831.456620
452.827883	6709.405244
453.201752	6805.955943
453.575562	6604.927331
453.949311	6805.512322
454.323001	6704.016251
454.696632	6771.721468
455.070202	6911.127016
455.443713	7065.419091
455.817164	7164.601272
456.190556	7249.219560
456.563888	7319.354613
456.937160	7368.659618
457.310373	7021.994592
457.683526	7050.139353
458.056619	6941.583147
458.429653	6930.802639
458.802628	6864.171188
459.175542	6971.179761
459.548398	7323.528688
459.921194	7485.067422
460.293930	7488.311405
460.666607	8017.534256
461.039224	8324.837953
461.411782	8450.271943
461.784280	8467.706774
462.156719	8359.082511
462.529099	8232.988130
462.901419	7825.330183
463.273680	7719.017290
463.645882	7731.791574
464.018024	7598.014474
464.390106	7768.808766
464.762130	8157.673292
465.134094	8618.243189
465.505999	9637.153643
465.877845	10862.332989
466.249631	11500.172541
466.621358	11117.279262
466.993026	10489.890022
467.364634	10239.137988
467.736184	9872.373882
468.107674	9544.792143
468.479105	9571.265762
468.850477	9335.783384
469.221790	9115.691648
469.593043	8782.615052
469.964238	8648.545565
470.335373	8660.525867
470.706449	8717.203560
471.077467	8700.867701
471.448425	10005.369602
471.819324	11072.844012
472.190164	11100.126736
472.560945	9848.927475
472.931667	9060.057474
473.302330	8925.574613
473.672934	8573.815501
474.043479	8929.143750
474.413965	8868.375161
474.784393	8761.376671
475.154761	8909.455524
475.525070	8995.026590
475.895321	8828.534922
476.265513	9005.786932
476.635645	9171.472015
477.005719	9170.846912
477.375734	9287.511815
477.745691	9519.722485
478.115588	9655.969750
478.485427	9895.401872
478.855207	10434.520509
479.224928	11247.146947
479.594591	11871.221628
479.964194	11676.950683
480.333739	11620.416663
480.703226	11531.478106
481.072653	11616.325767
481.442022	11863.594363
481.811333	12051.435317
482.180584	11860.604958
482.549777	11565.241234
482.918912	11398.870554
483.287988	11414.611557
483.657005	11425.334091
484.025964	11116.061823
484.394864	11244.475135
484.763706	11214.092101
485.132489	10969.507919
485.501213	10932.402507
485.869879	11013.350834
486.238487	10848.368993
486.607036	10963.715634
486.975527	10740.526109
487.343959	10941.065729
487.712333	10979.980917
488.080648	10915.935578
488.448905	10960.706065
488.817104	10902.014431
489.185244	11157.994141
489.553326	11318.295272
489.921350	11854.900893
490.289315	12909.699321
490.657222	13252.046599
491.025070	13161.361282
491.392861	13029.172146
491.760593	12657.061896
492.128267	12305.456538
492.495883	11972.989922
492.863440	11644.886424
493.230939	11309.674899
493.598380	11240.411965
493.965763	11114.920002
494.333088	11007.621563
494.700354	10932.959554
495.067563	10990.045580
495.434713	10827.425519
495.801805	10947.846081
496.168839	10875.606347
496.535815	10811.061933
496.902733	10812.659979
497.269593	10741.057951
497.636395	10840.961017
498.003139	10833.668988
498.369825	10698.734943
498.736453	10860.147648
499.103023	10783.698550
499.469535	10817.229785
499.835989	10801.708073
500.202385	10765.114337
500.568723	10617.537078
500.935003	10840.852632
501.301226	10645.886007
501.667390	10909.044320
502.033497	10999.792651
502.399546	10868.558814
502.765537	10766.117526
503.131470	10839.897333
503.497345	11014.386792
503.863163	10630.891095
504.228923	10935.477610
504.594625	11001.078145
504.960269	10747.898796
505.325856	10966.415172
505.691385	10761.467062
506.056856	10916.545557
506.422270	10944.554208
506.787625	10830.485499
507.152924	10945.648138
507.518164	10933.947620
507.883347	10847.708601
508.248472	10764.474110
508.613540	11002.053609
508.978550	10885.272759
509.343503	10861.135715
509.708398	10980.961421
510.073236	11090.919069
510.438016	11098.488361
510.802738	11043.363344
511.167403	11094.369738
511.532010	10996.120171
511.896561	11225.018802
512.261053	11297.407251
512.625488	11163.635192
512.989866	11148.746144
513.354186	11135.248455
513.718449	11039.592561
514.082655	11234.670091
514.446803	11129.020109
514.810894	11251.028635
515.174927	11115.461926
515.538904	11143.848663
515.902822	11289.248143
516.266684	11174.196410
516.630488	11116.974272
516.994235	11173.432675
517.357925	11234.445760
517.721558	11326.020840
518.085133	11335.747746
518.448651	11352.678462
518.812112	11233.639175
519.175516	11253.702967
519.538863	11366.680266
519.902152	11281.333532
520.265385	11446.590117
520.628560	11358.221210
520.991678	11331.878661
521.354739	11399.843497
521.717743	11333.809423
522.080690	11315.920888
522.443580	11449.082967
522.806413	11396.339895
523.169189	11430.342478
523.531908	11495.547282
523.894569	11307.557614
524.257174	11313.296968
524.619722	11428.164699
524.982213	11378.957997
525.344647	11429.019175
525.707025	11379.280630
526.069345	11475.990126
526.431608	11397.118753
526.793815	11506.179076
527.155964	11289.790067
527.518057	11345.759478
527.880093	11292.235027
528.242072	11367.996007
528.603995	11265.693352
528.965860	11192.563854
529.327669	11237.669578
529.689421	11191.177536
530.051117	11155.143369
530.412755	11269.910277
530.774337	11146.001236
531.135862	11136.657457
531.497331	11167.809268
531.858743	11008.702891
532.220098	11179.746720
532.581396	11049.465661
532.942638	11035.254648
533.303824	10994.380973
533.664953	11006.356233
534.026025	10922.985631
534.387040	11020.451300
534.747999	11028.328103
535.108902	11082.810373
535.469748	10839.095790
535.830537	10944.947418
536.191270	10918.577142
536.551947	10942.709146
536.912567	10941.131264
537.273131	10871.275996
537.633638	10845.898827
537.994089	10842.281799
538.354483	10791.403954
538.714821	10933.841756
539.075103	10938.053640
539.435328	10908.625904
539.795497	10735.331200
540.155609	10889.156968
540.515665	10983.073664
540.875665	10713.732376
541.235609	10786.579570
541.595496	10777.258476
541.955328	10932.747826
542.315102	10818.797584
542.674821	10768.834708
543.034483	10768.191961
543.394090	10772.814699
543.753640	10701.457167
544.113134	10923.572926
544.472571	10774.788311
544.831953	10917.208469
545.191278	10721.278983
545.550548	10749.242264
545.909761	10890.139993
546.268918	10859.431805
546.628019	10946.623602
546.987064	10812.624691
547.346053	10730.358102
547.704986	10830.288894
548.063863	10817.134003
548.422684	10816.934878
548.781449	10727.577905
549.140158	10829.159676
549.498811	10714.412932
549.857408	10565.373739
550.215949	10791.053594
550.574434	10649.145113
550.932864	10747.087171
551.291237	10794.070724
551.649555	10753.015568
552.007817	10765.764646
552.366022	10722.687986
552.724173	10717.664476
553.082267	10701.439522
553.440305	10841.996974
553.798288	10642.715121
554.156215	10790.781372
554.514086	10773.207909
554.871902	10621.461617
555.229661	10653.752728
555.587365	10635.246652
555.945014	10530.574654
556.302606	10653.314147
556.660143	10545.652745
557.017625	10706.712569
557.375050	10602.312794
557.732421	10735.217774
558.089735	10647.597479
558.446994	10649.407253
558.804197	10684.039980
559.161345	10682.671307
559.518437	10530.645230
559.875474	10622.028747
560.232455	10655.254992
560.589381	10604.750192
560.946251	10601.309604
561.303065	10706.357168
561.659825	10635.405448
562.016528	10575.168701
562.373177	10454.201173
562.729770	10569.116796
563.086307	10483.402057
563.442789	10575.070398
563.799216	10456.285690
564.155587	10503.455767
564.511904	10457.845927
564.868164	10452.953488
565.224370	10469.397732
565.580520	10391.796730
565.936615	10391.353108
566.292654	10265.704869
566.648638	10393.704807
567.004567	10355.540751
567.360441	10336.485190
567.716260	10244.607640
568.072023	10340.104738
568.427732	10293.844590
568.783385	10204.964007
569.138982	10274.042938
569.494525	10287.220514
569.850013	10160.039764
570.205445	10247.105532
570.560823	10137.868769
570.916145	10067.489221
571.271412	10126.057346
571.626625	10071.867463
571.981782	10053.805008
572.336884	10027.008755
572.691931	10027.933807
573.046923	9979.014450
573.401860	9932.464435
573.756743	9867.244508
574.111570	9911.604141
574.466342	9897.078056
574.821059	9922.351881
575.175722	9819.288011
575.530330	9824.311521
575.884882	9816.346498
576.239380	9740.903110
576.593823	9722.631448
576.948211	9743.101053
577.302544	9617.563719
577.656823	9641.410897
578.011047	9630.259865
578.365216	9611.889901
578.719330	9542.647132
579.073389	9547.552175
579.427394	9495.847580
579.781344	9473.732038
580.135239	9419.486702
580.489080	9427.804606
580.842866	9332.138630
581.196597	9336.113579
581.550273	9375.817707
581.903895	9345.114560
582.257463	9408.025639
582.610975	9279.824056
582.964434	9313.756062
583.317837	9232.895954
583.671186	9221.747443
584.024481	9208.584990
584.377721	9133.340728
584.730906	9111.918344
585.084037	9139.836254
585.437113	9074.518024
585.790135	9097.977033
586.143103	9001.204524
586.496016	8969.858629
586.848874	9030.433134
587.201679	9012.932768
587.554428	8904.580728
587.907124	8946.288714
588.259765	8915.267974
588.612352	8921.130836
588.964884	8798.010736
589.317362	8808.808887
589.669786	8815.037233
590.022155	8856.863686
590.374470	8872.909679
590.726731	8814.646543
591.078937	8667.225561
591.431090	8775.249926
591.783188	8654.746184
592.135232	8642.632292
592.487222	8643.363259
592.839157	8695.866876
593.191038	8634.732804
593.542866	8571.224347
593.894639	8472.899162
594.246358	8524.208026
594.598022	8544.511273
594.949633	8439.393133
595.301190	8413.716016
595.652692	8446.758259
596.004141	8556.902429
596.355535	8330.345414
596.706876	8313.959143
597.058162	8250.634689
597.409395	8321.984660
597.760573	8383.663178
598.111698	8298.790311
598.462768	8282.270450
598.813785	8245.865758
599.164748	8219.986994
599.515657	8203.701547
599.866511	8115.897250
600.217312	8242.770489
600.568060	8101.567770
600.918753	8203.832617
601.269392	8172.113677
601.619978	8083.729647
601.970510	8150.872775
602.320988	8142.920355
602.671412	8202.342956
603.021783	8136.326526
603.372100	8112.975901
603.722363	8108.766538
604.072572	8088.203671
604.422728	8098.316226
604.772830	8026.779732
605.122878	8038.470168
605.472872	8035.483284
605.822813	8060.212664
606.172701	8009.753235
606.522534	8076.994666
606.872314	8079.492557
607.222041	8052.615646
607.571714	8110.649409
607.921333	8063.161739
608.270899	8070.806649
608.620411	8156.397880
608.969870	8062.614774
609.319276	8056.199906
609.668627	8072.039211
610.017926	8107.728060
610.367171	8157.862335
610.716362	8132.578428
611.065500	8124.288250
611.414585	8149.380594
611.763616	8135.817369
612.112594	8124.459650
612.461518	8135.351063
612.810389	8201.264149
613.159207	8134.688151
613.507971	8084.891633
613.856682	8203.265487
614.205340	8157.390987
614.553945	8241.779903
614.902496	8135.351062
615.250994	8186.798558
615.599439	8168.753748
615.947830	8186.387704
616.296169	8157.701018
616.644454	8172.196856
616.992686	8170.029160
617.340864	8227.052172
617.688990	8131.834858
618.037063	8221.610246
618.385082	8164.909868
618.733048	8254.808765
619.080961	8190.592026
619.428821	8212.909214
619.776628	8220.745688
620.124382	8165.580342
620.472083	8150.035944
620.819731	8173.389089
621.167326	8070.753717
621.514868	8078.575067
621.862357	7963.735062
622.209793	7979.745767
622.557176	7918.135305
622.904506	7888.959627
623.251783	7818.602763
623.599007	7774.381762
623.946179	7779.110364
624.293297	7742.193995
624.640363	7651.044892
624.987376	7638.134497
625.334336	7584.831857
625.681243	7533.782612
626.028097	7524.219543
626.374899	7500.107705
626.721647	7490.771488
627.068343	7433.501459
627.414987	7396.602734
627.761577	7352.802669
628.108115	7390.870942
628.454600	7283.983357
628.801032	7334.397416
629.147412	7296.805532
629.493739	7281.203161
629.840014	7221.644448
630.186236	7272.534897
630.532405	7166.393402
630.878521	7213.187913
631.224585	7170.617889
631.570597	7095.703823
631.916556	7130.495346
632.262462	7124.264480
632.608316	7081.117244
632.954117	7055.399797
633.299866	7047.432254
633.645562	7040.248610
633.991206	6959.451516
634.336797	6907.474700
634.682336	6864.587083
635.027823	6826.438152
635.373257	6820.603016
635.718639	6748.327993
636.063968	6768.550582
636.409245	6656.813407
636.754470	6654.693602
637.099642	6616.542149
637.444762	6555.897069
637.789829	6572.936169
638.134845	6518.027921
638.479808	6495.998079
638.824719	6498.238872
639.169577	6428.522234
639.514383	6452.331604
639.859137	6375.668257
640.203839	6388.923971
640.548489	6374.551641
640.893086	6350.820410
641.237632	6323.043652
641.582125	6342.084090
641.926566	6311.630480
642.270955	6321.473332
642.615292	6317.193393
642.959576	6339.021589
643.303809	6325.649928
643.647990	6329.874415
643.992118	6325.959959
644.336195	6268.992400
644.680219	6290.656759
645.024192	6286.149967
645.368112	6374.876796
645.711981	6404.407875
646.055797	6476.506457
646.399562	6432.434170
646.743274	6558.253808
647.086935	6614.901254
647.430544	6611.437981
647.774101	6630.584283
648.117606	6636.230376
648.461059	6630.690148
648.804460	6593.786381
649.147810	6503.277505
649.491108	6468.349870
649.834354	6443.716272
650.177548	6364.585280
650.520690	6279.077229
650.863781	6254.925061
651.206820	6271.334016
651.549807	6196.989600
651.892742	6134.408716
652.235626	6140.783255
652.578458	6128.218179
652.921238	6039.342637
653.263967	6078.651034
653.606644	6017.622826
653.949269	6020.965111
654.291843	5962.601152
654.634365	6011.258369
654.976836	5967.458304
655.319255	5964.516790
655.661622	5940.591474
656.003938	5938.116268
656.346203	5899.856431
656.688416	5931.424136
657.030577	5882.361106
657.372687	5849.412125
657.714746	5835.513663
658.056753	5884.037290
658.398708	5826.127035
658.740612	5812.168080
659.082465	5855.902610
659.424266	5856.497466
659.766016	5851.942784
660.107715	5832.393189
660.449362	5841.598336
660.790958	5833.698848
661.132503	5816.798380
661.473996	5856.820100
661.815438	5848.497155
662.156829	5847.488924
662.498168	5839.637327
662.839456	5813.655220
663.180693	5849.654100
663.521879	5849.596127
663.863013	5836.635320
664.204097	5861.720102
664.545129	5899.576647
664.886110	5896.564557
665.227040	5926.221665
665.567918	5889.542230
665.908746	5920.043731
666.249522	5921.813176
666.590248	5912.930663
666.930922	5941.622390
667.271545	5952.135717
667.612118	5951.644204
667.952639	5924.674031
668.293109	5947.780160
668.633528	5907.337503
668.973896	5915.751189
669.314213	5903.223921
669.654480	5881.912443
669.994695	5877.393049
670.334859	5866.947778
670.674973	5858.468558
671.015035	5862.476275
671.355047	5863.802098
671.695008	5850.488411
672.034918	5821.279966
672.374777	5833.018292
672.714585	5822.593186
673.054342	5822.973793
673.394049	5812.644469
673.733705	5847.241908
674.073310	5832.637685
674.412864	5794.934896
674.752368	5785.359224
675.091820	5789.767713
675.431223	5725.001489
675.770574	5726.281942
676.109875	5674.358057
676.449125	5682.539850
676.788324	5649.381661
677.127473	5590.858906
677.466571	5584.600313
677.805619	5573.540022
678.144616	5558.993772
678.483562	5538.277150
678.822458	5506.280947
679.161303	5499.364484
679.500098	5494.318289
679.838842	5469.387262
680.177535	5482.368234
680.516179	5496.223845
680.854771	5510.598695
681.193314	5589.094502
681.531805	5698.152303
681.870247	5845.827864
682.208638	5946.522392
682.546978	5961.431604
682.885268	5938.396052
683.223508	5852.260377
683.561697	5796.648888
683.899836	5771.128047
684.237925	5723.158947
684.575963	5687.785171
684.913951	5648.093646
685.251889	5708.569848
685.589776	5677.115568
685.927614	5652.237474
686.265401	5720.756837
686.603137	5704.194126
686.940824	5784.335870
687.278460	5806.549714
687.616046	5813.128420
687.953582	5881.196600
688.291068	5865.271595
688.628504	5927.030770
688.965889	5888.123145
689.303224	5833.529969
689.640510	5784.683709
689.977745	5708.466504
690.314930	5612.389674
690.652065	5554.179470
690.989150	5468.137056
691.326185	5387.816352
691.663170	5334.536397
692.000105	5260.781796
692.336990	5179.281462
692.673825	5156.439993
693.010610	5087.711423
693.347345	5020.308675
693.684030	5005.802755
694.020665	4962.388338
694.357251	4870.455336
694.693786	4883.706009
695.030272	4848.228888
695.366707	4817.104805
695.703093	4785.700937
696.039429	4802.538391
696.375716	4785.007778
696.711952	4761.427781
697.048139	4750.979990
697.384276	4728.178851
697.720363	4739.425665
698.056400	4749.419752
698.392388	4700.913770
698.728326	4680.802087
699.064214	4658.847862
699.400053	4650.895442
699.735842	4618.284218
700.071581	4595.664560
700.407270	4567.913008
700.742910	4550.906676
701.078501	4497.351978
701.414042	4491.763859
701.749533	4464.405517
702.084974	4399.556114
702.420366	4452.072334
702.755709	4393.405906
703.091002	4342.621322
703.426246	4386.910379
703.761440	4345.615768
704.096584	4309.294254
704.431679	4329.133715
704.766725	4316.790450
705.101721	4303.726300
705.436668	4333.665712
705.771565	4280.804173
706.106413	4304.399294
706.441212	4341.948328
706.775961	4348.988300
707.110661	4330.560362
707.445311	4359.799054
707.779913	4377.753123
708.114465	4391.936410
708.448967	4411.377620
708.783421	4475.634687
709.117825	4518.441645
709.452180	4521.998179
709.786485	4564.716917
710.120742	4655.878622
710.454949	4636.868431
710.789107	4705.276889
711.123216	4780.309423
711.457275	4770.963123
711.791286	4841.120862
712.125247	4858.114591
712.459159	4762.899798
712.793023	4836.200695
713.126837	4794.275939
713.460602	4788.675217
713.794318	4707.353844
714.127985	4714.232499
714.461602	4627.554899
714.795171	4604.463894
715.128691	4537.461918
715.462162	4482.467971
715.795584	4432.522739
716.128957	4413.079009
716.462281	4359.572202
716.795556	4331.598839
717.128782	4293.081903
717.461960	4228.620669
717.795088	4236.779777
718.128167	4199.818037
718.461198	4139.251094
718.794180	4133.655413
719.127113	4115.260243
719.459997	4091.652519
719.792833	4050.201632
720.125619	4041.598903
720.458357	4006.131865
720.791046	4013.247453
721.123686	3984.175119
721.456278	3943.750107
721.788821	3960.007828
722.121315	3932.911626
722.453761	3906.004467
722.786158	3922.257147
723.118506	3941.020322
723.450805	3894.939134
723.783056	3918.067948
724.115259	3932.694856
724.447412	3936.553859
724.779518	3929.803754
725.111574	3938.814817
725.443582	3966.256338
725.775542	3951.906693
726.107453	4001.408304
726.439315	3998.539887
726.771129	4016.670397
727.102895	4049.309347
727.434612	4097.338941
727.766281	4111.769244
728.097901	4113.367289
728.429473	4120.064462
728.760996	4122.945482
729.092471	4120.059421
729.423897	4105.092235
729.755276	4108.709263
730.086606	4107.005353
730.417887	4148.413391
730.749120	4212.494018
731.080305	4274.333852
731.411442	4304.074139
731.742530	4271.324283
732.073570	4277.580355
732.404562	4328.985001
732.735506	4323.187674
733.066401	4284.716109
733.397249	4220.653126
733.728048	4141.156650
734.058798	4059.671439
734.389501	3989.397755
734.720156	3926.310235
735.050762	3881.292731
735.381320	3876.390209
735.711831	3822.812826
736.042293	3798.176707
736.372707	3818.243020
736.703073	3789.884009
737.033391	3778.979993
737.363661	3801.642500
737.693883	3824.665450
738.024056	3833.124506
738.354182	3827.276768
738.684260	3890.782703
739.014290	3915.610386
739.344272	3910.155857
739.674207	3947.921661
740.004093	3954.190336
740.333931	3951.828556
740.663722	3948.471147
740.993464	3947.485602
741.323159	3923.829987
741.652806	3892.685739
741.982405	3868.372254
742.311956	3835.962676
742.641460	3824.844411
742.970915	3802.237356
743.300323	3759.135491
743.629683	3728.177765
743.958996	3718.173595
744.288260	3691.667208
744.617477	3659.091272
744.946647	3646.914365
745.275768	3618.734315
745.604842	3617.284983
745.933869	3565.484607
746.262847	3561.068556
746.591778	3599.950976
746.920662	3571.186152
747.249498	3541.466030
747.578286	3586.954881
747.907027	3603.184876
748.235720	3604.908951
748.564365	3626.797641
748.892963	3625.930562
749.221514	3607.265690
749.550017	3586.201229
749.878473	3581.485229
750.206881	3554.230231
750.535242	3553.282494
750.863555	3550.351063
751.191821	3548.672359
751.520039	3528.563196
751.848210	3501.693846
752.176334	3539.542829
752.504411	3546.166906
752.832440	3505.608302
753.160421	3486.598111
753.488356	3501.590503
753.816243	3511.256915
754.144082	3465.571458
754.471875	3451.826753
754.799620	3472.276193
755.127318	3460.633648
755.454969	3463.570120
755.782572	3469.001964
756.110129	3445.351390
756.437638	3435.508538
756.765100	3450.337092
757.092515	3456.252886
757.419882	3466.839309
757.747203	3436.075667
758.074477	3438.082047
758.401703	3458.390335
758.728882	3479.674086
759.056014	3484.944613
759.383099	3488.846466
759.710138	3483.986793
760.037129	3497.640759
760.364073	3532.303732
760.690970	3516.161958
761.017820	3490.900736
761.344623	3514.485774
761.671379	3555.361970
761.998088	3609.151082
762.324751	3735.744537
762.651366	3984.127228
762.977935	4458.025937
763.304456	4900.886261
763.630931	4990.240713
763.957359	4630.887102
764.283740	4289.878250
764.610074	4104.714149
764.936362	3899.987850
765.262602	3741.572111
765.588796	3631.017087
765.914943	3542.663304
766.241044	3452.923203
766.567097	3427.704831
766.893104	3379.581977
767.219064	3350.958305
767.544978	3319.435970
767.870845	3266.771036
768.196665	3247.042480
768.522438	3258.619490
768.848165	3252.431474
769.173846	3217.949982
769.499479	3199.436344
769.825066	3182.349353
770.150607	3163.813030
770.476101	3178.971780
770.801548	3176.224351
771.126949	3132.562918
771.452303	3111.374948
771.777611	3121.792492
772.102872	3126.092597
772.428087	3099.876076
772.753256	3091.795107
773.078378	3082.305134
773.403453	3050.112326
773.728482	3037.136396
774.053465	3057.994170
774.378401	3044.637633
774.703291	3013.248888
775.028135	3017.548993
775.352932	3011.260153
775.677683	2998.115345
776.002388	2995.501506
776.327046	2996.930673
776.651658	2987.710403
776.976224	2974.356387
777.300743	2975.062148
777.625216	2964.664768
777.949643	2962.872638
778.274024	2962.081177
778.598359	2953.733026
778.922647	2957.279478
779.246889	2955.878037
779.571086	2939.254832
779.895236	2932.865170
780.219339	2949.397634
780.543397	2959.366516
780.867409	2960.102524
781.191374	2954.164045
781.515294	2951.656071
781.839167	2952.414764
782.162995	2942.249278
782.486776	2951.449383
782.810511	2947.361008
783.134201	2933.999429
783.457844	2938.037394
783.781441	2934.092691
784.104993	2913.754156
784.428498	2918.565937
784.751958	2929.074222
785.075372	2920.244641
785.398739	2906.361303
785.722061	2924.194385
786.045337	2935.320212
786.368568	2919.435536
786.691752	2912.093095
787.014891	2959.303501
787.337983	2989.870538
787.661030	3016.749970
787.984031	3083.769590
788.306987	3126.687453
788.629897	3120.411216
788.952760	3101.201900
789.275579	3089.594643
789.598351	3030.212371
789.921078	2987.198726
790.243759	2977.524752
790.566395	2960.384829
790.888984	2936.204934
791.211529	2919.927048
791.534027	2908.118146
791.856480	2901.393246
792.178888	2884.399517
792.501249	2878.680328
792.823566	2875.252343
793.145836	2872.930892
793.468062	2870.294368
793.790241	2866.886548
794.112375	2872.583052
794.434464	2882.531769
794.756507	2888.568551
795.078505	2893.667678
795.400457	2908.171078
795.722364	2944.946295
796.044226	2972.808752
796.366042	2971.740028
796.687812	2961.498924
797.009538	2981.567757
797.331218	2967.344142
797.652852	2952.248406
797.974442	2934.679985
798.295986	2931.635128
798.617484	2927.478697
798.938938	2912.645102
799.260346	2897.582134
799.581709	2892.752709
799.903026	2884.424723
800.224299	2878.503887
800.545526	2869.815459
800.866708	2852.347861
801.187845	2843.946778
801.508936	2843.339319
801.829983	2854.523118
802.150984	2840.097857
802.471940	2828.026814
802.792851	2829.763491
803.113717	2827.205106
803.434538	2832.160560
803.755314	2824.954231
804.076045	2819.761842
804.396731	2817.974753
804.717372	2817.788230
805.037967	2812.600883
805.358518	2819.166986
805.679024	2830.993533
805.999485	2825.884323
806.319901	2830.991012
806.640272	2823.613284
806.960598	2829.261897
807.280879	2836.876559
807.601115	2845.423836
807.921306	2830.643173
808.241453	2826.630414
808.561554	2836.919409
808.881611	2838.983762
809.201623	2830.121413
809.521590	2831.175014
809.841513	2826.133861
810.161390	2828.805672
810.481223	2826.383398
810.801011	2813.372180
811.120755	2806.710295
811.440453	2813.780513
811.760107	2814.468631
812.079716	2811.201963
812.399281	2800.948256
812.718801	2794.117492
813.038276	2790.248407
813.357707	2796.491876
813.677093	2799.952628
813.996434	2797.689150
814.315731	2796.204530
814.634983	2785.855041
814.954191	2788.852007
815.273354	2803.539409
815.592473	2810.609627
815.911547	2815.623055
816.230577	2821.153201
816.549562	2832.470591
816.868502	2831.303564
817.187399	2839.807990
817.506250	2857.313397
817.825058	2850.654033
818.143821	2863.950076
818.462539	2875.695965
818.781213	2903.616395
819.099843	2941.977055
819.418429	2995.652741
819.736970	3059.405693
820.055466	3134.309677
820.373919	3238.568301
820.692327	3377.999054
821.010691	3549.350394
821.329011	3990.224504
821.647286	4893.299324
821.965517	6269.068018
822.283704	7010.157962
822.601847	6995.152968
822.919945	6359.770978
823.237999	5854.034863
823.556010	5275.121358
823.873976	4716.213672
824.191897	4310.395746
824.509775	4010.479860
824.827609	3742.166967
825.145398	3622.245479
825.463144	3607.482460
825.780845	3700.403528
826.098502	3804.952018
826.416116	4084.254626
826.733685	4408.027773
827.051210	4470.931291
827.368692	4358.886605
827.686129	4088.635389
828.003522	3760.189092
828.320872	3501.156963
828.638177	3308.151347
828.955439	3168.793690
829.272656	3089.072883
829.589830	3021.839015
829.906960	2969.857157
830.224046	2926.354520
830.541088	2890.774056
830.858086	2874.647405
831.175041	2858.901361
831.491952	2857.489837
831.808819	2872.126828
832.125642	2894.073491
832.442421	2941.556119
832.759157	3024.846063
833.075849	3200.789894
833.392497	3483.407061
833.709101	3685.948019
834.025662	3638.309116
834.342179	3477.987820
834.658653	3298.558032
834.975083	3152.339364
835.291469	3051.574261
835.607811	2967.397074
835.924110	2910.220307
836.240366	2858.283819
836.556578	2814.264464
836.872746	2792.590023
837.188871	2771.389450
837.504952	2750.816502
837.820990	2743.963053
838.136984	2732.887638
838.452935	2721.902964
838.768842	2722.903633
839.084706	2740.663618
839.400526	2819.290494
839.716303	2951.920731
840.032037	3032.957279
840.347727	3015.777027
840.663373	2954.958027
840.978977	2880.825339
841.294537	2810.932261
841.610054	2761.904519
841.925527	2738.957187
842.240957	2716.377859
842.556344	2696.838347
842.871687	2680.242868
843.186987	2670.079902
843.502244	2666.021773
843.817458	2662.233346
844.132629	2649.953095
844.447756	2640.873977
844.762840	2633.428193
845.077881	2639.540592
845.392879	2635.936167
845.707833	2629.604478
846.022745	2624.417131
846.337613	2627.255300
846.652438	2625.788324
846.967221	2627.451905
847.281960	2623.413941
847.596656	2622.370422
847.911309	2621.183230
848.225919	2619.784310
848.540485	2614.123094
848.855009	2616.691562
849.169490	2615.867334
849.483928	2616.247941
849.798323	2615.648043
850.112675	2613.001438
850.426984	2613.056890
850.741251	2612.651077
851.055474	2613.734926
851.369654	2617.888836
851.683792	2616.293311
851.997887	2613.084617
852.311938	2610.100254
852.625947	2615.554782
852.939914	2617.084772
853.253837	2616.288270
853.567718	2613.429936
853.881555	2613.903804
854.195350	2614.357508
854.509103	2612.436828
854.822812	2614.516304
855.136479	2612.724174
855.450103	2612.341047
855.763685	2611.998248
856.077224	2611.181581
856.390720	2608.547578
856.704173	2613.182919
857.017584	2617.016717
857.330953	2619.635596
857.644278	2620.142232
857.957561	2618.947479
858.270802	2615.771552
858.584000	2616.573095
858.897155	2619.287757
859.210268	2619.741460
859.523339	2615.963116
859.836367	2609.454986
860.149352	2612.449431
860.462295	2612.898094
860.775195	2610.304420
861.088054	2611.000100
861.400869	2609.467589
861.713642	2603.713112
862.026373	2607.073041
862.339062	2611.085799
862.651708	2616.981429
862.964312	2618.072838
863.276873	2615.509412
863.589392	2618.965123
863.901869	2621.614249
864.214303	2625.944600
864.526696	2629.165897
864.839045	2629.002060
865.151353	2633.743265
865.463619	2632.268728
865.775842	2631.666310
866.088023	2632.301495
866.400162	2633.408028
866.712258	2634.776702
867.024313	2632.498100
867.336325	2629.218830
867.648296	2628.318984
867.960224	2635.084212
868.272110	2634.655714
868.583954	2627.764457
868.895755	2629.435599
869.207515	2631.673872
869.519233	2637.914820
869.830909	2635.545478
870.142542	2632.024232
870.454134	2634.630508
870.765684	2637.539254
871.077191	2641.988072
871.388657	2642.565284
871.700081	2642.046046
872.011463	2641.075623
872.322803	2644.954791
872.634101	2647.994607
872.945357	2656.017603
873.256571	2660.554642
873.567744	2658.916267
873.878874	2655.639517
874.189963	2657.318221
874.501010	2663.967503
874.812015	2668.096208
875.122979	2667.337514
875.433900	2657.449291
875.744780	2657.376194
876.055618	2662.175373
876.366415	2669.369099
876.677169	2668.176867
876.987882	2660.360558
877.298554	2662.094714
877.609183	2669.706857
877.919771	2678.619617
878.230317	2687.192099
878.540822	2696.215764
878.851285	2710.159596
879.161707	2732.108780
879.472087	2773.773916
879.782425	2820.626400
880.092722	2934.266611
880.402977	3124.393728
880.713191	3379.604662
881.023363	3676.483253
881.333494	3870.986092
881.643583	4043.887587
881.953631	4040.920867
882.263637	3861.367570
882.573602	3640.723828
882.883526	3509.404291
883.193408	3397.795666
883.503248	3292.889254
883.813048	3182.606452
884.122806	3065.545818
884.432522	2977.857468
884.742197	2916.367994
885.051831	2875.194370
885.361424	2842.648681
885.670975	2804.235088
885.980485	2773.300048
886.289954	2755.504775
886.599382	2741.460120
886.908768	2731.340004
887.218113	2712.002137
887.527417	2699.547967
887.836680	2692.649148
888.145901	2683.242355
888.455082	2676.348577
888.764221	2666.374654
889.073319	2661.406597
889.382376	2659.009528
889.691392	2657.340906
890.000366	2658.076915
890.309300	2659.586740
890.618193	2659.400218
890.927044	2659.846360
891.235855	2663.695281
891.544625	2660.731082
891.853353	2663.254180
892.162041	2668.408760
892.470687	2687.713858
892.779293	2701.188862
893.087858	2709.501725
893.396381	2733.038872
893.704864	2773.378186
894.013306	2847.019361
894.321707	2940.293310
894.630068	2988.305259
894.938387	3009.841068
895.246665	3003.302692
895.554903	2957.665126
895.863100	2915.795823
896.171256	2855.417923
896.479371	2797.996660
896.787446	2754.952768
897.095480	2736.991137
897.403473	2728.567369
897.711425	2715.412478
898.019336	2698.731300
898.327207	2683.012982
898.635038	2681.288908
898.942827	2680.956192
899.250576	2669.918585
899.558284	2656.133550
899.865952	2654.411996
900.173579	2652.498878
900.481165	2650.144659
900.788711	2642.930768
901.096216	2635.300982
901.403681	2631.449540
901.711105	2632.800569
902.018489	2629.894344
902.325832	2634.567494
902.633135	2634.736372
902.940397	2649.421254
903.247619	2688.069260
903.554800	2757.561565
903.861941	2884.437325
904.169041	3015.030936
904.476101	3074.909762
904.783121	3069.107394
905.090100	3011.522293
905.397039	2935.599996
905.703938	2862.654500
906.010796	2797.656382
906.317614	2744.358783
906.624391	2710.530121
906.931129	2683.575071
907.237826	2661.643531
907.544483	2642.212404
907.851099	2627.890486
908.157675	2616.255502
908.464211	2611.970522
908.770707	2599.236567
909.077163	2597.386464
909.383578	2592.146184
909.689954	2594.810434
909.996289	2589.948241
910.302584	2589.310535
910.608839	2585.761563
910.915054	2587.742736
911.221229	2589.098807
911.527363	2591.543766
911.833458	2589.398755
912.139513	2592.703232
912.445527	2592.975454
912.751502	2598.598861
913.057436	2602.833430
913.363331	2610.029677
913.669186	2621.168107
913.975000	2632.243522
914.280775	2649.317910
914.586510	2671.967814
914.892205	2706.285469
915.197859	2775.245933
915.503475	2859.932277
915.809050	2923.748243
916.114585	2940.996551
916.420081	2952.780248
916.725536	2962.497072
917.030952	2938.087805
917.336328	2890.718603
917.641665	2841.353104
917.946961	2790.752522
918.252218	2757.001997
918.557435	2731.501321
918.862612	2707.941488
919.167750	2688.790145
919.472848	2671.977897
919.777906	2657.653458
920.082925	2646.540234
920.387904	2633.650004
920.692843	2630.952987
920.997743	2625.173304
921.302603	2617.760287
921.607423	2608.829883
921.912204	2604.617999
922.216946	2599.919643
922.521647	2597.880497
922.826310	2595.057451
923.130932	2592.393201
923.435516	2585.917839
923.740059	2585.527149
924.044564	2584.070256
924.349028	2581.937848
924.653454	2571.696744
924.957840	2572.742783
925.262186	2568.881259
925.566493	2571.704305
925.870761	2568.382185
926.174989	2567.043759
926.479178	2566.761454
926.783328	2561.143088
927.087438	2562.433623
927.391509	2561.125444
927.695541	2560.591082
927.999533	2557.831050
928.303486	2555.837274
928.607400	2558.781307
928.911275	2556.651420
929.215110	2557.276523
929.518906	2557.521019
929.822663	2557.195865
930.126381	2559.671071
930.430060	2555.560010
930.733699	2557.563869
931.037299	2556.890875
931.340861	2558.251986
931.644383	2556.626214
931.947866	2560.391956
932.251309	2559.678633
932.554714	2555.441543
932.858080	2558.478838
933.161407	2555.686039
933.464694	2556.777449
933.767943	2557.379867
934.071153	2552.689073
934.374323	2551.335523
934.677455	2554.781152
934.980548	2551.630431
935.283602	2555.325597
935.586617	2554.987839
935.889593	2553.145297
936.192530	2554.045143
936.495428	2555.577654
936.798287	2553.858621
937.101108	2555.260062
937.403890	2560.291133
937.706632	2562.360527
938.009336	2566.138872
938.312002	2568.719942
938.614628	2573.703123
938.917216	2575.167578
939.219765	2576.780747
939.522275	2576.097671
939.824747	2577.395768
940.127179	2573.483833
940.429573	2566.547205
940.731929	2567.497462
941.034246	2565.128120
941.336524	2566.312791
941.638763	2568.483008
941.940964	2570.204562
942.243126	2565.932184
942.545250	2564.729869
942.847335	2561.228788
943.149381	2559.676112
943.451389	2559.991184
943.753359	2560.961607
944.055290	2557.573951
944.357182	2559.018242
944.659036	2554.897098
944.960851	2558.385577
945.262628	2554.337530
945.564367	2557.649568
945.866067	2557.281564
946.167729	2558.783828
946.469352	2555.391132
946.770937	2556.298539
947.072484	2555.444064
947.373992	2558.166287
947.675462	2554.834084
947.976893	2555.822150
948.278286	2556.487583
948.579641	2554.640000
948.880958	2551.794268
949.182236	2551.784186
949.483476	2554.057746
949.784678	2553.278888
950.085841	2553.036913
950.386967	2554.907181
950.688054	2552.976419
950.989103	2557.513457
951.290114	2554.710576
951.591087	2557.856256
951.892021	2559.406411
952.192917	2560.492779
952.493776	2559.121585
952.794596	2562.897410
953.095378	2560.568397
953.396122	2562.418500
953.696828	2559.134188
953.997496	2559.955896
954.298126	2556.850546
954.598718	2556.263251
954.899272	2554.937428
955.199788	2556.457336
955.500266	2548.454504
955.800706	2546.695141
956.101108	2543.683052
956.401472	2548.063814
956.701798	2543.773792
957.002087	2543.723381
957.302337	2545.717157
957.602550	2545.691952
957.902724	2543.862013
958.202861	2543.796478
958.502960	2545.608772
958.803022	2544.814791
959.103045	2542.717671
959.403031	2542.573998
959.702979	2539.914789
960.002889	2544.663556
960.302762	2538.969573
960.602596	2541.500232
960.902393	2540.154244
961.202153	2542.412681
961.501875	2537.144675
961.801559	2541.366642
962.101205	2537.273225
962.400814	2536.748945
962.700385	2539.214069
962.999918	2541.989224
963.299414	2537.336239
963.598873	2538.069727
963.898293	2538.646939
964.197677	2539.584594
964.497022	2535.828934
964.796331	2536.834644
965.095601	2540.179450
965.394835	2537.358924
965.694030	2540.282793
965.993189	2536.738862
966.292309	2537.495035
966.591393	2537.958822
966.890439	2536.290200
967.189447	2537.109387
967.488419	2539.534182
967.787353	2541.482588
968.086249	2538.896476
968.385108	2538.662062
968.683930	2539.030067
968.982714	2540.461754
969.281462	2540.968390
969.580172	2538.591486
969.878844	2535.445806
970.177480	2539.768596
970.476078	2539.360262
970.774639	2538.019315
971.073162	2536.509490
971.371649	2537.966383
971.670098	2534.954294
971.968510	2537.542926
972.266885	2537.121990
972.565223	2539.035108
972.863524	2538.452855
973.161788	2538.352032
973.460014	2541.679193
973.758204	2538.959491
974.056356	2537.351362
974.354471	2541.316230
974.652550	2539.700540
974.950591	2538.195756
975.248595	2536.524613
975.546563	2537.845396
975.844493	2538.112577
976.142386	2538.594007
976.440243	2536.617875
976.738062	2537.968904
977.035845	2536.015457
977.333590	2537.094264
977.631299	2535.077802
977.928971	2537.991589
978.226606	2536.597710
978.524204	2537.303472
978.821765	2534.432534
979.119290	2536.680889
979.416777	2533.973789
979.714228	2539.168698
980.011642	2536.388502
980.309020	2538.566281
980.606360	2535.430683
980.903664	2534.772812
981.200931	2541.069213
981.498162	2540.749100
981.795356	2540.184491
982.092513	2544.245140
982.389633	2545.281097
982.686717	2549.460214
982.983764	2551.567416
983.280775	2557.178221
983.577749	2552.605894
983.874686	2552.903322
984.171587	2546.339740
984.468451	2546.322096
984.765279	2544.852599
985.062070	2546.536345
985.358824	2540.136600
985.655543	2540.905376
985.952224	2536.867412
986.248869	2539.912269
986.545478	2531.601927
986.842050	2537.374048
987.138586	2532.844571
987.435086	2532.481608
987.731549	2533.646114
988.027975	2537.520241
988.324366	2532.083357
988.620719	2536.270035
988.917037	2535.231557
989.213318	2533.174767
989.509563	2535.864222
989.805772	2533.759540
990.101944	2529.691329
990.398080	2533.300795
990.694180	2532.761392
990.990244	2533.656197
991.286271	2536.738862
991.582262	2534.394726
991.878217	2534.198121
992.174136	2535.801208
992.470019	2533.724252
992.765865	2533.217616
993.061676	2534.210724
993.357450	2538.047042
993.653188	2533.744417
993.948890	2532.995806
994.244556	2533.172246
994.540186	2535.465971
994.835780	2535.125693
995.131337	2533.046217
995.426859	2538.246167
995.722345	2537.527803
996.017795	2536.620395
996.313208	2538.004192
996.608586	2538.951929
996.903928	2536.741383
997.199234	2538.170550
997.494504	2540.229861
997.789738	2538.241126
998.084936	2538.886394
998.380099	2536.660724
998.675225	2533.820034
998.970316	2535.574356
999.265371	2537.689120
999.560390	2535.919675
999.855373	2537.341280
1000.150320	2535.692823
1000.445232	2533.714170
1000.740108	2534.389685
1001.034948	2535.813811
1001.329752	2533.671320
1001.624521	2533.058820
1001.919254	2528.090763
1002.213951	2532.647966
1002.508613	2531.390198
1002.803239	2530.825589
1003.097829	2528.463808
1003.392384	2535.881866
1003.686903	2536.668286
1003.981386	2531.836340
1004.275834	2533.419263
1004.570246	2535.115611
1004.864623	2532.549663
1005.158964	2537.061496
1005.453270	2533.053779
1005.747540	2532.605116
1006.041775	2534.286341
1006.335974	2533.041176
1006.630138	2531.375075
1006.924266	2531.967410
1007.218359	2534.427493
1007.512416	2533.699047
1007.806438	2533.661238
1008.100425	2533.381454
1008.394376	2532.907585
1008.688292	2533.194931
1008.982172	2532.549663
1009.276017	2534.437576
1009.569827	2533.457071
1009.863602	2538.437731
1010.157341	2531.238963
1010.451045	2533.971269
1010.744714	2531.105373
1011.038347	2532.443799
1011.331945	2532.153933
1011.625508	2533.414221
1011.919036	2532.877338
1012.212528	2533.915816
1012.505986	2530.802904
1012.799408	2532.763913
1013.092795	2532.630322
1013.386147	2532.131248
1013.679464	2528.673016
1013.972745	2530.608819
1014.265992	2532.186700
1014.559204	2531.629653
1014.852380	2532.484128
1015.145521	2533.252904
1015.438628	2533.941022
1015.731699	2533.242822
1016.024736	2533.704088
1016.317737	2531.642256
1016.610703	2532.683254
1016.903635	2531.203675
1017.196531	2527.768129
1017.489393	2531.032276
1017.782219	2526.674199
1018.075011	2531.541433
1018.367768	2528.783922
1018.660490	2534.427493
1018.953177	2534.427493
1019.245829	2534.427493
