Dividing Wavelength (nm)	Counts (n)	Blue Motor Position (mm): 12.000000	Red Motor Position (mm): 0.000000	
326.493990	2138.815383
326.888308	2138.815383
327.282561	2138.815383
327.676750	2107.540065
328.070874	2104.785074
328.464933	2109.727926
328.858929	2116.989708
329.252859	2123.097066
329.646726	2134.336318
330.040528	2147.934831
330.434265	2166.337563
330.827938	2183.384225
331.221547	2200.814014
331.615091	2219.173896
332.008571	2237.218707
332.401986	2258.484814
332.795338	2275.218924
333.188625	2297.394960
333.581847	2314.393731
333.975006	2333.789570
334.368100	2353.631552
334.761129	2370.196783
335.154095	2384.279247
335.546996	2409.691703
335.939833	2425.427665
336.332606	2437.796136
336.725315	2449.834411
337.117960	2462.036524
337.510540	2467.491053
337.903056	2481.076962
338.295508	2487.217087
338.687896	2492.535505
339.080220	2504.714933
339.472480	2506.741476
339.864676	2515.245903
340.256807	2521.998528
340.648875	2523.999867
341.040879	2525.386184
341.432818	2525.671009
341.824694	2527.937008
342.216506	2527.914323
342.608253	2526.880886
342.999937	2530.233253
343.391557	2527.838705
343.783113	2527.440454
344.174605	2525.978519
344.566033	2525.325690
344.957397	2521.665812
345.348697	2523.646986
345.739934	2518.994001
346.131106	2516.733043
346.522215	2517.136336
346.913260	2514.255316
347.304241	2513.181550
347.695159	2513.796571
348.086012	2507.616117
348.476802	2506.718791
348.867528	2501.725528
349.258191	2505.319871
349.648789	2503.071516
350.039324	2500.606392
350.429796	2501.294510
350.820203	2501.181084
351.210548	2497.967348
351.600828	2495.217399
351.991045	2496.056751
352.381198	2495.713952
352.771288	2496.202944
353.161314	2493.392501
353.551276	2494.425938
353.941175	2494.683036
354.331010	2493.863849
354.720782	2493.826040
355.110490	2493.952069
355.500135	2494.367964
355.889717	2493.866369
356.279235	2492.787562
356.668689	2498.355517
357.058080	2495.245125
357.447408	2493.503406
357.836672	2495.096411
358.225873	2492.384270
358.615010	2490.244300
359.004084	2495.424086
359.393095	2498.184118
359.782043	2497.990033
360.170927	2498.443737
360.559748	2498.136227
360.948505	2498.960455
361.337199	2499.421721
361.725830	2499.729231
362.114398	2500.566063
362.502903	2501.130672
362.891344	2503.696619
363.279722	2502.080930
363.668037	2503.316012
364.056289	2502.040600
364.444478	2503.280724
364.832603	2503.825169
365.220665	2504.752741
365.608665	2506.207114
365.996601	2504.777947
366.384474	2505.929851
366.772284	2505.980262
367.160031	2507.608555
367.547715	2508.790705
367.935336	2506.318019
368.322893	2510.033350
368.710388	2507.106960
369.097820	2510.965963
369.485189	2507.497649
369.872495	2510.474451
370.259738	2509.067969
370.646918	2509.982938
371.034035	2508.221055
371.421090	2510.570233
371.808081	2509.861951
372.195010	2511.666684
372.581875	2509.866992
372.968678	2512.153155
373.355418	2513.403361
373.742096	2509.390603
374.128710	2511.349091
374.515262	2510.333298
374.901751	2511.651560
375.288177	2513.882271
375.674540	2510.804646
376.060841	2512.997548
376.447079	2512.042250
376.833254	2514.290604
377.219367	2507.853051
377.605417	2511.427229
377.991404	2508.271467
378.377329	2511.376817
378.763191	2510.471930
379.148991	2513.640295
379.534727	2512.662312
379.920402	2516.181037
380.306013	2514.164575
380.691563	2517.353105
381.077049	2513.118536
381.462474	2515.714730
381.847835	2516.854031
382.233134	2515.845800
382.618371	2516.541479
383.003545	2517.038033
383.388657	2518.124402
383.773706	2514.640964
384.158693	2520.352592
384.543618	2512.899246
384.928480	2516.957375
385.313280	2517.317817
385.698017	2518.941069
386.082692	2518.147087
386.467305	2516.967457
386.851856	2519.019207
387.236344	2516.990142
387.620770	2520.707993
388.005133	2518.121881
388.389435	2520.297139
388.773674	2518.429392
389.157851	2518.794875
389.541965	2519.445184
389.926018	2519.172962
390.310008	2521.373425
390.693936	2520.597088
391.077802	2519.316635
391.461606	2519.984588
391.845348	2521.086080
392.229027	2517.562313
392.612645	2521.990967
392.996200	2523.246214
393.379694	2519.117509
393.763125	2522.613549
394.146494	2518.497447
394.529801	2523.823426
394.913047	2521.139012
395.296230	2523.639424
395.679351	2524.017511
396.062410	2523.606657
396.445408	2521.932993
396.828343	2523.788138
397.211217	2518.066428
397.594028	2521.713703
397.976778	2520.002232
398.359466	2522.716893
398.742092	2517.761439
399.124656	2525.615556
399.507158	2523.684794
399.889598	2524.632531
400.271977	2526.555732
400.654294	2524.680422
401.036549	2524.856863
401.418742	2525.358458
401.800874	2525.282840
402.182944	2526.684281
402.564952	2524.267048
402.946898	2526.280989
403.328783	2529.683767
403.710606	2524.443488
404.092367	2525.560104
404.474067	2524.723272
404.855705	2526.845598
405.237282	2526.780063
405.618797	2527.755526
406.000250	2528.983047
406.381642	2527.674868
406.762972	2527.788294
407.144240	2527.977337
407.525447	2529.512368
407.906593	2528.748633
408.287677	2529.061185
408.668700	2527.712676
409.049661	2527.359796
409.430560	2530.762574
409.811399	2532.118645
410.192176	2529.698891
410.572891	2530.470187
410.953545	2529.653521
411.334138	2530.079498
411.714669	2527.579086
412.095139	2529.701412
412.475547	2529.766947
412.855894	2531.743079
413.236180	2530.197965
413.616405	2532.826927
413.996568	2531.947246
414.376670	2532.267359
414.756711	2529.466998
415.136691	2530.601257
415.516609	2531.503624
415.896466	2532.108563
416.276262	2531.453212
416.655997	2527.059847
417.035670	2526.646472
417.415283	2532.436237
417.794834	2526.936339
418.174324	2529.333407
418.553753	2532.852133
418.933121	2532.363141
419.312428	2532.968079
419.691674	2531.226361
420.070859	2531.191073
420.449983	2532.632842
420.829045	2530.795342
421.208047	2533.386495
421.586988	2531.145702
421.965867	2533.976310
422.344686	2529.124199
422.723444	2531.175949
423.102141	2534.316588
423.480777	2533.356248
423.859352	2532.148892
424.237866	2535.292051
424.616319	2533.814993
424.994712	2535.803728
425.373044	2533.162164
425.751314	2531.359951
426.129524	2533.620909
426.507673	2533.789787
426.885762	2533.938501
427.263789	2535.783564
427.641756	2534.732483
428.019662	2535.707946
428.397508	2533.661238
428.775292	2535.884387
429.153016	2533.570497
429.530679	2533.257946
429.908282	2535.690302
430.285824	2536.819521
430.663305	2536.736342
431.040726	2537.555529
431.418086	2534.614016
431.795385	2537.119469
432.172624	2537.187525
432.549802	2538.485622
432.926920	2535.755837
433.303977	2536.794315
433.680974	2535.350024
434.057910	2534.964376
434.434786	2539.889583
434.811601	2538.667104
435.188355	2537.079140
435.565050	2538.064686
435.941683	2536.547298
436.318257	2534.349355
436.694770	2533.890610
437.071222	2534.220806
437.447614	2535.266845
437.823946	2535.034952
438.200218	2536.489325
438.576429	2539.554347
438.952580	2539.819007
439.328670	2537.469830
439.704700	2538.394881
440.080670	2535.977648
440.456580	2538.462937
440.832429	2540.817156
441.208218	2537.890766
441.583947	2539.677855
441.959616	2539.945036
442.335224	2541.895963
442.710773	2541.633823
443.086261	2538.084850
443.461689	2539.231713
443.837057	2538.790612
444.212365	2538.672145
444.587612	2539.251878
444.962800	2538.478060
445.337927	2539.125849
445.712995	2538.236085
446.088002	2542.994934
446.462949	2540.560057
446.837837	2539.750952
447.212664	2540.454193
447.587431	2542.755479
447.962139	2538.266332
448.336786	2542.999975
448.711374	2543.675490
449.085901	2540.794471
449.460369	2539.226672
449.834776	2542.198432
450.209124	2541.976621
450.583412	2540.723894
450.957640	2540.318082
451.331808	2539.264480
451.705917	2541.580891
452.079965	2543.519214
452.453954	2542.881508
452.827883	2540.408822
453.201752	2541.800181
453.575562	2540.313040
453.949311	2542.906714
454.323001	2543.766231
454.696632	2542.306817
455.070202	2547.927703
455.443713	2541.704399
455.817164	2538.374717
456.190556	2537.371527
456.563888	2540.328164
456.937160	2540.093750
457.310373	2541.348997
457.683526	2541.923689
458.056619	2542.737835
458.429653	2544.282949
458.802628	2543.393185
459.175542	2542.687424
459.548398	2543.549461
459.921194	2539.692978
460.293930	2543.418391
460.666607	2543.763710
461.039224	2541.343956
461.411782	2539.864378
461.784280	2540.492001
462.156719	2544.035932
462.529099	2543.226827
462.901419	2544.373690
463.273680	2544.416540
463.645882	2543.690613
464.018024	2541.003678
464.390106	2545.873433
464.762130	2545.187836
465.134094	2543.841848
465.505999	2545.288659
465.877845	2542.548792
466.249631	2542.584080
466.621358	2546.644730
466.993026	2546.178423
467.364634	2546.886705
467.736184	2546.223793
468.107674	2543.373021
468.479105	2544.603062
468.850477	2542.891591
469.221790	2546.390151
469.593043	2547.279915
469.964238	2545.747404
470.335373	2544.164482
470.706449	2546.624565
471.077467	2545.339071
471.448425	2545.538196
471.819324	2545.197918
472.190164	2545.326468
472.560945	2546.266643
472.931667	2543.897301
473.302330	2546.458207
473.672934	2546.135573
474.043479	2545.286139
474.413965	2544.056097
474.784393	2543.851930
475.154761	2541.931251
475.525070	2542.332023
475.895321	2544.000644
476.265513	2541.464944
476.635645	2548.015923
477.005719	2545.787733
477.375734	2547.786551
477.745691	2549.039278
478.115588	2546.954761
478.485427	2548.099103
478.855207	2546.795964
479.224928	2548.872920
479.594591	2549.435008
479.964194	2547.345450
480.333739	2546.864020
480.703226	2548.376366
481.072653	2550.395348
481.442022	2548.366284
481.811333	2548.157076
482.180584	2546.732950
482.549777	2547.761345
482.918912	2548.489792
483.287988	2549.853424
483.657005	2548.953578
484.025964	2546.737991
484.394864	2547.635316
484.763706	2547.090872
485.132489	2547.216901
485.501213	2553.036913
485.869879	2550.405430
486.238487	2547.695810
486.607036	2548.081458
486.975527	2550.203784
487.343959	2548.935934
487.712333	2548.051212
488.080648	2548.595656
488.448905	2549.752601
488.817104	2549.155224
489.185244	2547.889895
489.553326	2548.449463
489.921350	2552.086655
490.289315	2547.675646
490.657222	2549.200595
491.025070	2550.198743
491.392861	2550.546583
491.760593	2549.666901
492.128267	2551.199412
492.495883	2552.563044
492.863440	2550.896943
493.230939	2547.441232
493.598380	2549.233362
493.965763	2545.265974
494.333088	2546.548948
494.700354	2544.507280
495.067563	2547.567261
495.434713	2542.289173
495.801805	2550.183620
496.168839	2550.980122
496.535815	2552.618497
496.902733	2550.526418
497.269593	2550.531459
497.636395	2550.377704
498.003139	2552.494989
498.369825	2549.369473
498.736453	2550.249155
499.103023	2552.605894
499.469535	2552.505071
499.835989	2551.769062
500.202385	2550.256716
500.568723	2551.373332
500.935003	2552.613456
501.301226	2551.239741
501.667390	2551.113713
502.033497	2550.748229
502.399546	2551.766542
502.765537	2549.651778
503.131470	2552.343754
503.497345	2550.914587
503.863163	2549.805533
504.228923	2553.914073
504.594625	2550.612118
504.960269	2548.570450
505.325856	2549.911397
505.691385	2552.595812
506.056856	2550.987684
506.422270	2550.453321
506.787625	2551.002807
507.152924	2550.768393
507.518164	2551.459032
507.883347	2552.489947
508.248472	2551.206974
508.613540	2552.852911
508.978550	2549.868547
509.343503	2552.008517
509.708398	2551.295194
510.073236	2550.586912
510.438016	2554.733261
510.802738	2551.519525
511.167403	2551.849721
511.532010	2553.833415
511.896561	2552.283260
512.261053	2551.143959
512.625488	2552.447098
512.989866	2549.064483
513.354186	2552.280740
513.718449	2546.264123
514.082655	2549.818136
514.446803	2551.738816
514.810894	2553.036913
515.174927	2555.928014
515.538904	2553.437684
515.902822	2554.327448
516.266684	2554.675288
516.630488	2553.452808
516.994235	2555.401214
517.357925	2555.088662
517.721558	2553.455328
518.085133	2556.618653
518.448651	2555.353323
518.812112	2554.415668
519.175516	2553.346944
519.538863	2555.897768
519.902152	2557.974723
520.265385	2555.880123
520.628560	2557.266441
520.991678	2556.537994
521.354739	2558.584702
521.717743	2557.047151
522.080690	2558.534291
522.443580	2561.800959
522.806413	2558.867007
523.169189	2559.746688
523.531908	2560.875907
523.894569	2557.997408
524.257174	2558.705690
524.619722	2558.541853
524.982213	2561.097718
525.344647	2556.958930
525.707025	2558.599826
526.069345	2559.774415
526.431608	2562.703325
526.793815	2559.658468
527.155964	2563.003274
527.518057	2561.037224
527.880093	2564.727348
528.242072	2562.824313
528.603995	2563.963614
528.965860	2563.391443
529.327669	2565.964952
529.689421	2562.768860
530.051117	2563.784653
530.412755	2563.058727
530.774337	2564.601320
531.135862	2565.223902
531.497331	2561.009498
531.858743	2562.415979
532.220098	2562.789025
532.581396	2558.859445
532.942638	2564.077040
533.303824	2563.237688
533.664953	2566.060734
534.026025	2565.309602
534.387040	2566.206927
534.747999	2567.565518
535.108902	2566.075857
535.469748	2567.573080
535.830537	2568.566187
536.191270	2565.233984
536.551947	2567.522668
536.912567	2565.831361
537.273131	2569.904613
537.633638	2566.033007
537.994089	2566.854715
538.354483	2568.067113
538.714821	2569.372772
539.075103	2568.636763
539.435328	2570.955694
539.795497	2570.280179
540.155609	2572.213462
540.515665	2571.822773
540.875665	2570.038204
541.235609	2572.374779
541.595496	2570.839748
541.955328	2571.812690
542.315102	2570.207083
542.674821	2571.933678
543.034483	2570.585169
543.394090	2574.038360
543.753640	2574.358473
544.113134	2572.445355
544.472571	2574.728998
544.831953	2572.639439
545.191278	2572.982238
545.550548	2572.573904
545.909761	2572.405026
546.268918	2573.093143
546.628019	2571.469892
546.987064	2573.007444
547.346053	2571.890828
547.704986	2572.702454
548.063863	2573.773699
548.422684	2573.902248
548.781449	2575.676735
549.140158	2574.275294
549.498811	2576.982393
549.857408	2574.008113
550.215949	2569.319840
550.574434	2571.810170
550.932864	2572.049624
551.291237	2568.598955
551.649555	2576.674883
552.007817	2572.944429
552.366022	2574.396282
552.724173	2571.815211
553.082267	2573.299831
553.440305	2575.976683
553.798288	2571.237999
554.156215	2573.519121
554.514086	2575.248237
554.871902	2573.904769
555.229661	2573.914851
555.587365	2573.430901
555.945014	2574.149265
556.302606	2576.125397
556.660143	2574.290417
557.017625	2575.139852
557.375050	2576.039698
557.732421	2574.154306
558.089735	2574.416446
558.446994	2578.283011
558.804197	2576.203535
559.161345	2574.885273
559.518437	2574.139183
559.875474	2576.647157
560.232455	2573.110787
560.589381	2572.813359
560.946251	2579.460121
561.303065	2573.511559
561.659825	2577.483988
562.016528	2574.817218
562.373177	2573.375448
562.729770	2576.049780
563.086307	2576.939544
563.442789	2576.495922
563.799216	2577.483988
564.155587	2574.106415
564.511904	2577.972980
564.868164	2574.645819
565.224370	2574.199677
565.580520	2576.195973
565.936615	2576.717733
566.292654	2579.165213
566.648638	2575.593556
567.004567	2574.325705
567.360441	2575.969122
567.716260	2575.223031
568.072023	2575.757393
568.427732	2571.840417
568.783385	2573.942578
569.138982	2574.918041
569.494525	2575.633885
569.850013	2572.132803
570.205445	2576.538772
570.560823	2576.647157
570.916145	2578.126735
571.271412	2575.893504
571.626625	2579.465162
571.981782	2576.422825
572.336884	2580.758218
572.691931	2578.162023
573.046923	2577.393247
573.401860	2580.039853
573.756743	2580.617065
574.111570	2577.415933
574.466342	2577.085737
574.821059	2576.732856
575.175722	2578.993814
575.530330	2580.100347
575.884882	2582.326017
576.239380	2581.826942
576.593823	2578.061200
576.948211	2580.281829
577.302544	2578.895511
577.656823	2580.077662
578.011047	2583.462797
578.365216	2581.403485
578.719330	2582.416757
579.073389	2583.339288
579.427394	2583.112437
579.781344	2582.068918
580.135239	2584.942375
580.489080	2582.157138
580.842866	2584.329875
581.196597	2589.280288
581.550273	2588.168714
581.903895	2590.071749
582.257463	2590.487645
582.610975	2588.362798
582.964434	2592.342789
583.317837	2592.957810
583.671186	2591.115268
584.024481	2589.897830
584.377721	2594.966710
584.730906	2593.252718
585.084037	2597.578027
585.437113	2596.032914
585.790135	2596.446288
586.143103	2600.552308
586.496016	2599.838985
586.848874	2595.657348
587.201679	2601.376537
587.554428	2598.034252
587.907124	2603.357710
588.259765	2600.743872
588.612352	2606.717639
588.964884	2607.574636
589.317362	2612.646036
589.669786	2609.497836
590.022155	2613.281222
590.374470	2614.738115
590.726731	2613.739967
591.078937	2615.234669
591.431090	2620.144753
591.783188	2617.356995
592.135232	2619.703652
592.487222	2621.798251
592.839157	2624.260855
593.191038	2624.568365
593.542866	2624.850670
593.894639	2627.867800
594.246358	2630.312760
594.598022	2631.414252
594.949633	2632.069602
595.301190	2636.684778
595.652692	2636.042031
596.004141	2640.816004
596.355535	2640.377424
596.706876	2639.515386
597.058162	2643.157620
597.409395	2645.736170
597.760573	2648.965029
598.111698	2648.249185
598.462768	2653.791934
598.813785	2653.252531
599.164748	2655.087511
599.515657	2655.647079
599.866511	2659.906854
600.217312	2662.480363
600.568060	2667.050169
600.918753	2674.553926
601.269392	2671.728359
601.619978	2674.939574
601.970510	2681.684638
602.320988	2683.421316
602.671412	2690.128571
603.021783	2687.212263
603.372100	2692.913808
603.722363	2699.250539
604.072572	2701.869418
604.422728	2704.674820
604.772830	2705.499049
605.122878	2707.613813
605.472872	2711.815615
605.822813	2717.716285
606.172701	2720.004969
606.522534	2729.031155
606.872314	2734.460478
607.222041	2737.447362
607.571714	2742.972466
607.921333	2748.147211
608.270899	2751.794485
608.620411	2761.924684
608.969870	2764.102462
609.319276	2773.088319
609.668627	2780.587036
610.017926	2787.281688
610.367171	2802.936991
610.716362	2802.163174
611.065500	2810.034936
611.414585	2819.030875
611.763616	2821.329641
612.112594	2826.580003
612.461518	2834.839933
612.810389	2845.673373
613.159207	2850.396934
613.507971	2853.275433
613.856682	2871.945346
614.205340	2875.222096
614.553945	2889.430588
614.902496	2896.188255
615.250994	2903.460119
615.599439	2915.581574
615.947830	2922.492996
616.296169	2931.680499
616.644454	2942.037549
616.992686	2953.859055
617.340864	2973.000316
617.688990	2971.200624
618.037063	2987.493633
618.385082	2996.340858
618.733048	3018.433715
619.080961	3021.382790
619.428821	3035.782846
619.776628	3047.916903
620.124382	3053.557955
620.472083	3064.446847
620.819731	3073.609144
621.167326	3073.525965
621.514868	3086.277564
621.862357	3083.555341
622.209793	3091.275868
622.557176	3098.651076
622.904506	3102.444544
623.251783	3101.486725
623.599007	3108.975359
623.946179	3114.258488
624.293297	3123.982874
624.640363	3123.977833
624.987376	3130.886734
625.334336	3134.216416
625.681243	3144.026502
626.028097	3150.751401
626.374899	3160.594254
626.721647	3172.007426
627.068343	3171.949453
627.414987	3180.405988
627.761577	3186.052081
628.108115	3198.939790
628.454600	3199.587579
628.801032	3224.357288
629.147412	3219.837894
629.493739	3237.625605
629.840014	3238.114597
630.186236	3259.738626
630.532405	3256.605549
630.878521	3274.665483
631.224585	3282.854837
631.570597	3278.768982
631.916556	3300.692960
632.262462	3309.744352
632.608316	3317.641319
632.954117	3326.657423
633.299866	3331.920388
633.645562	3341.853981
633.991206	3339.035976
634.336797	3336.908609
634.682336	3341.811132
635.027823	3348.858665
635.373257	3350.139118
635.718639	3350.547451
636.063968	3366.543032
636.409245	3351.855631
636.754470	3364.488762
637.099642	3368.899772
637.444762	3369.361037
637.789829	3383.814025
638.134845	3379.897049
638.479808	3388.449366
638.824719	3399.328176
639.169577	3392.305849
639.514383	3408.344280
639.859137	3405.541398
640.203839	3417.635127
640.548489	3426.328596
640.893086	3427.112496
641.237632	3434.185235
641.582125	3452.053604
641.926566	3449.951443
642.270955	3470.257211
642.615292	3482.048470
642.959576	3499.934484
643.303809	3506.470340
643.647990	3522.617155
643.992118	3528.482538
644.336195	3523.436343
644.680219	3548.626989
645.024192	3550.391393
645.368112	3593.694904
645.711981	3612.967235
646.055797	3643.148623
646.399562	3647.700785
646.743274	3703.738251
647.086935	3729.185996
647.430544	3741.320053
647.774101	3763.601953
648.117606	3770.911626
648.461059	3779.786578
648.804460	3784.943678
649.147810	3760.524329
649.491108	3764.413579
649.834354	3767.715535
650.177548	3754.863113
650.520690	3738.398705
650.863781	3741.007502
651.206820	3762.694546
651.549807	3745.889859
651.892742	3738.607913
652.235626	3749.708533
652.578458	3758.220522
652.921238	3734.859815
653.263967	3756.425871
653.606644	3747.457658
653.949269	3767.213940
654.291843	3751.273812
654.634365	3779.695837
654.976836	3778.133079
655.319255	3781.359418
655.661622	3792.797796
656.003938	3804.536123
656.346203	3794.655461
656.688416	3821.166889
657.030577	3808.856391
657.372687	3809.723470
657.714746	3813.910148
658.056753	3838.901668
658.398708	3829.431861
658.740612	3827.438084
659.082465	3866.348230
659.424266	3865.203888
659.766016	3877.584962
660.107715	3882.787433
660.449362	3895.942324
660.790958	3907.930188
661.132503	3914.168616
661.473996	3945.443934
661.815438	3944.718008
662.156829	3948.377886
662.498168	3960.194350
662.839456	3955.223773
663.180693	3985.450531
663.521879	3994.345647
663.863013	3998.252541
664.204097	4026.019217
664.545129	4052.109708
664.886110	4063.139753
665.227040	4094.084876
665.567918	4073.272472
665.908746	4106.788584
666.249522	4112.822845
666.590248	4112.908544
666.930922	4138.444509
667.271545	4162.392511
667.612118	4169.629087
667.952639	4162.800844
668.293109	4189.085420
668.633528	4178.955222
668.973896	4185.027291
669.314213	4190.416285
669.654480	4196.321997
669.994695	4200.238973
670.334859	4205.880024
670.674973	4215.851427
671.015035	4221.540369
671.355047	4233.054364
671.695008	4237.712390
672.034918	4225.280905
672.374777	4244.003750
672.714585	4247.550202
673.054342	4252.868619
673.394049	4260.735340
673.733705	4290.072335
674.073310	4299.471566
674.412864	4274.038945
674.752368	4282.747538
675.091820	4295.781441
675.431223	4267.122482
675.770574	4283.912045
676.109875	4261.473869
676.449125	4276.975417
676.788324	4268.072739
677.127473	4240.810179
677.466571	4244.195314
677.805619	4256.117643
678.144616	4250.302672
678.483562	4252.926593
678.822458	4243.040890
679.161303	4247.255294
679.500098	4250.645470
679.838842	4245.962238
680.177535	4256.697376
680.516179	4271.336886
680.854771	4289.295997
681.193314	4340.947659
681.531805	4407.790839
681.870247	4509.947301
682.208638	4573.637238
682.546978	4591.563582
682.885268	4587.752469
683.223508	4547.236716
683.561697	4524.922048
683.899836	4518.045914
684.237925	4496.754601
684.575963	4475.380109
684.913951	4459.497954
685.251889	4512.727497
685.589776	4486.788240
685.927614	4477.174760
686.265401	4531.558727
686.603137	4524.851472
686.940824	4581.403136
687.278460	4598.810240
687.616046	4609.888176
687.953582	4654.661184
688.291068	4644.354545
688.628504	4703.348647
688.965889	4675.771015
689.303224	4654.346112
689.640510	4632.558245
689.977745	4593.093572
690.314930	4536.972927
690.652065	4511.086602
690.989150	4460.213798
691.326185	4422.480761
691.663170	4400.982760
692.000105	4356.189588
692.336990	4311.371210
692.673825	4304.260662
693.010610	4266.988891
693.347345	4219.609607
693.684030	4223.450966
694.020665	4206.694171
694.357251	4143.644459
694.693786	4155.415554
695.030272	4139.349396
695.366707	4123.280718
695.703093	4101.606278
696.039429	4127.250627
696.375716	4119.930872
696.711952	4104.018470
697.048139	4100.572841
697.384276	4087.909463
697.720363	4103.468984
698.056400	4120.119915
698.392388	4080.239347
698.728326	4071.697112
699.064214	4059.681522
699.400053	4061.501378
699.735842	4045.931774
700.071581	4036.197306
700.407270	4017.741642
700.742910	4012.181249
701.078501	3975.776557
701.414042	3984.394409
701.749533	3970.130465
702.084974	3917.173143
702.420366	3969.429744
702.755709	3928.866100
703.091002	3889.149369
703.426246	3935.573355
703.761440	3902.566400
704.096584	3875.697050
704.431679	3898.712438
704.766725	3891.957292
705.101721	3888.267167
705.436668	3916.001075
705.771565	3875.223182
706.106413	3900.812079
706.441212	3932.231070
706.775961	3941.990744
707.110661	3925.148249
707.445311	3948.239254
707.779913	3974.680106
708.114465	3984.185202
708.448967	3999.215402
708.783421	4049.397568
709.117825	4082.122218
709.452180	4089.041202
709.786485	4125.002273
710.120742	4189.065256
710.454949	4176.046476
710.789107	4232.280547
711.123216	4285.802477
711.457275	4273.882669
711.791286	4332.730578
712.125247	4347.332281
712.459159	4268.907050
712.793023	4335.611598
713.126837	4321.214063
713.460602	4314.211900
713.794318	4253.450873
714.127985	4271.210858
714.461602	4211.483267
714.795171	4194.731513
715.128691	4146.543123
715.462162	4110.854274
715.795584	4075.591403
716.128957	4063.278385
716.462281	4025.651212
716.795556	4008.208820
717.128782	3982.398112
717.461960	3929.851645
717.795088	3943.523255
718.128167	3913.667021
718.461198	3865.312273
718.794180	3863.467211
719.127113	3850.977752
719.459997	3837.505269
719.792833	3804.049651
720.125619	3796.324083
720.458357	3770.893982
720.791046	3781.651805
721.123686	3758.381838
721.456278	3722.055284
721.788821	3743.112183
722.121315	3718.072772
722.453761	3697.494782
722.786158	3716.835169
723.118506	3737.019949
723.450805	3694.026468
723.783056	3713.543296
724.115259	3734.413673
724.447412	3735.101790
724.779518	3731.388980
725.111574	3738.728900
725.443582	3763.972478
725.775542	3747.777771
726.107453	3797.377684
726.439315	3798.033034
726.771129	3807.064261
727.102895	3839.254549
727.434612	3884.211559
727.766281	3888.194071
728.097901	3894.281264
728.429473	3899.264444
728.760996	3905.104621
729.092471	3904.272831
729.423897	3895.980133
729.755276	3904.736617
730.086606	3902.596647
730.417887	3935.001184
730.749120	3995.386645
731.080305	4056.142632
731.411442	4078.308585
731.742530	4052.124832
732.073570	4059.999114
732.404562	4110.939974
732.735506	4103.191720
733.066401	4067.696956
733.397249	4019.004451
733.728048	3955.579174
734.058798	3885.562588
734.389501	3827.395235
734.720156	3771.423303
735.050762	3740.538674
735.381320	3733.854104
735.711831	3688.027495
736.042293	3668.031759
736.372707	3687.871220
736.703073	3663.046057
737.033391	3652.850324
737.363661	3670.330525
737.693883	3693.832384
738.024056	3700.539639
738.354182	3693.877754
738.684260	3755.626848
739.014290	3764.527005
739.344272	3764.668157
739.674207	3805.803973
740.004093	3807.336483
740.333931	3804.730207
740.663722	3808.022080
740.993464	3803.941266
741.323159	3786.014923
741.652806	3762.389556
741.982405	3742.287955
742.311956	3716.343657
742.641460	3707.554405
742.970915	3688.773586
743.300323	3652.769665
743.629683	3621.517032
743.958996	3616.843882
744.288260	3593.316817
744.617477	3566.633990
744.946647	3551.568502
745.275768	3534.458826
745.604842	3532.583517
745.933869	3486.038543
746.262847	3479.908500
746.591778	3520.734284
746.920662	3488.702793
747.249498	3461.503247
747.578286	3505.784743
747.907027	3521.815612
748.235720	3516.650950
748.564365	3542.310423
748.892963	3545.115825
749.221514	3526.715613
749.550017	3508.096112
749.878473	3505.701564
750.206881	3480.873881
750.535242	3478.370948
750.863555	3478.244919
751.191821	3476.059579
751.520039	3455.678194
751.848210	3437.194803
752.176334	3472.082109
752.504411	3475.273159
752.832440	3439.349897
753.160421	3424.531425
753.488356	3435.717745
753.816243	3441.714198
754.144082	3404.636511
754.471875	3391.784090
754.799620	3409.647418
755.127318	3401.168198
755.454969	3401.430338
755.782572	3406.708426
756.110129	3386.546331
756.437638	3376.290103
756.765100	3390.715365
757.092515	3397.457908
757.419882	3408.049373
757.747203	3380.328068
758.074477	3380.948129
758.401703	3397.853639
758.728882	3417.667894
759.056014	3423.326589
759.383099	3427.258689
759.710138	3421.829367
760.037129	3439.924588
760.364073	3471.230154
760.690970	3457.190540
761.017820	3434.165070
761.344623	3452.890436
761.671379	3495.551200
761.998088	3546.940723
762.324751	3666.380781
762.651366	3898.326790
762.977935	4336.703008
763.304456	4751.214403
763.630931	4834.688349
763.957359	4499.670909
764.283740	4183.479657
764.610074	4006.305785
764.936362	3819.437773
765.262602	3669.541584
765.588796	3569.865370
765.914943	3487.742453
766.241044	3404.399577
766.567097	3377.562995
766.893104	3332.880728
767.219064	3303.248825
767.544978	3277.896863
767.870845	3226.204871
768.196665	3208.333981
768.522438	3218.701113
768.848165	3217.735732
769.173846	3181.396575
769.499479	3161.526867
769.825066	3151.575629
770.150607	3134.902013
770.476101	3147.956081
770.801548	3143.237561
771.126949	3101.799276
771.452303	3087.424426
771.777611	3093.710745
772.102872	3097.214347
772.428087	3075.010585
772.753256	3064.167063
773.078378	3057.880744
773.403453	3025.370343
773.728482	3016.583612
774.053465	3037.968186
774.378401	3025.584592
774.703291	2995.698111
775.028135	2994.773060
775.352932	2987.907008
775.677683	2977.827221
776.002388	2979.911738
776.327046	2980.751090
776.651658	2970.779688
776.976224	2956.551031
777.300743	2958.844756
777.625216	2949.528704
777.949643	2945.389917
778.274024	2946.188939
778.598359	2936.731735
778.922647	2942.639967
779.246889	2941.283897
779.571086	2925.484921
779.895236	2919.304466
780.219339	2929.583379
780.543397	2940.706685
780.867409	2946.141048
781.191374	2939.763989
781.515294	2935.844492
781.839167	2936.779626
782.162995	2927.753440
782.486776	2936.915737
782.810511	2934.042279
783.134201	2921.751946
783.457844	2929.225457
783.781441	2921.247831
784.104993	2899.127248
784.428498	2899.583472
784.751958	2913.285328
785.075372	2909.174267
785.398739	2892.440157
785.722061	2909.786768
786.045337	2922.838315
786.368568	2905.201838
786.691752	2897.287227
787.014891	2947.955864
787.337983	2972.087867
787.661030	2999.297495
787.984031	3064.202351
788.306987	3107.062241
788.629897	3099.339193
788.952760	3082.695824
789.275579	3069.803073
789.598351	3010.897190
789.921078	2969.668113
790.243759	2965.027731
790.566395	2948.533076
790.888984	2925.124478
791.211529	2907.666962
791.534027	2897.599778
791.856480	2890.242214
792.178888	2874.133207
792.501249	2868.209851
792.823566	2860.612832
793.145836	2861.850436
793.468062	2860.529653
793.790241	2854.208046
794.112375	2861.416896
794.434464	2872.293186
794.756507	2880.512787
795.078505	2881.551265
795.400457	2895.585837
795.722364	2931.647731
796.044226	2955.101699
796.366042	2954.816874
796.687812	2946.952674
797.009538	2966.935808
797.331218	2954.872327
797.652852	2941.760286
797.974442	2921.993922
798.295986	2921.043664
798.617484	2918.815474
798.938938	2899.709501
799.260346	2885.697614
799.581709	2881.871378
799.903026	2873.888711
800.224299	2866.205992
800.545526	2857.928418
800.866708	2845.179340
801.187845	2835.149964
801.508936	2836.604337
801.829983	2840.579287
802.150984	2831.928667
802.471940	2819.136739
802.792851	2818.894764
803.113717	2818.277222
803.434538	2823.381391
803.755314	2817.435350
804.076045	2809.931592
804.396731	2810.024853
804.717372	2809.989565
805.037967	2801.117135
805.358518	2811.953095
805.679024	2823.638489
805.999485	2816.853096
806.319901	2823.139415
806.640272	2814.735812
806.960598	2820.767552
807.280879	2829.461022
807.601115	2834.446723
807.921306	2821.185968
808.241453	2819.575319
808.561554	2824.694611
808.881611	2828.160404
809.201623	2823.010866
809.521590	2819.900474
809.841513	2817.740339
810.161390	2821.367450
810.481223	2813.155410
810.801011	2804.890438
811.120755	2802.511014
811.440453	2804.431693
811.760107	2806.007054
812.079716	2800.353400
812.399281	2796.622946
812.718801	2784.715741
813.038276	2784.100720
813.357707	2788.771349
813.677093	2796.287709
813.996434	2790.145063
814.315731	2787.989970
814.634983	2778.658794
814.954191	2784.289763
815.273354	2796.726290
815.592473	2805.082002
815.911547	2805.676858
816.230577	2812.648774
816.549562	2823.005825
816.868502	2822.657985
817.187399	2831.187617
817.506250	2846.795030
817.825058	2840.160871
818.143821	2855.130577
818.462539	2868.141796
818.781213	2894.703635
819.099843	2928.169335
819.418429	2983.506081
819.736970	3044.975390
820.055466	3111.359825
820.373919	3216.646843
820.692327	3348.992255
821.010691	3512.015609
821.329011	3940.034776
821.647286	4803.836488
821.965517	6118.481191
822.283704	6812.358209
822.601847	6780.359485
822.919945	6180.522671
823.237999	5702.510381
823.556010	5147.776771
823.873976	4620.013333
824.191897	4234.007142
824.509775	3950.192701
824.827609	3690.759801
825.145398	3576.348294
825.463144	3563.594174
825.780845	3656.754697
826.098502	3760.078187
826.416116	4035.874672
826.733685	4335.271320
827.051210	4384.251171
827.368692	4280.738638
827.686129	4021.832538
828.003522	3711.297462
828.320872	3462.564410
828.638177	3277.231430
828.955439	3145.354846
829.272656	3065.954152
829.589830	3001.520644
829.906960	2955.159673
830.224046	2913.633168
830.541088	2878.513970
830.858086	2862.205837
831.175041	2845.267560
831.491952	2849.176975
831.808819	2857.464632
832.125642	2882.980432
832.442421	2928.141609
832.759157	3004.706653
833.075849	3174.359124
833.392497	3450.044705
833.709101	3643.738438
834.025662	3591.244903
834.342179	3435.203548
834.658653	3267.444030
834.975083	3126.069912
835.291469	3033.156405
835.607811	2953.503654
835.924110	2895.757236
836.240366	2845.128928
836.556578	2804.792136
836.872746	2786.434774
837.188871	2763.502565
837.504952	2746.665111
837.820990	2740.144379
838.136984	2725.033520
838.452935	2717.406254
838.768842	2716.876933
839.084706	2733.167422
839.400526	2812.424443
839.716303	2941.629216
840.032037	3014.816687
840.347727	3001.858401
840.663373	2941.180553
840.978977	2869.719677
841.294537	2800.497073
841.610054	2755.693818
841.925527	2733.149778
842.240957	2711.989535
842.556344	2694.030424
842.871687	2677.334122
843.186987	2667.060251
843.502244	2663.123110
843.817458	2657.287974
844.132629	2649.116264
844.447756	2637.559419
844.762840	2633.909623
845.077881	2635.137144
845.392879	2634.547329
845.707833	2631.520116
846.022745	2622.541821
846.337613	2624.896040
846.652438	2625.183386
846.967221	2625.669857
847.281960	2624.074332
847.596656	2620.230452
847.911309	2619.562499
848.225919	2619.159207
848.540485	2614.102930
848.855009	2612.094030
849.169490	2614.070162
849.483928	2615.789196
849.798323	2613.359360
850.112675	2612.666201
850.426984	2610.243927
850.741251	2611.915069
851.055474	2609.586056
851.369654	2616.706686
851.683792	2613.810543
851.997887	2613.666870
852.311938	2610.528752
852.625947	2613.540841
852.939914	2612.409102
853.253837	2612.933382
853.567718	2612.401540
853.881555	2609.127311
854.195350	2613.681993
854.509103	2614.990173
854.822812	2610.962291
855.136479	2610.758124
855.450103	2611.451283
855.763685	2614.964967
856.077224	2612.419184
856.390720	2608.129162
856.704173	2610.153186
857.017584	2614.924638
857.330953	2615.859772
857.644278	2617.379680
857.957561	2620.638786
858.270802	2613.545882
858.584000	2614.609566
858.897155	2617.974536
859.210268	2619.260030
859.523339	2614.188629
859.836367	2609.086982
860.149352	2611.221910
860.462295	2611.756273
860.775195	2609.765017
861.088054	2608.103957
861.400869	2605.553133
861.713642	2603.196393
862.026373	2607.047835
862.339062	2609.961622
862.651708	2614.327261
862.964312	2615.459000
863.276873	2614.206273
863.589392	2619.154166
863.901869	2623.502161
864.214303	2626.000053
864.526696	2626.010135
864.839045	2630.587503
865.151353	2630.272431
865.463619	2630.723614
865.775842	2628.813017
866.088023	2629.125568
866.400162	2630.829478
866.712258	2631.583131
867.024313	2628.772687
867.336325	2625.480814
867.648296	2628.460136
867.960224	2632.230919
868.272110	2633.158491
868.583954	2624.157511
868.895755	2624.795217
869.207515	2632.230919
869.519233	2639.356590
869.830909	2634.146557
870.142542	2630.519447
870.454134	2629.286885
870.765684	2637.690489
871.077191	2638.013122
871.388657	2642.678710
871.700081	2639.192752
872.011463	2640.170736
872.322803	2640.440438
872.634101	2644.362456
872.945357	2650.958806
873.256571	2657.111534
873.567744	2651.200781
873.878874	2653.008035
874.189963	2651.364618
874.501010	2658.525577
874.812015	2660.705877
875.122979	2661.285609
875.433900	2654.850576
875.744780	2650.164824
876.055618	2658.190341
876.366415	2662.066988
876.677169	2662.102276
876.987882	2657.703869
877.298554	2653.807057
877.609183	2664.879952
877.919771	2671.788853
878.230317	2679.663136
878.540822	2686.395597
878.851285	2699.835313
879.161707	2723.916905
879.472087	2761.229005
879.782425	2803.078143
880.092722	2915.284146
880.402977	3095.583534
880.713191	3340.059331
881.023363	3616.196094
881.333494	3795.877941
881.643583	3958.858445
881.953631	3957.502374
882.263637	3785.523411
882.573602	3576.224785
882.883526	3454.818677
883.193408	3346.138962
883.503248	3251.317379
883.813048	3141.548774
884.122806	3031.838143
884.432522	2953.662450
884.742197	2891.847822
885.051831	2859.503778
885.361424	2826.433809
885.670975	2787.982408
885.980485	2761.597009
886.289954	2746.307189
886.599382	2732.446537
886.908768	2721.628221
887.218113	2701.725745
887.527417	2691.797193
887.836680	2684.752180
888.145901	2679.940399
888.455082	2671.410767
888.764221	2659.264107
889.073319	2653.764208
889.382376	2654.112047
889.691392	2652.725730
890.000366	2653.499547
890.309300	2651.757828
890.618193	2649.501912
890.927044	2655.745381
891.235855	2656.209167
891.544625	2654.548107
891.853353	2654.275885
892.162041	2664.350631
892.470687	2683.086079
892.779293	2693.032276
893.087858	2700.649459
893.396381	2721.817264
893.704864	2758.678181
894.013306	2828.357009
894.321707	2917.524939
894.630068	2963.568317
894.938387	2981.587922
895.246665	2972.828917
895.554903	2931.274686
895.863100	2893.045096
896.171256	2839.871005
896.479371	2776.934720
896.787446	2741.165212
897.095480	2725.756926
897.403473	2720.491441
897.711425	2704.884028
898.019336	2685.856193
898.327207	2672.895387
898.635038	2673.568381
898.942827	2672.653411
899.250576	2663.090342
899.558284	2650.815133
899.865952	2648.483599
900.173579	2647.382107
900.481165	2643.208032
900.788711	2633.609675
901.096216	2632.394757
901.403681	2626.862090
901.711105	2626.103397
902.018489	2626.110958
902.325832	2629.148253
902.633135	2631.174797
902.940397	2646.053763
903.247619	2679.584998
903.554800	2745.019175
903.861941	2863.463605
904.169041	2981.587922
904.476101	3036.841488
904.783121	3032.475849
905.090100	2979.470637
905.397039	2909.023033
905.703938	2840.891838
906.010796	2781.885133
906.317614	2734.253791
906.624391	2698.194417
906.931129	2675.612568
907.237826	2650.810092
907.544483	2636.042031
907.851099	2620.608539
908.157675	2614.107971
908.464211	2608.832403
908.770707	2598.278748
909.077163	2595.238932
909.383578	2589.368508
909.689954	2589.181986
909.996289	2586.827767
910.302584	2585.617890
910.608839	2583.813157
910.915054	2584.753332
911.221229	2587.362129
911.527363	2588.236769
911.833458	2592.660382
912.139513	2591.773139
912.445527	2590.210381
912.751502	2594.588623
913.057436	2600.280086
913.363331	2607.690582
913.669186	2618.455966
913.975000	2627.920732
914.280775	2645.259781
914.586510	2659.430465
914.892205	2692.306349
915.197859	2757.342275
915.503475	2836.513596
915.809050	2896.868811
916.114585	2908.891963
916.420081	2919.062491
916.725536	2931.372988
917.030952	2908.221489
917.336328	2864.549973
917.641665	2819.792089
917.946961	2769.569594
918.252218	2738.851323
918.557435	2712.702858
918.862612	2695.026052
919.167750	2679.567354
919.472848	2665.890703
919.777906	2648.947385
920.082925	2636.556229
920.387904	2627.109107
920.692843	2625.755557
920.997743	2621.120216
921.302603	2612.542693
921.607423	2606.916765
921.912204	2603.738317
922.216946	2600.441403
922.521647	2598.838316
922.826310	2593.212388
923.130932	2590.205340
923.435516	2583.911459
923.740059	2581.206880
924.044564	2580.120512
924.349028	2579.623958
924.653454	2571.638770
924.957840	2571.979048
925.262186	2569.118193
925.566493	2570.091136
925.870761	2563.552760
926.174989	2567.857905
926.479178	2566.574931
926.783328	2562.625187
927.087438	2559.363561
927.391509	2565.037379
927.695541	2560.432285
927.999533	2558.630073
928.303486	2556.923642
928.607400	2555.481872
928.911275	2558.080587
929.215110	2556.608570
929.518906	2555.754095
929.822663	2557.339537
930.126381	2555.572613
930.430060	2558.493962
930.733699	2556.296019
931.037299	2556.346430
931.340861	2560.260886
931.644383	2558.037737
931.947866	2556.278375
932.251309	2558.788869
932.554714	2558.065464
932.858080	2557.639486
933.161407	2557.672254
933.464694	2556.837943
933.767943	2554.599670
934.071153	2557.160577
934.374323	2555.396173
934.677455	2555.459187
934.980548	2557.233673
935.283602	2555.476831
935.586617	2554.508930
935.889593	2553.770401
936.192530	2552.169834
936.495428	2552.547921
936.798287	2553.064639
937.101108	2556.134702
937.403890	2557.059753
937.706632	2563.378840
938.009336	2563.424210
938.312002	2568.964438
938.614628	2570.391085
938.917216	2574.003072
939.219765	2572.029460
939.522275	2575.545665
939.824747	2574.877712
940.127179	2569.997875
940.429573	2568.679613
940.731929	2566.514437
941.034246	2563.794735
941.336524	2567.265569
941.638763	2566.025446
941.940964	2566.738769
942.243126	2562.128634
942.545250	2563.144426
942.847335	2561.884138
943.149381	2560.699467
943.451389	2558.244425
943.753359	2558.781308
944.055290	2557.463046
944.357182	2556.827860
944.659036	2558.496482
944.960851	2559.996226
945.262628	2557.871379
945.564367	2558.196534
945.866067	2557.941955
946.167729	2560.293654
946.469352	2557.037068
946.770937	2554.176213
947.072484	2557.926832
947.373992	2556.832902
947.675462	2556.406924
947.976893	2557.611760
948.278286	2552.648744
948.579641	2555.804506
948.880958	2553.682180
949.182236	2555.353323
949.483476	2554.251831
949.784678	2554.970195
950.085841	2555.935576
950.386967	2554.708055
950.688054	2555.229815
950.989103	2558.935063
951.290114	2556.905998
951.591087	2555.650751
951.892021	2560.028993
952.192917	2560.893551
952.493776	2561.806000
952.794596	2561.846329
953.095378	2561.359858
953.396122	2564.026628
953.696828	2560.137378
953.997496	2559.013201
954.298126	2555.902809
954.598718	2555.706204
954.899272	2555.754095
955.199788	2554.763508
955.500266	2552.686553
955.800706	2548.245296
956.101108	2546.916952
956.401472	2547.030378
956.701798	2547.554658
957.002087	2545.749925
957.302337	2549.298897
957.602550	2548.459545
957.902724	2544.073741
958.202861	2544.368649
958.502960	2544.794626
958.803022	2544.855120
959.103045	2547.441232
959.403031	2545.558361
959.702979	2542.795809
960.002889	2544.746735
960.302762	2543.292362
960.602596	2545.160110
960.902393	2544.509801
961.202153	2543.267157
961.501875	2540.199614
961.801559	2544.834955
962.101205	2541.235572
962.400814	2542.644574
962.700385	2542.906714
962.999918	2541.916127
963.299414	2545.732281
963.598873	2541.858154
963.898293	2542.747918
964.197677	2541.817825
964.497022	2542.034594
964.796331	2541.361600
965.095601	2542.425284
965.394835	2543.327650
965.694030	2543.304965
965.993189	2541.323792
966.292309	2545.800336
966.591393	2542.412681
966.890439	2542.110212
967.189447	2539.279604
967.488419	2539.788760
967.787353	2544.683721
968.086249	2543.055428
968.385108	2542.211035
968.683930	2542.294214
968.982714	2541.331353
969.281462	2541.364121
969.580172	2542.420243
969.878844	2540.854964
970.177480	2540.418905
970.476078	2543.151210
970.774639	2544.650953
971.073162	2540.655839
971.371649	2539.178781
971.670098	2537.840354
971.968510	2542.054759
972.266885	2536.549819
972.565223	2543.143648
972.863524	2543.496529
973.161788	2541.477547
973.460014	2541.916127
973.758204	2542.100129
974.056356	2542.730274
974.354471	2544.726571
974.652550	2539.269522
974.950591	2544.519883
975.248595	2542.843700
975.546563	2539.788760
975.844493	2543.539379
976.142386	2542.384955
976.440243	2541.742207
976.738062	2542.054759
977.035845	2542.803370
977.333590	2542.878988
977.631299	2542.294214
977.928971	2543.010058
978.226606	2542.223638
978.524204	2539.801363
978.821765	2542.891591
979.119290	2540.010571
979.416777	2538.795653
979.714228	2543.370500
980.011642	2538.626774
980.309020	2543.196580
980.606360	2539.549306
980.903664	2540.996117
981.200931	2540.960829
981.498162	2544.940820
981.795356	2542.921838
982.092513	2547.965512
982.389633	2546.823691
982.686717	2553.364588
982.983764	2553.079762
983.280775	2556.517829
983.577749	2555.950700
983.874686	2554.748384
984.171587	2549.949206
984.468451	2554.372818
984.765279	2549.568599
985.062070	2546.047353
985.358824	2543.703216
985.655543	2542.964687
985.952224	2541.459903
986.248869	2541.406971
986.545478	2539.498894
986.842050	2539.556867
987.138586	2535.155940
987.435086	2540.817156
987.731549	2535.748276
988.027975	2539.670293
988.324366	2540.282793
988.620719	2539.277083
988.917037	2538.601569
989.213318	2539.433359
989.509563	2539.730787
989.805772	2540.212217
990.101944	2539.118287
990.398080	2538.049562
990.694180	2542.112732
990.990244	2538.427649
991.286271	2538.016795
991.582262	2539.844213
991.878217	2537.890766
992.174136	2538.452855
992.470019	2536.219623
992.765865	2539.645087
993.061676	2538.495704
993.357450	2539.589635
993.653188	2539.324974
993.948890	2539.201466
994.244556	2537.966383
994.540186	2541.303627
994.835780	2540.192053
995.131337	2539.945036
995.426859	2541.880839
995.722345	2540.063503
996.017795	2542.581560
996.313208	2546.183464
996.608586	2542.044677
996.903928	2541.999306
997.199234	2543.569626
997.494504	2544.139276
997.789738	2539.635005
998.084936	2541.008720
998.380099	2542.205994
998.675225	2543.612476
998.970316	2541.406971
999.265371	2539.032587
999.560390	2540.169368
999.855373	2539.887063
1000.150320	2540.890252
1000.445232	2540.413863
1000.740108	2539.577032
1001.034948	2539.256919
1001.329752	2538.067206
1001.624521	2539.554347
1001.919254	2535.294572
1002.213951	2537.991589
1002.508613	2536.940508
1002.803239	2537.578214
1003.097829	2533.608306
1003.392384	2537.442103
1003.686903	2540.159285
1003.981386	2540.103833
1004.275834	2537.903369
1004.570246	2537.742052
1004.864623	2538.011754
1005.158964	2537.802546
1005.453270	2536.123842
1005.747540	2537.346321
1006.041775	2539.919830
1006.335974	2537.825231
1006.630138	2538.818338
1006.924266	2538.420087
1007.218359	2539.261960
1007.512416	2537.852957
1007.806438	2537.563091
1008.100425	2538.258770
1008.394376	2537.641229
1008.688292	2538.437731
1008.982172	2538.001671
1009.276017	2536.960673
1009.569827	2536.055786
1009.863602	2540.940664
1010.157341	2539.319933
1010.451045	2538.631816
1010.744714	2539.443441
1011.038347	2540.199614
1011.331945	2541.406971
1011.625508	2536.915303
1011.919036	2538.770447
1012.212528	2539.133410
1012.505986	2537.434542
1012.799408	2538.258770
1013.092795	2537.001002
1013.386147	2539.453524
1013.679464	2535.987730
1013.972745	2537.971424
1014.265992	2538.962011
1014.559204	2538.004192
1014.852380	2540.101312
1015.145521	2537.870601
1015.438628	2535.478574
1015.731699	2537.651311
1016.024736	2538.188194
1016.317737	2540.343287
1016.610703	2540.217258
1016.903635	2536.239788
1017.196531	2534.490508
1017.489393	2534.432534
1017.782219	2532.254756
1018.075011	2536.761547
1018.367768	2536.832124
1018.660490	2537.525282
1018.953177	2537.525282
1019.245829	2537.525282
