Dividing Wavelength (nm)	Counts (n)	Blue Motor Position (mm): 47.200000	Red Motor Position (mm): 0.000000	
326.493990	2132.181225
326.888308	2132.181225
327.282561	2132.181225
327.676750	2097.727459
328.070874	2096.651173
328.464933	2099.499425
328.858929	2106.398244
329.252859	2114.398555
329.646726	2127.815586
330.040528	2140.161372
330.434265	2156.852632
330.827938	2173.274191
331.221547	2192.312108
331.615091	2207.614531
332.008571	2230.153529
332.401986	2249.987949
332.795338	2271.924530
333.188625	2290.218878
333.581847	2305.828810
333.975006	2327.601554
334.368100	2345.951354
334.761129	2362.256966
335.154095	2380.929400
335.546996	2397.794580
335.939833	2426.609815
336.332606	2442.658329
336.725315	2454.452108
337.117960	2461.824796
337.510540	2471.924747
337.903056	2482.347333
338.295508	2492.366626
338.687896	2500.147647
339.080220	2510.658453
339.472480	2514.393948
339.864676	2517.244720
340.256807	2522.364012
340.648875	2524.796369
341.040879	2525.890299
341.432818	2528.733510
341.824694	2531.793490
342.216506	2531.652338
342.608253	2529.482121
342.999937	2530.339118
343.391557	2528.746113
343.783113	2529.598068
344.174605	2529.716535
344.566033	2527.576565
344.957397	2527.271575
345.348697	2525.769312
345.739934	2523.190761
346.131106	2520.292098
346.522215	2520.871831
346.913260	2516.486027
347.304241	2516.793537
347.695159	2513.569719
348.086012	2511.530572
348.476802	2511.086951
348.867528	2509.723319
349.258191	2506.277690
349.648789	2508.992352
350.039324	2504.094871
350.429796	2503.119407
350.820203	2504.243585
351.210548	2500.455157
351.600828	2501.196207
351.991045	2502.390961
352.381198	2499.872904
352.771288	2500.873573
353.161314	2499.237719
353.551276	2500.389623
353.941175	2499.530106
354.331010	2499.005826
354.720782	2499.104128
355.110490	2498.484066
355.500135	2501.118069
355.889717	2499.383912
356.279235	2499.260404
356.668689	2501.591938
357.058080	2501.818790
357.447408	2501.783502
357.836672	2498.668068
358.225873	2500.293841
358.615010	2498.831906
359.004084	2501.786022
359.393095	2502.897597
359.782043	2503.134531
360.170927	2504.089829
360.559748	2506.645694
360.948505	2505.849192
361.337199	2507.580828
361.725830	2507.048987
362.114398	2508.223576
362.502903	2508.747856
362.891344	2508.352125
363.279722	2510.434122
363.668037	2510.305572
364.056289	2511.089472
364.444478	2512.427898
364.832603	2511.074348
365.220665	2511.165089
365.608665	2512.289266
365.996601	2512.090141
366.384474	2514.522497
366.772284	2512.836231
367.160031	2512.911849
367.547715	2512.231293
367.935336	2515.084586
368.322893	2513.920079
368.710388	2516.987622
369.097820	2523.866276
369.485189	2520.372756
369.872495	2521.194464
370.259738	2520.047602
370.646918	2522.739578
371.034035	2523.195802
371.421090	2527.052285
371.808081	2529.063706
372.195010	2532.474046
372.581875	2539.597197
372.968678	2548.426778
373.355418	2551.244783
373.742096	2558.758622
374.128710	2570.219686
374.515262	2580.473392
374.901751	2590.275916
375.288177	2596.781525
375.674540	2615.325410
376.060841	2625.596761
376.447079	2644.871612
376.833254	2660.433654
377.219367	2672.413956
377.605417	2697.052596
377.991404	2708.985007
378.377329	2727.982595
378.763191	2746.710482
379.148991	2778.373969
379.534727	2802.962197
379.920402	2827.600836
380.306013	2843.999710
380.691563	2887.661143
381.077049	2914.505288
381.462474	2935.937753
381.847835	2975.483084
382.233134	3002.541478
382.618371	3010.995493
383.003545	3076.283476
383.388657	3090.751588
383.773706	3129.366826
384.158693	3153.314827
384.543618	3183.002182
384.928480	3224.853842
385.313280	3276.558436
385.698017	3282.123870
386.082692	3341.664938
386.467305	3352.034592
386.851856	3387.277298
387.236344	3418.383738
387.620770	3454.574181
388.005133	3486.020899
388.389435	3519.985673
388.773674	3536.011501
389.157851	3582.402719
389.541965	3600.462653
389.926018	3572.522058
390.310008	3645.696927
390.693936	3669.080319
391.077802	3708.605485
391.461606	3708.366031
391.845348	3770.631842
392.229027	3770.198303
392.612645	3785.888894
392.996200	3865.433261
393.379694	3903.221750
393.763125	3969.144919
394.146494	3941.136268
394.529801	4002.940814
394.913047	4050.466292
395.296230	4016.569574
395.679351	4071.510589
396.062410	4098.148046
396.445408	4078.351435
396.828343	4112.661528
397.211217	4137.514416
397.594028	4059.888209
397.976778	4122.700986
398.359466	4151.891787
398.742092	4180.218031
399.124656	4100.255248
399.507158	4181.347249
399.889598	4206.124520
400.271977	4271.251187
400.654294	4237.730034
401.036549	4249.818721
401.418742	4220.017940
401.800874	4320.578877
402.182944	4341.330787
402.564952	4404.753543
402.946898	4393.491606
403.328783	4385.841655
403.710606	4303.958193
404.092367	4495.327955
404.474067	4457.531904
404.855705	4469.721414
405.237282	4399.697266
405.618797	4504.482690
406.000250	4540.952917
406.381642	4621.334116
406.762972	4587.525617
407.144240	4596.072894
407.525447	4590.623406
407.906593	4650.353518
408.287677	4693.515877
408.668700	4627.335609
409.049661	4673.721786
409.430560	4716.455647
409.811399	4643.850429
410.192176	4804.701046
410.572891	4745.212910
410.953545	4842.277806
411.334138	4724.183736
411.714669	4793.998676
412.095139	4684.978683
412.475547	4830.736085
412.855894	4809.774967
413.236180	4822.503880
413.616405	4772.460346
413.996568	4864.584912
414.376670	4806.069719
414.756711	4762.385600
415.136691	4790.028767
415.516609	4869.573134
415.896466	4904.236108
416.276262	4934.972023
416.655997	4921.020629
417.035670	5102.234987
417.415283	5189.285631
417.794834	5139.307632
418.174324	5091.212504
418.553753	4998.687166
418.933121	5180.377912
419.312428	5253.756948
419.691674	5186.278583
420.070859	5315.717770
420.449983	5225.221497
420.829045	5344.033931
421.208047	5250.323922
421.586988	5320.199356
421.965867	5334.533877
422.344686	5466.191171
422.723444	5320.907638
423.102141	5137.956603
423.480777	5436.443322
423.859352	5206.231470
424.237866	5465.107323
424.616319	5457.689265
424.994712	5566.711779
425.373044	5446.671823
425.751314	5587.093164
426.129524	5388.978338
426.507673	5585.747176
426.885762	5668.699362
427.263789	5598.680256
427.641756	5477.342203
428.019662	5604.507830
428.397508	5611.389005
428.775292	5551.633687
429.153016	5651.751003
429.530679	5580.456485
429.908282	5661.581253
430.285824	5538.168766
430.663305	5808.861083
431.040726	5542.579775
431.418086	5545.952307
431.795385	5653.709491
432.172624	5666.745915
432.549802	5653.951467
432.926920	5670.690618
433.303977	5677.939797
433.680974	5717.041507
434.057910	5734.698148
434.434786	5739.230146
434.811601	5709.167225
435.188355	5944.866373
435.565050	5821.932795
435.941683	5798.340195
436.318257	6016.498648
436.694770	5996.845710
437.071222	6029.794692
437.447614	5963.989990
437.823946	5876.790631
438.200218	6031.286873
438.576429	5892.771089
438.952580	5995.625751
439.328670	6038.404982
439.704700	5945.577175
440.080670	5931.668632
440.456580	6209.600046
440.832429	6087.634370
441.208218	5935.391524
441.583947	6091.067396
441.959616	6092.950267
442.335224	6016.808679
442.710773	6155.616850
443.086261	6180.752043
443.461689	5975.367874
443.837057	6127.061234
444.212365	6281.312980
444.587612	6176.756929
444.962800	6327.182439
445.337927	6308.313400
445.712995	5917.134985
446.088002	6496.494632
446.462949	6327.520197
446.837837	6256.608806
447.212664	6430.647081
447.587431	6574.254430
447.962139	7115.986905
448.336786	8042.011578
448.711374	7784.083462
449.085901	6859.989551
449.460369	6778.332941
449.834776	6711.066305
450.209124	7105.145904
450.583412	7253.128975
450.957640	7402.084989
451.331808	7165.349883
451.705917	6717.350103
452.079965	6639.560058
452.453954	6850.766760
452.827883	6726.688840
453.201752	6822.377502
453.575562	6617.895699
453.949311	6820.517316
454.323001	6714.428754
454.696632	6787.273427
455.070202	6923.760147
455.443713	7085.508089
455.817164	7184.410486
456.190556	7259.435458
456.563888	7337.278435
456.937160	7380.967595
457.310373	7040.271295
457.683526	7060.909779
458.056619	6956.935981
458.429653	6942.672036
458.802628	6875.473455
459.175542	6985.715928
459.548398	7340.144331
459.921194	7499.875812
460.293930	7501.453693
460.666607	8029.847274
461.039224	8338.711209
461.411782	8464.924057
461.784280	8485.537335
462.156719	8371.932413
462.529099	8260.951411
462.901419	7843.203594
463.273680	7735.106132
463.645882	7751.368895
464.018024	7621.589430
464.390106	7779.659850
464.762130	8163.705032
465.134094	8632.605437
465.505999	9662.253548
465.877845	10883.117666
466.249631	11532.188909
466.621358	11144.793880
466.993026	10520.169712
467.364634	10261.460218
467.736184	9895.848014
468.107674	9565.569258
468.479105	9602.266338
468.850477	9368.306388
469.221790	9135.919278
469.593043	8809.577663
469.964238	8669.584821
470.335373	8680.776182
470.706449	8747.377386
471.077467	8732.321980
471.448425	10038.421927
471.819324	11102.266706
472.190164	11128.715120
472.560945	9877.964521
472.931667	9093.056867
473.302330	8951.080331
473.672934	8603.485212
474.043479	8956.242473
474.413965	8904.303464
474.784393	8782.146224
475.154761	8940.491387
475.525070	9025.893575
475.895321	8856.455353
476.265513	9033.180563
476.635645	9201.373619
477.005719	9198.941263
477.375734	9314.255136
477.745691	9555.746570
478.115588	9688.616262
478.485427	9931.841853
478.855207	10464.807761
479.224928	11279.485949
479.594591	11913.554718
479.964194	11719.482898
480.333739	11658.938640
480.703226	11574.280023
481.072653	11669.663695
481.442022	11896.399671
481.811333	12091.192377
482.180584	11898.879919
482.549777	11604.605084
482.918912	11435.618045
483.287988	11445.886876
483.657005	11469.650875
484.025964	11148.368058
484.394864	11277.114086
484.763706	11251.535271
485.132489	11005.635348
485.501213	10970.352313
485.869879	11042.188755
486.238487	10893.189891
486.607036	10996.828453
486.975527	10783.975814
487.343959	10967.541869
487.712333	11020.410970
488.080648	10945.577562
488.448905	10998.517239
488.817104	10930.194481
489.185244	11194.373628
489.553326	11348.375837
489.921350	11886.377858
490.289315	12951.939149
490.657222	13289.819965
491.025070	13199.013661
491.392861	13076.012027
491.760593	12694.550436
492.128267	12342.962723
492.495883	12011.007783
492.863440	11680.343379
493.230939	11348.708553
493.598380	11273.030751
493.965763	11142.575772
494.333088	11040.114320
494.700354	10964.065994
495.067563	11019.972390
495.434713	10851.416370
495.801805	10987.658594
496.168839	10902.788248
496.535815	10842.143168
496.902733	10835.370377
497.269593	10774.629515
497.636395	10877.970648
498.003139	10863.477331
498.369825	10725.334592
498.736453	10891.927082
499.103023	10815.966976
499.469535	10850.307316
499.835989	10836.242497
500.202385	10800.084821
500.568723	10647.179063
500.935003	10873.015194
501.301226	10677.010091
501.667390	10935.349061
502.033497	11031.211643
502.399546	10887.314427
502.765537	10797.715479
503.131470	10875.838240
503.497345	11041.127592
503.863163	10662.766311
504.228923	10971.731068
504.594625	11038.143229
504.960269	10778.919537
505.325856	11000.470686
505.691385	10787.731473
506.056856	10948.526637
506.422270	10971.489093
506.787625	10856.565909
507.152924	10978.526544
507.518164	10960.837135
507.883347	10876.198682
508.248472	10803.069184
508.613540	11027.014882
508.978550	10916.646380
509.343503	10898.651982
509.708398	11012.660196
510.073236	11126.502053
510.438016	11128.112702
510.802738	11074.734444
511.167403	11131.891047
511.532010	11032.355984
511.896561	11255.583318
512.261053	11331.606438
512.625488	11200.748167
512.989866	11186.587566
513.354186	11167.859679
513.718449	11078.169991
514.082655	11260.140521
514.446803	11156.527165
514.810894	11281.908223
515.174927	11158.210911
515.538904	11175.194558
515.902822	11324.722743
516.266684	11210.013808
516.630488	11145.328242
516.994235	11206.008611
517.357925	11271.790627
517.721558	11355.262053
518.085133	11369.916687
518.448651	11386.194573
518.812112	11263.528176
519.175516	11278.089549
519.538863	11401.360884
519.902152	11313.702781
520.265385	11478.863583
520.628560	11391.220603
520.991678	11363.771521
521.354739	11435.348343
521.717743	11361.129956
522.080690	11350.558656
522.443580	11481.636218
522.806413	11436.674167
523.169189	11464.156017
523.531908	11518.320695
523.894569	11343.332162
524.257174	11351.201403
524.619722	11468.889661
524.982213	11411.528892
525.344647	11468.889661
525.707025	11422.805953
526.069345	11509.634787
526.431608	11436.144846
526.793815	11543.879345
527.155964	11327.944040
527.518057	11377.307019
527.880093	11326.625778
528.242072	11397.776624
528.603995	11302.556789
528.965860	11221.124511
529.327669	11264.105388
529.689421	11219.385313
530.051117	11188.961949
530.412755	11298.924638
530.774337	11187.295848
531.135862	11167.078300
531.497331	11189.370283
531.858743	11040.227746
532.220098	11209.633201
532.581396	11079.556308
532.942638	11056.777854
533.303824	11027.697958
533.664953	11040.073991
534.026025	10953.298089
534.387040	11052.913810
534.747999	11052.659232
535.108902	11105.049423
535.469748	10866.365912
535.830537	10977.470422
536.191270	10954.545775
536.551947	10977.465381
536.912567	10971.985647
537.273131	10900.703731
537.633638	10878.812521
537.994089	10874.025945
538.354483	10821.240023
538.714821	10965.510284
539.075103	10970.604370
539.435328	10938.451891
539.795497	10760.380693
540.155609	10922.196691
540.515665	11012.796307
540.875665	10736.412527
541.235609	10812.695267
541.595496	10812.291975
541.955328	10964.696138
542.315102	10839.549494
542.674821	10806.088835
543.034483	10798.138936
543.394090	10808.536315
543.753640	10731.996477
544.113134	10948.156112
544.472571	10802.751591
544.831953	10947.636873
545.191278	10755.430280
545.550548	10778.559094
545.909761	10920.470095
546.268918	10890.167720
546.628019	10968.194699
546.987064	10840.098980
547.346053	10761.688873
547.704986	10868.334482
548.063863	10851.126504
548.422684	10845.682058
548.781449	10760.335323
549.140158	10865.655109
549.498811	10736.147867
549.857408	10590.148490
550.215949	10822.974180
550.574434	10678.124186
550.932864	10777.208065
551.291237	10831.276960
551.649555	10781.377099
552.007817	10797.176075
552.366022	10754.084292
552.724173	10755.412636
553.082267	10736.762888
553.440305	10877.307736
553.798288	10671.537918
554.156215	10829.056332
554.514086	10805.004987
554.871902	10652.557974
555.229661	10696.521877
555.587365	10656.142235
555.945014	10562.585981
556.302606	10691.074910
556.660143	10580.018291
557.017625	10724.293593
557.375050	10629.600560
557.732421	10763.889336
558.089735	10679.717191
558.446994	10675.238125
558.804197	10714.818745
559.161345	10717.926616
559.518437	10562.573378
559.875474	10650.319702
560.232455	10678.542602
560.589381	10635.642382
560.946251	10631.879161
561.303065	10730.758873
561.659825	10673.075470
562.016528	10601.672567
562.373177	10483.349125
562.729770	10597.962278
563.086307	10517.422284
563.442789	10602.390932
563.799216	10484.952212
564.155587	10531.109016
564.511904	10483.011367
564.868164	10478.796963
565.224370	10495.745322
565.580520	10418.078785
565.936615	10423.238406
566.292654	10291.964240
566.648638	10421.839486
567.004567	10382.016891
567.360441	10362.580723
567.716260	10280.392271
568.072023	10374.036745
568.427732	10321.770062
568.783385	10232.140867
569.138982	10303.432865
569.494525	10312.176746
569.850013	10188.575215
570.205445	10274.264748
570.560823	10166.126957
570.916145	10090.229866
571.271412	10158.277881
571.626625	10105.524726
571.981782	10073.475591
572.336884	10050.245954
572.691931	10051.208814
573.046923	10005.016722
573.401860	9958.544845
573.756743	9895.442202
574.111570	9940.820148
574.466342	9919.962374
574.821059	9946.554460
575.175722	9842.323563
575.530330	9850.069296
575.884882	9841.143933
576.239380	9770.035938
576.593823	9745.717412
576.948211	9769.340259
577.302544	9645.693358
577.656823	9657.212394
578.011047	9663.539042
578.365216	9637.529209
578.719330	9562.244617
579.073389	9567.933560
579.427394	9517.761476
579.781344	9495.151901
580.135239	9446.078789
580.489080	9456.037588
580.842866	9357.288946
581.196597	9359.242393
581.550273	9399.543898
581.903895	9373.912151
582.257463	9434.562273
582.610975	9314.600455
582.964434	9335.201131
583.317837	9261.161704
583.671186	9243.590762
584.024481	9237.755627
584.377721	9158.077670
584.730906	9129.385943
585.084037	9163.625459
585.437113	9100.842929
585.790135	9117.443449
586.143103	9020.129015
586.496016	8993.330241
586.848874	9048.866113
587.201679	9039.797077
587.554428	8927.031507
587.907124	8973.268970
588.259765	8938.747148
588.612352	8935.477960
588.964884	8823.413110
589.317362	8834.927105
589.669786	8833.394594
590.022155	8883.506184
590.374470	8900.958659
590.726731	8835.640428
591.078937	8688.675670
591.431090	8798.814800
591.783188	8672.523813
592.135232	8666.960900
592.487222	8663.265734
592.839157	8719.335968
593.191038	8650.814084
593.542866	8594.567410
593.894639	8496.511927
594.246358	8555.609373
594.598022	8568.643277
594.949633	8465.642421
595.301190	8438.072351
595.652692	8469.264490
596.004141	8583.497037
596.355535	8353.103703
596.706876	8338.252464
597.058162	8265.221268
597.409395	8348.871654
597.760573	8415.689628
598.111698	8315.915111
598.462768	8302.112432
598.813785	8269.438193
599.164748	8233.585507
599.515657	8226.467398
599.866511	8135.492215
600.217312	8256.898323
600.568060	8125.336810
600.918753	8222.338693
601.269392	8193.762912
601.619978	8105.630940
601.970510	8170.790374
602.320988	8165.965990
602.671412	8222.053868
603.021783	8161.696133
603.372100	8137.715364
603.722363	8139.439438
604.072572	8113.817774
604.422728	8123.217005
604.772830	8052.867703
605.122878	8063.398674
605.472872	8056.293167
605.822813	8080.929286
606.172701	8023.412241
606.522534	8103.959798
606.872314	8099.977286
607.222041	8068.928819
607.571714	8124.225236
607.921333	8085.236952
608.270899	8090.043692
608.620411	8182.289246
608.969870	8084.624452
609.319276	8083.691838
609.668627	8093.685926
610.017926	8134.375599
610.367171	8176.426384
610.716362	8150.250193
611.065500	8141.972618
611.414585	8171.559150
611.763616	8166.807862
612.112594	8141.811301
612.461518	8157.433837
612.810389	8216.201088
613.159207	8153.912591
613.507971	8109.439532
613.856682	8224.728200
614.205340	8179.103237
614.553945	8258.420751
614.902496	8154.051223
615.250994	8210.345788
615.599439	8196.260804
615.947830	8200.845733
616.296169	8177.210283
616.644454	8191.998508
616.992686	8194.108231
617.340864	8244.761745
617.688990	8148.596694
618.037063	8240.630519
618.385082	8189.906429
618.733048	8278.431612
619.080961	8209.879481
619.428821	8236.557267
619.776628	8235.415446
620.124382	8190.967592
620.472083	8175.017382
620.819731	8197.115279
621.167326	8085.988084
621.514868	8100.904858
621.862357	7990.974937
622.209793	7999.277717
622.557176	7939.101464
622.904506	7906.623830
623.251783	7844.058070
623.599007	7801.228427
623.946179	7797.061913
624.293297	7759.391891
624.640363	7677.362236
624.987376	7656.938001
625.334336	7606.665094
625.681243	7559.913433
626.028097	7543.196967
626.374899	7515.311825
626.721647	7511.500712
627.068343	7447.407482
627.414987	7418.188955
627.761577	7366.615430
628.108115	7409.989518
628.454600	7303.192674
628.801032	7358.907506
629.147412	7315.987122
629.493739	7305.133518
629.840014	7236.876295
630.186236	7293.750592
630.532405	7183.339241
630.878521	7229.657362
631.224585	7187.901485
631.570597	7108.422654
631.916556	7141.248127
632.262462	7141.999259
632.608316	7096.709533
632.954117	7079.892243
633.299866	7066.155099
633.645562	7057.678399
633.991206	6980.286605
634.336797	6921.426093
634.682336	6879.150977
635.027823	6840.084555
635.373257	6837.425346
635.718639	6768.240551
636.063968	6783.041379
636.409245	6676.882240
636.754470	6677.114133
637.099642	6632.288193
637.444762	6580.717190
637.789829	6585.975113
638.134845	6529.453696
638.479808	6509.954513
638.824719	6520.001533
639.169577	6445.170645
639.514383	6465.035312
639.859137	6398.572739
640.203839	6402.958543
640.548489	6391.129476
640.893086	6364.330702
641.237632	6331.162430
641.582125	6356.106059
641.926566	6324.281255
642.270955	6339.321538
642.615292	6333.803995
642.959576	6354.056830
643.303809	6340.143246
643.647990	6349.512230
643.992118	6339.475293
644.336195	6282.510254
644.680219	6309.364481
645.024192	6298.594056
645.368112	6392.919085
645.711981	6420.045534
646.055797	6490.359548
646.399562	6449.984947
646.743274	6574.677887
647.086935	6632.401619
647.430544	6620.746472
647.774101	6639.338247
648.117606	6646.330328
648.461059	6645.745554
648.804460	6608.786334
649.147810	6510.753536
649.491108	6485.255380
649.834354	6454.741276
650.177548	6374.846549
650.520690	6288.438651
650.863781	6266.592811
651.206820	6290.119876
651.549807	6206.963523
651.892742	6150.169884
652.235626	6155.863867
652.578458	6143.122351
652.921238	6052.311005
653.263967	6095.291883
653.606644	6029.451893
653.949269	6032.733684
654.291843	5972.512060
654.634365	6021.963259
654.976836	5980.968596
655.319255	5977.545653
655.661622	5951.707218
656.003938	5950.724193
656.346203	5913.381846
656.688416	5946.570283
657.030577	5895.992386
657.372687	5867.729157
657.714746	5854.329770
658.056753	5895.856275
658.398708	5834.482748
658.740612	5830.301110
659.082465	5875.222832
659.424266	5864.069279
659.766016	5867.353591
660.107715	5839.869220
660.449362	5856.273135
660.790958	5852.091498
661.132503	5834.961657
661.473996	5871.646134
661.815438	5863.050966
662.156829	5856.900759
662.498168	5853.921437
662.839456	5824.904555
663.180693	5859.229772
663.521879	5864.845617
663.863013	5847.768708
664.204097	5868.543303
664.545129	5909.331279
664.886110	5904.990846
665.227040	5936.939158
665.567918	5905.938583
665.908746	5937.067708
666.249522	5938.446463
666.590248	5924.747128
666.930922	5954.530265
667.271545	5962.197860
667.612118	5969.396627
667.952639	5938.401093
668.293109	5963.899249
668.633528	5921.603968
668.973896	5927.744094
669.314213	5916.237660
669.654480	5897.993724
669.994695	5891.440224
670.334859	5880.425303
670.674973	5868.684456
671.015035	5877.975302
671.355047	5876.152925
671.695008	5862.783785
672.034918	5838.737481
672.374777	5850.889183
672.714585	5829.925544
673.054342	5831.243806
673.394049	5831.692469
673.733705	5860.598445
674.073310	5848.056054
674.412864	5805.286905
674.752368	5799.487058
675.091820	5800.593591
675.431223	5736.442388
675.770574	5739.013376
676.109875	5691.928999
676.449125	5694.406726
676.788324	5659.196787
677.127473	5609.652327
677.466571	5600.719402
677.805619	5589.344039
678.144616	5576.484055
678.483562	5555.714502
678.822458	5520.242422
679.161303	5516.325446
679.500098	5503.657026
679.838842	5485.821424
680.177535	5486.922916
680.516179	5510.104662
680.854771	5520.174367
681.193314	5599.988435
681.531805	5707.886772
681.870247	5858.299679
682.208638	5957.985976
682.546978	5974.583975
682.885268	5954.724349
683.223508	5861.137848
683.561697	5810.809489
683.899836	5780.678513
684.237925	5737.962295
684.575963	5703.294280
684.913951	5664.167365
685.251889	5722.301951
685.589776	5691.208114
685.927614	5664.958826
686.265401	5731.991049
686.603137	5718.657197
686.940824	5794.445904
687.278460	5818.076312
687.616046	5827.899001
687.953582	5897.575308
688.291068	5874.539756
688.628504	5941.370333
688.965889	5904.156535
689.303224	5844.345765
689.640510	5798.173837
689.977745	5723.287497
690.314930	5628.228979
690.652065	5568.450977
690.989150	5480.044262
691.326185	5403.300256
691.663170	5348.366803
692.000105	5269.545842
692.336990	5192.368297
692.673825	5166.086241
693.010610	5100.596612
693.347345	5030.078431
693.684030	5014.899517
694.020665	4975.054237
694.357251	4879.494125
694.693786	4895.033481
695.030272	4862.273543
695.366707	4828.016382
695.703093	4791.533552
696.039429	4813.782684
696.375716	4795.793327
696.711952	4767.063791
697.048139	4760.132204
697.384276	4738.253597
697.720363	4749.848251
698.056400	4761.377369
698.392388	4708.757806
698.728326	4686.107901
699.064214	4662.303573
699.400053	4657.547244
699.735842	4624.068942
700.071581	4601.240076
700.407270	4572.770160
700.742910	4557.555958
701.078501	4503.683667
701.414042	4501.581506
701.749533	4475.062516
702.084974	4407.997526
702.420366	4462.187409
702.755709	4405.613060
703.091002	4347.501159
703.426246	4399.561155
703.761440	4356.958364
704.096584	4318.373372
704.431679	4337.154191
704.766725	4322.310513
705.101721	4308.568328
705.436668	4338.296012
705.771565	4287.834062
706.106413	4316.150223
706.441212	4347.929657
706.775961	4356.734033
707.110661	4336.161084
707.445311	4360.824929
707.779913	4389.614958
708.114465	4402.958893
708.448967	4423.763735
708.783421	4486.589114
709.117825	4528.014796
709.452180	4532.405641
709.786485	4575.489862
710.120742	4659.762831
710.454949	4647.366634
710.789107	4710.509607
711.123216	4787.248571
711.457275	4780.848826
711.791286	4855.762893
712.125247	4866.200602
712.459159	4773.851705
712.793023	4849.768961
713.126837	4803.483607
713.460602	4802.581240
713.794318	4720.188622
714.127985	4732.063060
714.461602	4642.108711
714.795171	4613.890852
715.128691	4545.258063
715.462162	4492.174713
715.795584	4440.197896
716.128957	4425.601235
716.462281	4373.180797
716.795556	4347.516283
717.128782	4310.342814
717.461960	4238.403028
717.795088	4248.712188
718.128167	4209.305488
718.461198	4147.442969
718.794180	4141.875014
719.127113	4123.207622
719.459997	4104.575517
719.792833	4061.703024
720.125619	4049.644584
720.458357	4012.551774
720.791046	4021.640975
721.123686	3991.356243
721.456278	3950.275880
721.788821	3966.498313
722.121315	3943.059468
722.453761	3913.125097
722.786158	3927.472221
723.118506	3950.127166
723.450805	3903.582193
723.783056	3920.654060
724.115259	3940.997637
724.447412	3945.370837
724.779518	3939.739869
725.111574	3942.552832
725.443582	3971.599961
725.775542	3956.622693
726.107453	4011.891383
726.439315	4008.871732
726.771129	4021.703989
727.102895	4060.737643
727.434612	4108.043831
727.766281	4116.780151
728.097901	4121.385245
728.429473	4124.125112
728.760996	4132.528715
729.092471	4128.510916
729.423897	4111.955766
729.755276	4118.327785
730.086606	4120.006489
730.417887	4154.752642
730.749120	4219.390317
731.080305	4282.689565
731.411442	4310.831806
731.742530	4282.855923
732.073570	4283.327271
732.404562	4337.249973
732.735506	4333.602698
733.066401	4292.683652
733.397249	4231.370619
733.728048	4150.233248
734.058798	4066.003128
734.389501	3998.292871
734.720156	3931.805092
735.050762	3891.135584
735.381320	3884.529152
735.711831	3834.770443
736.042293	3805.632573
736.372707	3825.537569
736.703073	3801.125782
737.033391	3789.258906
737.363661	3807.850681
737.693883	3830.598888
738.024056	3839.456195
738.354182	3836.393694
738.684260	3901.893406
739.014290	3918.602311
739.344272	3915.426384
739.674207	3960.070842
740.004093	3966.105103
740.333931	3956.821818
740.663722	3959.412972
740.993464	3954.081951
741.323159	3933.430865
741.652806	3904.842481
741.982405	3873.688150
742.311956	3843.688244
742.641460	3835.088035
742.970915	3811.165240
743.300323	3770.132768
743.629683	3737.652614
743.958996	3723.426478
744.288260	3698.513095
744.617477	3668.949249
744.946647	3651.688338
745.275768	3625.444091
745.604842	3624.307311
745.933869	3577.981627
746.262847	3567.191038
746.591778	3608.888942
746.920662	3576.928026
747.249498	3547.253274
747.578286	3589.233483
747.907027	3611.086885
748.235720	3607.898355
748.564365	3630.255872
748.892963	3632.484062
749.221514	3615.412195
749.550017	3589.488061
749.878473	3588.832711
750.206881	3557.171744
750.535242	3554.956157
750.863555	3558.706776
751.191821	3552.680076
751.520039	3533.758105
751.848210	3508.862367
752.176334	3549.660425
752.504411	3553.290056
752.832440	3510.651977
753.160421	3494.522805
753.488356	3501.961028
753.816243	3518.672452
754.144082	3474.897593
754.471875	3455.640385
754.799620	3478.083602
755.127318	3469.493476
755.454969	3469.538847
755.782572	3472.308961
756.110129	3451.393213
756.437638	3440.161523
756.765100	3455.378245
757.092515	3465.263948
757.419882	3472.402222
757.747203	3447.256947
758.074477	3446.404992
758.401703	3462.577013
758.728882	3485.695745
759.056014	3492.796210
759.383099	3495.253772
759.710138	3489.983246
760.037129	3509.227851
760.364073	3535.837581
760.690970	3528.464894
761.017820	3500.753671
761.344623	3517.384438
761.671379	3561.542425
761.998088	3615.513018
762.324751	3745.219386
762.651366	3989.705265
762.977935	4465.043223
763.304456	4911.316408
763.630931	5006.735368
763.957359	4650.421573
764.283740	4303.312925
764.610074	4108.311012
764.936362	3910.095363
765.262602	3751.873709
765.588796	3638.452788
765.914943	3548.458110
766.241044	3464.046509
766.567097	3434.689350
766.893104	3385.369221
767.219064	3356.715303
767.544978	3326.871672
767.870845	3272.296141
768.196665	3255.405755
768.522438	3262.813730
768.848165	3255.710744
769.173846	3222.292936
769.499479	3203.335677
769.825066	3186.077286
770.150607	3172.110770
770.476101	3185.447142
770.801548	3182.694672
771.126949	3133.182980
771.452303	3119.586988
771.777611	3126.574027
772.102872	3127.695684
772.428087	3102.978906
772.753256	3095.069336
773.078378	3087.873089
773.403453	3054.402348
773.728482	3038.958773
774.053465	3061.918708
774.378401	3049.615772
774.703291	3020.500588
775.028135	3017.281812
775.352932	3010.826614
775.677683	3001.376971
776.002388	2997.167608
776.327046	2998.238853
776.651658	2991.256855
776.976224	2978.036429
777.300743	2978.038949
777.625216	2965.239460
777.949643	2963.527988
778.274024	2966.945890
778.598359	2953.654888
778.922647	2960.016824
779.246889	2957.420630
779.571086	2944.762293
779.895236	2938.370110
780.219339	2950.443673
780.543397	2960.861218
780.867409	2964.826085
781.191374	2955.394086
781.515294	2956.593881
781.839167	2956.750157
782.162995	2945.987293
782.486776	2956.966926
782.810511	2953.463324
783.134201	2938.896910
783.457844	2943.852365
783.781441	2938.148299
784.104993	2917.814805
784.428498	2917.744229
784.751958	2931.259562
785.075372	2923.329827
785.398739	2910.527817
785.722061	2925.230342
786.045337	2937.230809
786.368568	2922.127512
786.691752	2913.877664
787.014891	2960.921712
787.337983	2992.721310
787.661030	3020.621576
787.984031	3086.259920
788.306987	3134.781025
788.629897	3124.423975
788.952760	3109.660956
789.275579	3095.122268
789.598351	3035.450130
789.921078	2992.131495
790.243759	2983.024651
790.566395	2964.548822
790.888984	2939.900100
791.211529	2923.828902
791.534027	2912.617375
791.856480	2904.377609
792.178888	2889.236504
792.501249	2880.316182
792.823566	2880.691748
793.145836	2875.431304
793.468062	2870.059955
793.790241	2871.184132
794.112375	2876.545399
794.434464	2888.709703
794.756507	2890.675753
795.078505	2895.976527
795.400457	2913.020668
795.722364	2945.944443
796.044226	2974.784885
796.366042	2979.316882
796.687812	2965.683081
797.009538	2983.616986
797.331218	2971.566108
797.652852	2957.324848
797.974442	2938.841458
798.295986	2936.288113
798.617484	2931.226795
798.938938	2917.040988
799.260346	2900.175808
799.581709	2891.416803
799.903026	2890.544683
800.224299	2881.374824
800.545526	2874.100439
800.866708	2856.206864
801.187845	2846.275791
801.508936	2848.647654
801.829983	2855.070084
802.150984	2842.552899
802.471940	2829.546722
802.792851	2828.815754
803.113717	2827.673933
803.434538	2834.277845
803.755314	2825.886844
804.076045	2821.559013
804.396731	2820.573468
804.717372	2821.357367
805.037967	2815.514670
805.358518	2822.622697
805.679024	2831.364058
805.999485	2831.921105
806.319901	2837.360510
806.640272	2823.711586
806.960598	2833.738441
807.280879	2840.783454
807.601115	2849.013137
807.921306	2834.860098
808.241453	2831.573266
808.561554	2836.697598
808.881611	2840.808659
809.201623	2834.633246
809.521590	2834.207268
809.841513	2829.836588
810.161390	2832.314315
810.481223	2827.303408
810.801011	2818.383087
811.120755	2813.568785
811.440453	2813.888898
811.760107	2816.328816
812.079716	2813.992242
812.399281	2803.156281
812.718801	2796.570014
813.038276	2793.194961
813.357707	2800.802062
813.677093	2805.346663
813.996434	2800.373564
814.315731	2796.575055
814.634983	2793.263017
814.954191	2790.623973
815.273354	2808.109215
815.592473	2816.548107
815.911547	2817.294197
816.230577	2823.116730
816.549562	2835.643997
816.868502	2833.947649
817.187399	2844.390399
817.506250	2859.319776
817.825058	2850.873323
818.143821	2865.328832
818.462539	2883.227448
818.781213	2909.776685
819.099843	2945.631892
819.418429	3003.383350
819.736970	3065.180335
820.055466	3137.339411
820.373919	3244.219434
820.692327	3384.363511
821.010691	3557.965726
821.329011	4005.673120
821.647286	4912.417900
821.965517	6310.027393
822.283704	7069.341108
822.601847	7050.023407
822.919945	6411.795686
823.237999	5895.604217
823.556010	5309.751564
823.873976	4748.497221
824.191897	4333.511957
824.509775	4032.880227
824.827609	3758.550717
825.145398	3632.229484
825.463144	3623.281436
825.780845	3712.898028
826.098502	3819.311744
826.416116	4106.135754
826.733685	4425.518056
827.051210	4492.915763
827.368692	4375.308164
827.686129	4107.403604
828.003522	3777.102163
828.320872	3514.301772
828.638177	3315.582008
828.955439	3177.509845
829.272656	3092.357195
829.589830	3025.009900
829.906960	2975.785554
830.224046	2928.204623
830.541088	2898.512227
830.858086	2880.142262
831.175041	2864.398739
831.491952	2864.996116
831.808819	2874.183618
832.125642	2901.594893
832.442421	2947.169444
832.759157	3029.925025
833.075849	3210.211810
833.392497	3492.115654
833.709101	3698.687015
834.025662	3650.264212
834.342179	3490.973833
834.658653	3308.637819
834.975083	3160.082577
835.291469	3059.700601
835.607811	2973.718681
835.924110	2914.490164
836.240366	2862.331866
836.556578	2822.184117
836.872746	2796.345683
837.188871	2772.102774
837.504952	2755.701380
837.820990	2746.891963
838.136984	2733.888307
838.452935	2726.787842
838.768842	2726.815568
839.084706	2740.766961
839.400526	2821.939621
839.716303	2959.676547
840.032037	3038.643701
840.347727	3024.170548
840.663373	2962.688636
840.978977	2885.768190
841.294537	2813.329330
841.610054	2763.721855
841.925527	2741.611355
842.240957	2719.780638
842.556344	2697.486135
842.871687	2681.724967
843.186987	2673.729698
843.502244	2666.989675
843.817458	2663.327277
844.132629	2651.498209
844.447756	2641.110912
844.762840	2634.461630
845.077881	2641.799029
845.392879	2638.371044
845.707833	2634.136475
846.022745	2625.697584
846.337613	2630.801752
846.652438	2626.597430
846.967221	2628.815537
847.281960	2626.088273
847.596656	2624.407048
847.911309	2622.743467
848.225919	2618.138373
848.540485	2614.864144
848.855009	2617.372118
849.169490	2616.792385
849.483928	2617.548558
849.798323	2615.514453
850.112675	2614.342385
850.426984	2615.635441
850.741251	2613.785337
851.055474	2614.170985
851.369654	2619.280195
851.683792	2618.798765
851.997887	2614.906994
852.311938	2615.237189
852.625947	2613.024123
852.939914	2616.610904
853.253837	2617.062087
853.567718	2614.158382
853.881555	2615.620317
854.195350	2616.983949
854.509103	2614.682662
854.822812	2611.274843
855.136479	2611.529421
855.450103	2615.784155
855.763685	2617.208281
856.077224	2618.062756
856.390720	2610.624534
856.704173	2613.684514
857.017584	2619.953189
857.330953	2619.436471
857.644278	2621.405041
857.957561	2618.284567
858.270802	2620.180041
858.584000	2620.575771
858.897155	2621.778087
859.210268	2624.515433
859.523339	2615.403547
859.836367	2611.650408
860.149352	2613.087137
860.462295	2615.612755
860.775195	2611.738629
861.088054	2606.238730
861.400869	2609.129832
861.713642	2607.264605
862.026373	2611.257198
862.339062	2609.691920
862.651708	2615.849690
862.964312	2617.306583
863.276873	2616.729371
863.589392	2619.716255
863.901869	2620.966461
864.214303	2630.216978
864.526696	2628.510547
864.839045	2632.641773
865.151353	2633.632360
865.463619	2635.764768
865.775842	2633.251753
866.088023	2634.789305
866.400162	2636.059675
866.712258	2635.212762
867.024313	2633.523975
867.336325	2630.758902
867.648296	2630.824437
867.960224	2637.196456
868.272110	2635.807618
868.583954	2628.525671
868.895755	2629.569190
869.207515	2636.803246
869.519233	2641.892290
869.830909	2636.483132
870.142542	2635.807618
870.454134	2634.764099
870.765684	2643.651653
871.077191	2640.256436
871.388657	2646.820018
871.700081	2644.115439
872.011463	2642.096457
872.322803	2646.726757
872.634101	2652.292191
872.945357	2658.530619
873.256571	2662.286278
873.567744	2659.062460
873.878874	2659.395177
874.189963	2660.204282
874.501010	2663.511279
874.812015	2670.982269
875.122979	2668.996054
875.433900	2658.956596
875.744780	2659.223777
876.055618	2663.723007
876.366415	2673.533092
876.677169	2672.721467
876.987882	2666.767864
877.298554	2663.665034
877.609183	2673.248267
877.919771	2681.210770
878.230317	2688.636389
878.540822	2698.877493
878.851285	2716.355174
879.161707	2736.673544
879.472087	2775.654267
879.782425	2829.287102
880.092722	2940.184925
880.402977	3136.570635
880.713191	3400.734658
881.023363	3701.663817
881.333494	3906.695105
881.643583	4078.648863
881.953631	4075.072164
882.263637	3894.278743
882.573602	3668.989578
882.883526	3536.586193
883.193408	3417.597318
883.503248	3310.770227
883.813048	3194.412834
884.122806	3078.867067
884.432522	2992.396156
884.742197	2922.992070
885.051831	2883.350957
885.361424	2848.317458
885.670975	2812.048877
885.980485	2780.498815
886.289954	2761.256731
886.599382	2746.672673
886.908768	2736.792012
887.218113	2714.283260
887.527417	2704.349666
887.836680	2692.533201
888.145901	2689.453056
888.455082	2680.709175
888.764221	2669.956394
889.073319	2661.951042
889.382376	2661.643531
889.691392	2661.532626
890.000366	2659.380053
890.309300	2658.155053
890.618193	2660.962975
890.927044	2665.328615
891.235855	2667.108142
891.544625	2663.055054
891.853353	2665.525220
892.162041	2671.914882
892.470687	2693.249045
892.779293	2705.267156
893.087858	2711.248485
893.396381	2737.742269
893.704864	2782.142232
894.013306	2852.662933
894.321707	2947.459310
894.630068	3001.450068
894.938387	3026.549973
895.246665	3014.148734
895.554903	2969.816828
895.863100	2922.737492
896.171256	2865.114583
896.479371	2802.074954
896.787446	2762.527102
897.095480	2740.335943
897.403473	2735.637587
897.711425	2720.020093
898.019336	2704.785726
898.327207	2686.083045
898.635038	2687.766790
898.942827	2682.934844
899.250576	2672.686179
899.558284	2662.684529
899.865952	2656.912408
900.173579	2654.202788
900.481165	2653.055926
900.788711	2645.587456
901.096216	2637.783750
901.403681	2634.096146
901.711105	2636.349542
902.018489	2633.453399
902.325832	2635.505148
902.633135	2638.101343
902.940397	2654.502737
903.247619	2692.538242
903.554800	2762.695981
903.861941	2893.153480
904.169041	3025.120806
904.476101	3091.885847
904.783121	3086.486772
905.090100	3028.200951
905.397039	2950.098354
905.703938	2870.667414
906.010796	2807.088381
906.317614	2753.294229
906.624391	2716.415668
906.931129	2688.520443
907.237826	2663.579334
907.544483	2645.015285
907.851099	2630.453912
908.157675	2622.075515
908.464211	2612.272991
908.770707	2600.736310
909.077163	2598.258583
909.383578	2592.678026
909.689954	2595.435537
909.996289	2590.288519
910.302584	2591.584096
910.608839	2591.281626
910.915054	2589.204671
911.221229	2588.413210
911.527363	2591.954620
911.833458	2592.907398
912.139513	2592.120978
912.445527	2597.643562
912.751502	2603.743359
913.057436	2605.986672
913.363331	2613.472786
913.669186	2621.994856
913.975000	2636.747793
914.280775	2657.043478
914.586510	2673.775068
914.892205	2711.828218
915.197859	2779.233486
915.503475	2869.681868
915.809050	2936.010850
916.114585	2955.265537
916.420081	2971.480408
916.725536	2980.194043
917.030952	2951.051132
917.336328	2903.810480
917.641665	2851.553879
917.946961	2801.278452
918.252218	2765.997936
918.557435	2739.360479
918.862612	2715.248641
919.167750	2696.813141
919.472848	2677.853361
919.777906	2661.091525
920.082925	2648.773465
920.387904	2637.388019
920.692843	2635.585807
920.997743	2629.516258
921.302603	2622.229270
921.607423	2613.094699
921.912204	2611.037908
922.216946	2602.604058
922.521647	2601.968872
922.826310	2599.818820
923.130932	2595.334714
923.435516	2587.062181
923.740059	2588.143508
924.044564	2588.403128
924.349028	2583.193095
924.653454	2573.135993
924.957840	2572.140365
925.262186	2571.137176
925.566493	2573.511559
925.870761	2566.612740
926.174989	2567.656259
926.479178	2568.004098
926.783328	2563.751885
927.087438	2563.220043
927.391509	2561.932029
927.695541	2562.660475
927.999533	2561.057388
928.303486	2559.073694
928.607400	2558.952707
928.911275	2556.006152
929.215110	2555.844835
929.518906	2556.215360
929.822663	2559.262738
930.126381	2558.163766
930.430060	2554.750905
930.733699	2556.888354
931.037299	2555.796944
931.340861	2557.437840
931.644383	2559.560166
931.947866	2558.972871
932.251309	2557.883982
932.554714	2555.590257
932.858080	2557.284085
933.161407	2555.257541
933.464694	2557.263920
933.767943	2553.974567
934.071153	2554.768549
934.374323	2554.173693
934.677455	2554.372818
934.980548	2554.095555
935.283602	2554.879454
935.586617	2554.821481
935.889593	2555.423899
936.192530	2554.624876
936.495428	2555.108827
936.798287	2554.907181
937.101108	2556.164949
937.403890	2560.240722
937.706632	2564.946639
938.009336	2566.884962
938.312002	2571.427042
938.614628	2571.613565
938.917216	2578.411561
939.219765	2578.219997
939.522275	2580.475913
939.824747	2580.470872
940.127179	2573.483833
940.429573	2571.958884
940.731929	2570.343194
941.034246	2566.607699
941.336524	2568.563667
941.638763	2569.503842
941.940964	2566.280024
942.243126	2567.061403
942.545250	2565.566701
942.847335	2564.503017
943.149381	2560.497820
943.451389	2562.567214
943.753359	2562.360527
944.055290	2557.558828
944.357182	2559.567727
944.659036	2555.635628
944.960851	2557.296688
945.262628	2558.292316
945.564367	2559.229970
945.866067	2559.119065
946.167729	2557.856256
946.469352	2559.708880
946.770937	2557.662171
947.072484	2555.807027
947.373992	2553.939279
947.675462	2556.616132
947.976893	2556.916081
948.278286	2553.271326
948.579641	2556.424568
948.880958	2553.087324
949.182236	2554.130843
949.483476	2553.926676
949.784678	2553.934238
950.085841	2552.003476
950.386967	2554.947510
950.688054	2555.486913
950.989103	2556.535473
951.290114	2556.520350
951.591087	2559.913047
951.892021	2559.867676
952.192917	2560.351627
952.493776	2560.560835
952.794596	2562.572255
953.095378	2565.160888
953.396122	2566.118707
953.696828	2562.703325
953.997496	2561.044786
954.298126	2556.417006
954.598718	2556.359033
954.899272	2556.739640
955.199788	2557.266441
955.500266	2551.864844
955.800706	2550.841490
956.101108	2545.497867
956.401472	2544.809750
956.701798	2543.090716
957.002087	2547.484082
957.302337	2547.431150
957.602550	2544.688762
957.902724	2545.938968
958.202861	2542.833617
958.502960	2543.393185
958.803022	2542.697506
959.103045	2543.622558
959.403031	2541.661549
959.702979	2541.724563
960.002889	2540.214738
960.302762	2539.435880
960.602596	2540.103832
960.902393	2540.088709
961.202153	2539.473688
961.501875	2539.516538
961.801559	2539.443441
962.101205	2538.697351
962.400814	2541.311189
962.700385	2539.171219
962.999918	2539.302289
963.299414	2538.228523
963.598873	2538.911600
963.898293	2538.770447
964.197677	2537.006043
964.497022	2538.253729
964.796331	2536.965714
965.095601	2538.175591
965.394835	2537.792463
965.694030	2539.140972
965.993189	2536.887576
966.292309	2536.582587
966.591393	2540.000489
966.890439	2534.649304
967.189447	2536.499407
967.488419	2539.869419
967.787353	2537.673996
968.086249	2536.897659
968.385108	2538.256250
968.683930	2537.984027
968.982714	2537.429500
969.281462	2536.597710
969.580172	2535.796167
969.878844	2539.478729
970.177480	2540.698689
970.476078	2537.905889
970.774639	2540.305479
971.073162	2538.944367
971.371649	2535.720549
971.670098	2537.283307
971.968510	2534.911444
972.266885	2536.746424
972.565223	2538.778009
972.863524	2540.403781
973.161788	2537.346321
973.460014	2539.758513
973.758204	2541.449821
974.056356	2540.711292
974.354471	2538.367155
974.652550	2538.740200
974.950591	2540.827238
975.248595	2539.967721
975.546563	2537.416897
975.844493	2541.618699
976.142386	2539.103163
976.440243	2538.601569
976.738062	2537.185004
977.035845	2538.425128
977.333590	2536.128883
977.631299	2537.006043
977.928971	2537.553009
978.226606	2536.660724
978.524204	2535.755837
978.821765	2537.215251
979.119290	2536.922864
979.416777	2535.879346
979.714228	2537.686599
980.011642	2537.875643
980.309020	2539.357742
980.606360	2535.874304
980.903664	2539.597197
981.200931	2541.228010
981.498162	2539.546785
981.795356	2541.112063
982.092513	2544.535007
982.389633	2546.236396
982.686717	2547.852086
982.983764	2551.403579
983.280775	2553.039433
983.577749	2554.269475
983.874686	2552.232849
984.171587	2549.182951
984.468451	2548.368804
984.765279	2543.068031
985.062070	2544.088865
985.358824	2540.005530
985.655543	2541.603576
985.952224	2538.198276
986.248869	2539.962680
986.545478	2534.878677
986.842050	2535.528985
987.138586	2532.663089
987.435086	2531.221319
987.731549	2531.617050
988.027975	2536.479243
988.324366	2535.939839
988.620719	2535.382792
988.917037	2535.458409
989.213318	2534.349355
989.509563	2535.672658
989.805772	2534.180477
990.101944	2534.021680
990.398080	2533.560415
990.694180	2536.592669
990.990244	2533.469674
991.286271	2535.413039
991.582262	2532.405991
991.878217	2534.344314
992.174136	2535.647453
992.470019	2533.187369
992.765865	2534.009077
993.061676	2533.431865
993.357450	2532.496731
993.653188	2535.075282
993.948890	2531.801052
994.244556	2534.798018
994.540186	2537.711805
994.835780	2533.920857
995.131337	2535.755837
995.426859	2534.598893
995.722345	2537.482432
996.017795	2536.731301
996.313208	2537.003523
996.608586	2536.753986
996.903928	2537.313554
997.199234	2539.267001
997.494504	2537.971424
997.789738	2535.526465
998.084936	2536.882535
998.380099	2535.153419
998.675225	2532.340456
998.970316	2535.166022
999.265371	2533.832637
999.560390	2533.590662
999.855373	2534.858512
1000.150320	2534.840868
1000.445232	2533.787267
1000.740108	2534.185518
1001.034948	2532.867256
1001.329752	2530.636546
1001.624521	2532.534540
1001.919254	2527.803417
1002.213951	2532.733666
1002.508613	2527.400125
1002.803239	2532.554705
1003.097829	2528.231915
1003.392384	2529.784591
1003.686903	2530.094622
1003.981386	2534.215765
1004.275834	2533.323481
1004.570246	2533.351207
1004.864623	2532.227030
1005.158964	2533.608306
1005.453270	2530.964221
1005.747540	2532.438758
1006.041775	2533.769623
1006.335974	2533.472195
1006.630138	2528.723428
1006.924266	2531.072605
1007.218359	2531.614529
1007.512416	2532.345497
1007.806438	2531.672503
1008.100425	2533.832637
1008.394376	2533.237781
1008.688292	2531.062523
1008.982172	2531.236443
1009.276017	2532.179139
1009.569827	2531.249046
1009.863602	2533.058820
1010.157341	2529.983716
1010.451045	2529.061185
1010.744714	2532.353058
1011.038347	2529.923222
1011.331945	2529.023376
1011.625508	2531.755682
1011.919036	2530.581093
1012.212528	2529.716535
1012.505986	2530.260980
1012.799408	2535.198790
1013.092795	2531.521268
1013.386147	2530.371885
1013.679464	2531.932122
1013.972745	2530.918850
1014.265992	2531.279293
1014.559204	2530.976823
1014.852380	2532.458923
1015.145521	2533.613347
1015.438628	2532.121165
1015.731699	2532.201824
1016.024736	2532.277441
1016.317737	2533.409180
1016.610703	2530.218130
1016.903635	2528.899868
1017.196531	2526.918695
1017.489393	2527.090094
1017.782219	2527.904240
1018.075011	2530.268541
1018.367768	2528.065557
1018.660490	2530.994467
1018.953177	2530.994467
1019.245829	2530.994467
