Dividing Wavelength (nm)	Counts (n)	Blue Motor Position (mm): 5.300000	Red Motor Position (mm): 0.000000	
326.493990	2119.805192
326.888308	2119.805192
327.282561	2119.805192
327.676750	2006.379231
328.070874	2079.475962
328.464933	2092.078846
328.858929	2089.558269
329.252859	2056.790769
329.646726	2066.873077
330.040528	2152.572692
330.434265	2029.064423
330.827938	2147.531538
331.221547	2081.996538
331.615091	2157.613846
332.008571	2265.998654
332.401986	2197.943077
332.795338	2263.478077
333.188625	2245.834038
333.581847	2228.190000
333.975006	2250.875192
334.368100	2318.930769
334.761129	2341.615962
335.154095	2286.163269
335.546996	2389.506923
335.939833	2329.013077
336.332606	2323.971923
336.725315	2500.412308
337.117960	2351.698269
337.510540	2303.807308
337.903056	2434.877308
338.295508	2412.192115
338.687896	2429.836154
339.080220	2485.288846
339.472480	2447.480192
339.864676	2507.974038
340.256807	2455.041923
340.648875	2500.412308
341.040879	2442.439038
341.432818	2523.097500
341.824694	2497.891731
342.216506	2497.891731
342.608253	2429.836154
342.999937	2480.247692
343.391557	2424.795000
343.783113	2563.426731
344.174605	2497.891731
344.566033	2555.865000
344.957397	2485.288846
345.348697	2528.138654
345.739934	2444.959615
346.131106	2477.727115
346.522215	2502.932885
346.913260	2447.480192
347.304241	2452.521346
347.695159	2467.644808
348.086012	2452.521346
348.476802	2359.260000
348.867528	2467.644808
349.258191	2429.836154
349.648789	2482.768269
350.039324	2349.177692
350.429796	2409.671538
350.820203	2482.768269
351.210548	2404.630385
351.600828	2520.576923
351.991045	2455.041923
352.381198	2515.535769
352.771288	2460.083077
353.161314	2457.562500
353.551276	2490.330000
353.941175	2467.644808
354.331010	2376.904038
354.720782	2404.630385
355.110490	2492.850577
355.500135	2424.795000
355.889717	2392.027500
356.279235	2361.780577
356.668689	2452.521346
357.058080	2455.041923
357.447408	2518.056346
357.836672	2414.712692
358.225873	2414.712692
358.615010	2419.753846
359.004084	2427.315577
359.393095	2477.727115
359.782043	2432.356731
360.170927	2376.904038
360.559748	2470.165385
360.948505	2386.986346
361.337199	2386.986346
361.725830	2465.124231
362.114398	2392.027500
362.502903	2429.836154
362.891344	2427.315577
363.279722	2502.932885
363.668037	2452.521346
364.056289	2444.959615
364.444478	2419.753846
364.832603	2427.315577
365.220665	2409.671538
365.608665	2510.494615
365.996601	2452.521346
366.384474	2450.000769
366.772284	2427.315577
367.160031	2510.494615
367.547715	2394.548077
367.935336	2455.041923
368.322893	2485.288846
368.710388	2518.056346
369.097820	2460.083077
369.485189	2513.015192
369.872495	2427.315577
370.259738	2452.521346
370.646918	2462.603654
371.034035	2450.000769
371.421090	2465.124231
371.808081	2417.233269
372.195010	2495.371154
372.581875	2505.453462
372.968678	2495.371154
373.355418	2452.521346
373.742096	2482.768269
374.128710	2477.727115
374.515262	2502.932885
374.901751	2477.727115
375.288177	2490.330000
375.674540	2414.712692
376.060841	2462.603654
376.447079	2455.041923
376.833254	2452.521346
377.219367	2404.630385
377.605417	2502.932885
377.991404	2480.247692
378.377329	2588.632500
378.763191	2444.959615
379.148991	2457.562500
379.534727	2470.165385
379.920402	2429.836154
380.306013	2472.685962
380.691563	2381.945192
381.077049	2407.150962
381.462474	2434.877308
381.847835	2419.753846
382.233134	2520.576923
382.618371	2495.371154
383.003545	2417.233269
383.388657	2462.603654
383.773706	2419.753846
384.158693	2540.741538
384.543618	2412.192115
384.928480	2412.192115
385.313280	2490.330000
385.698017	2540.741538
386.082692	2429.836154
386.467305	2485.288846
386.851856	2465.124231
387.236344	2490.330000
387.620770	2460.083077
388.005133	2480.247692
388.389435	2442.439038
388.773674	2462.603654
389.157851	2515.535769
389.541965	2560.906154
389.926018	2439.918462
390.310008	2515.535769
390.693936	2369.342308
391.077802	2407.150962
391.461606	2520.576923
391.845348	2455.041923
392.229027	2412.192115
392.612645	2490.330000
392.996200	2427.315577
393.379694	2424.795000
393.763125	2538.220962
394.146494	2515.535769
394.529801	2505.453462
394.913047	2502.932885
395.296230	2502.932885
395.679351	2437.397885
396.062410	2533.179808
396.445408	2452.521346
396.828343	2475.206538
397.211217	2465.124231
397.594028	2442.439038
397.976778	2434.877308
398.359466	2485.288846
398.742092	2447.480192
399.124656	2507.974038
399.507158	2439.918462
399.889598	2482.768269
400.271977	2462.603654
400.654294	2502.932885
401.036549	2427.315577
401.418742	2414.712692
401.800874	2429.836154
402.182944	2460.083077
402.564952	2434.877308
402.946898	2407.150962
403.328783	2432.356731
403.710606	2540.741538
404.092367	2455.041923
404.474067	2447.480192
404.855705	2427.315577
405.237282	2444.959615
405.618797	2369.342308
406.000250	2397.068654
406.381642	2467.644808
406.762972	2407.150962
407.144240	2381.945192
407.525447	2535.700385
407.906593	2442.439038
408.287677	2412.192115
408.668700	2502.932885
409.049661	2444.959615
409.430560	2563.426731
409.811399	2460.083077
410.192176	2434.877308
410.572891	2450.000769
410.953545	2447.480192
411.334138	2520.576923
411.714669	2475.206538
412.095139	2533.179808
412.475547	2434.877308
412.855894	2472.685962
413.236180	2450.000769
413.616405	2457.562500
413.996568	2510.494615
414.376670	2437.397885
414.756711	2535.700385
415.136691	2450.000769
415.516609	2553.344423
415.896466	2394.548077
416.276262	2543.262115
416.655997	2477.727115
417.035670	2429.836154
417.415283	2460.083077
417.794834	2497.891731
418.174324	2535.700385
418.553753	2447.480192
418.933121	2485.288846
419.312428	2480.247692
419.691674	2533.179808
420.070859	2452.521346
420.449983	2502.932885
420.829045	2432.356731
421.208047	2510.494615
421.586988	2545.782692
421.965867	2535.700385
422.344686	2505.453462
422.723444	2500.412308
423.102141	2505.453462
423.480777	2507.974038
423.859352	2472.685962
424.237866	2487.809423
424.616319	2455.041923
424.994712	2513.015192
425.373044	2513.015192
425.751314	2515.535769
426.129524	2507.974038
426.507673	2472.685962
426.885762	2450.000769
427.263789	2475.206538
427.641756	2553.344423
428.019662	2422.274423
428.397508	2399.589231
428.775292	2455.041923
429.153016	2437.397885
429.530679	2515.535769
429.908282	2439.918462
430.285824	2540.741538
430.663305	2482.768269
431.040726	2412.192115
431.418086	2467.644808
431.795385	2394.548077
432.172624	2404.630385
432.549802	2545.782692
432.926920	2475.206538
433.303977	2528.138654
433.680974	2492.850577
434.057910	2447.480192
434.434786	2462.603654
434.811601	2427.315577
435.188355	2533.179808
435.565050	2394.548077
435.941683	2507.974038
436.318257	2525.618077
436.694770	2432.356731
437.071222	2540.741538
437.447614	2563.426731
437.823946	2513.015192
438.200218	2422.274423
438.576429	2520.576923
438.952580	2510.494615
439.328670	2545.782692
439.704700	2520.576923
440.080670	2419.753846
440.456580	2560.906154
440.832429	2455.041923
441.208218	2487.809423
441.583947	2434.877308
441.959616	2480.247692
442.335224	2495.371154
442.710773	2482.768269
443.086261	2462.603654
443.461689	2533.179808
443.837057	2510.494615
444.212365	2507.974038
444.587612	2429.836154
444.962800	2500.412308
445.337927	2470.165385
445.712995	2490.330000
446.088002	2477.727115
446.462949	2475.206538
446.837837	2455.041923
447.212664	2515.535769
447.587431	2470.165385
447.962139	2437.397885
448.336786	2477.727115
448.711374	2452.521346
449.085901	2543.262115
449.460369	2520.576923
449.834776	2492.850577
450.209124	2462.603654
450.583412	2495.371154
450.957640	2500.412308
451.331808	2434.877308
451.705917	2520.576923
452.079965	2414.712692
452.453954	2502.932885
452.827883	2515.535769
453.201752	2548.303269
453.575562	2439.918462
453.949311	2407.150962
454.323001	2500.412308
454.696632	2502.932885
455.070202	2593.673654
455.443713	2505.453462
455.817164	2422.274423
456.190556	2535.700385
456.563888	2525.618077
456.937160	2475.206538
457.310373	2543.262115
457.683526	2520.576923
458.056619	2457.562500
458.429653	2548.303269
458.802628	2402.109808
459.175542	2485.288846
459.548398	2540.741538
459.921194	2442.439038
460.293930	2533.179808
460.666607	2439.918462
461.039224	2583.591346
461.411782	2455.041923
461.784280	2525.618077
462.156719	2495.371154
462.529099	2500.412308
462.901419	2455.041923
463.273680	2492.850577
463.645882	2432.356731
464.018024	2467.644808
464.390106	2450.000769
464.762130	2437.397885
465.134094	2530.659231
465.505999	2510.494615
465.877845	2492.850577
466.249631	2495.371154
466.621358	2502.932885
466.993026	2576.029615
467.364634	2515.535769
467.736184	2520.576923
468.107674	2518.056346
468.479105	2439.918462
468.850477	2568.467885
469.221790	2487.809423
469.593043	2480.247692
469.964238	2502.932885
470.335373	2510.494615
470.706449	2442.439038
471.077467	2477.727115
471.448425	2601.235385
471.819324	2505.453462
472.190164	2485.288846
472.560945	2455.041923
472.931667	2543.262115
473.302330	2470.165385
473.672934	2447.480192
474.043479	2472.685962
474.413965	2442.439038
474.784393	2495.371154
475.154761	2550.823846
475.525070	2558.385577
475.895321	2434.877308
476.265513	2515.535769
476.635645	2482.768269
477.005719	2480.247692
477.375734	2528.138654
477.745691	2538.220962
478.115588	2472.685962
478.485427	2550.823846
478.855207	2424.795000
479.224928	2472.685962
479.594591	2417.233269
479.964194	2470.165385
480.333739	2455.041923
480.703226	2432.356731
481.072653	2460.083077
481.442022	2513.015192
481.811333	2555.865000
482.180584	2548.303269
482.549777	2535.700385
482.918912	2414.712692
483.287988	2515.535769
483.657005	2442.439038
484.025964	2487.809423
484.394864	2472.685962
484.763706	2523.097500
485.132489	2472.685962
485.501213	2525.618077
485.869879	2442.439038
486.238487	2465.124231
486.607036	2399.589231
486.975527	2495.371154
487.343959	2497.891731
487.712333	2460.083077
488.080648	2492.850577
488.448905	2520.576923
488.817104	2553.344423
489.185244	2518.056346
489.553326	2520.576923
489.921350	2500.412308
490.289315	2530.659231
490.657222	2500.412308
491.025070	2417.233269
491.392861	2434.877308
491.760593	2540.741538
492.128267	2455.041923
492.495883	2540.741538
492.863440	2568.467885
493.230939	2523.097500
493.598380	2470.165385
493.965763	2538.220962
494.333088	2500.412308
494.700354	2472.685962
495.067563	2450.000769
495.434713	2586.111923
495.801805	2437.397885
496.168839	2460.083077
496.535815	2480.247692
496.902733	2495.371154
497.269593	2482.768269
497.636395	2437.397885
498.003139	2465.124231
498.369825	2520.576923
498.736453	2518.056346
499.103023	2480.247692
499.469535	2502.932885
499.835989	2507.974038
500.202385	2485.288846
500.568723	2472.685962
500.935003	2500.412308
501.301226	2470.165385
501.667390	2538.220962
502.033497	2447.480192
502.399546	2505.453462
502.765537	2434.877308
503.131470	2530.659231
503.497345	2502.932885
503.863163	2593.673654
504.228923	2497.891731
504.594625	2502.932885
504.960269	2444.959615
505.325856	2444.959615
505.691385	2540.741538
506.056856	2507.974038
506.422270	2525.618077
506.787625	2447.480192
507.152924	2442.439038
507.518164	2545.782692
507.883347	2477.727115
508.248472	2573.509038
508.613540	2427.315577
508.978550	2540.741538
509.343503	2593.673654
509.708398	2422.274423
510.073236	2490.330000
510.438016	2502.932885
510.802738	2465.124231
511.167403	2480.247692
511.532010	2439.918462
511.896561	2450.000769
512.261053	2530.659231
512.625488	2538.220962
512.989866	2480.247692
513.354186	2535.700385
513.718449	2565.947308
514.082655	2465.124231
514.446803	2487.809423
514.810894	2490.330000
515.174927	2543.262115
515.538904	2538.220962
515.902822	2548.303269
516.266684	2447.480192
516.630488	2455.041923
516.994235	2510.494615
517.357925	2518.056346
517.721558	2482.768269
518.085133	2487.809423
518.448651	2397.068654
518.812112	2500.412308
519.175516	2487.809423
519.538863	2515.535769
519.902152	2482.768269
520.265385	2487.809423
520.628560	2490.330000
520.991678	2548.303269
521.354739	2563.426731
521.717743	2414.712692
522.080690	2482.768269
522.443580	2535.700385
522.806413	2462.603654
523.169189	2550.823846
523.531908	2467.644808
523.894569	2470.165385
524.257174	2452.521346
524.619722	2515.535769
524.982213	2500.412308
525.344647	2497.891731
525.707025	2460.083077
526.069345	2520.576923
526.431608	2538.220962
526.793815	2465.124231
527.155964	2568.467885
527.518057	2485.288846
527.880093	2475.206538
528.242072	2487.809423
528.603995	2543.262115
528.965860	2472.685962
529.327669	2513.015192
529.689421	2412.192115
530.051117	2533.179808
530.412755	2480.247692
530.774337	2480.247692
531.135862	2485.288846
531.497331	2535.700385
531.858743	2535.700385
532.220098	2565.947308
532.581396	2384.465769
532.942638	2467.644808
533.303824	2523.097500
533.664953	2533.179808
534.026025	2507.974038
534.387040	2497.891731
534.747999	2533.179808
535.108902	2500.412308
535.469748	2515.535769
535.830537	2437.397885
536.191270	2467.644808
536.551947	2510.494615
536.912567	2480.247692
537.273131	2543.262115
537.633638	2497.891731
537.994089	2528.138654
538.354483	2414.712692
538.714821	2475.206538
539.075103	2450.000769
539.435328	2492.850577
539.795497	2502.932885
540.155609	2528.138654
540.515665	2467.644808
540.875665	2505.453462
541.235609	2500.412308
541.595496	2500.412308
541.955328	2407.150962
542.315102	2543.262115
542.674821	2417.233269
543.034483	2530.659231
543.394090	2535.700385
543.753640	2462.603654
544.113134	2450.000769
544.472571	2502.932885
544.831953	2460.083077
545.191278	2482.768269
545.550548	2450.000769
545.909761	2510.494615
546.268918	2570.988462
546.628019	2485.288846
546.987064	2510.494615
547.346053	2510.494615
547.704986	2470.165385
548.063863	2389.506923
548.422684	2502.932885
548.781449	2439.918462
549.140158	2591.153077
549.498811	2520.576923
549.857408	2475.206538
550.215949	2424.795000
550.574434	2439.918462
550.932864	2470.165385
551.291237	2490.330000
551.649555	2543.262115
552.007817	2487.809423
552.366022	2460.083077
552.724173	2515.535769
553.082267	2444.959615
553.440305	2535.700385
553.798288	2477.727115
554.156215	2475.206538
554.514086	2523.097500
554.871902	2518.056346
555.229661	2487.809423
555.587365	2492.850577
555.945014	2397.068654
556.302606	2485.288846
556.660143	2467.644808
557.017625	2477.727115
557.375050	2545.782692
557.732421	2533.179808
558.089735	2533.179808
558.446994	2528.138654
558.804197	2462.603654
559.161345	2452.521346
559.518437	2434.877308
559.875474	2621.400000
560.232455	2457.562500
560.589381	2520.576923
560.946251	2505.453462
561.303065	2502.932885
561.659825	2444.959615
562.016528	2558.385577
562.373177	2470.165385
562.729770	2487.809423
563.086307	2555.865000
563.442789	2518.056346
563.799216	2497.891731
564.155587	2505.453462
564.511904	2482.768269
564.868164	2397.068654
565.224370	2487.809423
565.580520	2412.192115
565.936615	2381.945192
566.292654	2505.453462
566.648638	2528.138654
567.004567	2437.397885
567.360441	2505.453462
567.716260	2414.712692
568.072023	2452.521346
568.427732	2482.768269
568.783385	2583.591346
569.138982	2432.356731
569.494525	2462.603654
569.850013	2495.371154
570.205445	2535.700385
570.560823	2455.041923
570.916145	2545.782692
571.271412	2540.741538
571.626625	2447.480192
571.981782	2507.974038
572.336884	2513.015192
572.691931	2538.220962
573.046923	2515.535769
573.401860	2518.056346
573.756743	2472.685962
574.111570	2505.453462
574.466342	2533.179808
574.821059	2502.932885
575.175722	2487.809423
575.530330	2455.041923
575.884882	2492.850577
576.239380	2439.918462
576.593823	2530.659231
576.948211	2487.809423
577.302544	2507.974038
577.656823	2560.906154
578.011047	2530.659231
578.365216	2500.412308
578.719330	2538.220962
579.073389	2472.685962
579.427394	2515.535769
579.781344	2455.041923
580.135239	2525.618077
580.489080	2558.385577
580.842866	2495.371154
581.196597	2513.015192
581.550273	2502.932885
581.903895	2497.891731
582.257463	2553.344423
582.610975	2487.809423
582.964434	2535.700385
583.317837	2540.741538
583.671186	2477.727115
584.024481	2490.330000
584.377721	2502.932885
584.730906	2523.097500
585.084037	2500.412308
585.437113	2507.974038
585.790135	2470.165385
586.143103	2581.070769
586.496016	2429.836154
586.848874	2495.371154
587.201679	2573.509038
587.554428	2505.453462
587.907124	2460.083077
588.259765	2565.947308
588.612352	2487.809423
588.964884	2439.918462
589.317362	2472.685962
589.669786	2495.371154
590.022155	2457.562500
590.374470	2523.097500
590.726731	2475.206538
591.078937	2485.288846
591.431090	2487.809423
591.783188	2502.932885
592.135232	2485.288846
592.487222	2523.097500
592.839157	2497.891731
593.191038	2492.850577
593.542866	2465.124231
593.894639	2477.727115
594.246358	2460.083077
594.598022	2492.850577
594.949633	2424.795000
595.301190	2442.439038
595.652692	2573.509038
596.004141	2530.659231
596.355535	2525.618077
596.706876	2437.397885
597.058162	2439.918462
597.409395	2485.288846
597.760573	2490.330000
598.111698	2467.644808
598.462768	2518.056346
598.813785	2555.865000
599.164748	2513.015192
599.515657	2490.330000
599.866511	2497.891731
600.217312	2513.015192
600.568060	2482.768269
600.918753	2520.576923
601.269392	2419.753846
601.619978	2507.974038
601.970510	2495.371154
602.320988	2550.823846
602.671412	2475.206538
603.021783	2485.288846
603.372100	2497.891731
603.722363	2513.015192
604.072572	2450.000769
604.422728	2492.850577
604.772830	2467.644808
605.122878	2518.056346
605.472872	2450.000769
605.822813	2470.165385
606.172701	2576.029615
606.522534	2422.274423
606.872314	2553.344423
607.222041	2490.330000
607.571714	2465.124231
607.921333	2477.727115
608.270899	2465.124231
608.620411	2510.494615
608.969870	2545.782692
609.319276	2482.768269
609.668627	2472.685962
610.017926	2548.303269
610.367171	2525.618077
610.716362	2608.797115
611.065500	2500.412308
611.414585	2429.836154
611.763616	2371.862885
612.112594	2533.179808
612.461518	2452.521346
612.810389	2550.823846
613.159207	2505.453462
613.507971	2510.494615
613.856682	2475.206538
614.205340	2515.535769
614.553945	2545.782692
614.902496	2482.768269
615.250994	2419.753846
615.599439	2573.509038
615.947830	2422.274423
616.296169	2432.356731
616.644454	2495.371154
616.992686	2530.659231
617.340864	2555.865000
617.688990	2465.124231
618.037063	2520.576923
618.385082	2553.344423
618.733048	2450.000769
619.080961	2533.179808
619.428821	2553.344423
619.776628	2455.041923
620.124382	2444.959615
620.472083	2495.371154
620.819731	2399.589231
621.167326	2535.700385
621.514868	2492.850577
621.862357	2417.233269
622.209793	2603.755962
622.557176	2591.153077
622.904506	2513.015192
623.251783	2480.247692
623.599007	2457.562500
623.946179	2545.782692
624.293297	2480.247692
624.640363	2475.206538
624.987376	2490.330000
625.334336	2528.138654
625.681243	2457.562500
626.028097	2540.741538
626.374899	2472.685962
626.721647	2555.865000
627.068343	2437.397885
627.414987	2543.262115
627.761577	2450.000769
628.108115	2520.576923
628.454600	2492.850577
628.801032	2457.562500
629.147412	2540.741538
629.493739	2560.906154
629.840014	2490.330000
630.186236	2495.371154
630.532405	2462.603654
630.878521	2455.041923
631.224585	2409.671538
631.570597	2530.659231
631.916556	2538.220962
632.262462	2455.041923
632.608316	2523.097500
632.954117	2530.659231
633.299866	2515.535769
633.645562	2487.809423
633.991206	2553.344423
634.336797	2465.124231
634.682336	2490.330000
635.027823	2457.562500
635.373257	2482.768269
635.718639	2480.247692
636.063968	2578.550192
636.409245	2470.165385
636.754470	2447.480192
637.099642	2424.795000
637.444762	2450.000769
637.789829	2502.932885
638.134845	2515.535769
638.479808	2492.850577
638.824719	2462.603654
639.169577	2525.618077
639.514383	2505.453462
639.859137	2553.344423
640.203839	2535.700385
640.548489	2560.906154
640.893086	2467.644808
641.237632	2563.426731
641.582125	2626.441154
641.926566	2497.891731
642.270955	2490.330000
642.615292	2543.262115
642.959576	2480.247692
643.303809	2507.974038
643.647990	2497.891731
643.992118	2404.630385
644.336195	2510.494615
644.680219	2455.041923
645.024192	2447.480192
645.368112	2513.015192
645.711981	2598.714808
646.055797	2475.206538
646.399562	2507.974038
646.743274	2507.974038
647.086935	2429.836154
647.430544	2518.056346
647.774101	2447.480192
648.117606	2472.685962
648.461059	2432.356731
648.804460	2530.659231
649.147810	2553.344423
649.491108	2447.480192
649.834354	2545.782692
650.177548	2409.671538
650.520690	2540.741538
650.863781	2460.083077
651.206820	2482.768269
651.549807	2513.015192
651.892742	2490.330000
652.235626	2465.124231
652.578458	2495.371154
652.921238	2384.465769
653.263967	2515.535769
653.606644	2505.453462
653.949269	2432.356731
654.291843	2447.480192
654.634365	2492.850577
654.976836	2538.220962
655.319255	2437.397885
655.661622	2414.712692
656.003938	2482.768269
656.346203	2540.741538
656.688416	2366.821731
657.030577	2462.603654
657.372687	2553.344423
657.714746	2515.535769
658.056753	2540.741538
658.398708	2432.356731
658.740612	2485.288846
659.082465	2515.535769
659.424266	2578.550192
659.766016	2510.494615
660.107715	2540.741538
660.449362	2462.603654
660.790958	2477.727115
661.132503	2588.632500
661.473996	2530.659231
661.815438	2515.535769
662.156829	2520.576923
662.498168	2543.262115
662.839456	2598.714808
663.180693	2560.906154
663.521879	2533.179808
663.863013	2480.247692
664.204097	2586.111923
664.545129	2467.644808
664.886110	2495.371154
665.227040	2535.700385
665.567918	2525.618077
665.908746	2447.480192
666.249522	2487.809423
666.590248	2533.179808
666.930922	2492.850577
667.271545	2472.685962
667.612118	2462.603654
667.952639	2533.179808
668.293109	2530.659231
668.633528	2470.165385
668.973896	2475.206538
669.314213	2444.959615
669.654480	2540.741538
669.994695	2565.947308
670.334859	2545.782692
670.674973	2518.056346
671.015035	2417.233269
671.355047	2530.659231
671.695008	2452.521346
672.034918	2472.685962
672.374777	2533.179808
672.714585	2558.385577
673.054342	2515.535769
673.394049	2596.194231
673.733705	2545.782692
674.073310	2450.000769
674.412864	2513.015192
674.752368	2472.685962
675.091820	2487.809423
675.431223	2558.385577
675.770574	2525.618077
676.109875	2465.124231
676.449125	2560.906154
676.788324	2502.932885
677.127473	2528.138654
677.466571	2487.809423
677.805619	2528.138654
678.144616	2470.165385
678.483562	2515.535769
678.822458	2502.932885
679.161303	2502.932885
679.500098	2462.603654
679.838842	2545.782692
680.177535	2523.097500
680.516179	2429.836154
680.854771	2490.330000
681.193314	2465.124231
681.531805	2553.344423
681.870247	2510.494615
682.208638	2540.741538
682.546978	2460.083077
682.885268	2442.439038
683.223508	2450.000769
683.561697	2475.206538
683.899836	2470.165385
684.237925	2490.330000
684.575963	2434.877308
684.913951	2520.576923
685.251889	2553.344423
685.589776	2470.165385
685.927614	2515.535769
686.265401	2472.685962
686.603137	2475.206538
686.940824	2540.741538
687.278460	2500.412308
687.616046	2538.220962
687.953582	2485.288846
688.291068	2573.509038
688.628504	2530.659231
688.965889	2475.206538
689.303224	2497.891731
689.640510	2472.685962
689.977745	2505.453462
690.314930	2465.124231
690.652065	2528.138654
690.989150	2472.685962
691.326185	2495.371154
691.663170	2528.138654
692.000105	2528.138654
692.336990	2467.644808
692.673825	2444.959615
693.010610	2543.262115
693.347345	2422.274423
693.684030	2507.974038
694.020665	2553.344423
694.357251	2442.439038
694.693786	2535.700385
695.030272	2505.453462
695.366707	2492.850577
695.703093	2555.865000
696.039429	2570.988462
696.375716	2518.056346
696.711952	2472.685962
697.048139	2455.041923
697.384276	2467.644808
697.720363	2525.618077
698.056400	2513.015192
698.392388	2560.906154
698.728326	2457.562500
699.064214	2477.727115
699.400053	2432.356731
699.735842	2576.029615
700.071581	2394.548077
700.407270	2523.097500
700.742910	2533.179808
701.078501	2535.700385
701.414042	2447.480192
701.749533	2397.068654
702.084974	2455.041923
702.420366	2490.330000
702.755709	2447.480192
703.091002	2477.727115
703.426246	2452.521346
703.761440	2462.603654
704.096584	2460.083077
704.431679	2533.179808
704.766725	2487.809423
705.101721	2540.741538
705.436668	2389.506923
705.771565	2540.741538
706.106413	2404.630385
706.441212	2492.850577
706.775961	2535.700385
707.110661	2485.288846
707.445311	2505.453462
707.779913	2427.315577
708.114465	2570.988462
708.448967	2518.056346
708.783421	2523.097500
709.117825	2482.768269
709.452180	2487.809423
709.786485	2540.741538
710.120742	2477.727115
710.454949	2444.959615
710.789107	2444.959615
711.123216	2553.344423
711.457275	2530.659231
711.791286	2497.891731
712.125247	2432.356731
712.459159	2548.303269
712.793023	2535.700385
713.126837	2480.247692
713.460602	2492.850577
713.794318	2545.782692
714.127985	2402.109808
714.461602	2497.891731
714.795171	2540.741538
715.128691	2495.371154
715.462162	2492.850577
715.795584	2505.453462
716.128957	2523.097500
716.462281	2455.041923
716.795556	2457.562500
717.128782	2475.206538
717.461960	2442.439038
717.795088	2404.630385
718.128167	2523.097500
718.461198	2533.179808
718.794180	2543.262115
719.127113	2545.782692
719.459997	2477.727115
719.792833	2500.412308
720.125619	2424.795000
720.458357	2475.206538
720.791046	2442.439038
721.123686	2518.056346
721.456278	2455.041923
721.788821	2573.509038
722.121315	2492.850577
722.453761	2500.412308
722.786158	2523.097500
723.118506	2462.603654
723.450805	2490.330000
723.783056	2460.083077
724.115259	2465.124231
724.447412	2470.165385
724.779518	2460.083077
725.111574	2505.453462
725.443582	2601.235385
725.775542	2457.562500
726.107453	2419.753846
726.439315	2530.659231
726.771129	2452.521346
727.102895	2525.618077
727.434612	2497.891731
727.766281	2555.865000
728.097901	2434.877308
728.429473	2515.535769
728.760996	2538.220962
729.092471	2518.056346
729.423897	2472.685962
729.755276	2422.274423
730.086606	2578.550192
730.417887	2487.809423
730.749120	2528.138654
731.080305	2485.288846
731.411442	2480.247692
731.742530	2386.986346
732.073570	2548.303269
732.404562	2507.974038
732.735506	2457.562500
733.066401	2550.823846
733.397249	2603.755962
733.728048	2528.138654
734.058798	2442.439038
734.389501	2442.439038
734.720156	2500.412308
735.050762	2530.659231
735.381320	2487.809423
735.711831	2606.276538
736.042293	2576.029615
736.372707	2555.865000
736.703073	2460.083077
737.033391	2563.426731
737.363661	2497.891731
737.693883	2513.015192
738.024056	2553.344423
738.354182	2495.371154
738.684260	2470.165385
739.014290	2447.480192
739.344272	2555.865000
739.674207	2429.836154
740.004093	2518.056346
740.333931	2429.836154
740.663722	2603.755962
740.993464	2467.644808
741.323159	2475.206538
741.652806	2507.974038
741.982405	2439.918462
742.311956	2505.453462
742.641460	2472.685962
742.970915	2452.521346
743.300323	2523.097500
743.629683	2555.865000
743.958996	2432.356731
744.288260	2550.823846
744.617477	2495.371154
744.946647	2515.535769
745.275768	2528.138654
745.604842	2485.288846
745.933869	2505.453462
746.262847	2402.109808
746.591778	2477.727115
746.920662	2467.644808
747.249498	2568.467885
747.578286	2563.426731
747.907027	2434.877308
748.235720	2548.303269
748.564365	2482.768269
748.892963	2533.179808
749.221514	2500.412308
749.550017	2518.056346
749.878473	2472.685962
750.206881	2555.865000
750.535242	2470.165385
750.863555	2510.494615
751.191821	2457.562500
751.520039	2424.795000
751.848210	2487.809423
752.176334	2490.330000
752.504411	2490.330000
752.832440	2548.303269
753.160421	2457.562500
753.488356	2513.015192
753.816243	2465.124231
754.144082	2404.630385
754.471875	2523.097500
754.799620	2533.179808
755.127318	2525.618077
755.454969	2507.974038
755.782572	2518.056346
756.110129	2439.918462
756.437638	2530.659231
756.765100	2452.521346
757.092515	2528.138654
757.419882	2502.932885
757.747203	2460.083077
758.074477	2626.441154
758.401703	2515.535769
758.728882	2502.932885
759.056014	2581.070769
759.383099	2470.165385
759.710138	2533.179808
760.037129	2608.797115
760.364073	2510.494615
760.690970	2444.959615
761.017820	2535.700385
761.344623	2505.453462
761.671379	2538.220962
761.998088	2429.836154
762.324751	2397.068654
762.651366	2533.179808
762.977935	2523.097500
763.304456	2563.426731
763.630931	2560.906154
763.957359	2472.685962
764.283740	2560.906154
764.610074	2434.877308
764.936362	2505.453462
765.262602	2465.124231
765.588796	2530.659231
765.914943	2505.453462
766.241044	2523.097500
766.567097	2462.603654
766.893104	2477.727115
767.219064	2540.741538
767.544978	2467.644808
767.870845	2500.412308
768.196665	2455.041923
768.522438	2533.179808
768.848165	2455.041923
769.173846	2513.015192
769.499479	2535.700385
769.825066	2513.015192
770.150607	2515.535769
770.476101	2492.850577
770.801548	2495.371154
771.126949	2588.632500
771.452303	2465.124231
771.777611	2533.179808
772.102872	2500.412308
772.428087	2583.591346
772.753256	2492.850577
773.078378	2518.056346
773.403453	2550.823846
773.728482	2354.218846
774.053465	2404.630385
774.378401	2515.535769
774.703291	2442.439038
775.028135	2520.576923
775.352932	2543.262115
775.677683	2492.850577
776.002388	2513.015192
776.327046	2550.823846
776.651658	2439.918462
776.976224	2540.741538
777.300743	2550.823846
777.625216	2490.330000
777.949643	2520.576923
778.274024	2515.535769
778.598359	2540.741538
778.922647	2490.330000
779.246889	2500.412308
779.571086	2530.659231
779.895236	2558.385577
780.219339	2500.412308
780.543397	2505.453462
780.867409	2540.741538
781.191374	2485.288846
781.515294	2523.097500
781.839167	2399.589231
782.162995	2502.932885
782.486776	2530.659231
782.810511	2497.891731
783.134201	2485.288846
783.457844	2404.630385
783.781441	2505.453462
784.104993	2434.877308
784.428498	2386.986346
784.751958	2548.303269
785.075372	2507.974038
785.398739	2452.521346
785.722061	2467.644808
786.045337	2528.138654
786.368568	2543.262115
786.691752	2477.727115
787.014891	2540.741538
787.337983	2507.974038
787.661030	2543.262115
787.984031	2470.165385
788.306987	2442.439038
788.629897	2419.753846
788.952760	2447.480192
789.275579	2490.330000
789.598351	2485.288846
789.921078	2490.330000
790.243759	2419.753846
790.566395	2452.521346
790.888984	2495.371154
791.211529	2457.562500
791.534027	2465.124231
791.856480	2515.535769
792.178888	2485.288846
792.501249	2533.179808
792.823566	2457.562500
793.145836	2467.644808
793.468062	2477.727115
793.790241	2477.727115
794.112375	2480.247692
794.434464	2553.344423
794.756507	2513.015192
795.078505	2477.727115
795.400457	2412.192115
795.722364	2505.453462
796.044226	2429.836154
796.366042	2626.441154
796.687812	2482.768269
797.009538	2460.083077
797.331218	2548.303269
797.652852	2460.083077
797.974442	2513.015192
798.295986	2480.247692
798.617484	2520.576923
798.938938	2427.315577
799.260346	2465.124231
799.581709	2450.000769
799.903026	2455.041923
800.224299	2525.618077
800.545526	2452.521346
800.866708	2457.562500
801.187845	2500.412308
801.508936	2523.097500
801.829983	2412.192115
802.150984	2520.576923
802.471940	2467.644808
802.792851	2480.247692
803.113717	2450.000769
803.434538	2419.753846
803.755314	2480.247692
804.076045	2447.480192
804.396731	2535.700385
804.717372	2515.535769
805.037967	2545.782692
805.358518	2439.918462
805.679024	2578.550192
805.999485	2472.685962
806.319901	2412.192115
806.640272	2518.056346
806.960598	2455.041923
807.280879	2507.974038
807.601115	2525.618077
807.921306	2485.288846
808.241453	2432.356731
808.561554	2477.727115
808.881611	2412.192115
809.201623	2487.809423
809.521590	2432.356731
809.841513	2485.288846
810.161390	2538.220962
810.481223	2480.247692
810.801011	2437.397885
811.120755	2470.165385
811.440453	2502.932885
811.760107	2472.685962
812.079716	2465.124231
812.399281	2513.015192
812.718801	2565.947308
813.038276	2510.494615
813.357707	2384.465769
813.677093	2477.727115
813.996434	2500.412308
814.315731	2502.932885
814.634983	2515.535769
814.954191	2417.233269
815.273354	2533.179808
815.592473	2525.618077
815.911547	2460.083077
816.230577	2392.027500
816.549562	2523.097500
816.868502	2470.165385
817.187399	2457.562500
817.506250	2475.206538
817.825058	2525.618077
818.143821	2470.165385
818.462539	2465.124231
818.781213	2523.097500
819.099843	2472.685962
819.418429	2518.056346
819.736970	2470.165385
820.055466	2422.274423
820.373919	2460.083077
820.692327	2535.700385
821.010691	2477.727115
821.329011	2560.906154
821.647286	2424.795000
821.965517	2490.330000
822.283704	2568.467885
822.601847	2467.644808
822.919945	2530.659231
823.237999	2397.068654
823.556010	2520.576923
823.873976	2497.891731
824.191897	2482.768269
824.509775	2450.000769
824.827609	2513.015192
825.145398	2540.741538
825.463144	2487.809423
825.780845	2419.753846
826.098502	2535.700385
826.416116	2495.371154
826.733685	2515.535769
827.051210	2447.480192
827.368692	2540.741538
827.686129	2452.521346
828.003522	2502.932885
828.320872	2497.891731
828.638177	2417.233269
828.955439	2560.906154
829.272656	2450.000769
829.589830	2515.535769
829.906960	2538.220962
830.224046	2417.233269
830.541088	2450.000769
830.858086	2460.083077
831.175041	2442.439038
831.491952	2528.138654
831.808819	2422.274423
832.125642	2495.371154
832.442421	2510.494615
832.759157	2515.535769
833.075849	2432.356731
833.392497	2525.618077
833.709101	2452.521346
834.025662	2545.782692
834.342179	2462.603654
834.658653	2540.741538
834.975083	2563.426731
835.291469	2480.247692
835.607811	2533.179808
835.924110	2414.712692
836.240366	2581.070769
836.556578	2455.041923
836.872746	2510.494615
837.188871	2480.247692
837.504952	2472.685962
837.820990	2439.918462
838.136984	2502.932885
838.452935	2470.165385
838.768842	2485.288846
839.084706	2490.330000
839.400526	2500.412308
839.716303	2429.836154
840.032037	2510.494615
840.347727	2472.685962
840.663373	2520.576923
840.978977	2450.000769
841.294537	2510.494615
841.610054	2505.453462
841.925527	2389.506923
842.240957	2444.959615
842.556344	2485.288846
842.871687	2520.576923
843.186987	2427.315577
843.502244	2480.247692
843.817458	2502.932885
844.132629	2487.809423
844.447756	2540.741538
844.762840	2457.562500
845.077881	2444.959615
845.392879	2535.700385
845.707833	2583.591346
846.022745	2444.959615
846.337613	2528.138654
846.652438	2432.356731
846.967221	2548.303269
847.281960	2576.029615
847.596656	2447.480192
847.911309	2497.891731
848.225919	2505.453462
848.540485	2492.850577
848.855009	2538.220962
849.169490	2472.685962
849.483928	2608.797115
849.798323	2457.562500
850.112675	2475.206538
850.426984	2573.509038
850.741251	2444.959615
851.055474	2548.303269
851.369654	2447.480192
851.683792	2472.685962
851.997887	2424.795000
852.311938	2482.768269
852.625947	2442.439038
852.939914	2487.809423
853.253837	2455.041923
853.567718	2618.879423
853.881555	2495.371154
854.195350	2596.194231
854.509103	2422.274423
854.822812	2518.056346
855.136479	2447.480192
855.450103	2543.262115
855.763685	2487.809423
856.077224	2500.412308
856.390720	2553.344423
856.704173	2487.809423
857.017584	2510.494615
857.330953	2452.521346
857.644278	2505.453462
857.957561	2455.041923
858.270802	2502.932885
858.584000	2480.247692
858.897155	2485.288846
859.210268	2533.179808
859.523339	2487.809423
859.836367	2505.453462
860.149352	2429.836154
860.462295	2482.768269
860.775195	2444.959615
861.088054	2568.467885
861.400869	2442.439038
861.713642	2565.947308
862.026373	2434.877308
862.339062	2507.974038
862.651708	2477.727115
862.964312	2540.741538
863.276873	2518.056346
863.589392	2518.056346
863.901869	2487.809423
864.214303	2497.891731
864.526696	2495.371154
864.839045	2472.685962
865.151353	2528.138654
865.463619	2523.097500
865.775842	2477.727115
866.088023	2447.480192
866.400162	2510.494615
866.712258	2497.891731
867.024313	2495.371154
867.336325	2482.768269
867.648296	2467.644808
867.960224	2439.918462
868.272110	2538.220962
868.583954	2588.632500
868.895755	2525.618077
869.207515	2492.850577
869.519233	2455.041923
869.830909	2492.850577
870.142542	2447.480192
870.454134	2528.138654
870.765684	2399.589231
871.077191	2568.467885
871.388657	2495.371154
871.700081	2472.685962
872.011463	2578.550192
872.322803	2520.576923
872.634101	2472.685962
872.945357	2507.974038
873.256571	2455.041923
873.567744	2397.068654
873.878874	2485.288846
874.189963	2515.535769
874.501010	2548.303269
874.812015	2482.768269
875.122979	2502.932885
875.433900	2447.480192
875.744780	2533.179808
876.055618	2543.262115
876.366415	2505.453462
876.677169	2490.330000
876.987882	2513.015192
877.298554	2505.453462
877.609183	2495.371154
877.919771	2548.303269
878.230317	2434.877308
878.540822	2505.453462
878.851285	2386.986346
879.161707	2462.603654
879.472087	2497.891731
879.782425	2477.727115
880.092722	2462.603654
880.402977	2492.850577
880.713191	2444.959615
881.023363	2528.138654
881.333494	2598.714808
881.643583	2500.412308
881.953631	2490.330000
882.263637	2507.974038
882.573602	2558.385577
882.883526	2467.644808
883.193408	2525.618077
883.503248	2545.782692
883.813048	2457.562500
884.122806	2467.644808
884.432522	2563.426731
884.742197	2452.521346
885.051831	2497.891731
885.361424	2477.727115
885.670975	2447.480192
885.980485	2490.330000
886.289954	2465.124231
886.599382	2427.315577
886.908768	2558.385577
887.218113	2513.015192
887.527417	2465.124231
887.836680	2442.439038
888.145901	2533.179808
888.455082	2462.603654
888.764221	2510.494615
889.073319	2447.480192
889.382376	2500.412308
889.691392	2510.494615
890.000366	2515.535769
890.309300	2475.206538
890.618193	2518.056346
890.927044	2495.371154
891.235855	2560.906154
891.544625	2573.509038
891.853353	2507.974038
892.162041	2442.439038
892.470687	2392.027500
892.779293	2470.165385
893.087858	2545.782692
893.396381	2528.138654
893.704864	2429.836154
894.013306	2389.506923
894.321707	2495.371154
894.630068	2573.509038
894.938387	2538.220962
895.246665	2439.918462
895.554903	2505.453462
895.863100	2472.685962
896.171256	2545.782692
896.479371	2477.727115
896.787446	2424.795000
897.095480	2482.768269
897.403473	2460.083077
897.711425	2487.809423
898.019336	2533.179808
898.327207	2523.097500
898.635038	2495.371154
898.942827	2495.371154
899.250576	2447.480192
899.558284	2530.659231
899.865952	2470.165385
900.173579	2472.685962
900.481165	2447.480192
900.788711	2482.768269
901.096216	2444.959615
901.403681	2404.630385
901.711105	2470.165385
902.018489	2392.027500
902.325832	2510.494615
902.633135	2513.015192
902.940397	2422.274423
903.247619	2404.630385
903.554800	2460.083077
903.861941	2520.576923
904.169041	2379.424615
904.476101	2495.371154
904.783121	2457.562500
905.090100	2475.206538
905.397039	2525.618077
905.703938	2460.083077
906.010796	2452.521346
906.317614	2513.015192
906.624391	2492.850577
906.931129	2502.932885
907.237826	2480.247692
907.544483	2525.618077
907.851099	2480.247692
908.157675	2505.453462
908.464211	2555.865000
908.770707	2550.823846
909.077163	2513.015192
909.383578	2505.453462
909.689954	2457.562500
909.996289	2462.603654
910.302584	2455.041923
910.608839	2515.535769
910.915054	2533.179808
911.221229	2472.685962
911.527363	2540.741538
911.833458	2482.768269
912.139513	2366.821731
912.445527	2470.165385
912.751502	2530.659231
913.057436	2460.083077
913.363331	2565.947308
913.669186	2457.562500
913.975000	2565.947308
914.280775	2560.906154
914.586510	2495.371154
914.892205	2502.932885
915.197859	2457.562500
915.503475	2518.056346
915.809050	2409.671538
916.114585	2487.809423
916.420081	2470.165385
916.725536	2518.056346
917.030952	2487.809423
917.336328	2495.371154
917.641665	2548.303269
917.946961	2510.494615
918.252218	2422.274423
918.557435	2437.397885
918.862612	2502.932885
919.167750	2528.138654
919.472848	2515.535769
919.777906	2530.659231
920.082925	2553.344423
920.387904	2540.741538
920.692843	2523.097500
920.997743	2563.426731
921.302603	2434.877308
921.607423	2490.330000
921.912204	2450.000769
922.216946	2515.535769
922.521647	2444.959615
922.826310	2487.809423
923.130932	2520.576923
923.435516	2439.918462
923.740059	2497.891731
924.044564	2392.027500
924.349028	2497.891731
924.653454	2389.506923
924.957840	2450.000769
925.262186	2457.562500
925.566493	2444.959615
925.870761	2523.097500
926.174989	2485.288846
926.479178	2444.959615
926.783328	2502.932885
927.087438	2502.932885
927.391509	2434.877308
927.695541	2497.891731
927.999533	2502.932885
928.303486	2475.206538
928.607400	2465.124231
928.911275	2417.233269
929.215110	2412.192115
929.518906	2460.083077
929.822663	2452.521346
930.126381	2513.015192
930.430060	2497.891731
930.733699	2455.041923
931.037299	2540.741538
931.340861	2570.988462
931.644383	2434.877308
931.947866	2467.644808
932.251309	2502.932885
932.554714	2414.712692
932.858080	2515.535769
933.161407	2467.644808
933.464694	2538.220962
933.767943	2560.906154
934.071153	2528.138654
934.374323	2442.439038
934.677455	2457.562500
934.980548	2457.562500
935.283602	2465.124231
935.586617	2492.850577
935.889593	2510.494615
936.192530	2492.850577
936.495428	2472.685962
936.798287	2427.315577
937.101108	2530.659231
937.403890	2490.330000
937.706632	2515.535769
938.009336	2500.412308
938.312002	2477.727115
938.614628	2490.330000
938.917216	2475.206538
939.219765	2467.644808
939.522275	2424.795000
939.824747	2563.426731
940.127179	2495.371154
940.429573	2553.344423
940.731929	2518.056346
941.034246	2442.439038
941.336524	2530.659231
941.638763	2447.480192
941.940964	2470.165385
942.243126	2533.179808
942.545250	2520.576923
942.847335	2530.659231
943.149381	2528.138654
943.451389	2439.918462
943.753359	2495.371154
944.055290	2505.453462
944.357182	2475.206538
944.659036	2427.315577
944.960851	2530.659231
945.262628	2492.850577
945.564367	2502.932885
945.866067	2487.809423
946.167729	2482.768269
946.469352	2540.741538
946.770937	2505.453462
947.072484	2470.165385
947.373992	2563.426731
947.675462	2490.330000
947.976893	2515.535769
948.278286	2507.974038
948.579641	2475.206538
948.880958	2485.288846
949.182236	2480.247692
949.483476	2497.891731
949.784678	2482.768269
950.085841	2447.480192
950.386967	2502.932885
950.688054	2515.535769
950.989103	2442.439038
951.290114	2455.041923
951.591087	2513.015192
951.892021	2500.412308
952.192917	2502.932885
952.493776	2429.836154
952.794596	2417.233269
953.095378	2465.124231
953.396122	2515.535769
953.696828	2535.700385
953.997496	2495.371154
954.298126	2492.850577
954.598718	2462.603654
954.899272	2543.262115
955.199788	2563.426731
955.500266	2497.891731
955.800706	2439.918462
956.101108	2535.700385
956.401472	2439.918462
956.701798	2419.753846
957.002087	2513.015192
957.302337	2520.576923
957.602550	2472.685962
957.902724	2510.494615
958.202861	2500.412308
958.502960	2404.630385
958.803022	2500.412308
959.103045	2394.548077
959.403031	2510.494615
959.702979	2490.330000
960.002889	2402.109808
960.302762	2444.959615
960.602596	2477.727115
960.902393	2450.000769
961.202153	2460.083077
961.501875	2349.177692
961.801559	2497.891731
962.101205	2482.768269
962.400814	2434.877308
962.700385	2460.083077
962.999918	2560.906154
963.299414	2467.644808
963.598873	2520.576923
963.898293	2417.233269
964.197677	2475.206538
964.497022	2485.288846
964.796331	2497.891731
965.095601	2460.083077
965.394835	2528.138654
965.694030	2442.439038
965.993189	2523.097500
966.292309	2427.315577
966.591393	2429.836154
966.890439	2472.685962
967.189447	2570.988462
967.488419	2465.124231
967.787353	2472.685962
968.086249	2540.741538
968.385108	2439.918462
968.683930	2495.371154
968.982714	2543.262115
969.281462	2419.753846
969.580172	2515.535769
969.878844	2495.371154
970.177480	2477.727115
970.476078	2470.165385
970.774639	2465.124231
971.073162	2583.591346
971.371649	2538.220962
971.670098	2523.097500
971.968510	2394.548077
972.266885	2563.426731
972.565223	2465.124231
972.863524	2447.480192
973.161788	2475.206538
973.460014	2528.138654
973.758204	2530.659231
974.056356	2523.097500
974.354471	2528.138654
974.652550	2417.233269
974.950591	2502.932885
975.248595	2470.165385
975.546563	2404.630385
975.844493	2528.138654
976.142386	2427.315577
976.440243	2540.741538
976.738062	2450.000769
977.035845	2462.603654
977.333590	2397.068654
977.631299	2381.945192
977.928971	2550.823846
978.226606	2460.083077
978.524204	2530.659231
978.821765	2432.356731
979.119290	2510.494615
979.416777	2414.712692
979.714228	2570.988462
980.011642	2394.548077
980.309020	2520.576923
980.606360	2510.494615
980.903664	2477.727115
981.200931	2530.659231
981.498162	2467.644808
981.795356	2429.836154
982.092513	2586.111923
982.389633	2472.685962
982.686717	2429.836154
982.983764	2533.179808
983.280775	2439.918462
983.577749	2533.179808
983.874686	2540.741538
984.171587	2455.041923
984.468451	2535.700385
984.765279	2520.576923
985.062070	2545.782692
985.358824	2414.712692
985.655543	2548.303269
985.952224	2422.274423
986.248869	2434.877308
986.545478	2523.097500
986.842050	2492.850577
987.138586	2467.644808
987.435086	2485.288846
987.731549	2447.480192
988.027975	2540.741538
988.324366	2429.836154
988.620719	2523.097500
988.917037	2472.685962
989.213318	2467.644808
989.509563	2419.753846
989.805772	2384.465769
990.101944	2525.618077
990.398080	2455.041923
990.694180	2502.932885
990.990244	2450.000769
991.286271	2457.562500
991.582262	2397.068654
991.878217	2568.467885
992.174136	2550.823846
992.470019	2510.494615
992.765865	2447.480192
993.061676	2462.603654
993.357450	2507.974038
993.653188	2465.124231
993.948890	2480.247692
994.244556	2482.768269
994.540186	2480.247692
994.835780	2392.027500
995.131337	2563.426731
995.426859	2485.288846
995.722345	2450.000769
996.017795	2444.959615
996.313208	2560.906154
996.608586	2485.288846
996.903928	2533.179808
997.199234	2530.659231
997.494504	2402.109808
997.789738	2384.465769
998.084936	2492.850577
998.380099	2470.165385
998.675225	2389.506923
998.970316	2460.083077
999.265371	2477.727115
999.560390	2525.618077
999.855373	2490.330000
1000.150320	2475.206538
1000.445232	2535.700385
1000.740108	2432.356731
1001.034948	2533.179808
1001.329752	2455.041923
1001.624521	2538.220962
1001.919254	2482.768269
1002.213951	2545.782692
1002.508613	2510.494615
1002.803239	2472.685962
1003.097829	2452.521346
1003.392384	2470.165385
1003.686903	2487.809423
1003.981386	2439.918462
1004.275834	2500.412308
1004.570246	2344.136538
1004.864623	2404.630385
1005.158964	2482.768269
1005.453270	2545.782692
1005.747540	2530.659231
1006.041775	2513.015192
1006.335974	2437.397885
1006.630138	2495.371154
1006.924266	2397.068654
1007.218359	2505.453462
1007.512416	2369.342308
1007.806438	2417.233269
1008.100425	2472.685962
1008.394376	2518.056346
1008.688292	2477.727115
1008.982172	2490.330000
1009.276017	2407.150962
1009.569827	2470.165385
1009.863602	2447.480192
1010.157341	2513.015192
1010.451045	2424.795000
1010.744714	2487.809423
1011.038347	2424.795000
1011.331945	2513.015192
1011.625508	2475.206538
1011.919036	2507.974038
1012.212528	2583.591346
1012.505986	2457.562500
1012.799408	2475.206538
1013.092795	2553.344423
1013.386147	2543.262115
1013.679464	2505.453462
1013.972745	2492.850577
1014.265992	2497.891731
1014.559204	2439.918462
1014.852380	2500.412308
1015.145521	2447.480192
1015.438628	2485.288846
1015.731699	2437.397885
1016.024736	2500.412308
1016.317737	2550.823846
1016.610703	2523.097500
1016.903635	2462.603654
1017.196531	2457.562500
1017.489393	2550.823846
1017.782219	2520.576923
1018.075011	2495.371154
1018.367768	2485.288846
1018.660490	2487.809423
1018.953177	2487.809423
1019.245829	2487.809423
