Dividing Wavelength (nm)	Counts (n)	Blue Motor Position (mm): 3.000000	Red Motor Position (mm): 0.000000	
326.493990	2197.943077
326.888308	2197.943077
327.282561	2197.943077
327.676750	2162.655000
328.070874	2112.243462
328.464933	2107.202308
328.858929	2200.463654
329.252859	2094.599423
329.646726	2225.669423
330.040528	2150.052115
330.434265	2238.272308
330.827938	2248.354615
331.221547	2200.463654
331.615091	2255.916346
332.008571	2273.560385
332.401986	2263.478077
332.795338	2313.889615
333.188625	2384.465769
333.581847	2336.574808
333.975006	2407.150962
334.368100	2407.150962
334.761129	2366.821731
335.154095	2356.739423
335.546996	2502.932885
335.939833	2482.768269
336.332606	2533.179808
336.725315	2487.809423
337.117960	2442.439038
337.510540	2510.494615
337.903056	2565.947308
338.295508	2530.659231
338.687896	2568.467885
339.080220	2530.659231
339.472480	2560.906154
339.864676	2598.714808
340.256807	2591.153077
340.648875	2593.673654
341.040879	2560.906154
341.432818	2636.523462
341.824694	2588.632500
342.216506	2626.441154
342.608253	2656.688077
342.999937	2586.111923
343.391557	2538.220962
343.783113	2507.974038
344.174605	2623.920577
344.566033	2593.673654
344.957397	2593.673654
345.348697	2573.509038
345.739934	2568.467885
346.131106	2606.276538
346.522215	2636.523462
346.913260	2535.700385
347.304241	2631.482308
347.695159	2684.414423
348.086012	2598.714808
348.476802	2538.220962
348.867528	2568.467885
349.258191	2505.453462
349.648789	2570.988462
350.039324	2583.591346
350.429796	2513.015192
350.820203	2523.097500
351.210548	2578.550192
351.600828	2565.947308
351.991045	2596.194231
352.381198	2545.782692
352.771288	2550.823846
353.161314	2563.426731
353.551276	2492.850577
353.941175	2578.550192
354.331010	2513.015192
354.720782	2480.247692
355.110490	2520.576923
355.500135	2565.947308
355.889717	2533.179808
356.279235	2611.317692
356.668689	2495.371154
357.058080	2550.823846
357.447408	2533.179808
357.836672	2515.535769
358.225873	2581.070769
358.615010	2523.097500
359.004084	2611.317692
359.393095	2606.276538
359.782043	2502.932885
360.170927	2540.741538
360.559748	2550.823846
360.948505	2475.206538
361.337199	2553.344423
361.725830	2490.330000
362.114398	2631.482308
362.502903	2540.741538
362.891344	2487.809423
363.279722	2545.782692
363.668037	2530.659231
364.056289	2520.576923
364.444478	2545.782692
364.832603	2628.961731
365.220665	2588.632500
365.608665	2505.453462
365.996601	2535.700385
366.384474	2659.208654
366.772284	2568.467885
367.160031	2568.467885
367.547715	2543.262115
367.935336	2583.591346
368.322893	2578.550192
368.710388	2558.385577
369.097820	2603.755962
369.485189	2560.906154
369.872495	2555.865000
370.259738	2507.974038
370.646918	2573.509038
371.034035	2535.700385
371.421090	2611.317692
371.808081	2563.426731
372.195010	2618.879423
372.581875	2611.317692
372.968678	2538.220962
373.355418	2591.153077
373.742096	2591.153077
374.128710	2518.056346
374.515262	2525.618077
374.901751	2528.138654
375.288177	2545.782692
375.674540	2565.947308
376.060841	2502.932885
376.447079	2644.085192
376.833254	2538.220962
377.219367	2593.673654
377.605417	2608.797115
377.991404	2611.317692
378.377329	2545.782692
378.763191	2533.179808
379.148991	2606.276538
379.534727	2538.220962
379.920402	2550.823846
380.306013	2518.056346
380.691563	2646.605769
381.077049	2588.632500
381.462474	2573.509038
381.847835	2520.576923
382.233134	2548.303269
382.618371	2558.385577
383.003545	2502.932885
383.388657	2570.988462
383.773706	2555.865000
384.158693	2558.385577
384.543618	2573.509038
384.928480	2681.893846
385.313280	2545.782692
385.698017	2528.138654
386.082692	2533.179808
386.467305	2550.823846
386.851856	2591.153077
387.236344	2553.344423
387.620770	2634.002885
388.005133	2586.111923
388.389435	2576.029615
388.773674	2656.688077
389.157851	2626.441154
389.541965	2570.988462
389.926018	2603.755962
390.310008	2543.262115
390.693936	2628.961731
391.077802	2613.838269
391.461606	2606.276538
391.845348	2591.153077
392.229027	2656.688077
392.612645	2674.332115
392.996200	2606.276538
393.379694	2603.755962
393.763125	2626.441154
394.146494	2553.344423
394.529801	2596.194231
394.913047	2623.920577
395.296230	2661.729231
395.679351	2608.797115
396.062410	2545.782692
396.445408	2593.673654
396.828343	2581.070769
397.211217	2621.400000
397.594028	2659.208654
397.976778	2553.344423
398.359466	2540.741538
398.742092	2621.400000
399.124656	2570.988462
399.507158	2538.220962
399.889598	2540.741538
400.271977	2520.576923
400.654294	2611.317692
401.036549	2581.070769
401.418742	2644.085192
401.800874	2540.741538
402.182944	2621.400000
402.564952	2490.330000
402.946898	2631.482308
403.328783	2621.400000
403.710606	2576.029615
404.092367	2525.618077
404.474067	2581.070769
404.855705	2515.535769
405.237282	2581.070769
405.618797	2603.755962
406.000250	2563.426731
406.381642	2515.535769
406.762972	2659.208654
407.144240	2591.153077
407.525447	2576.029615
407.906593	2631.482308
408.287677	2558.385577
408.668700	2588.632500
409.049661	2570.988462
409.430560	2578.550192
409.811399	2606.276538
410.192176	2578.550192
410.572891	2639.044038
410.953545	2626.441154
411.334138	2588.632500
411.714669	2588.632500
412.095139	2593.673654
412.475547	2543.262115
412.855894	2528.138654
413.236180	2588.632500
413.616405	2613.838269
413.996568	2596.194231
414.376670	2601.235385
414.756711	2583.591346
415.136691	2573.509038
415.516609	2596.194231
415.896466	2568.467885
416.276262	2671.811538
416.655997	2641.564615
417.035670	2565.947308
417.415283	2578.550192
417.794834	2598.714808
418.174324	2616.358846
418.553753	2500.412308
418.933121	2568.467885
419.312428	2568.467885
419.691674	2578.550192
420.070859	2487.809423
420.449983	2581.070769
420.829045	2553.344423
421.208047	2628.961731
421.586988	2543.262115
421.965867	2528.138654
422.344686	2626.441154
422.723444	2560.906154
423.102141	2558.385577
423.480777	2570.988462
423.859352	2553.344423
424.237866	2684.414423
424.616319	2475.206538
424.994712	2634.002885
425.373044	2596.194231
425.751314	2570.988462
426.129524	2591.153077
426.507673	2639.044038
426.885762	2661.729231
427.263789	2618.879423
427.641756	2606.276538
428.019662	2591.153077
428.397508	2649.126346
428.775292	2631.482308
429.153016	2644.085192
429.530679	2608.797115
429.908282	2616.358846
430.285824	2563.426731
430.663305	2616.358846
431.040726	2636.523462
431.418086	2578.550192
431.795385	2654.167500
432.172624	2626.441154
432.549802	2553.344423
432.926920	2644.085192
433.303977	2628.961731
433.680974	2611.317692
434.057910	2513.015192
434.434786	2646.605769
434.811601	2606.276538
435.188355	2618.879423
435.565050	2752.470000
435.941683	2606.276538
436.318257	2578.550192
436.694770	2608.797115
437.071222	2644.085192
437.447614	2676.852692
437.823946	2659.208654
438.200218	2714.661346
438.576429	2618.879423
438.952580	2596.194231
439.328670	2659.208654
439.704700	2684.414423
440.080670	2631.482308
440.456580	2639.044038
440.832429	2724.743654
441.208218	2709.620192
441.583947	2686.935000
441.959616	2747.428846
442.335224	2699.537885
442.710773	2656.688077
443.086261	2845.731346
443.461689	2734.825962
443.837057	2855.813654
444.212365	2850.772500
444.587612	2820.525577
444.962800	2823.046154
445.337927	2893.622308
445.712995	2949.075000
446.088002	3022.171731
446.462949	3082.665577
446.837837	3070.062692
447.212664	3120.474231
447.587431	3228.859038
447.962139	3188.529808
448.336786	3551.492885
448.711374	3526.287115
449.085901	3435.546346
449.460369	3498.560769
449.834776	3453.190385
450.209124	3659.877692
450.583412	3818.674038
450.957640	3990.073269
451.331808	3952.264615
451.705917	3904.373654
452.079965	3901.853077
452.453954	3985.032115
452.827883	4085.855192
453.201752	4189.198846
453.575562	4365.639231
453.949311	4390.845000
454.323001	4688.273077
454.696632	4768.931538
455.070202	4826.904808
455.443713	4955.454231
455.817164	5204.991346
456.190556	5273.046923
456.563888	5565.433846
456.937160	5688.942115
457.310373	5638.530577
457.683526	5762.038846
458.056619	5822.532692
458.429653	6049.384615
458.802628	5918.314615
459.175542	6145.166538
459.548398	6591.308654
459.921194	7100.465192
460.293930	7309.673077
460.666607	7667.595000
461.039224	8365.794808
461.411782	8945.527500
461.784280	8887.554231
462.156719	9326.134615
462.529099	9036.268269
462.901419	8759.004808
463.273680	8806.895769
463.645882	9036.268269
464.018024	9129.529615
464.390106	9376.546154
464.762130	10074.745962
465.134094	10967.030192
465.505999	12567.596538
465.877845	14823.512885
466.249631	16655.972308
466.621358	16247.638846
466.993026	15549.439038
467.364634	15352.834038
467.736184	14851.239231
468.107674	14473.152692
468.479105	14621.866731
468.850477	14705.045769
469.221790	14773.101346
469.593043	14321.918077
469.964238	14122.792500
470.335373	14175.724615
470.706449	15070.529423
471.077467	15057.926538
471.448425	17192.855192
471.819324	20393.987885
472.190164	21349.286538
472.560945	17938.945962
472.931667	16996.250192
473.302330	16671.095769
473.672934	16850.056731
474.043479	16754.274808
474.413965	16726.548462
474.784393	16774.439423
475.154761	17812.917115
475.525070	17543.215385
475.895321	17555.818269
476.265513	18218.730000
476.635645	19168.987500
477.005719	18856.435962
477.375734	19065.643846
477.745691	19700.829231
478.115588	20532.619615
478.485427	21308.957308
478.855207	22418.011154
479.224928	24515.131154
479.594591	26410.605000
479.964194	25535.964808
480.333739	26009.833269
480.703226	25929.174808
481.072653	26181.232500
481.442022	26786.170962
481.811333	27703.660962
482.180584	27088.640192
482.549777	26690.389038
482.918912	26377.837500
483.287988	26745.841731
483.657005	26019.915577
484.025964	26004.792115
484.394864	25740.131538
484.763706	24958.752692
485.132489	24981.437885
485.501213	25213.330962
485.869879	24868.011923
486.238487	24943.629231
486.607036	24835.244423
486.975527	24673.927500
487.343959	24557.980962
487.712333	24235.347115
488.080648	24333.649615
488.448905	24424.390385
488.817104	24142.085769
489.185244	24608.392500
489.553326	24336.170192
489.921350	25858.598654
490.289315	27875.060192
490.657222	29584.011346
491.025070	28908.496731
491.392861	28469.916346
491.760593	27648.208269
492.128267	26473.619423
492.495883	25750.213846
492.863440	24444.555000
493.230939	23353.145192
493.598380	23370.789231
493.965763	22360.037885
494.333088	21777.784615
494.700354	21891.210577
495.067563	21555.973846
495.434713	20819.965385
495.801805	20993.885192
496.168839	20446.920000
496.535815	20199.903462
496.902733	20028.504231
497.269593	19786.528846
497.636395	19383.236538
498.003139	19100.931923
498.369825	18750.571731
498.736453	18745.530577
499.103023	18785.859808
499.469535	18004.480962
499.835989	18206.127115
500.202385	17979.275192
500.568723	17200.416923
500.935003	17109.676154
501.301226	16688.739808
501.667390	17107.155577
502.033497	16711.425000
502.399546	16600.519615
502.765537	15955.251923
503.131470	15849.387692
503.497345	15695.632500
503.863163	15131.023269
504.228923	15171.352500
504.594625	14914.253654
504.960269	14528.605385
505.325856	14631.949038
505.691385	13769.911731
506.056856	14173.204038
506.422270	13868.214231
506.787625	13540.539231
507.152924	13096.917692
507.518164	12943.162500
507.883347	12494.499808
508.248472	12328.141731
508.613540	12411.320769
508.978550	12088.686923
509.343503	11955.096346
509.708398	11544.242308
510.073236	11335.034423
510.438016	11282.102308
510.802738	10914.098077
511.167403	10790.589808
511.532010	10641.875769
511.896561	10752.781154
512.261053	10354.530000
512.625488	10225.980577
512.989866	9931.073077
513.354186	9631.124423
513.718449	9520.219038
514.082655	9225.311538
514.446803	9063.994615
514.810894	9094.241538
515.174927	8640.537692
515.538904	8494.344231
515.902822	8322.945000
516.266684	8267.492308
516.630488	7954.940769
516.994235	7748.253462
517.357925	7609.621731
517.721558	7589.457115
518.085133	7486.113462
518.448651	7430.660769
518.812112	7302.111346
519.175516	6974.436346
519.538863	6949.230577
519.902152	6702.214038
520.265385	6830.763462
520.628560	6230.866154
520.991678	6273.715962
521.354739	6175.413462
521.717743	6167.851731
522.080690	5915.794038
522.443580	5943.520385
522.806413	5772.121154
523.169189	5562.913269
523.531908	5487.295962
523.894569	5376.390577
524.257174	5159.620962
524.619722	5063.839038
524.982213	5018.468654
525.344647	5041.153846
525.707025	4859.672308
526.069345	4736.164038
526.431608	4658.026154
526.793815	4600.052885
527.155964	4592.491154
527.518057	4390.845000
527.880093	4327.830577
528.242072	4360.598077
528.603995	4219.445769
528.965860	4216.925192
529.327669	4221.966346
529.689421	3922.017692
530.051117	4005.196731
530.412755	3949.744038
530.774337	3836.318077
531.135862	3697.686346
531.497331	3790.947692
531.858743	3720.371538
532.220098	3758.180192
532.581396	3617.027885
532.942638	3571.657500
533.303824	3508.643077
533.664953	3382.614231
534.026025	3405.299423
534.387040	3485.957885
534.747999	3483.437308
535.108902	3342.285000
535.469748	3279.270577
535.830537	3274.229423
536.191270	3254.064808
536.551947	3223.817885
536.912567	3203.653269
537.273131	3211.215000
537.633638	3228.859038
537.994089	3122.994808
538.354483	3022.171731
538.714821	3117.953654
539.075103	3057.459808
539.435328	3105.350769
539.795497	2946.554423
540.155609	2971.760192
540.515665	2954.116154
540.875665	2858.334231
541.235609	2974.280769
541.595496	2908.745769
541.955328	2875.978269
542.315102	2944.033846
542.674821	2860.854808
543.034483	2818.005000
543.394090	2865.895962
543.753640	2828.087308
544.113134	2878.498846
544.472571	2795.319808
544.831953	2689.455577
545.191278	2828.087308
545.550548	2744.908269
545.909761	2800.360962
546.268918	2747.428846
546.628019	2770.114038
546.987064	2835.649038
547.346053	2752.470000
547.704986	2739.867115
548.063863	2704.579038
548.422684	2679.373269
548.781449	2782.716923
549.140158	2762.552308
549.498811	2714.661346
549.857408	2712.140769
550.215949	2739.867115
550.574434	2747.428846
550.932864	2691.976154
551.291237	2707.099615
551.649555	2686.935000
552.007817	2729.784808
552.366022	2729.784808
552.724173	2656.688077
553.082267	2669.290962
553.440305	2709.620192
553.798288	2749.949423
554.156215	2749.949423
554.514086	2704.579038
554.871902	2684.414423
555.229661	2684.414423
555.587365	2719.702500
555.945014	2749.949423
556.302606	2691.976154
556.660143	2641.564615
557.017625	2767.593462
557.375050	2694.496731
557.732421	2608.797115
558.089735	2742.387692
558.446994	2611.317692
558.804197	2729.784808
559.161345	2697.017308
559.518437	2659.208654
559.875474	2611.317692
560.232455	2717.181923
560.589381	2699.537885
560.946251	2719.702500
561.303065	2649.126346
561.659825	2555.865000
562.016528	2729.784808
562.373177	2644.085192
562.729770	2664.249808
563.086307	2634.002885
563.442789	2654.167500
563.799216	2644.085192
564.155587	2636.523462
564.511904	2671.811538
564.868164	2666.770385
565.224370	2626.441154
565.580520	2601.235385
565.936615	2644.085192
566.292654	2656.688077
566.648638	2528.138654
567.004567	2603.755962
567.360441	2651.646923
567.716260	2631.482308
568.072023	2618.879423
568.427732	2669.290962
568.783385	2651.646923
569.138982	2646.605769
569.494525	2646.605769
569.850013	2608.797115
570.205445	2593.673654
570.560823	2570.988462
570.916145	2694.496731
571.271412	2639.044038
571.626625	2679.373269
571.981782	2601.235385
572.336884	2727.264231
572.691931	2691.976154
573.046923	2699.537885
573.401860	2689.455577
573.756743	2601.235385
574.111570	2628.961731
574.466342	2611.317692
574.821059	2558.385577
575.175722	2644.085192
575.530330	2621.400000
575.884882	2714.661346
576.239380	2581.070769
576.593823	2608.797115
576.948211	2636.523462
577.302544	2656.688077
577.656823	2651.646923
578.011047	2621.400000
578.365216	2644.085192
578.719330	2684.414423
579.073389	2674.332115
579.427394	2631.482308
579.781344	2576.029615
580.135239	2666.770385
580.489080	2611.317692
580.842866	2671.811538
581.196597	2646.605769
581.550273	2548.303269
581.903895	2649.126346
582.257463	2651.646923
582.610975	2591.153077
582.964434	2593.673654
583.317837	2639.044038
583.671186	2603.755962
584.024481	2636.523462
584.377721	2631.482308
584.730906	2611.317692
585.084037	2654.167500
585.437113	2702.058462
585.790135	2634.002885
586.143103	2570.988462
586.496016	2656.688077
586.848874	2576.029615
587.201679	2646.605769
587.554428	2631.482308
587.907124	2661.729231
588.259765	2659.208654
588.612352	2623.920577
588.964884	2639.044038
589.317362	2621.400000
589.669786	2661.729231
590.022155	2613.838269
590.374470	2641.564615
590.726731	2664.249808
591.078937	2631.482308
591.431090	2666.770385
591.783188	2530.659231
592.135232	2651.646923
592.487222	2676.852692
592.839157	2560.906154
593.191038	2598.714808
593.542866	2666.770385
593.894639	2626.441154
594.246358	2634.002885
594.598022	2560.906154
594.949633	2684.414423
595.301190	2583.591346
595.652692	2684.414423
596.004141	2707.099615
596.355535	2626.441154
596.706876	2671.811538
597.058162	2651.646923
597.409395	2636.523462
597.760573	2724.743654
598.111698	2679.373269
598.462768	2596.194231
598.813785	2646.605769
599.164748	2664.249808
599.515657	2656.688077
599.866511	2649.126346
600.217312	2719.702500
600.568060	2689.455577
600.918753	2651.646923
601.269392	2608.797115
601.619978	2553.344423
601.970510	2664.249808
602.320988	2613.838269
602.671412	2651.646923
603.021783	2598.714808
603.372100	2666.770385
603.722363	2651.646923
604.072572	2661.729231
604.422728	2646.605769
604.772830	2644.085192
605.122878	2618.879423
605.472872	2626.441154
605.822813	2631.482308
606.172701	2739.867115
606.522534	2661.729231
606.872314	2623.920577
607.222041	2608.797115
607.571714	2576.029615
607.921333	2674.332115
608.270899	2636.523462
608.620411	2671.811538
608.969870	2669.290962
609.319276	2694.496731
609.668627	2646.605769
610.017926	2634.002885
610.367171	2676.852692
610.716362	2754.990577
611.065500	2651.646923
611.414585	2598.714808
611.763616	2661.729231
612.112594	2568.467885
612.461518	2586.111923
612.810389	2621.400000
613.159207	2669.290962
613.507971	2666.770385
613.856682	2588.632500
614.205340	2603.755962
614.553945	2606.276538
614.902496	2669.290962
615.250994	2694.496731
615.599439	2649.126346
615.947830	2606.276538
616.296169	2724.743654
616.644454	2684.414423
616.992686	2611.317692
617.340864	2573.509038
617.688990	2472.685962
618.037063	2560.906154
618.385082	2651.646923
618.733048	2636.523462
619.080961	2636.523462
619.428821	2626.441154
619.776628	2530.659231
620.124382	2646.605769
620.472083	2578.550192
620.819731	2679.373269
621.167326	2679.373269
621.514868	2621.400000
621.862357	2664.249808
622.209793	2649.126346
622.557176	2649.126346
622.904506	2659.208654
623.251783	2656.688077
623.599007	2616.358846
623.946179	2598.714808
624.293297	2563.426731
624.640363	2603.755962
624.987376	2608.797115
625.334336	2608.797115
625.681243	2669.290962
626.028097	2636.523462
626.374899	2601.235385
626.721647	2573.509038
627.068343	2644.085192
627.414987	2634.002885
627.761577	2618.879423
628.108115	2606.276538
628.454600	2601.235385
628.801032	2576.029615
629.147412	2651.646923
629.493739	2654.167500
629.840014	2628.961731
630.186236	2581.070769
630.532405	2623.920577
630.878521	2596.194231
631.224585	2636.523462
631.570597	2598.714808
631.916556	2641.564615
632.262462	2581.070769
632.608316	2618.879423
632.954117	2634.002885
633.299866	2533.179808
633.645562	2626.441154
633.991206	2671.811538
634.336797	2603.755962
634.682336	2550.823846
635.027823	2535.700385
635.373257	2613.838269
635.718639	2581.070769
636.063968	2646.605769
636.409245	2596.194231
636.754470	2674.332115
637.099642	2586.111923
637.444762	2606.276538
637.789829	2578.550192
638.134845	2518.056346
638.479808	2626.441154
638.824719	2623.920577
639.169577	2623.920577
639.514383	2613.838269
639.859137	2644.085192
640.203839	2649.126346
640.548489	2697.017308
640.893086	2606.276538
641.237632	2646.605769
641.582125	2626.441154
641.926566	2639.044038
642.270955	2593.673654
642.615292	2684.414423
642.959576	2699.537885
643.303809	2639.044038
643.647990	2568.467885
643.992118	2631.482308
644.336195	2646.605769
644.680219	2649.126346
645.024192	2548.303269
645.368112	2664.249808
645.711981	2666.770385
646.055797	2659.208654
646.399562	2634.002885
646.743274	2553.344423
647.086935	2621.400000
647.430544	2618.879423
647.774101	2623.920577
648.117606	2591.153077
648.461059	2570.988462
648.804460	2586.111923
649.147810	2639.044038
649.491108	2606.276538
649.834354	2691.976154
650.177548	2631.482308
650.520690	2588.632500
650.863781	2613.838269
651.206820	2553.344423
651.549807	2581.070769
651.892742	2596.194231
652.235626	2598.714808
652.578458	2651.646923
652.921238	2601.235385
653.263967	2586.111923
653.606644	2669.290962
653.949269	2639.044038
654.291843	2691.976154
654.634365	2661.729231
654.976836	2765.072885
655.319255	2628.961731
655.661622	2608.797115
656.003938	2661.729231
656.346203	2641.564615
656.688416	2591.153077
657.030577	2654.167500
657.372687	2573.509038
657.714746	2601.235385
658.056753	2555.865000
658.398708	2606.276538
658.740612	2616.358846
659.082465	2671.811538
659.424266	2631.482308
659.766016	2613.838269
660.107715	2588.632500
660.449362	2654.167500
660.790958	2666.770385
661.132503	2591.153077
661.473996	2611.317692
661.815438	2674.332115
662.156829	2671.811538
662.498168	2603.755962
662.839456	2651.646923
663.180693	2581.070769
663.521879	2596.194231
663.863013	2661.729231
664.204097	2651.646923
664.545129	2656.688077
664.886110	2707.099615
665.227040	2659.208654
665.567918	2581.070769
665.908746	2601.235385
666.249522	2654.167500
666.590248	2634.002885
666.930922	2664.249808
667.271545	2621.400000
667.612118	2631.482308
667.952639	2656.688077
668.293109	2671.811538
668.633528	2641.564615
668.973896	2636.523462
669.314213	2671.811538
669.654480	2649.126346
669.994695	2636.523462
670.334859	2636.523462
670.674973	2608.797115
671.015035	2651.646923
671.355047	2628.961731
671.695008	2588.632500
672.034918	2618.879423
672.374777	2664.249808
672.714585	2631.482308
673.054342	2573.509038
673.394049	2613.838269
673.733705	2613.838269
674.073310	2666.770385
674.412864	2565.947308
674.752368	2565.947308
675.091820	2606.276538
675.431223	2601.235385
675.770574	2699.537885
676.109875	2659.208654
676.449125	2618.879423
676.788324	2659.208654
677.127473	2591.153077
677.466571	2739.867115
677.805619	2623.920577
678.144616	2578.550192
678.483562	2674.332115
678.822458	2646.605769
679.161303	2649.126346
679.500098	2550.823846
679.838842	2644.085192
680.177535	2621.400000
680.516179	2674.332115
680.854771	2628.961731
681.193314	2626.441154
681.531805	2611.317692
681.870247	2641.564615
682.208638	2591.153077
682.546978	2669.290962
682.885268	2644.085192
683.223508	2666.770385
683.561697	2686.935000
683.899836	2601.235385
684.237925	2608.797115
684.575963	2641.564615
684.913951	2598.714808
685.251889	2664.249808
685.589776	2671.811538
685.927614	2613.838269
686.265401	2691.976154
686.603137	2659.208654
686.940824	2707.099615
687.278460	2631.482308
687.616046	2621.400000
687.953582	2666.770385
688.291068	2674.332115
688.628504	2563.426731
688.965889	2616.358846
689.303224	2611.317692
689.640510	2573.509038
689.977745	2671.811538
690.314930	2646.605769
690.652065	2654.167500
690.989150	2626.441154
691.326185	2616.358846
691.663170	2666.770385
692.000105	2613.838269
692.336990	2611.317692
692.673825	2634.002885
693.010610	2659.208654
693.347345	2603.755962
693.684030	2616.358846
694.020665	2641.564615
694.357251	2631.482308
694.693786	2558.385577
695.030272	2641.564615
695.366707	2639.044038
695.703093	2666.770385
696.039429	2586.111923
696.375716	2568.467885
696.711952	2626.441154
697.048139	2639.044038
697.384276	2623.920577
697.720363	2644.085192
698.056400	2639.044038
698.392388	2644.085192
698.728326	2608.797115
699.064214	2641.564615
699.400053	2651.646923
699.735842	2674.332115
700.071581	2611.317692
700.407270	2573.509038
700.742910	2565.947308
701.078501	2530.659231
701.414042	2641.564615
701.749533	2676.852692
702.084974	2586.111923
702.420366	2659.208654
702.755709	2641.564615
703.091002	2555.865000
703.426246	2664.249808
703.761440	2618.879423
704.096584	2649.126346
704.431679	2656.688077
704.766725	2664.249808
705.101721	2591.153077
705.436668	2669.290962
705.771565	2568.467885
706.106413	2623.920577
706.441212	2681.893846
706.775961	2646.605769
707.110661	2583.591346
707.445311	2608.797115
707.779913	2646.605769
708.114465	2611.317692
708.448967	2628.961731
708.783421	2616.358846
709.117825	2659.208654
709.452180	2664.249808
709.786485	2560.906154
710.120742	2563.426731
710.454949	2689.455577
710.789107	2674.332115
711.123216	2651.646923
711.457275	2596.194231
711.791286	2681.893846
712.125247	2613.838269
712.459159	2570.988462
712.793023	2656.688077
713.126837	2593.673654
713.460602	2636.523462
713.794318	2671.811538
714.127985	2636.523462
714.461602	2639.044038
714.795171	2601.235385
715.128691	2588.632500
715.462162	2576.029615
715.795584	2538.220962
716.128957	2588.632500
716.462281	2621.400000
716.795556	2563.426731
717.128782	2593.673654
717.461960	2543.262115
717.795088	2664.249808
718.128167	2565.947308
718.461198	2626.441154
718.794180	2666.770385
719.127113	2586.111923
719.459997	2636.523462
719.792833	2593.673654
720.125619	2644.085192
720.458357	2628.961731
720.791046	2634.002885
721.123686	2613.838269
721.456278	2621.400000
721.788821	2606.276538
722.121315	2639.044038
722.453761	2576.029615
722.786158	2636.523462
723.118506	2510.494615
723.450805	2598.714808
723.783056	2704.579038
724.115259	2593.673654
724.447412	2674.332115
724.779518	2616.358846
725.111574	2608.797115
725.443582	2611.317692
725.775542	2641.564615
726.107453	2560.906154
726.439315	2659.208654
726.771129	2598.714808
727.102895	2621.400000
727.434612	2621.400000
727.766281	2666.770385
728.097901	2649.126346
728.429473	2598.714808
728.760996	2540.741538
729.092471	2611.317692
729.423897	2613.838269
729.755276	2634.002885
730.086606	2608.797115
730.417887	2591.153077
730.749120	2676.852692
731.080305	2621.400000
731.411442	2646.605769
731.742530	2644.085192
732.073570	2651.646923
732.404562	2613.838269
732.735506	2596.194231
733.066401	2563.426731
733.397249	2641.564615
733.728048	2550.823846
734.058798	2621.400000
734.389501	2598.714808
734.720156	2621.400000
735.050762	2686.935000
735.381320	2570.988462
735.711831	2560.906154
736.042293	2583.591346
736.372707	2631.482308
736.703073	2533.179808
737.033391	2616.358846
737.363661	2651.646923
737.693883	2646.605769
738.024056	2601.235385
738.354182	2661.729231
738.684260	2613.838269
739.014290	2570.988462
739.344272	2628.961731
739.674207	2611.317692
740.004093	2591.153077
740.333931	2616.358846
740.663722	2666.770385
740.993464	2644.085192
741.323159	2565.947308
741.652806	2691.976154
741.982405	2649.126346
742.311956	2664.249808
742.641460	2581.070769
742.970915	2628.961731
743.300323	2631.482308
743.629683	2608.797115
743.958996	2626.441154
744.288260	2621.400000
744.617477	2568.467885
744.946647	2601.235385
745.275768	2623.920577
745.604842	2558.385577
745.933869	2550.823846
746.262847	2568.467885
746.591778	2601.235385
746.920662	2616.358846
747.249498	2618.879423
747.578286	2495.371154
747.907027	2593.673654
748.235720	2586.111923
748.564365	2649.126346
748.892963	2664.249808
749.221514	2684.414423
749.550017	2560.906154
749.878473	2608.797115
750.206881	2628.961731
750.535242	2596.194231
750.863555	2611.317692
751.191821	2565.947308
751.520039	2608.797115
751.848210	2679.373269
752.176334	2623.920577
752.504411	2616.358846
752.832440	2669.290962
753.160421	2639.044038
753.488356	2684.414423
753.816243	2631.482308
754.144082	2593.673654
754.471875	2598.714808
754.799620	2573.509038
755.127318	2631.482308
755.454969	2636.523462
755.782572	2636.523462
756.110129	2588.632500
756.437638	2621.400000
756.765100	2621.400000
757.092515	2553.344423
757.419882	2613.838269
757.747203	2644.085192
758.074477	2591.153077
758.401703	2525.618077
758.728882	2646.605769
759.056014	2591.153077
759.383099	2581.070769
759.710138	2626.441154
760.037129	2598.714808
760.364073	2573.509038
760.690970	2591.153077
761.017820	2631.482308
761.344623	2543.262115
761.671379	2644.085192
761.998088	2616.358846
762.324751	2596.194231
762.651366	2606.276538
762.977935	2671.811538
763.304456	2611.317692
763.630931	2644.085192
763.957359	2593.673654
764.283740	2623.920577
764.610074	2606.276538
764.936362	2636.523462
765.262602	2596.194231
765.588796	2661.729231
765.914943	2661.729231
766.241044	2618.879423
766.567097	2644.085192
766.893104	2518.056346
767.219064	2581.070769
767.544978	2666.770385
767.870845	2543.262115
768.196665	2641.564615
768.522438	2639.044038
768.848165	2505.453462
769.173846	2613.838269
769.499479	2611.317692
769.825066	2631.482308
770.150607	2553.344423
770.476101	2543.262115
770.801548	2601.235385
771.126949	2656.688077
771.452303	2676.852692
771.777611	2631.482308
772.102872	2591.153077
772.428087	2641.564615
772.753256	2472.685962
773.078378	2603.755962
773.403453	2697.017308
773.728482	2656.688077
774.053465	2550.823846
774.378401	2581.070769
774.703291	2520.576923
775.028135	2502.932885
775.352932	2618.879423
775.677683	2586.111923
776.002388	2631.482308
776.327046	2545.782692
776.651658	2591.153077
776.976224	2603.755962
777.300743	2628.961731
777.625216	2525.618077
777.949643	2568.467885
778.274024	2601.235385
778.598359	2550.823846
778.922647	2649.126346
779.246889	2523.097500
779.571086	2613.838269
779.895236	2626.441154
780.219339	2646.605769
780.543397	2573.509038
780.867409	2581.070769
781.191374	2646.605769
781.515294	2613.838269
781.839167	2502.932885
782.162995	2636.523462
782.486776	2570.988462
782.810511	2593.673654
783.134201	2586.111923
783.457844	2606.276538
783.781441	2583.591346
784.104993	2555.865000
784.428498	2606.276538
784.751958	2573.509038
785.075372	2634.002885
785.398739	2661.729231
785.722061	2694.496731
786.045337	2639.044038
786.368568	2565.947308
786.691752	2576.029615
787.014891	2646.605769
787.337983	2560.906154
787.661030	2659.208654
787.984031	2613.838269
788.306987	2518.056346
788.629897	2628.961731
788.952760	2636.523462
789.275579	2507.974038
789.598351	2636.523462
789.921078	2669.290962
790.243759	2679.373269
790.566395	2654.167500
790.888984	2628.961731
791.211529	2538.220962
791.534027	2649.126346
791.856480	2568.467885
792.178888	2540.741538
792.501249	2613.838269
792.823566	2598.714808
793.145836	2613.838269
793.468062	2593.673654
793.790241	2641.564615
794.112375	2576.029615
794.434464	2613.838269
794.756507	2656.688077
795.078505	2691.976154
795.400457	2591.153077
795.722364	2538.220962
796.044226	2651.646923
796.366042	2679.373269
796.687812	2596.194231
797.009538	2616.358846
797.331218	2538.220962
797.652852	2570.988462
797.974442	2507.974038
798.295986	2588.632500
798.617484	2583.591346
798.938938	2618.879423
799.260346	2581.070769
799.581709	2603.755962
799.903026	2669.290962
800.224299	2596.194231
800.545526	2588.632500
800.866708	2581.070769
801.187845	2601.235385
801.508936	2618.879423
801.829983	2593.673654
802.150984	2533.179808
802.471940	2535.700385
802.792851	2596.194231
803.113717	2699.537885
803.434538	2641.564615
803.755314	2555.865000
804.076045	2492.850577
804.396731	2628.961731
804.717372	2684.414423
805.037967	2616.358846
805.358518	2649.126346
805.679024	2646.605769
805.999485	2548.303269
806.319901	2581.070769
806.640272	2588.632500
806.960598	2639.044038
807.280879	2603.755962
807.601115	2573.509038
807.921306	2611.317692
808.241453	2462.603654
808.561554	2538.220962
808.881611	2606.276538
809.201623	2535.700385
809.521590	2555.865000
809.841513	2560.906154
810.161390	2613.838269
810.481223	2573.509038
810.801011	2618.879423
811.120755	2674.332115
811.440453	2581.070769
811.760107	2520.576923
812.079716	2621.400000
812.399281	2558.385577
812.718801	2651.646923
813.038276	2545.782692
813.357707	2581.070769
813.677093	2576.029615
813.996434	2659.208654
814.315731	2586.111923
814.634983	2654.167500
814.954191	2702.058462
815.273354	2608.797115
815.592473	2543.262115
815.911547	2583.591346
816.230577	2530.659231
816.549562	2606.276538
816.868502	2603.755962
817.187399	2570.988462
817.506250	2520.576923
817.825058	2550.823846
818.143821	2568.467885
818.462539	2616.358846
818.781213	2591.153077
819.099843	2636.523462
819.418429	2661.729231
819.736970	2588.632500
820.055466	2634.002885
820.373919	2641.564615
820.692327	2704.579038
821.010691	2646.605769
821.329011	2634.002885
821.647286	2732.305385
821.965517	2722.223077
822.283704	2757.511154
822.601847	2739.867115
822.919945	2666.770385
823.237999	2722.223077
823.556010	2702.058462
823.873976	2679.373269
824.191897	2588.632500
824.509775	2563.426731
824.827609	2606.276538
825.145398	2671.811538
825.463144	2684.414423
825.780845	2659.208654
826.098502	2666.770385
826.416116	2613.838269
826.733685	2631.482308
827.051210	2611.317692
827.368692	2588.632500
827.686129	2623.920577
828.003522	2621.400000
828.320872	2666.770385
828.638177	2606.276538
828.955439	2603.755962
829.272656	2570.988462
829.589830	2631.482308
829.906960	2664.249808
830.224046	2623.920577
830.541088	2641.564615
830.858086	2596.194231
831.175041	2550.823846
831.491952	2606.276538
831.808819	2606.276538
832.125642	2601.235385
832.442421	2578.550192
832.759157	2656.688077
833.075849	2654.167500
833.392497	2568.467885
833.709101	2671.811538
834.025662	2664.249808
834.342179	2623.920577
834.658653	2596.194231
834.975083	2628.961731
835.291469	2676.852692
835.607811	2581.070769
835.924110	2576.029615
836.240366	2593.673654
836.556578	2553.344423
836.872746	2528.138654
837.188871	2666.770385
837.504952	2618.879423
837.820990	2560.906154
838.136984	2636.523462
838.452935	2644.085192
838.768842	2618.879423
839.084706	2598.714808
839.400526	2636.523462
839.716303	2628.961731
840.032037	2666.770385
840.347727	2669.290962
840.663373	2613.838269
840.978977	2608.797115
841.294537	2603.755962
841.610054	2563.426731
841.925527	2613.838269
842.240957	2651.646923
842.556344	2623.920577
842.871687	2596.194231
843.186987	2550.823846
843.502244	2555.865000
843.817458	2586.111923
844.132629	2601.235385
844.447756	2573.509038
844.762840	2631.482308
845.077881	2598.714808
845.392879	2563.426731
845.707833	2611.317692
846.022745	2596.194231
846.337613	2581.070769
846.652438	2669.290962
846.967221	2636.523462
847.281960	2505.453462
847.596656	2623.920577
847.911309	2666.770385
848.225919	2563.426731
848.540485	2588.632500
848.855009	2563.426731
849.169490	2576.029615
849.483928	2568.467885
849.798323	2560.906154
850.112675	2598.714808
850.426984	2611.317692
850.741251	2598.714808
851.055474	2588.632500
851.369654	2631.482308
851.683792	2523.097500
851.997887	2591.153077
852.311938	2538.220962
852.625947	2598.714808
852.939914	2636.523462
853.253837	2646.605769
853.567718	2641.564615
853.881555	2528.138654
854.195350	2593.673654
854.509103	2603.755962
854.822812	2578.550192
855.136479	2591.153077
855.450103	2603.755962
855.763685	2550.823846
856.077224	2560.906154
856.390720	2618.879423
856.704173	2485.288846
857.017584	2545.782692
857.330953	2621.400000
857.644278	2621.400000
857.957561	2598.714808
858.270802	2538.220962
858.584000	2583.591346
858.897155	2611.317692
859.210268	2671.811538
859.523339	2563.426731
859.836367	2543.262115
860.149352	2555.865000
860.462295	2581.070769
860.775195	2606.276538
861.088054	2631.482308
861.400869	2525.618077
861.713642	2598.714808
862.026373	2606.276538
862.339062	2628.961731
862.651708	2601.235385
862.964312	2628.961731
863.276873	2613.838269
863.589392	2573.509038
863.901869	2623.920577
864.214303	2651.646923
864.526696	2553.344423
864.839045	2626.441154
865.151353	2540.741538
865.463619	2606.276538
865.775842	2601.235385
866.088023	2601.235385
866.400162	2639.044038
866.712258	2626.441154
867.024313	2634.002885
867.336325	2606.276538
867.648296	2621.400000
867.960224	2533.179808
868.272110	2593.673654
868.583954	2505.453462
868.895755	2563.426731
869.207515	2606.276538
869.519233	2641.564615
869.830909	2606.276538
870.142542	2573.509038
870.454134	2676.852692
870.765684	2593.673654
871.077191	2666.770385
871.388657	2528.138654
871.700081	2570.988462
872.011463	2608.797115
872.322803	2540.741538
872.634101	2593.673654
872.945357	2608.797115
873.256571	2666.770385
873.567744	2613.838269
873.878874	2576.029615
874.189963	2586.111923
874.501010	2603.755962
874.812015	2618.879423
875.122979	2641.564615
875.433900	2634.002885
875.744780	2588.632500
876.055618	2591.153077
876.366415	2603.755962
876.677169	2581.070769
876.987882	2631.482308
877.298554	2543.262115
877.609183	2641.564615
877.919771	2601.235385
878.230317	2515.535769
878.540822	2636.523462
878.851285	2596.194231
879.161707	2631.482308
879.472087	2565.947308
879.782425	2608.797115
880.092722	2623.920577
880.402977	2618.879423
880.713191	2666.770385
881.023363	2608.797115
881.333494	2729.784808
881.643583	2666.770385
881.953631	2644.085192
882.263637	2649.126346
882.573602	2669.290962
882.883526	2649.126346
883.193408	2588.632500
883.503248	2550.823846
883.813048	2639.044038
884.122806	2598.714808
884.432522	2608.797115
884.742197	2628.961731
885.051831	2702.058462
885.361424	2623.920577
885.670975	2623.920577
885.980485	2452.521346
886.289954	2639.044038
886.599382	2636.523462
886.908768	2626.441154
887.218113	2626.441154
887.527417	2576.029615
887.836680	2634.002885
888.145901	2558.385577
888.455082	2598.714808
888.764221	2613.838269
889.073319	2588.632500
889.382376	2646.605769
889.691392	2603.755962
890.000366	2548.303269
890.309300	2560.906154
890.618193	2639.044038
890.927044	2568.467885
891.235855	2560.906154
891.544625	2477.727115
891.853353	2611.317692
892.162041	2543.262115
892.470687	2684.414423
892.779293	2586.111923
893.087858	2603.755962
893.396381	2641.564615
893.704864	2601.235385
894.013306	2596.194231
894.321707	2608.797115
894.630068	2611.317692
894.938387	2646.605769
895.246665	2666.770385
895.554903	2608.797115
895.863100	2639.044038
896.171256	2596.194231
896.479371	2568.467885
896.787446	2598.714808
897.095480	2623.920577
897.403473	2513.015192
897.711425	2568.467885
898.019336	2649.126346
898.327207	2618.879423
898.635038	2560.906154
898.942827	2616.358846
899.250576	2573.509038
899.558284	2664.249808
899.865952	2578.550192
900.173579	2686.935000
900.481165	2613.838269
900.788711	2631.482308
901.096216	2601.235385
901.403681	2518.056346
901.711105	2578.550192
902.018489	2586.111923
902.325832	2540.741538
902.633135	2545.782692
902.940397	2568.467885
903.247619	2578.550192
903.554800	2568.467885
903.861941	2661.729231
904.169041	2623.920577
904.476101	2649.126346
904.783121	2553.344423
905.090100	2654.167500
905.397039	2661.729231
905.703938	2656.688077
906.010796	2603.755962
906.317614	2656.688077
906.624391	2616.358846
906.931129	2540.741538
907.237826	2618.879423
907.544483	2601.235385
907.851099	2593.673654
908.157675	2523.097500
908.464211	2631.482308
908.770707	2664.249808
909.077163	2611.317692
909.383578	2616.358846
909.689954	2576.029615
909.996289	2530.659231
910.302584	2656.688077
910.608839	2621.400000
910.915054	2553.344423
911.221229	2578.550192
911.527363	2565.947308
911.833458	2618.879423
912.139513	2560.906154
912.445527	2510.494615
912.751502	2608.797115
913.057436	2634.002885
913.363331	2699.537885
913.669186	2565.947308
913.975000	2616.358846
914.280775	2583.591346
914.586510	2626.441154
914.892205	2654.167500
915.197859	2639.044038
915.503475	2598.714808
915.809050	2626.441154
916.114585	2513.015192
916.420081	2581.070769
916.725536	2568.467885
917.030952	2628.961731
917.336328	2644.085192
917.641665	2626.441154
917.946961	2626.441154
918.252218	2623.920577
918.557435	2472.685962
918.862612	2611.317692
919.167750	2523.097500
919.472848	2588.632500
919.777906	2656.688077
920.082925	2601.235385
920.387904	2565.947308
920.692843	2631.482308
920.997743	2613.838269
921.302603	2649.126346
921.607423	2460.083077
921.912204	2613.838269
922.216946	2485.288846
922.521647	2570.988462
922.826310	2492.850577
923.130932	2621.400000
923.435516	2656.688077
923.740059	2644.085192
924.044564	2576.029615
924.349028	2586.111923
924.653454	2505.453462
924.957840	2598.714808
925.262186	2621.400000
925.566493	2543.262115
925.870761	2568.467885
926.174989	2583.591346
926.479178	2543.262115
926.783328	2555.865000
927.087438	2646.605769
927.391509	2583.591346
927.695541	2636.523462
927.999533	2596.194231
928.303486	2598.714808
928.607400	2608.797115
928.911275	2586.111923
929.215110	2608.797115
929.518906	2578.550192
929.822663	2583.591346
930.126381	2593.673654
930.430060	2608.797115
930.733699	2623.920577
931.037299	2639.044038
931.340861	2570.988462
931.644383	2616.358846
931.947866	2563.426731
932.251309	2641.564615
932.554714	2628.961731
932.858080	2626.441154
933.161407	2578.550192
933.464694	2606.276538
933.767943	2581.070769
934.071153	2507.974038
934.374323	2568.467885
934.677455	2618.879423
934.980548	2563.426731
935.283602	2616.358846
935.586617	2568.467885
935.889593	2618.879423
936.192530	2618.879423
936.495428	2601.235385
936.798287	2553.344423
937.101108	2639.044038
937.403890	2588.632500
937.706632	2513.015192
938.009336	2641.564615
938.312002	2641.564615
938.614628	2573.509038
938.917216	2588.632500
939.219765	2555.865000
939.522275	2591.153077
939.824747	2601.235385
940.127179	2555.865000
940.429573	2543.262115
940.731929	2639.044038
941.034246	2565.947308
941.336524	2570.988462
941.638763	2573.509038
941.940964	2586.111923
942.243126	2568.467885
942.545250	2644.085192
942.847335	2656.688077
943.149381	2560.906154
943.451389	2533.179808
943.753359	2669.290962
944.055290	2550.823846
944.357182	2689.455577
944.659036	2601.235385
944.960851	2500.412308
945.262628	2598.714808
945.564367	2641.564615
945.866067	2553.344423
946.167729	2545.782692
946.469352	2661.729231
946.770937	2628.961731
947.072484	2596.194231
947.373992	2611.317692
947.675462	2578.550192
947.976893	2646.605769
948.278286	2573.509038
948.579641	2608.797115
948.880958	2550.823846
949.182236	2608.797115
949.483476	2548.303269
949.784678	2601.235385
950.085841	2608.797115
950.386967	2596.194231
950.688054	2639.044038
950.989103	2593.673654
951.290114	2621.400000
951.591087	2578.550192
951.892021	2628.961731
952.192917	2679.373269
952.493776	2636.523462
952.794596	2555.865000
953.095378	2618.879423
953.396122	2613.838269
953.696828	2649.126346
953.997496	2618.879423
954.298126	2568.467885
954.598718	2608.797115
954.899272	2626.441154
955.199788	2598.714808
955.500266	2623.920577
955.800706	2613.838269
956.101108	2669.290962
956.401472	2588.632500
956.701798	2497.891731
957.002087	2636.523462
957.302337	2560.906154
957.602550	2623.920577
957.902724	2523.097500
958.202861	2669.290962
958.502960	2482.768269
958.803022	2611.317692
959.103045	2636.523462
959.403031	2626.441154
959.702979	2608.797115
960.002889	2530.659231
960.302762	2616.358846
960.602596	2649.126346
960.902393	2684.414423
961.202153	2608.797115
961.501875	2525.618077
961.801559	2639.044038
962.101205	2573.509038
962.400814	2601.235385
962.700385	2568.467885
962.999918	2613.838269
963.299414	2613.838269
963.598873	2636.523462
963.898293	2560.906154
964.197677	2553.344423
964.497022	2560.906154
964.796331	2591.153077
965.095601	2639.044038
965.394835	2606.276538
965.694030	2616.358846
965.993189	2591.153077
966.292309	2570.988462
966.591393	2563.426731
966.890439	2588.632500
967.189447	2598.714808
967.488419	2565.947308
967.787353	2616.358846
968.086249	2626.441154
968.385108	2634.002885
968.683930	2634.002885
968.982714	2613.838269
969.281462	2639.044038
969.580172	2608.797115
969.878844	2616.358846
970.177480	2636.523462
970.476078	2616.358846
970.774639	2568.467885
971.073162	2603.755962
971.371649	2507.974038
971.670098	2613.838269
971.968510	2553.344423
972.266885	2623.920577
972.565223	2520.576923
972.863524	2603.755962
973.161788	2591.153077
973.460014	2641.564615
973.758204	2591.153077
974.056356	2560.906154
974.354471	2656.688077
974.652550	2596.194231
974.950591	2591.153077
975.248595	2611.317692
975.546563	2631.482308
975.844493	2613.838269
976.142386	2523.097500
976.440243	2530.659231
976.738062	2535.700385
977.035845	2616.358846
977.333590	2606.276538
977.631299	2581.070769
977.928971	2576.029615
978.226606	2553.344423
978.524204	2507.974038
978.821765	2623.920577
979.119290	2596.194231
979.416777	2608.797115
979.714228	2606.276538
980.011642	2618.879423
980.309020	2646.605769
980.606360	2608.797115
980.903664	2593.673654
981.200931	2664.249808
981.498162	2578.550192
981.795356	2583.591346
982.092513	2563.426731
982.389633	2626.441154
982.686717	2646.605769
982.983764	2568.467885
983.280775	2591.153077
983.577749	2510.494615
983.874686	2583.591346
984.171587	2603.755962
984.468451	2639.044038
984.765279	2601.235385
985.062070	2611.317692
985.358824	2560.906154
985.655543	2631.482308
985.952224	2628.961731
986.248869	2601.235385
986.545478	2555.865000
986.842050	2626.441154
987.138586	2606.276538
987.435086	2573.509038
987.731549	2581.070769
988.027975	2578.550192
988.324366	2618.879423
988.620719	2618.879423
988.917037	2606.276538
989.213318	2581.070769
989.509563	2634.002885
989.805772	2553.344423
990.101944	2613.838269
990.398080	2644.085192
990.694180	2596.194231
990.990244	2601.235385
991.286271	2636.523462
991.582262	2576.029615
991.878217	2601.235385
992.174136	2659.208654
992.470019	2621.400000
992.765865	2578.550192
993.061676	2573.509038
993.357450	2606.276538
993.653188	2583.591346
993.948890	2591.153077
994.244556	2644.085192
994.540186	2525.618077
994.835780	2573.509038
995.131337	2591.153077
995.426859	2565.947308
995.722345	2560.906154
996.017795	2593.673654
996.313208	2631.482308
996.608586	2565.947308
996.903928	2578.550192
997.199234	2631.482308
997.494504	2545.782692
997.789738	2591.153077
998.084936	2528.138654
998.380099	2608.797115
998.675225	2565.947308
998.970316	2553.344423
999.265371	2601.235385
999.560390	2563.426731
999.855373	2502.932885
1000.150320	2613.838269
1000.445232	2596.194231
1000.740108	2611.317692
1001.034948	2621.400000
1001.329752	2576.029615
1001.624521	2495.371154
1001.919254	2558.385577
1002.213951	2656.688077
1002.508613	2555.865000
1002.803239	2513.015192
1003.097829	2583.591346
1003.392384	2533.179808
1003.686903	2568.467885
1003.981386	2598.714808
1004.275834	2601.235385
1004.570246	2601.235385
1004.864623	2525.618077
1005.158964	2603.755962
1005.453270	2563.426731
1005.747540	2550.823846
1006.041775	2581.070769
1006.335974	2558.385577
1006.630138	2606.276538
1006.924266	2510.494615
1007.218359	2606.276538
1007.512416	2606.276538
1007.806438	2608.797115
1008.100425	2563.426731
1008.394376	2591.153077
1008.688292	2618.879423
1008.982172	2558.385577
1009.276017	2593.673654
1009.569827	2470.165385
1009.863602	2591.153077
1010.157341	2523.097500
1010.451045	2593.673654
1010.744714	2565.947308
1011.038347	2520.576923
1011.331945	2626.441154
1011.625508	2535.700385
1011.919036	2565.947308
1012.212528	2644.085192
1012.505986	2646.605769
1012.799408	2533.179808
1013.092795	2563.426731
1013.386147	2578.550192
1013.679464	2656.688077
1013.972745	2608.797115
1014.265992	2621.400000
1014.559204	2591.153077
1014.852380	2563.426731
1015.145521	2608.797115
1015.438628	2583.591346
1015.731699	2636.523462
1016.024736	2581.070769
1016.317737	2581.070769
1016.610703	2487.809423
1016.903635	2535.700385
1017.196531	2593.673654
1017.489393	2565.947308
1017.782219	2540.741538
1018.075011	2568.467885
1018.367768	2533.179808
1018.660490	2591.153077
1018.953177	2591.153077
1019.245829	2591.153077
