Dividing Wavelength (nm)	Counts (n)	Blue Motor Position (mm): 0.200000	Red Motor Position (mm): 0.000000	
326.493990	2166.561894
326.888308	2166.561894
327.282561	2166.561894
327.676750	2127.339197
328.070874	2124.160749
328.464933	2123.666716
328.858929	2126.489762
329.252859	2131.583848
329.646726	2140.214304
330.040528	2156.204844
330.434265	2164.638694
330.827938	2183.021262
331.221547	2201.688654
331.615091	2219.809082
332.008571	2236.185270
332.401986	2256.901892
332.795338	2274.654315
333.188625	2295.340690
333.581847	2311.346353
333.975006	2329.756647
334.368100	2346.929338
334.761129	2365.352234
335.154095	2384.760677
335.546996	2398.802811
335.939833	2416.096489
336.332606	2431.804724
336.725315	2444.132866
337.117960	2457.761626
337.510540	2468.504324
337.903056	2479.267188
338.295508	2485.170379
338.687896	2496.739827
339.080220	2503.215189
339.472480	2511.954029
339.864676	2516.516274
340.256807	2520.551717
340.648875	2525.426513
341.040879	2525.353416
341.432818	2531.624612
341.824694	2534.901362
342.216506	2533.446989
342.608253	2538.268852
342.999937	2535.299613
343.391557	2536.804397
343.783113	2536.023018
344.174605	2534.621578
344.566033	2533.875487
344.957397	2532.257277
345.348697	2528.819210
345.739934	2531.117976
346.131106	2527.236287
346.522215	2526.028931
346.913260	2523.571368
347.304241	2523.137829
347.695159	2520.085411
348.086012	2518.343692
348.476802	2516.357477
348.867528	2509.924965
349.258191	2509.725839
349.648789	2504.924140
350.039324	2504.563698
350.429796	2509.257012
350.820203	2508.510921
351.210548	2506.239882
351.600828	2504.460354
351.991045	2504.974552
352.381198	2501.826351
352.771288	2502.688389
353.161314	2504.001609
353.551276	2502.302740
353.941175	2497.795949
354.331010	2502.862308
354.720782	2500.487925
355.110490	2501.659993
355.500135	2496.339055
355.889717	2502.287617
356.279235	2498.809221
356.668689	2501.259222
357.058080	2499.000785
357.447408	2502.426249
357.836672	2498.816782
358.225873	2502.050683
358.615010	2502.879952
359.004084	2502.796773
359.393095	2500.858450
359.782043	2504.190653
360.170927	2504.306599
360.559748	2505.546723
360.948505	2506.212155
361.337199	2509.050325
361.725830	2506.194511
362.114398	2508.631909
362.502903	2505.556805
362.891344	2509.128463
363.279722	2508.362207
363.668037	2510.880264
364.056289	2507.298524
364.444478	2510.907990
364.832603	2509.297341
365.220665	2510.615603
365.608665	2510.262722
365.996601	2510.870181
366.384474	2509.418329
366.772284	2510.660973
367.160031	2510.822290
367.547715	2513.315141
367.935336	2510.769358
368.322893	2512.092661
368.710388	2507.885818
369.097820	2512.395130
369.485189	2509.052845
369.872495	2513.257168
370.259738	2514.565347
370.646918	2516.856552
371.034035	2511.558299
371.421090	2518.086593
371.808081	2513.859586
372.195010	2513.468896
372.581875	2514.809843
372.968678	2518.610873
373.355418	2516.080214
373.742096	2517.834535
374.128710	2515.843280
374.515262	2517.521984
374.901751	2516.380163
375.288177	2521.489372
375.674540	2518.315966
376.060841	2517.930317
376.447079	2516.193640
376.833254	2518.076511
377.219367	2520.597088
377.605417	2518.694052
377.991404	2517.048115
378.377329	2520.221522
378.763191	2519.949299
379.148991	2520.738240
379.534727	2520.894516
379.920402	2520.342509
380.306013	2520.513909
380.691563	2520.032478
381.077049	2521.348220
381.462474	2523.231091
381.847835	2522.351409
382.233134	2521.010462
382.618371	2523.465504
383.003545	2520.022396
383.388657	2519.813188
383.773706	2522.351409
384.158693	2521.839732
384.543618	2527.858870
384.928480	2522.101872
385.313280	2523.740247
385.698017	2523.500792
386.082692	2521.917870
386.467305	2523.757891
386.851856	2525.837367
387.236344	2525.829805
387.620770	2522.210257
388.005133	2518.295801
388.389435	2523.405010
388.773674	2521.431399
389.157851	2527.019518
389.541965	2523.901564
389.926018	2526.530526
390.310008	2524.297295
390.693936	2524.992974
391.077802	2528.015146
391.461606	2524.826616
391.845348	2527.652183
392.229027	2529.585465
392.612645	2528.065557
392.996200	2528.078160
393.379694	2528.055475
393.763125	2525.855011
394.146494	2527.203520
394.529801	2528.015146
394.913047	2529.013294
395.296230	2530.147554
395.679351	2527.190917
396.062410	2528.809127
396.445408	2528.829292
396.828343	2529.293078
397.211217	2532.496731
397.594028	2529.104035
397.976778	2530.646628
398.359466	2527.954652
398.742092	2528.909950
399.124656	2531.140661
399.507158	2528.373068
399.889598	2534.404808
400.271977	2530.419776
400.654294	2529.981196
401.036549	2530.843233
401.418742	2530.863398
401.800874	2530.606299
402.182944	2530.959179
402.564952	2529.330887
402.946898	2533.603265
403.328783	2532.219468
403.710606	2532.544622
404.092367	2533.424304
404.474067	2532.375744
404.855705	2534.220806
405.237282	2531.904396
405.618797	2531.407842
406.000250	2533.661238
406.381642	2530.545805
406.762972	2530.528161
407.144240	2527.989940
407.525447	2531.233922
407.906593	2529.913140
408.287677	2532.186700
408.668700	2532.050589
409.049661	2535.307175
409.430560	2534.044366
409.811399	2533.638553
410.192176	2535.569315
410.572891	2536.164171
410.953545	2533.497400
411.334138	2532.874818
411.714669	2535.055117
412.095139	2536.146527
412.475547	2534.760209
412.855894	2534.913965
413.236180	2535.949922
413.616405	2535.440765
413.996568	2535.740714
414.376670	2536.179294
414.756711	2538.808256
415.136691	2536.756506
415.516609	2536.849768
415.896466	2539.786240
416.276262	2536.678368
416.655997	2537.527803
417.035670	2536.063348
417.415283	2540.025695
417.794834	2538.999820
418.174324	2536.224665
418.553753	2539.476209
418.933121	2539.282124
419.312428	2537.989068
419.691674	2536.685930
420.070859	2537.595858
420.449983	2539.423277
420.829045	2537.737011
421.208047	2539.748431
421.586988	2536.759027
421.965867	2540.434028
422.344686	2541.190201
422.723444	2538.097453
423.102141	2535.786084
423.480777	2540.764224
423.859352	2540.585263
424.237866	2537.868081
424.616319	2539.579553
424.994712	2541.923689
425.373044	2540.764224
425.751314	2538.881353
426.129524	2536.995961
426.507673	2536.834644
426.885762	2535.181146
427.263789	2538.679707
427.641756	2540.625592
428.019662	2542.916796
428.397508	2542.780685
428.775292	2541.469985
429.153016	2543.239430
429.530679	2541.714481
429.908282	2541.157434
430.285824	2544.406457
430.663305	2539.158616
431.040726	2543.194060
431.418086	2543.529297
431.795385	2541.722043
432.172624	2540.492001
432.549802	2543.005017
432.926920	2543.060469
433.303977	2542.110212
433.680974	2541.676673
434.057910	2542.654656
434.434786	2543.975439
434.811601	2542.543751
435.188355	2541.588452
435.565050	2540.373534
435.941683	2546.120450
436.318257	2545.165151
436.694770	2544.469472
437.071222	2540.723894
437.447614	2541.911086
437.823946	2542.246323
438.200218	2544.915614
438.576429	2544.686241
438.952580	2543.746066
439.328670	2542.057280
439.704700	2546.528783
440.080670	2546.531304
440.456580	2546.664894
440.832429	2545.812939
441.208218	2543.960315
441.583947	2544.134235
441.959616	2544.933258
442.335224	2545.936447
442.710773	2546.987528
443.086261	2544.214893
443.461689	2544.383772
443.837057	2546.662374
444.212365	2546.455686
444.587612	2544.706406
444.962800	2543.390665
445.337927	2544.358566
445.712995	2539.403112
446.088002	2545.611293
446.462949	2545.896118
446.837837	2545.412168
447.212664	2545.714637
447.587431	2545.510470
447.962139	2548.320913
448.336786	2548.149514
448.711374	2543.549461
449.085901	2548.767055
449.460369	2545.812939
449.834776	2546.589277
450.209124	2541.863195
450.583412	2547.899977
450.957640	2548.560368
451.331808	2548.300749
451.705917	2545.087013
452.079965	2548.426777
452.453954	2544.908052
452.827883	2546.725388
453.201752	2547.537014
453.575562	2546.795964
453.949311	2547.451314
454.323001	2547.111036
454.696632	2546.690100
455.070202	2547.935265
455.443713	2547.569781
455.817164	2549.485420
456.190556	2549.034237
456.563888	2550.032385
456.937160	2547.214380
457.310373	2549.228321
457.683526	2548.608259
458.056619	2549.266130
458.429653	2551.315359
458.802628	2550.284443
459.175542	2550.496171
459.548398	2549.573640
459.921194	2548.449463
460.293930	2550.508774
460.666607	2546.226314
461.039224	2549.225800
461.411782	2546.959802
461.784280	2550.191181
462.156719	2548.056253
462.529099	2548.981304
462.901419	2546.690100
463.273680	2549.457693
463.645882	2543.665408
464.018024	2548.184802
464.390106	2547.582384
464.762130	2550.055070
465.134094	2549.384597
465.505999	2549.374514
465.877845	2548.361243
466.249631	2548.141952
466.621358	2552.048847
466.993026	2551.295194
467.364634	2552.094217
467.736184	2551.360729
468.107674	2549.467776
468.479105	2549.924000
468.850477	2550.536500
469.221790	2549.775286
469.593043	2548.363763
469.964238	2551.093548
470.335373	2550.899463
470.706449	2550.158414
471.077467	2549.349309
471.448425	2551.872406
471.819324	2549.671943
472.190164	2548.552806
472.560945	2549.619010
472.931667	2552.600853
473.302330	2548.449463
473.672934	2551.078424
474.043479	2553.314176
474.413965	2549.823177
474.784393	2554.093034
475.154761	2550.586912
475.525070	2551.141439
475.895321	2553.125133
476.265513	2550.337375
476.635645	2551.945503
477.005719	2553.009186
477.375734	2550.657488
477.745691	2552.968857
478.115588	2553.115051
478.485427	2553.490617
478.855207	2551.650595
479.224928	2552.603373
479.594591	2551.317879
479.964194	2552.288301
480.333739	2549.472817
480.703226	2552.946172
481.072653	2554.992880
481.442022	2552.701676
481.811333	2550.952396
482.180584	2550.100441
482.549777	2552.212684
482.918912	2548.172199
483.287988	2555.865000
483.657005	2550.927190
484.025964	2553.707386
484.394864	2552.489947
484.763706	2553.573796
485.132489	2552.774773
485.501213	2551.885009
485.869879	2554.851728
486.238487	2552.537838
486.607036	2553.974567
486.975527	2555.383570
487.343959	2554.551779
487.712333	2553.979608
488.080648	2555.539846
488.448905	2552.936090
488.817104	2553.667057
489.185244	2553.397355
489.553326	2552.555482
489.921350	2556.361554
490.289315	2553.301573
490.657222	2556.989177
491.025070	2551.411141
491.392861	2554.864331
491.760593	2553.258723
492.128267	2554.786193
492.495883	2556.497665
492.863440	2551.065822
493.230939	2551.811912
493.598380	2554.786193
493.965763	2553.261244
494.333088	2555.204609
494.700354	2553.372149
495.067563	2555.197047
495.434713	2553.523384
495.801805	2553.465411
496.168839	2555.844835
496.535815	2556.391801
496.902733	2555.381049
497.269593	2556.454815
497.636395	2551.214536
498.003139	2554.607232
498.369825	2554.559341
498.736453	2553.745195
499.103023	2552.588250
499.469535	2557.871379
499.835989	2553.541028
500.202385	2550.246634
500.568723	2549.881150
500.935003	2553.072201
501.301226	2551.459032
501.667390	2555.776780
502.033497	2553.291491
502.399546	2553.571275
502.765537	2555.192006
503.131470	2554.151008
503.497345	2557.359702
503.863163	2558.957748
504.228923	2555.076059
504.594625	2554.710576
504.960269	2555.648230
505.325856	2553.979608
505.691385	2552.678991
506.056856	2554.350133
506.422270	2554.831563
506.787625	2556.051523
507.152924	2557.067315
507.518164	2555.391132
507.883347	2554.748384
508.248472	2555.766697
508.613540	2556.308622
508.978550	2556.041440
509.343503	2553.387273
509.708398	2557.052192
510.073236	2555.005483
510.438016	2556.142263
510.802738	2556.202757
511.167403	2559.809703
511.532010	2554.435833
511.896561	2554.720658
512.261053	2552.898281
512.625488	2552.384083
512.989866	2555.444064
513.354186	2557.168138
513.718449	2556.555638
514.082655	2556.200237
514.446803	2556.898437
514.810894	2556.384239
515.174927	2558.587223
515.538904	2556.676626
515.902822	2557.379867
516.266684	2556.611091
516.630488	2556.293498
516.994235	2552.893240
517.357925	2559.106462
517.721558	2560.349106
518.085133	2558.650238
518.448651	2555.575134
518.812112	2550.135729
519.175516	2554.887016
519.538863	2553.271326
519.902152	2557.019424
520.265385	2558.078067
520.628560	2559.156873
520.991678	2555.837274
521.354739	2554.629917
521.717743	2556.669064
522.080690	2556.122099
522.443580	2556.432130
522.806413	2558.975392
523.169189	2556.507747
523.531908	2555.663354
523.894569	2555.060936
524.257174	2555.083621
524.619722	2555.199568
524.982213	2559.121585
525.344647	2555.804506
525.707025	2557.581513
526.069345	2559.494631
526.431608	2558.539332
526.793815	2556.711914
527.155964	2557.384908
527.518057	2556.359033
527.880093	2558.307439
528.242072	2555.769218
528.603995	2556.714434
528.965860	2557.349620
529.327669	2555.063457
529.689421	2556.830381
530.051117	2556.331307
530.412755	2557.929352
530.774337	2557.299208
531.135862	2554.093034
531.497331	2554.148487
531.858743	2556.477500
532.220098	2556.840463
532.581396	2557.175700
532.942638	2559.315670
533.303824	2557.100083
533.664953	2557.440361
534.026025	2555.154197
534.387040	2556.427089
534.747999	2556.235525
535.108902	2557.526060
535.469748	2554.808878
535.830537	2557.873900
536.191270	2557.389949
536.551947	2555.045812
536.912567	2556.016235
537.273131	2552.275698
537.633638	2552.038764
537.994089	2557.851215
538.354483	2556.023796
538.714821	2560.250804
539.075103	2556.298539
539.435328	2555.617983
539.795497	2557.639486
540.155609	2556.429609
540.515665	2558.473797
540.875665	2556.631255
541.235609	2557.077398
541.595496	2557.394990
541.955328	2558.882131
542.315102	2557.248797
542.674821	2558.909857
543.034483	2560.283571
543.394090	2556.248128
543.753640	2557.654610
544.113134	2557.982285
544.472571	2555.643189
544.831953	2559.965979
545.191278	2557.742830
545.550548	2557.284085
545.909761	2557.871379
546.268918	2556.800134
546.628019	2559.610577
546.987064	2560.407080
547.346053	2561.382543
547.704986	2558.723334
548.063863	2558.985474
548.422684	2556.527912
548.781449	2557.180741
549.140158	2558.418344
549.498811	2558.753581
549.857408	2559.703839
550.215949	2559.484548
550.574434	2558.100752
550.932864	2557.291647
551.291237	2559.073694
551.649555	2558.012532
552.007817	2558.625032
552.366022	2557.226112
552.724173	2559.310629
553.082267	2556.497665
553.440305	2557.853735
553.798288	2558.166287
554.156215	2557.810885
554.514086	2557.243756
554.871902	2552.825184
555.229661	2554.151008
555.587365	2552.391645
555.945014	2558.012532
556.302606	2559.781977
556.660143	2557.452963
557.017625	2556.235525
557.375050	2558.085628
557.732421	2557.168138
558.089735	2558.927501
558.446994	2557.662171
558.804197	2558.388097
559.161345	2556.779969
559.518437	2559.325752
559.875474	2561.503531
560.232455	2558.902295
560.589381	2556.674105
560.946251	2556.721996
561.303065	2559.451781
561.659825	2557.458005
562.016528	2559.482028
562.373177	2555.370967
562.729770	2558.514126
563.086307	2559.010680
563.442789	2557.107644
563.799216	2559.812223
564.155587	2559.292985
564.511904	2559.524878
564.868164	2557.137891
565.224370	2559.517316
565.580520	2558.735937
565.936615	2560.694425
566.292654	2558.325083
566.648638	2557.689898
567.004567	2557.150494
567.360441	2559.943293
567.716260	2557.236194
568.072023	2557.397511
568.427732	2558.521688
568.783385	2559.658468
569.138982	2557.367264
569.494525	2558.892213
569.850013	2559.300546
570.205445	2558.004970
570.560823	2557.798283
570.916145	2559.895402
571.271412	2559.451781
571.626625	2560.485217
571.981782	2560.754919
572.336884	2556.865669
572.691931	2555.348282
573.046923	2557.001780
573.401860	2552.716799
573.756743	2557.284085
574.111570	2558.277192
574.466342	2559.169476
574.821059	2560.054199
575.175722	2555.839794
575.530330	2560.321380
575.884882	2558.824157
576.239380	2557.972202
576.593823	2559.829868
576.948211	2558.108313
577.302544	2560.137378
577.656823	2558.289795
578.011047	2563.832544
578.365216	2555.486913
578.719330	2557.715103
579.073389	2560.482697
579.427394	2558.965310
579.781344	2558.594785
580.135239	2559.635783
580.489080	2559.716442
580.842866	2559.270299
581.196597	2564.999571
581.550273	2558.728375
581.903895	2559.650907
582.257463	2558.829198
582.610975	2561.296843
582.964434	2560.626370
583.317837	2558.957748
583.671186	2558.935063
584.024481	2561.390105
584.377721	2559.628221
584.730906	2557.659651
585.084037	2560.167625
585.437113	2559.411452
585.790135	2560.127296
586.143103	2561.745506
586.496016	2561.984961
586.848874	2559.925649
587.201679	2560.034034
587.554428	2561.962276
587.907124	2559.751730
588.259765	2561.979920
588.612352	2562.161401
588.964884	2560.099569
589.317362	2560.956565
589.669786	2557.546225
590.022155	2556.157387
590.374470	2555.726368
590.726731	2558.836760
591.078937	2552.757129
591.431090	2559.295505
591.783188	2558.231822
592.135232	2557.866338
592.487222	2559.343396
592.839157	2561.019580
593.191038	2558.834240
593.542866	2558.993036
593.894639	2559.348437
594.246358	2562.148798
594.598022	2562.080743
594.949633	2561.432954
595.301190	2556.865669
595.652692	2557.838612
596.004141	2558.612429
596.355535	2559.245094
596.706876	2561.329611
597.058162	2558.330124
597.409395	2560.177707
597.760573	2558.415824
598.111698	2560.964127
598.462768	2557.417675
598.813785	2561.140568
599.164748	2559.792059
599.515657	2558.481359
599.866511	2560.313818
600.217312	2560.283571
600.568060	2557.100083
600.918753	2562.993192
601.269392	2559.209806
601.619978	2556.643858
601.970510	2558.670402
602.320988	2558.055381
602.671412	2559.224929
603.021783	2560.417162
603.372100	2559.658468
603.722363	2558.614949
604.072572	2559.892882
604.422728	2559.048489
604.772830	2561.813562
605.122878	2559.257697
605.472872	2559.756771
605.822813	2559.149312
606.172701	2559.895403
606.522534	2561.402707
606.872314	2561.322049
607.222041	2559.187120
607.571714	2555.638148
607.921333	2556.699311
608.270899	2557.458005
608.620411	2556.769887
608.969870	2563.920764
609.319276	2564.256001
609.668627	2566.821948
610.017926	2572.284038
610.367171	2574.169430
610.716362	2572.604151
611.065500	2570.423852
611.414585	2565.957390
611.763616	2567.933522
612.112594	2562.519323
612.461518	2563.903120
612.810389	2564.303892
613.159207	2563.706515
613.507971	2562.703325
613.856682	2561.443037
614.205340	2560.555794
614.553945	2560.291133
614.902496	2558.806513
615.250994	2557.248797
615.599439	2559.605536
615.947830	2562.710887
616.296169	2557.208467
616.644454	2560.046637
616.992686	2558.710731
617.340864	2559.781977
617.688990	2561.687533
618.037063	2560.268448
618.385082	2559.252655
618.733048	2558.637635
619.080961	2560.119734
619.428821	2559.794579
619.776628	2558.844322
620.124382	2560.288613
620.472083	2561.233829
620.819731	2561.236349
621.167326	2558.960268
621.514868	2562.365568
621.862357	2562.226936
622.209793	2561.417831
622.557176	2561.773232
622.904506	2560.316339
623.251783	2559.872717
623.599007	2558.282233
623.946179	2559.706359
624.293297	2559.381205
624.640363	2559.759291
624.987376	2556.280895
625.334336	2556.003632
625.681243	2556.369115
626.028097	2558.052861
626.374899	2560.891030
626.721647	2561.654765
627.068343	2558.130999
627.414987	2561.324570
627.761577	2561.448078
628.108115	2559.703839
628.454600	2559.608057
628.801032	2559.320711
629.147412	2562.632749
629.493739	2562.718449
629.840014	2561.064950
630.186236	2561.090156
630.532405	2561.556463
630.878521	2558.942624
631.224585	2558.887172
631.570597	2557.447922
631.916556	2558.257027
632.262462	2559.116544
632.608316	2560.152501
632.954117	2559.449260
633.299866	2556.296019
633.645562	2557.505896
633.991206	2555.675957
634.336797	2560.303736
634.682336	2556.840463
635.027823	2560.608726
635.373257	2559.227450
635.718639	2557.074877
636.063968	2559.376164
636.409245	2556.868190
636.754470	2560.326421
637.099642	2558.869528
637.444762	2559.368602
637.789829	2555.935576
638.134845	2560.565876
638.479808	2557.468087
638.824719	2559.595454
639.169577	2560.533108
639.514383	2560.185269
639.859137	2557.914229
640.203839	2559.083777
640.548489	2556.991698
640.893086	2559.048489
641.237632	2557.205947
641.582125	2557.858776
641.926566	2561.354817
642.270955	2555.728889
642.615292	2553.931717
642.959576	2555.207129
643.303809	2554.682849
643.647990	2559.078736
643.992118	2558.869528
644.336195	2556.157387
644.680219	2559.235011
645.024192	2559.449260
645.368112	2557.760474
645.711981	2557.762994
646.055797	2559.958417
646.399562	2560.316339
646.743274	2558.493962
647.086935	2559.358520
647.430544	2558.060423
647.774101	2558.085628
648.117606	2557.314332
648.461059	2560.039075
648.804460	2562.204251
649.147810	2559.509754
649.491108	2561.130485
649.834354	2557.599157
650.177548	2560.926318
650.520690	2560.475135
650.863781	2558.332645
651.206820	2557.760474
651.549807	2556.905998
651.892742	2558.791390
652.235626	2558.269630
652.578458	2556.359033
652.921238	2557.548745
653.263967	2557.054712
653.606644	2559.514795
653.949269	2558.637635
654.291843	2558.491441
654.634365	2559.182079
654.976836	2556.921122
655.319255	2556.389280
655.661622	2558.262069
656.003938	2557.793241
656.346203	2556.696790
656.688416	2556.306101
657.030577	2559.008159
657.372687	2556.341389
657.714746	2558.602347
658.056753	2557.710062
658.398708	2556.724517
658.740612	2562.085784
659.082465	2558.617470
659.424266	2556.671585
659.766016	2554.962633
660.107715	2555.444064
660.449362	2554.067829
660.790958	2559.519837
661.132503	2557.407593
661.473996	2559.771894
661.815438	2559.913047
662.156829	2557.992367
662.498168	2559.073694
662.839456	2559.580330
663.180693	2557.904147
663.521879	2559.403890
663.863013	2557.624363
664.204097	2558.486400
664.545129	2555.638148
664.886110	2556.603529
665.227040	2557.672254
665.567918	2558.146122
665.908746	2559.918088
666.249522	2556.510268
666.590248	2559.862635
666.930922	2556.588406
667.271545	2556.469938
667.612118	2558.105793
667.952639	2560.974209
668.293109	2556.333827
668.633528	2560.737275
668.973896	2559.718962
669.314213	2555.139074
669.654480	2557.377346
669.994695	2555.993549
670.334859	2557.296688
670.674973	2554.506409
671.015035	2557.470607
671.355047	2558.098231
671.695008	2557.284085
672.034918	2556.807696
672.374777	2556.769887
672.714585	2557.087480
673.054342	2557.016904
673.394049	2556.981616
673.733705	2559.401369
674.073310	2556.764846
674.412864	2559.330793
674.752368	2556.908519
675.091820	2558.025134
675.431223	2556.434650
675.770574	2559.398849
676.109875	2557.442881
676.449125	2555.723848
676.788324	2554.181255
677.127473	2554.818961
677.466571	2552.754608
677.805619	2557.735268
678.144616	2558.867007
678.483562	2557.488252
678.822458	2557.820968
679.161303	2556.217881
679.500098	2555.696121
679.838842	2559.073694
680.177535	2556.429609
680.516179	2557.117727
680.854771	2556.974054
681.193314	2558.325083
681.531805	2556.353992
681.870247	2560.225598
682.208638	2556.169990
682.546978	2560.119734
682.885268	2558.917419
683.223508	2555.633107
683.561697	2558.851884
683.899836	2557.331976
684.237925	2557.573951
684.575963	2558.065464
684.913951	2558.214178
685.251889	2557.014383
685.589776	2556.434650
685.927614	2558.294836
686.265401	2557.674774
686.603137	2558.413303
686.940824	2557.757953
687.278460	2560.863304
687.616046	2558.451112
687.953582	2557.271482
688.291068	2556.553117
688.628504	2556.590926
688.965889	2557.566389
689.303224	2555.844835
689.640510	2556.800134
689.977745	2560.830537
690.314930	2560.197872
690.652065	2556.724517
690.989150	2557.289126
691.326185	2557.268961
691.663170	2558.607388
692.000105	2558.809034
692.336990	2555.935576
692.673825	2556.777449
693.010610	2556.144784
693.347345	2553.737633
693.684030	2553.843497
694.020665	2555.368446
694.357251	2550.554144
694.693786	2556.724517
695.030272	2556.427089
695.366707	2556.114537
695.703093	2559.383725
696.039429	2556.984136
696.375716	2557.959599
696.711952	2557.727706
697.048139	2557.742830
697.384276	2560.182748
697.720363	2556.875751
698.056400	2555.915412
698.392388	2555.302911
698.728326	2557.306770
699.064214	2558.695608
699.400053	2559.134188
699.735842	2556.941286
700.071581	2558.067984
700.407270	2557.616801
700.742910	2558.793910
701.078501	2554.776111
701.414042	2559.308108
701.749533	2557.873900
702.084974	2557.400031
702.420366	2557.654610
702.755709	2556.671585
703.091002	2558.826678
703.426246	2558.413303
703.761440	2555.028168
704.096584	2558.453633
704.431679	2555.832232
704.766725	2556.621173
705.101721	2558.556976
705.436668	2558.645196
705.771565	2557.170659
706.106413	2560.928839
706.441212	2559.290464
706.775961	2558.219219
707.110661	2557.374826
707.445311	2556.664023
707.779913	2556.474980
708.114465	2555.358364
708.448967	2556.782490
708.783421	2557.631924
709.117825	2556.164949
709.452180	2558.534291
709.786485	2560.664178
710.120742	2554.652603
710.454949	2552.200081
710.789107	2554.824002
711.123216	2551.605225
711.457275	2557.306770
711.791286	2558.320042
712.125247	2559.444219
712.459159	2556.094373
712.793023	2555.123950
713.126837	2557.120247
713.460602	2558.695608
713.794318	2557.311811
714.127985	2556.853066
714.461602	2556.258210
714.795171	2554.650082
715.128691	2555.799465
715.462162	2559.429096
715.795584	2555.807027
716.128957	2556.109496
716.462281	2555.461708
716.795556	2554.773590
717.128782	2556.164949
717.461960	2558.592264
717.795088	2556.119578
718.128167	2555.655792
718.461198	2555.529763
718.794180	2555.582695
719.127113	2558.010011
719.459997	2557.352140
719.792833	2556.527912
720.125619	2556.353992
720.458357	2556.535473
720.791046	2558.688046
721.123686	2554.917263
721.456278	2555.829712
721.788821	2556.603529
722.121315	2559.101421
722.453761	2556.127140
722.786158	2556.036399
723.118506	2558.010011
723.450805	2555.413817
723.783056	2556.863148
724.115259	2555.128992
724.447412	2557.407593
724.779518	2558.002449
725.111574	2556.263251
725.443582	2554.216543
725.775542	2555.837274
726.107453	2555.484393
726.439315	2555.602860
726.771129	2558.619991
727.102895	2553.205791
727.434612	2553.911553
727.766281	2549.573640
728.097901	2558.433468
728.429473	2556.858107
728.760996	2555.552448
729.092471	2555.746533
729.423897	2556.076728
729.755276	2555.189485
730.086606	2560.510423
730.417887	2554.007335
730.749120	2556.422047
731.080305	2555.799465
731.411442	2556.835422
731.742530	2557.818447
732.073570	2556.263251
732.404562	2555.623025
732.735506	2557.392470
733.066401	2556.280895
733.397249	2554.294681
733.728048	2556.464897
734.058798	2555.194527
734.389501	2556.752243
734.720156	2556.285936
735.050762	2557.077397
735.381320	2559.529919
735.711831	2554.990360
736.042293	2555.008004
736.372707	2557.528581
736.703073	2556.132181
737.033391	2552.784855
737.363661	2555.970864
737.693883	2554.944989
738.024056	2554.975236
738.354182	2555.686039
738.684260	2557.639486
739.014290	2555.970864
739.344272	2553.409958
739.674207	2556.245607
740.004093	2554.657644
740.333931	2556.815257
740.663722	2556.885834
740.993464	2558.521688
741.323159	2556.956410
741.652806	2554.158569
741.982405	2554.062788
742.311956	2556.608570
742.641460	2556.227963
742.970915	2557.578992
743.300323	2553.704866
743.629683	2550.591953
743.958996	2551.239741
744.288260	2550.944834
744.617477	2555.804506
744.946647	2556.638817
745.275768	2554.082952
745.604842	2554.864331
745.933869	2555.620504
746.262847	2557.495813
746.591778	2557.223591
746.920662	2557.198385
747.249498	2556.235525
747.578286	2557.082439
747.907027	2557.649568
748.235720	2555.852397
748.564365	2555.648230
748.892963	2556.963972
749.221514	2556.885834
749.550017	2556.928683
749.878473	2556.240566
750.206881	2555.237376
750.535242	2555.290308
750.863555	2558.259548
751.191821	2554.864331
751.520039	2556.704352
751.848210	2557.311811
752.176334	2555.839794
752.504411	2557.939435
752.832440	2555.731409
753.160421	2557.493293
753.488356	2555.602860
753.816243	2557.725186
754.144082	2555.033210
754.471875	2556.661502
754.799620	2554.760987
755.127318	2555.912891
755.454969	2554.766028
755.782572	2555.277706
756.110129	2555.859959
756.437638	2555.471790
756.765100	2553.641851
757.092515	2554.864331
757.419882	2556.021276
757.747203	2557.100083
758.074477	2554.067829
758.401703	2556.207798
758.728882	2556.689229
759.056014	2556.177552
759.383099	2555.968344
759.710138	2553.450287
760.037129	2554.365257
760.364073	2554.922304
760.690970	2549.747560
761.017820	2555.343241
761.344623	2557.987326
761.671379	2556.611091
761.998088	2556.696790
762.324751	2554.839125
762.651366	2556.797613
762.977935	2556.976574
763.304456	2553.760318
763.630931	2556.137222
763.957359	2554.395504
764.283740	2552.368960
764.610074	2555.335679
764.936362	2554.766028
765.262602	2556.207798
765.588796	2558.461194
765.914943	2554.899619
766.241044	2554.561862
766.567097	2555.837274
766.893104	2557.339538
767.219064	2554.118240
767.544978	2554.879454
767.870845	2556.049002
768.196665	2556.701832
768.522438	2554.342572
768.848165	2553.775442
769.173846	2552.041285
769.499479	2555.554969
769.825066	2552.467262
770.150607	2554.471121
770.476101	2555.244938
770.801548	2553.697304
771.126949	2555.718807
771.452303	2554.917263
771.777611	2555.159238
772.102872	2553.331820
772.428087	2555.600339
772.753256	2554.433312
773.078378	2553.972047
773.403453	2555.680998
773.728482	2553.725030
774.053465	2555.930535
774.378401	2555.431461
774.703291	2553.273847
775.028135	2550.037426
775.352932	2556.028837
775.677683	2552.656306
776.002388	2552.260575
776.327046	2551.925338
776.651658	2551.895091
776.976224	2550.302087
777.300743	2555.527243
777.625216	2556.548076
777.949643	2554.700493
778.274024	2555.136553
778.598359	2553.571275
778.922647	2556.006152
779.246889	2555.776780
779.571086	2555.922973
779.895236	2553.732592
780.219339	2553.924156
780.543397	2554.196378
780.867409	2557.304249
781.191374	2557.193344
781.515294	2552.116902
781.839167	2557.107644
782.162995	2554.055226
782.486776	2551.774104
782.810511	2555.444064
783.134201	2554.448436
783.457844	2554.665205
783.781441	2557.992367
784.104993	2554.602191
784.428498	2555.348282
784.751958	2551.741336
785.075372	2554.148487
785.398739	2552.414330
785.722061	2553.699824
786.045337	2555.058415
786.368568	2553.203271
786.691752	2553.558672
787.014891	2553.445246
787.337983	2556.598488
787.661030	2555.015566
787.984031	2555.282747
788.306987	2553.931717
788.629897	2553.931717
788.952760	2555.617983
789.275579	2553.730071
789.598351	2555.330638
789.921078	2554.922304
790.243759	2553.934238
790.566395	2554.335010
790.888984	2554.904660
791.211529	2551.910215
791.534027	2554.592109
791.856480	2556.525391
792.178888	2551.282591
792.501249	2550.017262
792.823566	2553.513302
793.145836	2550.755791
793.468062	2553.578837
793.790241	2553.989691
794.112375	2554.478683
794.434464	2553.639331
794.756507	2552.638662
795.078505	2551.915256
795.400457	2553.737633
795.722364	2553.167983
796.044226	2553.750236
796.366042	2554.594629
796.687812	2552.747046
797.009538	2553.067160
797.331218	2555.812068
797.652852	2554.985319
797.974442	2552.535318
798.295986	2556.215360
798.617484	2552.658826
798.938938	2552.474824
799.260346	2554.098076
799.581709	2553.558672
799.903026	2554.743343
800.224299	2554.970195
800.545526	2553.770401
800.866708	2554.183775
801.187845	2555.207129
801.508936	2554.135884
801.829983	2554.604712
802.150984	2552.762170
802.471940	2555.817109
802.792851	2554.120761
803.113717	2557.468087
803.434538	2550.440718
803.755314	2556.588406
804.076045	2551.048177
804.396731	2555.065977
804.717372	2552.593291
805.037967	2555.010524
805.358518	2555.713765
805.679024	2553.276368
805.999485	2553.359547
806.319901	2554.574465
806.640272	2553.679660
806.960598	2556.545556
807.280879	2553.863662
807.601115	2555.708724
807.921306	2554.645041
808.241453	2552.946172
808.561554	2549.419885
808.881611	2550.292004
809.201623	2551.348126
809.521590	2552.842828
809.841513	2555.441543
810.161390	2553.306614
810.481223	2554.818961
810.801011	2555.439023
811.120755	2553.992211
811.440453	2554.279557
811.760107	2552.409289
812.079716	2554.685370
812.399281	2554.234187
812.718801	2553.851059
813.038276	2554.380380
813.357707	2554.418189
813.677093	2553.208312
813.996434	2553.485575
814.315731	2552.598332
814.634983	2554.279557
814.954191	2553.369629
815.273354	2551.479196
815.592473	2553.679660
815.911547	2553.578837
816.230577	2554.387942
816.549562	2554.468600
816.868502	2556.054043
817.187399	2555.192006
817.506250	2553.959444
817.825058	2552.968857
818.143821	2554.438353
818.462539	2552.235369
818.781213	2555.255020
819.099843	2556.265772
819.418429	2554.513971
819.736970	2553.843497
820.055466	2554.062787
820.373919	2553.775442
820.692327	2554.526574
821.010691	2553.800648
821.329011	2551.312838
821.647286	2553.291491
821.965517	2554.811399
822.283704	2554.317366
822.601847	2553.949362
822.919945	2554.647561
823.237999	2552.487427
823.556010	2554.718137
823.873976	2552.704197
824.191897	2550.544062
824.509775	2550.788558
824.827609	2549.251006
825.145398	2548.215049
825.463144	2553.455328
825.780845	2554.677808
826.098502	2552.681511
826.416116	2554.503888
826.733685	2555.749053
827.051210	2551.514484
827.368692	2553.160421
827.686129	2553.346944
828.003522	2554.927345
828.320872	2554.430792
828.638177	2553.485575
828.955439	2553.049516
829.272656	2555.819630
829.589830	2554.032541
829.906960	2552.535318
830.224046	2553.591440
830.541088	2553.866183
830.858086	2551.416182
831.175041	2554.758467
831.491952	2553.140256
831.808819	2554.287119
832.125642	2555.885165
832.442421	2551.605225
832.759157	2555.444064
833.075849	2554.040102
833.392497	2553.409958
833.709101	2553.871224
834.025662	2553.069680
834.342179	2554.239228
834.658653	2551.259906
834.975083	2552.926007
835.291469	2557.760474
835.607811	2550.947354
835.924110	2555.373487
836.240366	2552.752087
836.556578	2552.661347
836.872746	2554.483724
837.188871	2554.045143
837.504952	2554.060267
837.820990	2555.547407
838.136984	2554.032541
838.452935	2553.072201
838.768842	2553.271326
839.084706	2550.826367
839.400526	2553.301573
839.716303	2555.060936
840.032037	2552.250493
840.347727	2548.353681
840.663373	2549.845862
840.978977	2550.987684
841.294537	2547.499205
841.610054	2554.070349
841.925527	2554.143446
842.240957	2554.022458
842.556344	2554.871893
842.871687	2553.407438
843.186987	2552.908363
843.502244	2551.600184
843.817458	2553.714948
844.132629	2551.703528
844.447756	2556.966492
844.762840	2554.161090
845.077881	2552.444577
845.392879	2550.949875
845.707833	2553.503219
846.022745	2553.097407
846.337613	2552.726882
846.652438	2551.811912
846.967221	2552.681511
847.281960	2551.532128
847.596656	2554.970195
847.911309	2553.019269
848.225919	2553.442726
848.540485	2552.931048
848.855009	2552.215205
849.169490	2553.500699
849.483928	2553.314176
849.798323	2552.139587
850.112675	2552.532797
850.426984	2552.341233
850.741251	2555.491955
851.055474	2553.122612
851.369654	2551.209494
851.683792	2553.225956
851.997887	2552.230328
852.311938	2550.367622
852.625947	2552.600853
852.939914	2552.878116
853.253837	2552.857952
853.567718	2554.153528
853.881555	2552.046326
854.195350	2552.981460
854.509103	2551.078424
854.822812	2553.687222
855.136479	2550.778476
855.450103	2550.544062
855.763685	2549.949206
856.077224	2550.201264
856.390720	2549.790410
856.704173	2548.409133
857.017584	2553.299053
857.330953	2551.973229
857.644278	2552.376522
857.957561	2555.885165
858.270802	2553.296532
858.584000	2551.663198
858.897155	2552.875596
859.210268	2554.438353
859.523339	2554.720658
859.836367	2553.029351
860.149352	2553.974567
860.462295	2551.322920
860.775195	2553.823333
861.088054	2551.300235
861.400869	2551.821995
861.713642	2551.406099
862.026373	2551.302756
862.339062	2551.327962
862.651708	2554.128323
862.964312	2552.162272
863.276873	2552.434495
863.589392	2554.617314
863.901869	2552.338713
864.214303	2554.524053
864.526696	2551.585060
864.839045	2552.048847
865.151353	2552.479865
865.463619	2555.333158
865.775842	2554.483724
866.088023	2550.443239
866.400162	2551.522046
866.712258	2551.955585
867.024313	2550.924669
867.336325	2551.247303
867.648296	2551.411141
867.960224	2552.374001
868.272110	2552.174875
868.583954	2551.713610
868.895755	2555.635628
869.207515	2551.922818
869.519233	2552.210163
869.830909	2553.629248
870.142542	2551.471634
870.454134	2553.747715
870.765684	2553.798127
871.077191	2551.648075
871.388657	2549.258568
871.700081	2547.418547
872.011463	2547.569781
872.322803	2546.037271
872.634101	2553.853580
872.945357	2553.162942
873.256571	2552.220246
873.567744	2552.293343
873.878874	2551.799309
874.189963	2553.044474
874.501010	2553.914073
874.812015	2550.362581
875.122979	2554.392983
875.433900	2553.329300
875.744780	2550.067673
876.055618	2550.884340
876.366415	2556.033879
876.677169	2552.336192
876.987882	2551.456511
877.298554	2547.859648
877.609183	2550.886861
877.919771	2553.394835
878.230317	2552.772252
878.540822	2552.530277
878.851285	2553.248641
879.161707	2549.644216
879.472087	2549.046839
879.782425	2552.873075
880.092722	2551.769062
880.402977	2553.271326
880.713191	2551.678322
881.023363	2551.607746
881.333494	2551.456511
881.643583	2554.463559
881.953631	2552.600853
882.263637	2549.261088
882.573602	2549.369473
882.883526	2553.072201
883.193408	2553.362067
883.503248	2550.259237
883.813048	2554.239228
884.122806	2555.292829
884.432522	2554.067829
884.742197	2552.036244
885.051831	2553.281409
885.361424	2551.282591
885.670975	2551.529608
885.980485	2550.952396
886.289954	2554.836605
886.599382	2553.871224
886.908768	2550.312169
887.218113	2549.482899
887.527417	2551.085986
887.836680	2548.252858
888.145901	2552.023641
888.455082	2550.634803
888.764221	2550.465924
889.073319	2554.224104
889.382376	2551.930379
889.691392	2549.621531
890.000366	2551.607746
890.309300	2551.809392
890.618193	2551.617828
890.927044	2551.670760
891.235855	2555.781821
891.544625	2551.025492
891.853353	2552.759649
892.162041	2550.307128
892.470687	2554.032541
892.779293	2550.309648
893.087858	2553.843497
893.396381	2554.617314
893.704864	2551.837118
894.013306	2549.361912
894.321707	2550.397869
894.630068	2552.565565
894.938387	2553.208312
895.246665	2554.607232
895.554903	2551.816953
895.863100	2549.208156
896.171256	2549.624052
896.479371	2551.572457
896.787446	2554.483724
897.095480	2552.467262
897.403473	2551.343085
897.711425	2550.528939
898.019336	2550.849052
898.327207	2551.809392
898.635038	2551.227138
898.942827	2547.521890
899.250576	2551.370811
899.558284	2552.467262
899.865952	2550.115564
900.173579	2550.985163
900.481165	2550.576830
900.788711	2551.171686
901.096216	2551.741336
901.403681	2550.029864
901.711105	2551.695966
902.018489	2549.150183
902.325832	2549.193033
902.633135	2546.526262
902.940397	2547.171530
903.247619	2547.267312
903.554800	2551.910215
903.861941	2551.393497
904.169041	2552.132026
904.476101	2551.743857
904.783121	2550.929710
905.090100	2552.626059
905.397039	2550.710420
905.703938	2549.402241
906.010796	2551.655637
906.317614	2552.502550
906.624391	2551.083466
906.931129	2554.007335
907.237826	2551.181768
907.544483	2550.992725
907.851099	2552.547921
908.157675	2549.157745
908.464211	2552.860472
908.770707	2548.358722
909.077163	2548.943496
909.383578	2552.076573
909.689954	2550.443239
909.996289	2550.657488
910.302584	2553.898950
910.608839	2552.263096
910.915054	2552.996583
911.221229	2549.351829
911.527363	2551.171686
911.833458	2552.179917
912.139513	2550.062632
912.445527	2551.922818
912.751502	2548.850234
913.057436	2552.978939
913.363331	2552.162273
913.669186	2552.333672
913.975000	2549.981973
914.280775	2552.129505
914.586510	2552.666388
914.892205	2552.384083
915.197859	2551.184289
915.503475	2553.198230
915.809050	2550.533980
916.114585	2550.070194
916.420081	2551.239741
916.725536	2552.653785
917.030952	2551.264947
917.336328	2552.376522
917.641665	2549.049360
917.946961	2547.945347
918.252218	2549.092210
918.557435	2546.337219
918.862612	2548.686397
919.167750	2552.053888
919.472848	2550.811243
919.777906	2552.328631
920.082925	2550.130687
920.387904	2551.559855
920.692843	2552.253013
920.997743	2549.646737
921.302603	2552.386604
921.607423	2549.072045
921.912204	2549.445091
922.216946	2549.233362
922.521647	2551.524567
922.826310	2551.378373
923.130932	2550.181099
923.435516	2551.562375
923.740059	2550.052550
924.044564	2552.389124
924.349028	2550.228990
924.653454	2551.022972
924.957840	2550.957437
925.262186	2550.854093
925.566493	2549.573640
925.870761	2549.253527
926.174989	2549.969371
926.479178	2549.969371
926.783328	2550.619679
927.087438	2552.308466
927.391509	2550.919628
927.695541	2549.795451
927.999533	2549.971891
928.303486	2551.574978
928.607400	2550.682694
928.911275	2548.099102
929.215110	2549.692107
929.518906	2550.186140
929.822663	2551.443908
930.126381	2550.927190
930.430060	2551.020451
930.733699	2550.108002
931.037299	2547.932744
931.340861	2552.177396
931.644383	2547.920142
931.947866	2549.931562
932.251309	2550.453321
932.554714	2548.716644
932.858080	2549.782848
933.161407	2545.921324
933.464694	2546.916952
933.767943	2545.001313
934.071153	2550.312169
934.374323	2551.083466
934.677455	2549.540873
934.980548	2547.431150
935.283602	2551.842159
935.586617	2549.777807
935.889593	2549.747560
936.192530	2550.276881
936.495428	2549.661860
936.798287	2550.697817
937.101108	2553.699824
937.403890	2549.487940
937.706632	2549.382076
938.009336	2550.196222
938.312002	2550.072714
938.614628	2553.004145
938.917216	2547.143804
939.219765	2548.923331
939.522275	2549.253527
939.824747	2550.360060
940.127179	2551.721172
940.429573	2549.888712
940.731929	2550.188661
941.034246	2548.593136
941.336524	2550.478527
941.638763	2549.762683
941.940964	2547.484082
942.243126	2549.704710
942.545250	2549.717313
942.847335	2549.727395
943.149381	2549.583722
943.451389	2549.334185
943.753359	2548.348640
944.055290	2550.508774
944.357182	2551.443908
944.659036	2550.491130
944.960851	2549.780327
945.262628	2550.765873
945.564367	2548.905687
945.866067	2548.459545
946.167729	2548.575492
946.469352	2550.889381
946.770937	2551.050698
947.072484	2551.000287
947.373992	2548.751932
947.675462	2550.004659
947.976893	2547.516849
948.278286	2543.788916
948.579641	2548.353681
948.880958	2544.524924
949.182236	2548.832590
949.483476	2551.156562
949.784678	2549.709751
950.085841	2552.502550
950.386967	2549.878630
950.688054	2548.451983
950.989103	2552.217725
951.290114	2548.000800
951.591087	2549.258568
951.892021	2550.755791
952.192917	2548.527601
952.493776	2548.827549
952.794596	2552.736964
953.095378	2552.026161
953.396122	2550.339895
953.696828	2550.556665
953.997496	2548.111705
954.298126	2550.090358
954.598718	2549.518187
954.899272	2549.661860
955.199788	2547.831921
955.500266	2547.322765
955.800706	2548.215049
956.101108	2548.197405
956.401472	2551.612787
956.701798	2553.041954
957.002087	2550.362581
957.302337	2548.905687
957.602550	2551.859803
957.902724	2548.285625
958.202861	2549.941644
958.502960	2548.832590
958.803022	2550.307128
959.103045	2550.055070
959.403031	2550.203784
959.702979	2550.218908
960.002889	2549.492982
960.302762	2550.821326
960.602596	2550.402910
960.902393	2551.441387
961.202153	2548.877961
961.501875	2550.660009
961.801559	2550.400389
962.101205	2548.683876
962.400814	2550.586912
962.700385	2549.682025
962.999918	2546.231355
963.299414	2544.706406
963.598873	2548.552806
963.898293	2542.642053
964.197677	2549.515667
964.497022	2547.219421
964.796331	2550.579350
965.095601	2549.303938
965.394835	2549.276212
965.694030	2547.736139
965.993189	2547.315203
966.292309	2550.387786
966.591393	2553.170503
966.890439	2552.247972
967.189447	2548.346119
967.488419	2547.695810
967.787353	2550.014741
968.086249	2547.466438
968.385108	2547.368135
968.683930	2549.223280
968.982714	2548.356201
969.281462	2547.146324
969.580172	2549.193033
969.878844	2548.255378
970.177480	2549.840821
970.476078	2549.251006
970.774639	2550.113043
971.073162	2548.900646
971.371649	2548.356201
971.670098	2552.053888
971.968510	2546.443083
972.266885	2547.219421
972.565223	2549.097251
972.863524	2552.016079
973.161788	2549.482899
973.460014	2549.308979
973.758204	2550.329813
974.056356	2548.938455
974.354471	2547.925183
974.652550	2550.297046
974.950591	2547.683207
975.248595	2549.588763
975.546563	2549.208156
975.844493	2548.746891
976.142386	2549.024154
976.440243	2549.845862
976.738062	2548.210008
977.035845	2550.090358
977.333590	2547.312682
977.631299	2549.510626
977.928971	2548.794782
978.226606	2545.792775
978.524204	2549.475338
978.821765	2544.711447
979.119290	2545.442414
979.416777	2547.630275
979.714228	2550.541542
980.011642	2550.334854
980.309020	2547.690769
980.606360	2548.898125
980.903664	2551.562375
981.200931	2547.761345
981.498162	2549.245965
981.795356	2547.905018
982.092513	2549.417364
982.389633	2544.386293
982.686717	2548.061294
982.983764	2548.724206
983.280775	2546.087682
983.577749	2550.745708
983.874686	2550.922149
984.171587	2551.025492
984.468451	2546.735470
984.765279	2548.310831
985.062070	2548.560368
985.358824	2549.734957
985.655543	2549.056922
985.952224	2546.165820
986.248869	2547.690769
986.545478	2549.253527
986.842050	2551.383414
987.138586	2544.834955
987.435086	2547.559699
987.731549	2549.296377
988.027975	2550.077755
988.324366	2548.351160
988.620719	2551.678322
988.917037	2546.851417
989.213318	2549.805533
989.509563	2549.319062
989.805772	2549.228321
990.101944	2549.576161
990.398080	2550.072714
990.694180	2548.189843
990.990244	2548.885523
991.286271	2546.942158
991.582262	2544.774462
991.878217	2550.496171
992.174136	2553.581357
992.470019	2550.450801
992.765865	2546.052394
993.061676	2546.473330
993.357450	2546.463248
993.653188	2544.010727
993.948890	2549.538352
994.244556	2550.884340
994.540186	2549.770245
994.835780	2548.338557
995.131337	2546.944678
995.426859	2546.493495
995.722345	2550.004659
996.017795	2547.446273
996.313208	2548.895605
996.608586	2549.394679
996.903928	2547.569781
997.199234	2548.167158
997.494504	2550.667570
997.789738	2548.086500
998.084936	2550.191181
998.380099	2547.489123
998.675225	2545.394523
998.970316	2547.340409
999.265371	2548.215049
999.560390	2547.431150
999.855373	2549.981973
1000.150320	2547.728578
1000.445232	2547.158927
1000.740108	2548.782179
1001.034948	2544.439225
1001.329752	2546.957281
1001.624521	2548.250337
1001.919254	2547.244627
1002.213951	2548.734288
1002.508613	2546.198587
1002.803239	2547.579864
1003.097829	2550.496171
1003.392384	2547.267312
1003.686903	2547.620193
1003.981386	2550.715461
1004.275834	2547.594987
1004.570246	2547.126160
1004.864623	2546.470810
1005.158964	2547.169010
1005.453270	2547.206818
1005.747540	2551.781665
1006.041775	2547.128680
1006.335974	2548.550286
1006.630138	2548.245296
1006.924266	2547.889895
1007.218359	2548.000800
1007.512416	2545.034081
1007.806438	2541.719522
1008.100425	2547.408464
1008.394376	2543.274718
1008.688292	2549.011551
1008.982172	2548.404092
1009.276017	2546.848896
1009.569827	2551.814433
1009.863602	2547.557178
1010.157341	2548.081458
1010.451045	2550.165976
1010.744714	2548.877961
1011.038347	2547.214380
1011.331945	2545.404606
1011.625508	2548.416695
1011.919036	2550.198743
1012.212528	2547.423588
1012.505986	2546.412837
1012.799408	2546.919473
1013.092795	2545.765048
1013.386147	2549.492982
1013.679464	2547.340409
1013.972745	2546.453166
1014.265992	2548.298228
1014.559204	2547.468958
1014.852380	2547.123639
1015.145521	2547.105995
1015.438628	2547.650440
1015.731699	2549.170348
1016.024736	2549.775286
1016.317737	2547.824360
1016.610703	2547.337888
1016.903635	2547.027857
1017.196531	2550.193702
1017.489393	2548.998948
1017.782219	2545.951571
1018.075011	2546.309493
1018.367768	2545.102137
1018.660490	2549.646737
1018.953177	2549.646737
1019.245829	2549.646737
