Dividing Wavelength (nm)	Counts (n)	Blue Motor Position (mm): 41.200000	Red Motor Position (mm): 0.000000	
326.493990	2048.114943
326.888308	2048.114943
327.282561	2048.114943
327.676750	2023.186438
328.070874	2025.056706
328.464933	2031.690864
328.858929	2039.822245
329.252859	2050.741385
329.646726	2064.120607
330.040528	2078.618965
330.434265	2095.723600
330.827938	2120.331993
331.221547	2141.346043
331.615091	2161.349341
332.008571	2180.974553
332.401986	2201.176977
332.795338	2221.787735
333.188625	2240.946640
333.581847	2259.462798
333.975006	2275.017278
334.368100	2296.326235
334.761129	2313.118319
335.154095	2327.508293
335.546996	2378.676004
335.939833	2487.761532
336.332606	2496.197903
336.725315	2508.757938
337.117960	2522.101872
337.510540	2529.136802
337.903056	2538.034439
338.295508	2547.884853
338.687896	2554.196378
339.080220	2556.359033
339.472480	2562.713408
339.864676	2564.540826
340.256807	2570.217165
340.648875	2568.727504
341.040879	2571.636250
341.432818	2573.267063
341.824694	2574.938206
342.216506	2572.636919
342.608253	2573.836713
342.999937	2574.025757
343.391557	2573.425859
343.783113	2570.391085
344.174605	2569.161043
344.566033	2563.782132
344.957397	2567.557956
345.348697	2563.003274
345.739934	2563.310784
346.131106	2560.089487
346.522215	2558.362892
346.913260	2560.006308
347.304241	2558.491441
347.695159	2553.299053
348.086012	2552.681511
348.476802	2549.704710
348.867528	2546.080120
349.258191	2543.010058
349.648789	2545.139945
350.039324	2540.993596
350.429796	2545.737322
350.820203	2546.223793
351.210548	2543.826725
351.600828	2543.801519
351.991045	2542.064841
352.381198	2539.473688
352.771288	2541.648946
353.161314	2541.653987
353.551276	2538.316743
353.941175	2538.047042
354.331010	2543.002496
354.720782	2543.935109
355.110490	2545.649102
355.500135	2539.816487
355.889717	2544.144317
356.279235	2543.814122
356.668689	2544.577857
357.058080	2544.547610
357.447408	2547.738660
357.836672	2545.029040
358.225873	2546.445604
358.615010	2547.360573
359.004084	2544.068700
359.393095	2548.076417
359.782043	2548.918290
360.170927	2547.083310
360.559748	2550.138249
360.948505	2551.224618
361.337199	2551.257385
361.725830	2550.009700
362.114398	2551.194371
362.502903	2550.412992
362.891344	2553.982129
363.279722	2550.614638
363.668037	2551.257385
364.056289	2552.598332
364.444478	2554.355174
364.832603	2553.757798
365.220665	2555.403734
365.608665	2554.735782
365.996601	2556.301060
366.384474	2553.311656
366.772284	2556.669064
367.160031	2555.481872
367.547715	2558.826678
367.935336	2555.444064
368.322893	2555.184444
368.710388	2551.942982
369.097820	2557.422717
369.485189	2553.740154
369.872495	2561.526216
370.259738	2556.931204
370.646918	2558.909857
371.034035	2559.290464
371.421090	2558.612429
371.808081	2559.403890
372.195010	2559.865156
372.581875	2565.475960
372.968678	2560.281051
373.355418	2562.332800
373.742096	2563.751885
374.128710	2565.400343
374.515262	2562.053016
374.901751	2565.619633
375.288177	2564.649211
375.674540	2565.244067
376.060841	2566.930333
376.447079	2563.552760
376.833254	2567.948646
377.219367	2568.132648
377.605417	2568.021742
377.991404	2567.850343
378.377329	2569.118193
378.763191	2570.038204
379.148991	2571.651373
379.534727	2570.975859
379.920402	2571.953842
380.306013	2571.517783
380.691563	2571.916034
381.077049	2570.880077
381.462474	2569.723132
381.847835	2571.943760
382.233134	2575.061714
382.618371	2572.563822
383.003545	2575.890984
383.388657	2572.210941
383.773706	2576.059862
384.158693	2576.548854
384.543618	2576.745459
384.928480	2576.405181
385.313280	2577.489029
385.698017	2577.615058
386.082692	2578.961046
386.467305	2582.399113
386.851856	2583.291397
387.236344	2579.755028
387.620770	2578.499781
388.005133	2577.811663
388.389435	2581.549679
388.773674	2581.189236
389.157851	2589.214753
389.541965	2588.476224
389.926018	2591.364805
390.310008	2594.074426
390.693936	2597.870414
391.077802	2600.814448
391.461606	2603.972731
391.845348	2608.063627
392.229027	2612.530090
392.612645	2615.297683
392.996200	2623.398817
393.379694	2630.355610
393.763125	2638.335756
394.146494	2648.347488
394.529801	2660.292502
394.913047	2670.405057
395.296230	2678.123063
395.679351	2688.243179
396.062410	2705.655325
396.445408	2711.888712
396.828343	2728.897565
397.211217	2744.835172
397.594028	2753.105185
397.976778	2774.388937
398.359466	2789.020886
398.742092	2806.793474
399.124656	2824.515650
399.507158	2850.502798
399.889598	2871.660521
400.271977	2901.294944
400.654294	2917.492171
401.036549	2948.991821
401.418742	2968.922023
401.800874	3005.737569
402.182944	3036.302085
402.564952	3079.509815
402.946898	3105.832199
403.328783	3124.499592
403.710606	3165.166580
404.092367	3212.286245
404.474067	3262.138216
404.855705	3282.234775
405.237282	3297.270017
405.618797	3364.970192
406.000250	3427.989657
406.381642	3490.646158
406.762972	3521.518184
407.144240	3528.595964
407.525447	3587.998400
407.906593	3628.430975
408.287677	3700.481666
408.668700	3746.945981
409.049661	3797.271820
409.430560	3847.892566
409.811399	3871.419631
410.192176	3928.974485
410.572891	3998.272706
410.953545	4103.700877
411.334138	4063.898447
411.714669	4169.394673
412.095139	4141.335611
412.475547	4240.260693
412.855894	4274.943832
413.236180	4376.223133
413.616405	4353.550544
413.996568	4451.316161
414.376670	4484.670955
414.756711	4499.827184
415.136691	4582.610492
415.516609	4671.924615
415.896466	4729.436619
416.276262	4818.259229
416.655997	4936.083597
417.035670	5030.028020
417.415283	5166.469369
417.794834	5237.761367
418.174324	5219.361155
418.553753	5244.178756
418.933121	5398.065018
419.312428	5430.663639
419.691674	5391.335077
420.070859	5604.558241
420.449983	5512.358058
420.829045	5699.460483
421.208047	5652.668493
421.586988	5806.506864
421.965867	5888.556684
422.344686	5969.615918
422.723444	6139.028934
423.102141	5805.975023
423.480777	6167.103119
423.859352	6010.482031
424.237866	6354.258477
424.616319	6360.635536
424.994712	6514.453743
425.373044	6452.205575
425.751314	6743.760708
426.129524	6496.787019
426.507673	6755.294868
426.885762	6796.110570
427.263789	6835.280335
427.641756	6926.658811
428.019662	6990.633573
428.397508	7039.777262
428.775292	7039.908332
429.153016	7186.532812
429.530679	7139.793754
429.908282	7192.675458
430.285824	7136.149000
430.663305	7386.394397
431.040726	7295.676313
431.418086	7294.763864
431.795385	7435.293590
432.172624	7615.860159
432.549802	7494.615368
432.926920	7622.292671
433.303977	7582.996877
433.680974	7632.259032
434.057910	7820.223494
434.434786	7862.281841
434.811601	7824.294226
435.188355	8159.014239
435.565050	8051.594812
435.941683	8067.071154
436.318257	8377.964153
436.694770	8327.045979
437.071222	8537.269656
437.447614	8306.198287
437.823946	8282.474617
438.200218	8433.215199
438.576429	8326.506575
438.952580	8482.303435
439.328670	8494.324066
439.704700	8572.628309
440.080670	8465.886917
440.456580	8719.300680
440.832429	8699.257052
441.208218	8448.719268
441.583947	8564.259993
441.959616	8670.991303
442.335224	8702.140592
442.710773	8791.726937
443.086261	8961.722207
443.461689	8701.757465
443.837057	8849.445628
444.212365	9053.377945
444.587612	9049.660094
444.962800	8942.943909
445.337927	9084.189478
445.712995	8632.965879
446.088002	9270.210575
446.462949	9341.298406
446.837837	9345.207821
447.212664	9398.442406
447.587431	10303.720210
447.962139	11275.092583
448.336786	12020.170081
448.711374	11628.827828
449.085901	10482.106480
449.460369	10468.155087
449.834776	10377.200069
450.209124	11304.389249
450.583412	11073.325442
450.957640	11284.128852
451.331808	10872.531243
451.705917	10395.973326
452.079965	10315.871912
452.453954	10515.773826
452.827883	10464.555703
453.201752	10428.342575
453.575562	10451.647829
453.949311	10808.049844
454.323001	10884.284693
454.696632	10795.383945
455.070202	11387.469985
455.443713	11437.299270
455.817164	11598.565782
456.190556	11908.248903
456.563888	11742.399983
456.937160	11958.801594
457.310373	11463.369597
457.683526	11499.950730
458.056619	11544.464118
458.429653	11628.968980
458.802628	11793.507201
459.175542	11856.370389
459.548398	12398.735529
459.921194	12979.526863
460.293930	13302.674907
460.666607	14125.786945
461.039224	14855.834242
461.411782	15119.083296
461.784280	14728.681219
462.156719	14648.116019
462.529099	14554.905084
462.901419	13975.127022
463.273680	13626.732879
463.645882	13853.191592
464.018024	13811.471003
464.390106	14219.867479
464.762130	15374.984868
465.134094	17040.516564
465.505999	19307.611669
465.877845	21313.272535
466.249631	22223.548644
466.621358	21586.490471
466.993026	20764.890779
467.364634	20072.024512
467.736184	19366.905721
468.107674	18824.734666
468.479105	18662.792639
468.850477	18404.912414
469.221790	17985.571593
469.593043	17351.701950
469.964238	17006.047675
470.335373	17121.389275
470.706449	17983.124113
471.077467	19112.907184
471.448425	21447.452927
471.819324	22933.580040
472.190164	22425.088934
472.560945	20741.688868
472.931667	19342.463686
473.302330	19098.219782
473.672934	18659.130241
474.043479	19090.174101
474.413965	18898.201921
474.784393	18740.570082
475.154761	19367.568632
475.525070	19503.463017
475.895321	19344.712041
476.265513	19859.290340
476.635645	20441.770461
477.005719	20501.661890
477.375734	20873.590659
477.745691	21492.417499
478.115588	22146.902941
478.485427	23404.547318
478.855207	25278.455108
479.224928	26988.210325
479.594591	28167.419389
479.964194	27632.109344
480.333739	28022.324899
480.703226	28312.357603
481.072653	28820.644543
481.442022	29312.535129
481.811333	29627.463572
482.180584	29121.535892
482.549777	28912.943028
482.918912	28720.139058
483.287988	28667.151490
483.657005	28496.019441
484.025964	28141.419638
484.394864	28337.800307
484.763706	28285.654611
485.132489	27793.030537
485.501213	27874.929122
485.869879	28059.561382
486.238487	28022.201391
486.607036	28288.676783
486.975527	28006.195727
487.343959	28340.146964
487.712333	28674.980402
488.080648	28651.231527
488.448905	29063.791996
488.817104	29025.038125
489.185244	29904.530428
489.553326	31059.000029
489.921350	32981.965808
490.289315	35389.388992
490.657222	36052.320887
491.025070	36447.857380
491.392861	36078.464311
491.760593	35284.422087
492.128267	34279.034528
492.495883	33350.002806
492.863440	32511.371576
493.230939	31641.724647
493.598380	31125.649124
493.965763	31003.895177
494.333088	30568.957026
494.700354	30385.408614
495.067563	30351.426196
495.434713	30280.794590
495.801805	30583.994788
496.168839	30439.656471
496.535815	30306.133949
496.902733	30461.267897
497.269593	30288.540323
497.636395	30446.517481
498.003139	30749.939490
498.369825	30525.645953
498.736453	30915.185993
499.103023	30772.627203
499.469535	30883.913195
499.835989	31023.694308
500.202385	30887.041231
500.568723	30974.873254
500.935003	31299.584056
501.301226	31204.071834
501.667390	31900.527403
502.033497	32094.768102
502.399546	31900.804666
502.765537	31512.900481
503.131470	31985.130567
503.497345	32414.059663
503.863163	31411.500192
504.228923	32179.671215
504.594625	32579.805239
504.960269	32082.145052
505.325856	32752.983997
505.691385	32440.402212
506.056856	32769.284568
506.422270	33274.196455
506.787625	32809.228151
507.152924	33284.256078
507.518164	33488.876513
507.883347	33031.185114
508.248472	33222.938003
508.613540	33911.234464
508.978550	34153.043491
509.343503	34006.073691
509.708398	34375.267634
510.073236	34993.393754
510.438016	35082.912044
510.802738	34785.894821
511.167403	35351.870204
511.532010	35602.579388
511.896561	36092.370334
512.261053	36839.076124
512.625488	36627.811449
512.989866	36573.979487
513.354186	36633.044166
513.718449	36582.962823
514.082655	37487.476893
514.446803	37196.015022
514.810894	37819.416710
515.174927	37846.026440
515.538904	37828.241249
515.902822	38496.781428
516.266684	38197.087353
516.630488	38544.339674
516.994235	38565.502438
517.357925	39159.297429
517.721558	39425.205691
518.085133	39805.152415
518.448651	40017.584118
518.812112	39893.266743
519.175516	40043.341893
519.538863	40494.489875
519.902152	40569.512326
520.265385	41107.358071
520.628560	41146.258135
520.991678	41102.037133
521.354739	41329.168840
521.717743	41699.580222
522.080690	41608.050512
522.443580	42293.188690
522.806413	42306.552789
523.169189	42452.602578
523.531908	42670.110722
523.894569	42543.819736
524.257174	42745.707865
524.619722	43088.589506
524.982213	43220.458529
525.344647	43252.389197
525.707025	43397.216506
526.069345	43842.859547
526.431608	43746.129887
526.793815	44145.863140
527.155964	43681.935834
527.518057	43937.237509
527.880093	43811.417871
528.242072	44436.934322
528.603995	44171.741904
528.965860	44101.705153
529.327669	44312.624510
529.689421	44385.640582
530.051117	44311.099561
530.412755	44610.249192
530.774337	44680.056569
531.135862	44616.270850
531.497331	44760.465494
531.858743	44752.878557
532.220098	45161.194375
532.581396	44908.441003
532.942638	44656.305173
533.303824	44916.826963
533.664953	44963.747502
534.026025	44647.589018
534.387040	45212.939298
534.747999	45292.665147
535.108902	45611.417304
535.469748	44933.253563
535.830537	45192.694025
536.191270	45435.128154
536.551947	45174.707188
536.912567	45462.388194
537.273131	45615.162882
537.633638	45225.600156
537.994089	45439.579493
538.354483	45194.261823
538.714821	45825.134501
539.075103	46111.227543
539.435328	45970.130688
539.795497	45720.207925
540.155609	45846.229209
540.515665	46429.997345
540.875665	45747.548623
541.235609	46023.438370
541.595496	46163.191757
541.955328	46715.016622
542.315102	46153.084244
542.674821	46041.082408
543.034483	45933.204237
543.394090	45954.868595
543.753640	45922.668225
544.113134	47007.912702
544.472571	46097.860924
544.831953	47241.875172
545.191278	46498.131060
545.550548	46184.059614
545.909761	46834.197061
546.268918	46970.230077
546.628019	47378.114875
546.987064	46826.113570
547.346053	46111.842564
547.704986	47022.159002
548.063863	46664.978129
548.422684	46867.569499
548.781449	46471.158366
549.140158	47003.852052
549.498811	46778.099101
549.857408	46169.956986
550.215949	47004.729213
550.574434	46834.035744
550.932864	46771.845549
551.291237	47493.670724
551.649555	47261.429808
552.007817	47430.063966
552.366022	47104.586909
552.724173	47161.448604
553.082267	47576.998477
553.440305	47906.896626
553.798288	47166.623348
554.156215	47568.050429
554.514086	47783.617729
554.871902	47398.256806
555.229661	47540.747540
555.587365	47245.910616
555.945014	47391.025270
556.302606	47392.207421
556.660143	47498.691714
557.017625	47720.870487
557.375050	47420.082481
557.732421	47836.600256
558.089735	47889.701250
558.446994	47761.963453
558.804197	48251.792207
559.161345	48113.583933
559.518437	47440.715924
559.875474	47708.295329
560.232455	47941.395762
560.589381	47985.573914
560.946251	47799.167168
561.303065	48470.401844
561.659825	48153.643462
562.016528	47941.947768
562.373177	47535.224956
562.729770	48162.888939
563.086307	47673.042540
563.442789	48230.117766
563.799216	48084.962783
564.155587	47968.159248
564.511904	47959.135583
564.868164	47994.695882
565.224370	48321.357610
565.580520	48050.539263
565.936615	48240.568078
566.292654	47897.283145
566.648638	48251.094007
567.004567	48187.300726
567.360441	48304.285742
567.716260	47999.850462
568.072023	48369.490547
568.427732	48304.764652
568.783385	47848.333542
569.138982	48254.627856
569.494525	48388.752796
569.850013	47968.116398
570.205445	48101.754866
570.560823	47889.121517
570.916145	47756.362731
571.271412	47979.232142
571.626625	47651.058068
571.981782	47720.053820
572.336884	47301.010427
572.691931	47636.902508
573.046923	47296.619582
573.401860	47143.562590
573.756743	47145.616860
574.111570	47308.791448
574.466342	47207.923001
574.821059	47351.157305
575.175722	46852.483846
575.530330	46959.988973
575.884882	46595.624455
576.239380	46506.227153
576.593823	46595.163189
576.948211	46516.974893
577.302544	46069.302788
577.656823	46053.002217
578.011047	46328.455904
578.365216	46141.461864
578.719330	45866.540018
579.073389	45837.661768
579.427394	45892.844759
579.781344	45823.430591
580.135239	45572.489514
580.489080	45636.063505
580.842866	45138.862063
581.196597	45614.837727
581.550273	45606.194669
581.903895	45550.739456
582.257463	45978.609909
582.610975	45409.476243
582.964434	45755.929541
583.317837	45261.883861
583.671186	45217.768724
584.024481	45484.672614
584.377721	45032.463470
584.730906	45240.748824
585.084037	45361.781886
585.437113	45080.402323
585.790135	45201.384974
586.143103	44754.779072
586.496016	44921.651347
586.848874	45024.337130
587.201679	45039.934460
587.554428	44545.170416
587.907124	44811.857537
588.259765	44583.213483
588.612352	44741.117545
588.964884	44187.712279
589.317362	44506.577863
589.669786	44523.405234
590.022155	44369.481163
590.374470	44818.194267
590.726731	44393.509823
591.078937	43725.476280
591.431090	44064.526644
591.783188	43601.380716
592.135232	43383.038261
592.487222	43668.866643
592.839157	43813.330989
593.191038	43454.340341
593.542866	43241.291097
593.894639	42658.332066
594.246358	42962.472440
594.598022	42950.784524
594.949633	42517.996426
595.301190	42491.111952
595.652692	42428.457972
596.004141	42928.497583
596.355535	41825.145282
596.706876	41845.201513
597.058162	41557.351628
597.409395	42064.199318
597.760573	42283.907926
598.111698	41879.604867
598.462768	41794.971456
598.813785	41816.590444
599.164748	41418.412387
599.515657	41698.597197
599.866511	41194.038191
600.217312	41889.498132
600.568060	40820.506335
600.918753	41645.833960
601.269392	41576.427354
601.619978	41283.536316
601.970510	41498.271826
602.320988	41626.475930
602.671412	41890.753379
603.021783	41760.563060
603.372100	41323.500063
603.722363	41440.386777
604.072572	41472.130922
604.422728	41457.289765
604.772830	41247.479463
605.122878	41406.623649
605.472872	41258.693510
605.822813	41511.272961
606.172701	41280.360389
606.522534	41599.099944
606.872314	41810.525936
607.222041	41626.060034
607.571714	41960.180150
607.921333	41461.690693
608.270899	41672.786489
608.620411	42059.901734
608.969870	41789.990796
609.319276	41820.973727
609.668627	41844.901564
610.017926	42229.952457
610.367171	42369.315155
610.716362	42411.635641
611.065500	42309.630414
611.414585	42523.392981
611.763616	42712.544635
612.112594	42593.149947
612.461518	42724.824886
612.810389	43108.063483
613.159207	42919.506685
613.507971	42881.682908
613.856682	43365.207700
614.205340	43204.062176
614.553945	43896.411725
614.902496	43207.696848
615.250994	43635.917661
615.599439	43701.543402
615.947830	43807.480730
616.296169	43798.141992
616.644454	43839.713867
616.992686	43996.203886
617.340864	44448.095437
617.688990	43988.437988
618.037063	44653.114123
618.385082	44496.644269
618.733048	44827.046533
619.080961	44691.094176
619.428821	44714.371704
619.776628	44743.572587
620.124382	44542.100353
620.472083	44663.806410
620.819731	44765.932625
621.167326	44332.690823
621.514868	44311.550744
621.862357	43781.990135
622.209793	43853.945045
622.557176	43440.106643
622.904506	43181.344216
623.251783	42811.799913
623.599007	42501.622758
623.946179	42414.448605
624.293297	42169.183868
624.640363	41617.711884
624.987376	41455.416977
625.334336	41253.919537
625.681243	40848.794770
626.028097	40760.292273
626.374899	40576.960631
626.721647	40547.542978
627.068343	40342.932625
627.414987	40036.165811
627.761577	39787.052152
628.108115	40089.168502
628.454600	39354.732881
628.801032	39576.641953
629.147412	39471.206220
629.493739	39378.454030
629.840014	38938.066392
630.186236	39373.095284
630.532405	38801.244436
630.878521	39051.396572
631.224585	38821.595574
631.570597	38479.122267
631.916556	38662.872324
632.262462	38545.846979
632.608316	38480.062442
632.954117	38332.149947
633.299866	38288.632186
633.645562	38211.381545
633.991206	37668.361055
634.336797	37280.862683
634.682336	37167.320774
635.027823	36935.505835
635.373257	36794.230019
635.718639	36475.251010
636.063968	36370.831070
636.409245	35706.333896
636.754470	35664.552813
637.099642	35430.234941
637.444762	34873.928491
637.789829	35017.644225
638.134845	34640.175228
638.479808	34549.452103
638.824719	34504.457284
639.169577	33986.019981
639.514383	34090.084520
639.859137	33697.872669
640.203839	33869.019842
640.548489	33567.568924
640.893086	33550.043353
641.237632	33280.787764
641.582125	33391.821698
641.926566	33184.506767
642.270955	33215.842579
642.615292	33146.017557
642.959576	33039.026628
643.303809	33027.870555
643.647990	33125.038795
643.992118	33081.921807
644.336195	32918.195212
644.680219	33001.346524
645.024192	33199.098387
645.368112	33721.319075
645.711981	33756.211422
646.055797	34477.008201
646.399562	34279.672234
646.743274	35145.427393
647.086935	35555.512655
647.430544	35494.315568
647.774101	35540.679060
648.117606	35841.620821
648.461059	35983.849415
648.804460	35585.464671
649.147810	35078.468267
649.491108	34725.184205
649.834354	34594.157055
650.177548	33759.808285
650.520690	33263.577265
650.863781	33256.791872
651.206820	33082.998093
651.549807	32666.828158
651.892742	32087.564293
652.235626	31982.201657
652.578458	31864.367206
652.921238	31169.355928
653.263967	31467.761989
653.606644	31171.059838
653.949269	31075.376218
654.291843	30682.393070
654.634365	31054.596582
654.976836	30587.006877
655.319255	30666.609217
655.661622	30535.486285
656.003938	30407.617418
656.346203	30223.975745
656.688416	30464.663114
657.030577	30237.743136
657.372687	30053.342769
657.714746	30222.796115
658.056753	30398.308927
658.398708	29785.690267
658.740612	29852.951863
659.082465	30066.679142
659.424266	29961.293821
659.766016	29970.924945
660.107715	29807.415120
660.449362	29922.139179
660.790958	29902.244265
661.132503	29834.740694
661.473996	29904.162424
661.815438	29986.323149
662.156829	30115.931215
662.498168	29911.976212
662.839456	29883.218950
663.180693	30003.916776
663.521879	30101.768093
663.863013	30063.258719
664.204097	30036.172599
664.545129	30438.817119
664.886110	30377.352850
665.227040	30478.082666
665.567918	30471.541769
665.908746	30556.250798
666.249522	30642.331020
666.590248	30667.468734
666.930922	30770.638468
667.271545	30759.981468
667.612118	30819.726703
667.952639	30616.666506
668.293109	30663.811377
668.633528	30534.523424
668.973896	30491.585397
669.314213	30467.743259
669.654480	30288.094180
669.994695	30263.427815
670.334859	30179.943786
670.674973	30005.925676
671.015035	30204.710975
671.355047	30138.397117
671.695008	30072.088300
672.034918	29978.726131
672.374777	30087.320146
672.714585	29948.020463
673.054342	30080.769167
673.394049	29924.569015
673.733705	30134.800254
674.073310	29869.570026
674.412864	29928.934654
674.752368	29615.286665
675.091820	29856.389930
675.431223	29443.433730
675.770574	29235.496216
676.109875	29095.478168
676.449125	28889.194153
676.788324	28786.866291
677.127473	28298.988463
677.466571	28207.221819
677.805619	27924.549200
678.144616	27858.167286
678.483562	27787.351677
678.822458	27478.878432
679.161303	27427.604856
679.500098	27334.330907
679.838842	27268.110310
680.177535	27356.229680
680.516179	27577.405263
680.854771	27710.453916
681.193314	28471.781573
681.531805	29475.349275
681.870247	30221.424921
682.208638	30946.743616
682.546978	31219.777549
682.885268	31376.930479
683.223508	30935.574939
683.561697	30671.620124
683.899836	30513.998367
684.237925	30088.068758
684.575963	29938.633834
684.913951	29564.239941
685.251889	29736.271836
685.589776	29758.936864
685.927614	29765.868451
686.265401	29961.253491
686.603137	30049.196420
686.940824	30551.870035
687.278460	30872.290814
687.616046	31054.069781
687.953582	31716.797510
688.291068	31624.380557
688.628504	31968.230099
688.965889	31969.384523
689.303224	31714.304659
689.640510	31418.635945
689.977745	30804.008386
690.314930	30069.451776
690.652065	29632.751742
690.989150	28970.273551
691.326185	28144.114135
691.663170	27494.097676
692.000105	26751.364315
692.336990	26151.182182
692.673825	25721.620422
693.010610	25226.750513
693.347345	24728.737445
693.684030	24085.024949
694.020665	23898.073758
694.357251	23212.507082
694.693786	23228.366552
695.030272	22982.408656
695.366707	22486.326350
695.703093	22207.502652
696.039429	22278.318260
696.375716	22030.215353
696.711952	22032.095703
697.048139	21877.818752
697.384276	21725.696893
697.720363	21840.531857
698.056400	21728.149415
698.392388	21581.330850
698.728326	21574.540416
699.064214	21411.363307
699.400053	21419.000655
699.735842	21041.531658
700.071581	20827.171714
700.407270	20587.812688
700.742910	20397.625077
701.078501	20160.496762
701.414042	19955.125195
701.749533	19646.104985
702.084974	19335.350618
702.420366	19561.537109
702.755709	19146.597215
703.091002	18852.624849
703.426246	18910.288088
703.761440	18846.945989
704.096584	18603.974977
704.431679	18536.710861
704.766725	18474.707189
705.101721	18408.801665
705.436668	18531.042084
705.771565	18246.484072
706.106413	18567.517352
706.441212	18640.689700
706.775961	18737.656295
707.110661	18816.719231
707.445311	19181.623152
707.779913	19044.982677
708.114465	19347.167083
708.448967	19660.114352
708.783421	20275.402302
709.117825	20638.246912
709.452180	20860.526508
709.786485	21313.459058
710.120742	22075.600861
710.454949	22181.485257
710.789107	22683.737935
711.123216	23399.599425
711.457275	23623.214927
711.791286	24181.318549
712.125247	24338.620193
712.459159	24067.900149
712.793023	24826.762682
713.126837	23827.023736
713.460602	24077.180913
713.794318	23742.849070
714.127985	23486.375327
714.461602	22586.902411
714.795171	22578.508889
715.128691	21584.731108
715.462162	21070.659445
715.795584	20647.013478
716.128957	20377.684793
716.462281	19995.681278
716.795556	19709.910869
717.128782	19224.251149
717.461960	18626.922309
717.795088	18585.932687
718.128167	18240.006190
718.461198	17787.131613
718.794180	17660.654105
719.127113	17316.464285
719.459997	17129.518135
719.792833	16751.542502
720.125619	16793.182433
720.458357	16462.528111
720.791046	16324.198850
721.123686	16174.456416
721.456278	15951.523990
721.788821	15935.578820
722.121315	15672.705332
722.453761	15783.948474
722.786158	15654.526932
723.118506	15734.386370
723.450805	15622.261026
723.783056	15798.318283
724.115259	15684.514235
724.447412	15672.163408
724.779518	15898.806123
725.111574	15938.704336
725.443582	16201.577823
725.775542	16157.024106
726.107453	16677.770257
726.439315	16585.348263
726.771129	17000.903177
727.102895	17424.481088
727.434612	17704.839818
727.766281	17861.382768
728.097901	18188.689764
728.429473	18280.070760
728.760996	18287.700546
729.092471	18414.253673
729.423897	18309.213670
729.755276	18179.572837
730.086606	18307.577816
730.417887	18875.418426
730.749120	19428.584238
731.080305	19649.966509
731.411442	20041.354132
731.742530	20153.842439
732.073570	20329.640076
732.404562	20655.608646
732.735506	20490.110086
733.066401	20295.685385
733.397249	19808.112546
733.728048	19190.505665
734.058798	18326.620775
734.389501	17566.233293
734.720156	17048.499231
735.050762	16473.568238
735.381320	16081.184987
735.711831	15806.421938
736.042293	15428.221974
736.372707	15467.210258
736.703073	15249.505508
737.033391	15448.681497
737.363661	15436.527275
737.693883	15559.302056
738.024056	15750.177785
738.354182	15974.751106
738.684260	16328.007441
739.014290	16606.238804
739.344272	16822.622772
739.674207	17176.778953
740.004093	17350.217330
740.333931	17410.932987
740.663722	17497.172006
740.993464	17528.676697
741.323159	17396.724495
741.652806	17086.938029
741.982405	16924.564985
742.311956	16575.666727
742.641460	16481.407232
742.970915	16144.333001
743.300323	15797.330217
743.629683	15583.933134
743.958996	15272.508293
744.288260	14951.822853
744.617477	14638.111849
744.946647	14606.206386
745.275768	14289.800886
745.604842	14097.354838
745.933869	13910.025561
746.262847	13882.785686
746.591778	13804.680569
746.920662	13674.671732
747.249498	13678.319007
747.578286	13839.482174
747.907027	14013.401982
748.235720	14277.533238
748.564365	14351.401265
748.892963	14268.345735
749.221514	14374.628382
749.550017	14234.998502
749.878473	14207.738463
750.206881	13981.506602
750.535242	13909.236620
750.863555	13839.351104
751.191821	13732.438314
751.520039	13745.265530
751.848210	13668.221575
752.176334	13716.800654
752.504411	13640.648984
752.832440	13459.353969
753.160421	13582.695880
753.488356	13472.350063
753.816243	13376.116957
754.144082	13219.057288
754.471875	13168.635668
754.799620	13129.455820
755.127318	13110.755660
755.454969	13096.088423
755.782572	13060.812948
756.110129	13075.273498
756.437638	12986.841578
756.765100	12987.396104
757.092515	13016.418027
757.419882	13047.789128
757.747203	13061.874111
758.074477	13151.589006
758.401703	13127.840130
758.728882	13323.615860
759.056014	13373.321637
759.383099	13535.477912
759.710138	13663.419876
760.037129	13780.233493
760.364073	13839.782123
760.690970	13870.119787
761.017820	13886.929514
761.344623	14116.546510
761.671379	14499.583462
761.998088	15174.611606
762.324751	16932.053619
762.651366	20311.272632
762.977935	24768.920483
763.304456	27750.974711
763.630931	28860.807415
763.957359	27687.975411
764.283740	25459.359434
764.610074	23209.729407
764.936362	20574.118394
765.262602	18699.693886
765.588796	16765.080521
765.914943	15472.778212
766.241044	14360.465260
766.567097	13560.890369
766.893104	12839.607118
767.219064	12366.711599
767.544978	11890.010009
767.870845	11503.708910
768.196665	11274.222984
768.522438	11040.464680
768.848165	10835.773670
769.173846	10629.731630
769.499479	10504.471559
769.825066	10332.787503
770.150607	10100.763357
770.476101	10012.160037
770.801548	9893.254341
771.126949	9735.793900
771.452303	9622.834246
771.777611	9429.392570
772.102872	9416.398996
772.428087	9279.682903
772.753256	9115.905897
773.078378	9029.835757
773.403453	8845.727777
773.728482	8734.507321
774.053465	8654.431112
774.378401	8553.146770
774.703291	8429.273017
775.028135	8312.174575
775.352932	8279.505377
775.677683	8167.571597
776.002388	8061.165442
776.327046	8075.046260
776.651658	7979.644944
776.976224	7873.697534
777.300743	7873.349694
777.625216	7781.986343
777.949643	7740.611072
778.274024	7755.144719
778.598359	7667.426121
778.922647	7683.000766
779.246889	7632.642160
779.571086	7641.738922
779.895236	7650.734861
780.219339	7655.166035
780.543397	7657.963876
780.867409	7737.646874
781.191374	7743.686176
781.515294	7711.248872
781.839167	7809.697565
782.162995	7781.315869
782.486776	7723.246818
782.810511	7682.915067
783.134201	7590.646828
783.457844	7584.768842
783.781441	7527.902106
784.104993	7472.933365
784.428498	7446.762215
784.751958	7436.034639
785.075372	7405.409630
785.398739	7342.390165
785.722061	7388.365488
786.045337	7395.796149
786.368568	7546.871968
786.691752	7573.937923
787.014891	7910.505519
787.337983	8264.462574
787.661030	8850.050567
787.984031	9477.608686
788.306987	9887.555316
788.629897	10099.059447
788.952760	10048.721005
789.275579	9834.673613
789.598351	9438.053272
789.921078	9083.113191
790.243759	8674.764606
790.566395	8382.271819
790.888984	8133.682441
791.211529	7925.034124
791.534027	7696.964762
791.856480	7492.795511
792.178888	7426.010305
792.501249	7329.252918
792.823566	7163.948443
793.145836	7173.808940
793.468062	7136.804350
793.790241	7083.423572
794.112375	7157.009294
794.434464	7306.177037
794.756507	7344.668767
795.078505	7499.744742
795.400457	7809.753018
795.722364	8158.691605
796.044226	8447.169113
796.366042	8722.955517
796.687812	8678.290893
797.009538	8755.481041
797.331218	8655.247779
797.652852	8578.987724
797.974442	8421.323117
798.295986	8337.796239
798.617484	8143.820201
798.938938	8000.976586
799.260346	7900.985300
799.581709	7698.482150
799.903026	7617.034748
800.224299	7518.480190
800.545526	7341.923859
800.866708	7246.963644
801.187845	7177.521749
801.508936	7075.990390
801.829983	7030.118411
802.150984	6883.199023
802.471940	6839.741757
802.792851	6821.631411
803.113717	6788.180835
803.434538	6749.432006
803.755314	6696.051228
804.076045	6698.589449
804.396731	6644.185317
804.717372	6678.840729
805.037967	6678.450039
805.358518	6714.050668
805.679024	6794.426825
805.999485	6809.146994
806.319901	6847.348858
806.640272	6873.504884
806.960598	6953.608819
807.280879	6948.103879
807.601115	7029.498349
807.921306	6975.873075
808.241453	6989.030487
808.561554	7013.921184
808.881611	6979.321224
809.201623	6992.045097
809.521590	6936.778927
809.841513	6917.405773
810.161390	6961.266332
810.481223	6826.375137
810.801011	6813.189999
811.120755	6789.113448
811.440453	6706.481375
811.760107	6678.434916
812.079716	6650.355689
812.399281	6585.511327
812.718801	6573.324338
813.038276	6528.279107
813.357707	6466.439273
813.677093	6510.224215
813.996434	6410.847949
814.315731	6456.959383
814.634983	6454.451409
814.954191	6462.837369
815.273354	6569.235962
815.592473	6637.692310
815.911547	6756.839982
816.230577	6839.464493
816.549562	6986.159549
816.868502	7085.044303
817.187399	7193.149326
817.506250	7341.107192
817.825058	7378.358798
818.143821	7642.311093
818.462539	7914.435098
818.781213	8281.854555
819.099843	8829.001229
819.418429	9825.150873
819.736970	10796.571137
820.055466	11971.243162
820.373919	13511.971012
820.692327	15861.899836
821.010691	20002.736373
821.329011	28979.392998
821.647286	42009.616225
821.965517	55519.260744
822.283704	60946.325000
822.601847	62972.435307
822.919945	60350.362313
823.237999	56250.522959
823.556010	50158.691829
823.873976	43424.141309
824.191897	36859.603703
824.509775	31978.216625
824.827609	27397.461277
825.145398	24756.541929
825.463144	23352.855326
825.780845	23629.743222
826.098502	25372.477668
826.416116	29130.335226
826.733685	32766.484207
827.051210	33921.621762
827.368692	32183.399148
827.686129	28225.891733
828.003522	24124.545074
828.320872	20401.360572
828.638177	17541.831588
828.955439	15372.567635
829.272656	13550.165314
829.589830	12063.680279
829.906960	10778.115472
830.224046	9834.708901
830.541088	9067.843536
830.858086	8605.176519
831.175041	8223.966985
831.491952	8098.888397
831.808819	8143.384141
832.125642	8536.838637
832.442421	9416.555271
832.759157	11201.559793
833.075849	14110.383700
833.392497	17338.423551
833.709101	19538.804026
834.025662	19398.397809
834.342179	17741.025220
834.658653	15547.956939
834.975083	13615.165952
835.291469	11992.274856
835.607811	10658.501495
835.924110	9744.091640
836.240366	8869.184266
836.556578	8063.834733
836.872746	7410.304590
837.188871	6905.095275
837.504952	6486.256049
837.820990	6171.098234
838.136984	5949.002639
838.452935	5851.347928
838.768842	5880.442947
839.084706	6292.103570
839.400526	7500.087540
839.716303	9080.055732
840.032037	10192.164517
840.347727	10135.948090
840.663373	9163.781735
840.978977	8118.571582
841.294537	7300.115049
841.610054	6698.586928
841.925527	6262.393530
842.240957	5900.121091
842.556344	5563.931582
842.871687	5277.379795
843.186987	4993.081403
843.502244	4770.857259
843.817458	4601.166980
844.132629	4463.624138
844.447756	4370.498903
844.762840	4289.492602
845.077881	4213.101477
845.392879	4147.241323
845.707833	4101.707101
846.022745	4053.193557
846.337613	4028.794372
846.652438	3980.573215
846.967221	3966.084939
847.281960	3931.336265
847.596656	3917.069800
847.911309	3891.932086
848.225919	3872.969786
848.540485	3852.253164
848.855009	3837.164991
849.169490	3818.018688
849.483928	3808.286741
849.798323	3800.357006
850.112675	3777.407153
850.426984	3785.578863
850.741251	3772.469343
851.055474	3767.113117
851.369654	3768.953138
851.683792	3767.269393
851.997887	3772.620578
852.311938	3774.826082
852.625947	3777.228192
852.939914	3768.340638
853.253837	3777.926392
853.567718	3777.018984
853.881555	3764.282509
854.195350	3781.019140
854.509103	3775.622585
854.822812	3773.084364
855.136479	3766.311573
855.450103	3774.415228
855.763685	3759.798403
856.077224	3767.594547
856.390720	3783.519552
856.704173	3804.641987
857.017584	3815.311589
857.330953	3822.623783
857.644278	3844.630940
857.957561	3857.495964
858.270802	3857.495964
858.584000	3857.392621
858.897155	3848.041280
859.210268	3830.515709
859.523339	3807.797749
859.836367	3808.984941
860.149352	3800.994712
860.462295	3793.823671
860.775195	3783.385962
861.088054	3779.658028
861.400869	3773.757358
861.713642	3780.633492
862.026373	3789.669760
862.339062	3792.568423
862.651708	3810.751865
862.964312	3848.353832
863.276873	3856.442363
863.589392	3915.305396
863.901869	3960.902632
864.214303	4007.429962
864.526696	4039.771484
864.839045	4086.601283
865.151353	4113.508442
865.463619	4125.541676
865.775842	4129.670381
866.088023	4151.264163
866.400162	4140.375271
866.712258	4146.245695
867.024313	4150.407167
867.336325	4147.206035
867.648296	4153.421777
867.960224	4153.439421
868.272110	4166.490969
868.583954	4169.886186
868.895755	4179.116538
869.207515	4179.577804
869.519233	4217.603228
869.830909	4233.510588
870.142542	4259.016306
870.454134	4272.791259
870.765684	4301.838388
871.077191	4336.440868
871.388657	4362.917008
871.700081	4399.331782
872.011463	4446.088484
872.322803	4477.038648
872.634101	4511.673896
872.945357	4550.470616
873.256571	4603.962299
873.567744	4635.451867
873.878874	4653.685720
874.189963	4693.621741
874.501010	4702.456363
874.812015	4699.547617
875.122979	4747.252056
875.433900	4744.890276
875.744780	4753.815639
876.055618	4784.554074
876.366415	4784.380154
876.677169	4807.435872
876.987882	4851.293910
877.298554	4903.028751
877.609183	4986.467409
877.919771	5095.706693
878.230317	5243.258745
878.540822	5457.152382
878.851285	5780.325632
879.161707	6245.994657
879.472087	7008.423805
879.782425	8244.817198
880.092722	10434.490262
880.402977	13761.898817
880.713191	17554.731901
881.023363	21326.003969
881.333494	23577.100973
881.643583	24829.338711
881.953631	24833.679145
882.263637	23997.220652
882.573602	22521.838758
882.883526	20959.018052
883.193408	19270.009702
883.503248	17563.740442
883.813048	15991.528066
884.122806	14552.480289
884.432522	13068.772930
884.742197	11771.928542
885.051831	10665.087762
885.361424	9655.495881
885.670975	8816.468920
885.980485	8115.577137
886.289954	7532.741614
886.599382	7053.771505
886.908768	6668.859244
887.218113	6299.660260
887.527417	6012.692577
887.836680	5737.034723
888.145901	5512.567266
888.455082	5350.000137
888.764221	5193.573133
889.073319	5063.929779
889.382376	4985.572604
889.691392	4927.490950
890.000366	4896.659253
890.309300	4878.543867
890.618193	4882.309609
890.927044	4866.969378
891.235855	4890.803953
891.544625	4922.795116
891.853353	4985.310464
892.162041	5099.658957
892.470687	5288.021671
892.779293	5540.240680
893.087858	5916.177166
893.396381	6497.510425
893.704864	7302.718805
894.013306	8456.520453
894.321707	9640.208582
894.630068	10454.624630
894.938387	10669.307208
895.246665	10440.821951
895.554903	9838.013377
895.863100	9141.215010
896.171256	8575.771468
896.479371	8073.392761
896.787446	7568.501039
897.095480	7133.444421
897.403473	6811.246634
897.711425	6494.984807
898.019336	6222.649073
898.327207	5949.433658
898.635038	5717.152412
898.942827	5469.006655
899.250576	5273.878713
899.558284	5081.387295
899.865952	4955.013130
900.173579	4804.275068
900.481165	4696.958985
900.788711	4603.415334
901.096216	4530.885733
901.403681	4464.067760
901.711105	4437.528605
902.018489	4423.962860
902.325832	4493.102285
902.633135	4616.822283
902.940397	4961.624603
903.247619	5753.262197
903.554800	7197.532610
903.861941	9129.597671
904.169041	10672.135295
904.476101	11328.750625
904.783121	10982.688016
905.090100	10237.219829
905.397039	9399.082632
905.703938	8635.224316
906.010796	7935.250022
906.317614	7372.868982
906.624391	6837.465676
906.931129	6398.383696
907.237826	5999.648592
907.544483	5617.445951
907.851099	5242.293364
908.157675	4883.199373
908.464211	4554.831214
908.770707	4308.497752
909.077163	4111.179429
909.383578	3964.847335
909.689954	3842.359900
909.996289	3774.168212
910.302584	3705.613561
910.608839	3672.835978
910.915054	3641.585866
911.221229	3628.166314
911.527363	3639.130824
911.833458	3654.655057
912.139513	3680.521217
912.445527	3707.370403
912.751502	3790.930048
913.057436	3896.078435
913.363331	4033.853170
913.669186	4238.874376
913.975000	4497.596474
914.280775	4922.424591
914.586510	5507.826061
914.892205	6314.186345
915.197859	7360.588731
915.503475	8582.889578
915.809050	9649.814501
916.114585	10300.748450
916.420081	10569.673843
916.725536	10531.736640
917.030952	10097.232028
917.336328	9687.408906
917.641665	9277.058983
917.946961	8798.431672
918.252218	8363.052420
918.557435	7854.342024
918.862612	7419.199706
919.167750	7042.605349
919.472848	6615.710359
919.777906	6239.826805
920.082925	5876.359613
920.387904	5501.973281
920.692843	5233.531839
920.997743	4984.135876
921.302603	4746.052262
921.607423	4584.798353
921.912204	4418.238630
922.216946	4295.360505
922.521647	4171.809386
922.826310	4072.498655
923.130932	3969.510403
923.435516	3874.038511
923.740059	3802.547387
924.044564	3721.941858
924.349028	3666.214423
924.653454	3597.173300
924.957840	3528.464894
925.262186	3480.465547
925.566493	3419.124788
925.870761	3359.689584
926.174989	3321.470076
926.479178	3290.754325
926.783328	3245.520052
927.087438	3218.801937
927.391509	3181.134435
927.695541	3149.833911
927.999533	3123.549335
928.303486	3101.274996
928.607400	3087.265630
928.911275	3075.091243
929.215110	3055.385373
929.518906	3047.974877
929.822663	3046.928837
930.126381	3042.326264
930.430060	3051.544014
930.733699	3050.712223
931.037299	3060.431568
931.340861	3060.673543
931.644383	3068.043710
931.947866	3068.694019
932.251309	3060.076167
932.554714	3059.781259
932.858080	3051.165927
933.161407	3045.822304
933.464694	3037.922816
933.767943	3031.981816
934.071153	3029.214223
934.374323	3018.153931
934.677455	3015.189733
934.980548	3005.573732
935.283602	2999.741117
935.586617	2997.129799
935.889593	3006.034997
936.192530	3010.788805
936.495428	3023.328676
936.798287	3044.899773
937.101108	3078.577201
937.403890	3128.784573
937.706632	3190.745395
938.009336	3265.362033
938.312002	3341.856502
938.614628	3408.520720
938.917216	3457.840849
939.219765	3489.970643
939.522275	3522.329810
939.824747	3528.447250
940.127179	3525.384749
940.429573	3520.315869
940.731929	3522.261754
941.034246	3507.123169
941.336524	3493.247393
941.638763	3479.290959
941.940964	3466.415852
942.243126	3420.581681
942.545250	3401.480749
942.847335	3362.542877
943.149381	3327.766477
943.451389	3296.458391
943.753359	3259.121085
944.055290	3234.242991
944.357182	3209.279197
944.659036	3196.983823
944.960851	3185.749611
945.262628	3169.033145
945.564367	3171.493228
945.866067	3168.934843
946.167729	3162.749347
946.469352	3158.444202
946.770937	3157.314983
947.072484	3144.144969
947.373992	3145.236378
947.675462	3138.912251
947.976893	3119.342492
948.278286	3109.897890
948.579641	3104.942436
948.880958	3094.913060
949.182236	3101.196858
949.483476	3092.531115
949.784678	3095.472628
950.085841	3093.861980
950.386967	3107.500821
950.688054	3121.931124
950.989103	3140.152375
951.290114	3163.192968
951.591087	3189.827905
951.892021	3221.269581
952.192917	3248.280084
952.493776	3272.850667
952.794596	3279.772172
953.095378	3284.404992
953.396122	3277.959877
953.696828	3276.278652
953.997496	3263.416148
954.298126	3241.393867
954.598718	3217.264385
954.899272	3197.397197
955.199788	3163.593740
955.500266	3135.905203
955.800706	3098.978751
956.101108	3060.449212
956.401472	3030.040972
956.701798	2993.447236
957.002087	2955.424333
957.302337	2928.005498
957.602550	2898.151784
957.902724	2869.739841
958.202861	2843.238496
958.502960	2821.745536
958.803022	2801.170067
959.103045	2778.457148
959.403031	2764.745210
959.702979	2749.127715
960.002889	2737.233112
960.302762	2723.811040
960.602596	2714.421891
960.902393	2704.566436
961.202153	2695.411700
961.501875	2687.373580
961.801559	2680.920903
962.101205	2673.404543
962.400814	2668.917916
962.700385	2659.054899
962.999918	2654.263282
963.299414	2647.447642
963.598873	2646.391520
963.898293	2638.592855
964.197677	2641.521766
964.497022	2640.626961
964.796331	2637.808956
965.095601	2634.222175
965.394835	2627.827471
965.694030	2629.932153
965.993189	2626.768829
966.292309	2628.036679
966.591393	2625.707666
966.890439	2625.543828
967.189447	2622.516616
967.488419	2623.371091
967.787353	2628.576082
968.086249	2629.639766
968.385108	2629.609519
968.683930	2632.735034
968.982714	2637.471198
969.281462	2639.933802
969.580172	2644.659884
969.878844	2648.889412
970.177480	2659.334683
970.476078	2665.391629
970.774639	2674.652229
971.073162	2682.753363
971.371649	2690.486493
971.670098	2693.801052
971.968510	2696.125023
972.266885	2700.846064
972.565223	2704.299254
972.863524	2709.748742
973.161788	2710.129349
973.460014	2715.669577
973.758204	2719.576471
974.056356	2718.167469
974.354471	2722.215515
974.652550	2720.554455
974.950591	2720.415823
975.248595	2719.258878
975.546563	2716.932386
975.844493	2713.849720
976.142386	2710.756972
976.440243	2704.493339
976.738062	2698.920343
977.035845	2691.469518
977.333590	2684.815195
977.631299	2681.145235
977.928971	2676.020902
978.226606	2668.784326
978.524204	2666.924140
978.821765	2659.758140
979.119290	2663.304591
979.416777	2663.849036
979.714228	2663.617143
980.011642	2670.740293
980.309020	2677.843279
980.606360	2692.558407
980.903664	2715.213352
981.200931	2753.211050
981.498162	2800.718883
981.795356	2875.108670
982.092513	2965.315077
982.389633	3073.019329
982.686717	3168.322342
982.983764	3246.944178
983.280775	3299.841005
983.577749	3305.782005
983.874686	3292.425468
984.171587	3258.541352
984.468451	3218.749004
984.765279	3172.882066
985.062070	3124.391207
985.358824	3082.710947
985.655543	3025.377905
985.952224	2971.704740
986.248869	2907.291396
986.545478	2843.235975
986.842050	2789.512398
987.138586	2745.699730
987.435086	2705.970397
987.731549	2673.437311
988.027975	2650.177427
988.324366	2631.951135
988.620719	2617.530914
988.917037	2604.560026
989.213318	2596.975610
989.509563	2589.060998
989.805772	2585.154104
990.101944	2580.654874
990.398080	2578.787127
990.694180	2573.652711
990.990244	2574.877712
991.286271	2574.771847
991.582262	2576.851323
991.878217	2578.824935
992.174136	2585.249886
992.470019	2584.317272
992.765865	2588.876996
993.061676	2593.834971
993.357450	2601.275714
993.653188	2609.213011
993.948890	2627.812348
994.244556	2644.435552
994.540186	2670.291631
994.835780	2700.450333
995.131337	2740.945922
995.426859	2780.609721
995.722345	2828.949345
996.017795	2881.364742
996.313208	2919.425454
996.608586	2946.667849
996.903928	2958.945579
997.199234	2958.978347
997.494504	2955.028603
997.789738	2941.747683
998.084936	2918.628951
998.380099	2885.344733
998.675225	2855.488499
998.970316	2825.491113
999.265371	2788.927625
999.560390	2752.918663
999.855373	2721.527398
1000.150320	2691.376257
1000.445232	2666.906496
1000.740108	2644.899339
1001.034948	2626.431072
1001.329752	2612.149483
1001.624521	2600.244798
1001.919254	2588.745926
1002.213951	2577.612538
1002.508613	2573.083061
1002.803239	2564.351782
1003.097829	2559.320711
1003.392384	2553.205791
1003.686903	2548.222611
1003.981386	2543.793957
1004.275834	2540.829759
1004.570246	2538.780530
1004.864623	2537.852957
1005.158964	2533.935981
1005.453270	2531.811134
1005.747540	2529.207378
1006.041775	2529.431710
1006.335974	2524.246883
1006.630138	2526.505320
1006.924266	2526.026410
1007.218359	2521.471728
1007.512416	2523.888961
1007.806438	2521.045750
1008.100425	2518.469721
1008.394376	2518.487365
1008.688292	2523.541122
1008.982172	2519.120030
1009.276017	2518.298322
1009.569827	2519.994670
1009.863602	2515.651716
1010.157341	2519.576254
1010.451045	2515.722292
1010.744714	2515.661798
1011.038347	2515.198012
1011.331945	2512.992507
1011.625508	2513.718433
1011.919036	2511.540655
1012.212528	2511.865809
1012.505986	2509.942609
1012.799408	2511.565861
1013.092795	2507.162413
1013.386147	2506.807011
1013.679464	2507.855571
1013.972745	2509.662825
1014.265992	2507.787516
1014.559204	2508.601662
1014.852380	2506.837258
1015.145521	2508.407578
1015.438628	2508.543689
1015.731699	2511.429749
1016.024736	2511.707013
1016.317737	2510.484533
1016.610703	2511.999400
1016.903635	2513.224400
1017.196531	2516.080214
1017.489393	2513.698269
1017.782219	2517.181706
1018.075011	2518.275636
1018.367768	2518.593229
1018.660490	2518.915863
1018.953177	2518.915863
1019.245829	2518.915863
