Dividing Wavelength (nm)	Counts (n)	Blue Motor Position (mm): 11.400000	Red Motor Position (mm): 0.000000	
326.493990	2161.709784
326.888308	2161.709784
327.282561	2161.709784
327.676750	2121.153701
328.070874	2118.086159
328.464933	2119.104472
328.858929	2122.882817
329.252859	2128.034876
329.646726	2135.531072
330.040528	2149.031282
330.434265	2160.983858
330.827938	2179.016065
331.221547	2197.842254
331.615091	2213.318596
332.008571	2232.071688
332.401986	2252.460635
332.795338	2268.693151
333.188625	2288.025976
333.581847	2307.913328
333.975006	2322.595688
334.368100	2342.866168
334.761129	2360.676564
335.154095	2378.673483
335.546996	2397.431617
335.939833	2423.552356
336.332606	2436.530806
336.725315	2452.662498
337.117960	2463.856381
337.510540	2475.745942
337.903056	2486.002169
338.295508	2495.555156
338.687896	2503.563029
339.080220	2511.149965
339.472480	2515.319000
339.864676	2520.771007
340.256807	2527.319466
340.648875	2532.874818
341.040879	2534.745086
341.432818	2535.133255
341.824694	2541.041487
342.216506	2538.639377
342.608253	2542.347146
342.999937	2540.950746
343.391557	2541.228010
343.783113	2541.255736
344.174605	2541.820345
344.566033	2541.651467
344.957397	2536.854809
345.348697	2537.182484
345.739934	2536.406146
346.131106	2532.262318
346.522215	2529.618232
346.913260	2530.785260
347.304241	2526.243180
347.695159	2525.423992
348.086012	2524.511544
348.476802	2524.067922
348.867528	2518.154649
349.258191	2516.158352
349.648789	2514.552744
350.039324	2512.495953
350.429796	2515.434946
350.820203	2515.402179
351.210548	2514.129287
351.600828	2511.296159
351.991045	2510.013185
352.381198	2507.895901
352.771288	2506.534789
353.161314	2510.887825
353.551276	2506.179388
353.941175	2506.421363
354.331010	2503.459685
354.720782	2507.011178
355.110490	2505.934892
355.500135	2503.678975
355.889717	2506.018071
356.279235	2506.633092
356.668689	2506.993534
357.058080	2509.962774
357.447408	2505.347597
357.836672	2507.580828
358.225873	2508.183246
358.615010	2507.694254
359.004084	2510.839934
359.393095	2507.759789
359.782043	2510.872702
360.170927	2510.519821
360.559748	2509.607372
360.948505	2510.164420
361.337199	2513.168948
361.725830	2512.009482
362.114398	2512.432939
362.502903	2509.267094
362.891344	2515.669360
363.279722	2511.805315
363.668037	2515.220697
364.056289	2515.860924
364.444478	2517.063239
364.832603	2517.257323
365.220665	2517.393434
365.608665	2514.792199
365.996601	2516.130625
366.384474	2517.937879
366.772284	2517.889988
367.160031	2516.612056
367.547715	2521.426357
367.935336	2519.382170
368.322893	2517.766480
368.710388	2516.702796
369.097820	2518.452077
369.485189	2513.889833
369.872495	2521.335617
370.259738	2520.806296
370.646918	2521.207067
371.034035	2520.087931
371.421090	2519.896367
371.808081	2521.285205
372.195010	2520.864269
372.581875	2522.689167
372.968678	2523.344517
373.355418	2521.660771
373.742096	2521.716224
374.128710	2523.326873
374.515262	2523.190761
374.901751	2523.324352
375.288177	2525.741585
375.674540	2523.876358
376.060841	2525.255114
376.447079	2522.784948
376.833254	2523.057171
377.219367	2525.461801
377.605417	2524.556914
377.991404	2527.110258
378.377329	2526.051616
378.763191	2525.335772
379.148991	2526.608664
379.534727	2525.736544
379.920402	2526.356606
380.306013	2526.134795
380.691563	2528.103366
381.077049	2526.414579
381.462474	2525.403828
381.847835	2526.727131
382.233134	2527.614374
382.618371	2530.707122
383.003545	2527.818541
383.388657	2529.857687
383.773706	2529.797193
384.158693	2528.778880
384.543618	2527.281658
384.928480	2531.145702
385.313280	2528.141174
385.698017	2530.739889
386.082692	2530.576052
386.467305	2530.220650
386.851856	2531.823737
387.236344	2529.164529
387.620770	2527.354754
388.005133	2526.880886
388.389435	2529.804755
388.773674	2526.777542
389.157851	2530.949097
389.541965	2530.505476
389.926018	2530.200486
390.310008	2532.363141
390.693936	2530.876000
391.077802	2531.924560
391.461606	2531.821217
391.845348	2530.931453
392.229027	2535.269366
392.612645	2531.312060
392.996200	2532.716022
393.379694	2530.490352
393.763125	2532.668131
394.146494	2532.615198
394.529801	2533.915816
394.913047	2535.521424
395.296230	2532.665610
395.679351	2533.280631
396.062410	2532.607637
396.445408	2533.086546
396.828343	2536.073430
397.211217	2536.469161
397.594028	2534.903882
397.976778	2534.954294
398.359466	2535.463450
398.742092	2533.353727
399.124656	2536.685930
399.507158	2534.314067
399.889598	2537.220292
400.271977	2537.091743
400.654294	2537.023688
401.036549	2537.918492
401.418742	2537.444624
401.800874	2536.063348
402.182944	2539.748431
402.564952	2536.244829
402.946898	2536.917823
403.328783	2537.953780
403.710606	2536.834644
404.092367	2536.673327
404.474067	2536.965714
404.855705	2537.265663
405.237282	2539.662732
405.618797	2538.084850
406.000250	2541.711961
406.381642	2539.516538
406.762972	2535.823893
407.144240	2534.145189
407.525447	2537.532844
407.906593	2537.767258
408.287677	2538.321785
408.668700	2539.670293
409.049661	2541.096940
409.430560	2541.036446
409.811399	2541.880839
410.192176	2542.634492
410.572891	2541.255736
410.953545	2540.711292
411.334138	2541.359080
411.714669	2543.388144
412.095139	2538.049562
412.475547	2540.300437
412.855894	2540.242464
413.236180	2540.154244
413.616405	2541.376724
413.996568	2540.151723
414.376670	2541.906045
414.756711	2543.635161
415.136691	2540.804553
415.516609	2541.931251
415.896466	2542.700027
416.276262	2543.678011
416.655997	2544.272867
417.035670	2542.566436
417.415283	2543.662887
417.794834	2541.863195
418.174324	2544.993752
418.553753	2542.803370
418.933121	2544.872764
419.312428	2542.783206
419.691674	2544.315717
420.070859	2542.773123
420.449983	2545.954092
420.829045	2544.139276
421.208047	2546.261602
421.586988	2543.062990
421.965867	2547.121119
422.344686	2545.959133
422.723444	2548.169679
423.102141	2542.430325
423.480777	2547.600028
423.859352	2545.298742
424.237866	2542.815973
424.616319	2545.823022
424.994712	2546.163299
425.373044	2548.124308
425.751314	2545.046684
426.129524	2542.455531
426.507673	2545.901159
426.885762	2541.359080
427.263789	2547.410985
427.641756	2545.754966
428.019662	2545.888557
428.397508	2547.423588
428.775292	2547.083310
429.153016	2549.094730
429.530679	2546.286808
429.908282	2547.947868
430.285824	2547.050542
430.663305	2545.444935
431.040726	2546.614483
431.418086	2548.507436
431.795385	2545.079451
432.172624	2549.031716
432.549802	2547.373176
432.926920	2546.324616
433.303977	2549.223280
433.680974	2548.857796
434.057910	2549.402241
434.434786	2548.023485
434.811601	2546.185985
435.188355	2546.874102
435.565050	2549.351829
435.941683	2549.180430
436.318257	2549.999618
436.694770	2549.581202
437.071222	2548.567930
437.447614	2549.054401
437.823946	2550.609597
438.200218	2545.144986
438.576429	2548.699000
438.952580	2546.332178
439.328670	2550.095399
439.704700	2551.015410
440.080670	2552.888199
440.456580	2550.332334
440.832429	2550.566747
441.208218	2548.812426
441.583947	2551.312838
441.959616	2548.527601
442.335224	2550.176058
442.710773	2550.531459
443.086261	2550.445760
443.461689	2551.068342
443.837057	2551.189330
444.212365	2551.166645
444.587612	2549.467776
444.962800	2549.561037
445.337927	2549.429967
445.712995	2546.571633
446.088002	2553.914073
446.462949	2552.502550
446.837837	2553.805689
447.212664	2551.002807
447.587431	2553.455328
447.962139	2550.896943
448.336786	2554.410627
448.711374	2548.514998
449.085901	2552.678991
449.460369	2551.007848
449.834776	2552.994063
450.209124	2555.812068
450.583412	2551.945503
450.957640	2551.922818
451.331808	2552.076573
451.705917	2552.673950
452.079965	2552.545400
452.453954	2551.942982
452.827883	2555.771739
453.201752	2550.501212
453.575562	2551.602704
453.949311	2557.032027
454.323001	2551.824515
454.696632	2552.086655
455.070202	2553.082283
455.443713	2552.253013
455.817164	2553.727551
456.190556	2551.761501
456.563888	2555.522202
456.937160	2553.843497
457.310373	2555.186965
457.683526	2555.199568
458.056619	2553.992211
458.429653	2556.638817
458.802628	2555.164280
459.175542	2554.486244
459.548398	2553.596481
459.921194	2553.503219
460.293930	2554.022458
460.666607	2557.258879
461.039224	2556.296019
461.411782	2553.961964
461.784280	2555.786862
462.156719	2554.387942
462.529099	2558.589744
462.901419	2554.564382
463.273680	2552.142108
463.645882	2553.203271
464.018024	2555.686039
464.390106	2550.818805
464.762130	2553.770401
465.134094	2555.113868
465.505999	2555.312994
465.877845	2557.357182
466.249631	2556.396842
466.621358	2557.856256
466.993026	2556.742161
467.364634	2560.800290
467.736184	2560.359189
468.107674	2556.986657
468.479105	2559.303067
468.850477	2557.379867
469.221790	2561.395146
469.593043	2559.000598
469.964238	2557.689898
470.335373	2559.013201
470.706449	2559.484548
471.077467	2558.967830
471.448425	2556.462377
471.819324	2560.817934
472.190164	2560.797769
472.560945	2559.819785
472.931667	2561.231308
473.302330	2558.619991
473.672934	2559.885320
474.043479	2561.080074
474.413965	2559.078736
474.784393	2559.179559
475.154761	2560.598643
475.525070	2558.196534
475.895321	2558.065464
476.265513	2559.739127
476.635645	2559.837429
477.005719	2557.458005
477.375734	2560.580999
477.745691	2559.852553
478.115588	2562.012687
478.485427	2564.084601
478.855207	2563.159550
479.224928	2562.269786
479.594591	2561.773232
479.964194	2562.834395
480.333739	2561.874055
480.703226	2563.492266
481.072653	2562.998233
481.442022	2563.189797
481.811333	2561.395146
482.180584	2561.536298
482.549777	2564.787842
482.918912	2558.819116
483.287988	2565.601989
483.657005	2565.483522
484.025964	2564.011505
484.394864	2565.576783
484.763706	2564.734910
485.132489	2563.121741
485.501213	2563.920764
485.869879	2564.218192
486.238487	2567.270611
486.607036	2565.231464
486.975527	2564.823130
487.343959	2563.925805
487.712333	2565.017215
488.080648	2562.567214
488.448905	2566.106104
488.817104	2563.885476
489.185244	2565.571742
489.553326	2566.295147
489.921350	2568.916547
490.289315	2568.462843
490.657222	2568.881259
491.025070	2567.797411
491.392861	2569.130796
491.760593	2565.735579
492.128267	2568.745148
492.495883	2567.212637
492.863440	2567.931002
493.230939	2568.702298
493.598380	2566.832030
493.965763	2566.237174
494.333088	2566.859757
494.700354	2566.461505
495.067563	2567.404201
495.434713	2567.477298
495.801805	2565.889334
496.168839	2568.535940
496.535815	2567.895714
496.902733	2567.169787
497.269593	2568.886300
497.636395	2565.430589
498.003139	2565.433110
498.369825	2568.893862
498.736453	2568.251115
499.103023	2569.395457
499.469535	2568.702298
499.835989	2568.069633
500.202385	2564.359344
500.568723	2564.719787
500.935003	2565.324725
501.301226	2562.355486
501.667390	2568.435117
502.033497	2568.921588
502.399546	2566.751372
502.765537	2568.873697
503.131470	2567.225240
503.497345	2569.297154
503.863163	2568.208265
504.228923	2567.547874
504.594625	2567.147102
504.960269	2567.615930
505.325856	2567.744479
505.691385	2567.051320
506.056856	2568.692216
506.422270	2568.465364
506.787625	2571.686661
507.152924	2569.254305
507.518164	2570.524675
507.883347	2568.009140
508.248472	2571.215313
508.613540	2571.023750
508.978550	2573.254460
509.343503	2570.098698
509.708398	2570.837227
510.073236	2570.295303
510.438016	2569.561815
510.802738	2571.633729
511.167403	2570.073492
511.532010	2571.437124
511.896561	2575.303689
512.261053	2571.240519
512.625488	2572.931826
512.989866	2572.503328
513.354186	2570.766651
513.718449	2574.310582
514.082655	2573.188925
514.446803	2577.375603
514.810894	2575.114646
515.174927	2577.085737
515.538904	2575.366704
515.902822	2573.304872
516.266684	2577.007599
516.630488	2577.310068
516.994235	2578.789647
517.357925	2577.297466
517.721558	2574.058524
518.085133	2579.185378
518.448651	2575.064234
518.812112	2574.381158
519.175516	2576.090109
519.538863	2572.314285
519.902152	2581.342992
520.265385	2583.498085
520.628560	2581.113619
520.991678	2580.624627
521.354739	2583.016655
521.717743	2584.314752
522.080690	2584.226532
522.443580	2587.341965
522.806413	2586.185020
523.169189	2584.629824
523.531908	2588.720720
523.894569	2584.740729
524.257174	2589.945721
524.619722	2588.771132
524.982213	2590.452357
525.344647	2589.466811
525.707025	2591.294229
526.069345	2593.721545
526.431608	2592.519230
526.793815	2591.198447
527.155964	2593.608119
527.518057	2595.536360
527.880093	2593.981164
528.242072	2594.790269
528.603995	2596.095928
528.965860	2595.506113
529.327669	2596.257245
529.689421	2599.667586
530.051117	2599.463419
530.412755	2600.559870
530.774337	2599.687750
531.135862	2601.028697
531.497331	2603.158585
531.858743	2601.167329
532.220098	2605.482557
532.581396	2606.165633
532.942638	2603.524068
533.303824	2606.513473
533.664953	2607.635129
534.026025	2609.828031
534.387040	2607.282249
534.747999	2609.265943
535.108902	2611.153855
535.469748	2610.080089
535.830537	2611.242075
536.191270	2613.477827
536.551947	2608.913062
536.912567	2611.481530
537.273131	2612.260388
537.633638	2613.508074
537.994089	2615.022940
538.354483	2616.396655
538.714821	2618.229114
539.075103	2614.551592
539.435328	2617.722478
539.795497	2618.559310
540.155609	2622.183899
540.515665	2618.387911
540.875665	2620.525360
541.235609	2622.224229
541.595496	2622.844291
541.955328	2621.488220
542.315102	2623.953344
542.674821	2624.739764
543.034483	2625.569034
543.394090	2624.459980
543.753640	2627.802265
544.113134	2630.176649
544.472571	2625.223715
544.831953	2626.806637
545.191278	2626.952831
545.550548	2630.955507
545.909761	2630.103552
546.268918	2633.173615
546.628019	2630.058182
546.987064	2632.256125
547.346053	2628.906278
547.704986	2629.856536
548.063863	2634.446506
548.422684	2632.193110
548.781449	2631.623460
549.140158	2632.697226
549.498811	2634.713687
549.857408	2632.888790
550.215949	2635.520272
550.574434	2634.940539
550.932864	2633.924747
551.291237	2634.842237
551.649555	2636.823410
552.007817	2637.617392
552.366022	2636.712505
552.724173	2635.104377
553.082267	2634.186887
553.440305	2634.814510
553.798288	2639.759882
554.156215	2638.504635
554.514086	2634.295272
554.871902	2635.762247
555.229661	2636.399953
555.587365	2634.799387
555.945014	2639.318781
556.302606	2642.547640
556.660143	2640.810963
557.017625	2642.275418
557.375050	2641.907414
557.732421	2641.594862
558.089735	2642.814822
558.446994	2640.183339
558.804197	2641.940181
559.161345	2645.695841
559.518437	2641.012609
559.875474	2645.463948
560.232455	2642.688793
560.589381	2646.746922
560.946251	2642.585449
561.303065	2646.502426
561.659825	2649.668270
562.016528	2646.028557
562.373177	2648.294556
562.729770	2646.212559
563.086307	2647.223311
563.442789	2647.321613
563.799216	2649.073414
564.155587	2648.488640
564.511904	2650.676501
564.868164	2649.028044
565.224370	2652.035092
565.580520	2650.429484
565.936615	2655.533653
566.292654	2651.576347
566.648638	2653.675987
567.004567	2651.578867
567.360441	2652.642551
567.716260	2651.157931
568.072023	2653.408806
568.427732	2655.173210
568.783385	2654.056595
569.138982	2653.499547
569.494525	2658.334014
569.850013	2658.306287
570.205445	2655.727737
570.560823	2654.734630
570.916145	2655.180772
571.271412	2657.111534
571.626625	2659.362409
571.981782	2661.134375
572.336884	2655.490803
572.691931	2657.424085
573.046923	2656.418375
573.401860	2657.928201
573.756743	2663.672596
574.111570	2663.110507
574.466342	2664.864828
574.821059	2666.435148
575.175722	2663.914571
575.530330	2664.721156
575.884882	2669.306085
576.239380	2669.472443
576.593823	2670.601662
576.948211	2670.067299
577.302544	2671.635098
577.656823	2669.235509
578.011047	2670.944460
578.365216	2674.286745
578.719330	2676.157013
579.073389	2676.431756
579.427394	2678.672549
579.781344	2677.997034
580.135239	2678.055008
580.489080	2679.653053
580.842866	2678.438135
581.196597	2689.775690
581.550273	2683.126408
581.903895	2689.942048
582.257463	2687.938190
582.610975	2691.320804
582.964434	2693.969930
583.317837	2694.418593
583.671186	2698.617874
584.024481	2702.776826
584.377721	2701.249356
584.730906	2707.578525
585.084037	2708.974925
585.437113	2709.131200
585.790135	2715.195708
586.143103	2714.812581
586.496016	2715.130173
586.848874	2721.832387
587.201679	2719.571430
587.554428	2722.661657
587.907124	2728.958058
588.259765	2731.027452
588.612352	2736.885273
588.964884	2738.112794
589.317362	2741.167733
589.669786	2744.585635
590.022155	2748.111922
590.374470	2752.769949
590.726731	2754.945207
591.078937	2756.329003
591.431090	2761.909561
591.783188	2762.562390
592.135232	2766.307967
592.487222	2778.061417
592.839157	2779.432611
593.191038	2780.450924
593.542866	2781.295318
593.894639	2786.729682
594.246358	2795.995322
594.598022	2798.588996
594.949633	2801.379275
595.301190	2803.829275
595.652692	2812.053918
596.004141	2814.181285
596.355535	2813.626758
596.706876	2822.481545
597.058162	2823.169662
597.409395	2829.556804
597.760573	2837.481498
598.111698	2839.109791
598.462768	2845.116325
598.813785	2850.853158
599.164748	2853.671163
599.515657	2856.287522
599.866511	2863.231712
600.217312	2877.934237
600.568060	2874.120604
600.918753	2890.716083
601.269392	2898.550036
601.619978	2896.624315
601.970510	2912.599731
602.320988	2921.008376
602.671412	2933.386929
603.021783	2935.030345
603.372100	2937.092177
603.722363	2951.189764
604.072572	2958.685960
604.422728	2968.969914
604.772830	2976.125832
605.122878	2980.562047
605.472872	2993.701814
605.822813	3004.618433
606.172701	3010.750997
606.522534	3025.415713
606.872314	3037.459030
607.222041	3040.561860
607.571714	3053.449570
607.921333	3069.407342
608.270899	3081.548961
608.620411	3101.368258
608.969870	3101.587548
609.319276	3121.159828
609.668627	3138.864360
610.017926	3160.692556
610.367171	3177.809794
610.716362	3203.141592
611.065500	3204.013712
611.414585	3221.244376
611.763616	3236.040162
612.112594	3250.457862
612.461518	3260.298194
612.810389	3285.972791
613.159207	3288.667288
613.507971	3301.784370
613.856682	3343.623426
614.205340	3355.386959
614.553945	3392.053791
614.902496	3389.124881
615.250994	3425.736261
615.599439	3438.961728
615.947830	3462.004842
616.296169	3480.581494
616.644454	3508.448993
616.992686	3519.993235
617.340864	3561.010583
617.688990	3582.453131
618.037063	3620.670118
618.385082	3638.919095
618.733048	3682.217566
619.080961	3697.671223
619.428821	3735.197572
619.776628	3758.220522
620.124382	3769.910957
620.472083	3801.050165
620.819731	3832.665761
621.167326	3822.805264
621.514868	3841.001309
621.862357	3846.360055
622.209793	3864.687170
622.557176	3872.276627
622.904506	3869.927450
623.251783	3883.195767
623.599007	3893.086510
623.946179	3909.634098
624.293297	3923.313269
624.640363	3932.599074
624.987376	3947.185653
625.334336	3946.376548
625.681243	3964.267603
626.028097	3977.326712
626.374899	4018.056714
626.721647	4014.318699
627.068343	4024.602652
627.414987	4047.731466
627.761577	4081.121549
628.108115	4117.382568
628.454600	4100.784569
628.801032	4132.755567
629.147412	4156.869927
629.493739	4187.588198
629.840014	4206.419428
630.186236	4240.497628
630.532405	4241.470570
630.878521	4299.002739
631.224585	4313.604441
631.570597	4330.993901
631.916556	4350.001572
632.262462	4375.782032
632.608316	4412.738731
632.954117	4429.520732
633.299866	4462.701607
633.645562	4480.169205
633.991206	4469.033296
634.336797	4460.541473
634.682336	4494.012213
635.027823	4487.904856
635.373257	4511.230274
635.718639	4506.864635
636.063968	4521.909959
636.409245	4517.219165
636.754470	4542.452661
637.099642	4549.112025
637.444762	4532.907236
637.789829	4576.157815
638.134845	4573.307043
638.479808	4605.222588
638.824719	4616.350935
639.169577	4614.468064
639.514383	4647.462416
639.859137	4646.053413
640.203839	4690.685269
640.548489	4681.603630
640.893086	4718.504877
641.237632	4700.553328
641.582125	4780.586686
641.926566	4769.004635
642.270955	4787.795536
642.615292	4815.857119
642.959576	4840.581458
643.303809	4886.922265
643.647990	4886.599631
643.992118	4947.206903
644.336195	4907.243156
644.680219	4975.795287
645.024192	5013.266183
645.368112	5081.286472
645.711981	5135.103310
646.055797	5203.786510
646.399562	5235.787755
646.743274	5320.201876
647.086935	5444.320125
647.430544	5468.613445
647.774101	5499.964381
648.117606	5594.891829
648.461059	5595.373259
648.804460	5649.195138
649.147810	5608.686946
649.491108	5582.006639
649.834354	5631.079752
650.177548	5577.146967
650.520690	5558.318258
650.863781	5563.626592
651.206820	5601.301656
651.549807	5579.201237
651.892742	5556.405140
652.235626	5564.811264
652.578458	5596.673877
652.921238	5535.849835
653.263967	5620.299244
653.606644	5598.765955
653.949269	5606.892295
654.291843	5606.466318
654.634365	5661.205687
654.976836	5655.529348
655.319255	5688.478329
655.661622	5711.821392
656.003938	5706.752512
656.346203	5717.467484
656.688416	5759.505666
657.030577	5773.847749
657.372687	5785.684378
657.714746	5803.651051
658.056753	5881.599892
658.398708	5875.512699
658.740612	5893.822169
659.082465	5957.310461
659.424266	5951.896262
659.766016	6004.687225
660.107715	6006.781824
660.449362	6044.179624
660.790958	6078.482155
661.132503	6087.354586
661.473996	6128.825638
661.815438	6172.625703
662.156829	6199.026226
662.498168	6226.187963
662.839456	6241.994501
663.180693	6275.669409
663.521879	6348.889648
663.863013	6372.126846
664.204097	6399.286063
664.545129	6466.386341
664.886110	6472.261806
665.227040	6544.436005
665.567918	6577.977323
665.908746	6624.565146
666.249522	6626.561443
666.590248	6680.232087
666.930922	6755.423417
667.271545	6781.274454
667.612118	6845.546645
667.952639	6840.457600
668.293109	6855.921340
668.633528	6878.019238
668.973896	6887.819241
669.314213	6987.316494
669.654480	6879.476131
669.994695	6918.361071
670.334859	6972.175389
670.674973	6979.555638
671.015035	7031.845006
671.355047	7034.204266
671.695008	7037.659977
672.034918	7070.261119
672.374777	7111.351564
672.714585	7111.626307
673.054342	7156.583317
673.394049	7163.424163
673.733705	7221.457926
674.073310	7220.006073
674.412864	7265.033660
674.752368	7228.152578
675.091820	7234.428815
675.431223	7289.992412
675.770574	7244.266626
676.109875	7232.172898
676.449125	7243.482727
676.788324	7235.071562
677.127473	7188.846702
677.466571	7199.924637
677.805619	7199.959925
678.144616	7174.955802
678.483562	7196.511776
678.822458	7146.387583
679.161303	7163.424163
679.500098	7185.673295
679.838842	7180.773294
680.177535	7220.784932
680.516179	7266.956860
680.854771	7263.962414
681.193314	7417.684839
681.531805	7486.915005
681.870247	7741.705003
682.208638	7960.743137
682.546978	8164.269642
682.885268	8239.211435
683.223508	8092.229032
683.561697	8047.337557
683.899836	8014.784307
684.237925	7919.158659
684.575963	7912.895026
684.913951	7906.412102
685.251889	7855.009977
685.589776	7976.126218
685.927614	7952.339534
686.265401	7926.559073
686.603137	7988.971078
686.940824	8101.492153
687.278460	8173.046290
687.616046	8232.368068
687.953582	8347.082045
688.291068	8303.319788
688.628504	8451.532232
688.965889	8475.941499
689.303224	8507.121035
689.640510	8472.032084
689.977745	8322.526584
690.314930	8212.412661
690.652065	8212.531128
690.989150	8056.935914
691.326185	7941.964839
691.663170	7846.800457
692.000105	7721.671457
692.336990	7707.745270
692.673825	7554.441261
693.010610	7511.959457
693.347345	7399.100626
693.684030	7289.725231
694.020665	7282.783562
694.357251	7179.475197
694.693786	7183.598860
695.030272	7071.670122
695.366707	7024.983996
695.703093	6991.329253
696.039429	7010.712489
696.375716	6996.791343
696.711952	6902.743577
697.048139	6946.384846
697.384276	6937.683814
697.720363	6949.046575
698.056400	6922.323418
698.392388	6918.310660
698.728326	6894.493728
699.064214	6872.589915
699.400053	6937.643485
699.735842	6815.728220
700.071581	6809.774618
700.407270	6776.051819
700.742910	6733.635550
701.078501	6705.576488
701.414042	6640.701879
701.749533	6600.380210
702.084974	6516.734865
702.420366	6609.789524
702.755709	6552.229629
703.091002	6482.702035
703.426246	6502.251630
703.761440	6489.394167
704.096584	6463.321319
704.431679	6430.987359
704.766725	6438.092865
705.101721	6407.311580
705.436668	6459.905938
705.771565	6396.936885
706.106413	6452.845802
706.441212	6511.887796
706.775961	6483.553990
707.110661	6506.715572
707.445311	6634.176106
707.779913	6567.910138
708.114465	6668.375293
708.448967	6712.278702
708.783421	6803.016951
709.117825	6945.558096
709.452180	6981.680484
709.786485	7047.613735
710.120742	7252.433296
710.454949	7252.365240
710.789107	7320.173800
711.123216	7456.579862
711.457275	7590.387208
711.791286	7713.456897
712.125247	7701.095988
712.459159	7716.552166
712.793023	7919.700583
713.126837	7608.492512
713.460602	7745.024603
713.794318	7617.160776
714.127985	7674.425763
714.461602	7483.613049
714.795171	7458.059440
715.128691	7305.607386
715.462162	7115.215608
715.795584	7109.735874
716.128957	7021.220774
716.462281	6894.181177
716.795556	6965.944522
717.128782	6821.578479
717.461960	6614.336645
717.795088	6684.232243
718.128167	6628.169571
718.461198	6512.959041
718.794180	6472.864224
719.127113	6489.222768
719.459997	6382.090687
719.792833	6197.332398
720.125619	6263.729436
720.458357	6155.231202
720.791046	6149.753988
721.123686	6178.150808
721.456278	6051.718670
721.788821	6068.649385
722.121315	5978.523636
722.453761	6037.565630
722.786158	6011.565879
723.118506	6020.337487
723.450805	6012.125447
723.783056	6070.068470
724.115259	5984.910778
724.447412	5984.240305
724.779518	6026.386872
725.111574	6035.922214
725.443582	6110.317042
725.775542	6092.491522
726.107453	6247.837198
726.439315	6183.512075
726.771129	6214.981478
727.102895	6351.458116
727.434612	6456.611544
727.766281	6467.313913
728.097901	6547.208640
728.429473	6531.097112
728.760996	6517.140678
729.092471	6512.744792
729.423897	6492.943139
729.755276	6519.590679
730.086606	6470.741898
730.417887	6556.774229
730.749120	6697.361928
731.080305	6870.165120
731.411442	6981.738457
731.742530	6990.852864
732.073570	7097.289265
732.404562	7180.538880
732.735506	7035.215017
733.066401	7172.094947
733.397249	7130.444934
733.728048	6962.360262
734.058798	6702.234203
734.389501	6539.732609
734.720156	6398.287914
735.050762	6195.071441
735.381320	6112.018431
735.711831	6082.618422
736.042293	5987.262477
736.372707	6018.323546
736.703073	5902.281226
737.033391	5930.962870
737.363661	5944.226146
737.693883	5964.315144
738.024056	6034.155290
738.354182	6080.228915
738.684260	6103.652637
739.014290	6193.349887
739.344272	6287.039731
739.674207	6305.124871
740.004093	6359.702923
740.333931	6379.454163
740.663722	6390.428755
740.993464	6467.845755
741.323159	6486.755123
741.652806	6266.774293
741.982405	6257.571666
742.311956	6344.284554
742.641460	6227.712912
742.970915	6055.965842
743.300323	6062.297531
743.629683	6018.633577
743.958996	5909.895888
744.288260	5835.075083
744.617477	5790.463392
744.946647	5817.005067
745.275768	5669.049722
745.604842	5637.736595
745.933869	5622.020798
746.262847	5584.070992
746.591778	5581.109314
746.920662	5545.801072
747.249498	5536.658940
747.578286	5578.848357
747.907027	5648.857381
748.235720	5707.241504
748.564365	5672.356719
748.892963	5685.085633
749.221514	5849.787691
749.550017	5715.587134
749.878473	5589.008802
750.206881	5643.254138
750.535242	5591.657928
750.863555	5536.303539
751.191821	5565.194391
751.520039	5571.440381
751.848210	5487.369058
752.176334	5500.097972
752.504411	5555.906065
752.832440	5490.098843
753.160421	5411.625722
753.488356	5464.575481
753.816243	5505.988560
754.144082	5367.268609
754.471875	5337.588816
754.799620	5383.117997
755.127318	5393.535541
755.454969	5348.497873
755.782572	5313.476977
756.110129	5359.308627
756.437638	5363.281056
756.765100	5302.545235
757.092515	5293.713133
757.419882	5332.353577
757.747203	5324.428884
758.074477	5391.312392
758.401703	5382.639087
758.728882	5332.535059
759.056014	5365.829360
759.383099	5504.088045
759.710138	5508.062995
760.037129	5494.164534
760.364073	5496.939689
760.690970	5581.187452
761.017820	5573.913067
761.344623	5525.618813
761.671379	5615.648780
761.998088	5722.881684
762.324751	5932.497902
762.651366	6465.380631
762.977935	7606.115608
763.304456	9082.810722
763.630931	9960.258837
763.957359	9684.074182
764.283740	8863.699491
764.610074	8133.064899
764.936362	7214.511216
765.262602	6651.991543
765.588796	6141.320138
765.914943	5810.131454
766.241044	5669.029558
766.567097	5501.857334
766.893104	5253.557822
767.219064	5080.931071
767.544978	5030.118760
767.870845	4963.653668
768.196665	4861.212380
768.522438	4786.157161
768.848165	4769.365078
769.173846	4708.823341
769.499479	4674.362013
769.825066	4619.052993
770.150607	4563.786824
770.476101	4537.613153
770.801548	4537.963513
771.126949	4477.719204
771.452303	4426.654836
771.777611	4384.137745
772.102872	4398.893202
772.428087	4363.635372
772.753256	4331.414837
773.078378	4292.799599
773.403453	4225.588415
773.728482	4212.420921
774.053465	4172.840302
774.378401	4160.381090
774.703291	4165.785207
775.028135	4100.814816
775.352932	4047.829769
775.677683	4036.300650
776.002388	4058.509453
776.327046	4075.440168
776.651658	3998.434023
776.976224	3934.736523
777.300743	3943.908903
777.625216	3963.428251
777.949643	3966.528560
778.274024	3923.398968
778.598359	3874.204869
778.922647	3893.091552
779.246889	3891.501067
779.571086	3886.356570
779.895236	3876.750651
780.219339	3857.553938
780.543397	3849.535982
780.867409	3894.873599
781.191374	3912.580652
781.515294	3860.087117
781.839167	3854.446066
782.162995	3867.318652
782.486776	3858.068135
782.810511	3863.336141
783.134201	3872.765619
783.457844	3833.575689
783.781441	3771.572018
784.104993	3779.305147
784.428498	3795.945996
784.751958	3798.433806
785.075372	3776.779529
785.398739	3738.113879
785.722061	3747.382041
786.045337	3788.832928
786.368568	3827.155780
786.691752	3744.163264
787.014891	3784.265643
787.337983	3897.694125
787.661030	4041.140158
787.984031	4201.035475
788.306987	4370.062843
788.629897	4449.730718
788.952760	4406.827978
789.275579	4345.310778
789.598351	4290.805823
789.921078	4165.452491
790.243759	3974.760764
790.566395	3944.201290
790.888984	3945.297741
791.211529	3840.701360
791.534027	3783.978297
791.856480	3781.220786
792.178888	3718.128225
792.501249	3668.840864
792.823566	3673.362779
793.145836	3707.652707
793.468062	3662.342817
793.790241	3610.885239
794.112375	3642.677275
794.434464	3699.165925
794.756507	3724.502764
795.078505	3713.528172
795.400457	3733.289495
795.722364	3858.186602
796.044226	3959.077735
796.366042	4033.689332
796.687812	4024.648023
797.009538	4033.749826
797.331218	3986.539420
797.652852	3959.891881
797.974442	3943.646763
798.295986	3948.927372
798.617484	3872.503479
798.938938	3786.272022
799.260346	3824.564627
799.581709	3821.454235
799.903026	3752.062752
800.224299	3716.111763
800.545526	3713.087071
800.866708	3675.185156
801.187845	3610.187039
801.508936	3648.346053
801.829983	3656.429543
802.150984	3575.239240
802.471940	3556.639903
802.792851	3572.501893
803.113717	3573.275710
803.434538	3577.301072
803.755314	3524.026158
804.076045	3492.508864
804.396731	3507.191225
804.717372	3535.782129
805.037967	3528.457332
805.358518	3513.164992
805.679024	3539.489897
805.999485	3549.763769
806.319901	3550.668656
806.640272	3567.934608
806.960598	3584.174685
807.280879	3557.443967
807.601115	3563.684915
807.921306	3580.308120
808.241453	3622.568113
808.561554	3605.188735
808.881611	3540.772871
809.201623	3572.597675
809.521590	3586.420519
809.841513	3556.420612
810.161390	3586.390272
810.481223	3569.295719
810.801011	3514.596680
811.120755	3501.789628
811.440453	3538.806821
811.760107	3547.646484
812.079716	3509.056452
812.399281	3468.717138
812.718801	3490.991477
813.038276	3466.088177
813.357707	3468.366778
813.677093	3483.228100
813.996434	3434.180193
814.315731	3441.182356
814.634983	3441.464661
814.954191	3453.518060
815.273354	3485.829335
815.592473	3487.515601
815.911547	3484.095178
816.230577	3516.696320
816.549562	3571.239084
816.868502	3613.393213
817.187399	3640.055875
817.506250	3635.155874
817.825058	3601.957355
818.143821	3687.795602
818.462539	3790.640182
818.781213	3837.296061
819.099843	3893.542735
819.418429	4106.486114
819.736970	4336.332483
820.055466	4567.998708
820.373919	4925.905508
820.692327	5324.688503
821.010691	5710.732503
821.329011	6946.536080
821.647286	9455.891395
821.965517	13668.498839
822.283704	17518.924585
822.601847	19830.275979
822.919945	18231.869768
823.237999	15861.234404
823.556010	13493.837982
823.873976	11508.654282
824.191897	9487.801899
824.509775	8154.187334
824.827609	7048.276647
825.145398	6502.917062
825.463144	6383.900461
825.780845	6505.520818
826.098502	6655.706874
826.416116	7421.453102
826.733685	8671.744955
827.051210	9781.209655
827.368692	9933.684395
827.686129	8780.764948
828.003522	7307.328940
828.320872	6309.054450
828.638177	5637.040916
828.955439	5102.824802
829.272656	4615.720791
829.589830	4326.416533
829.906960	4153.888084
830.224046	3980.542968
830.541088	3853.815922
830.858086	3807.956545
831.175041	3736.606574
831.491952	3715.340467
831.808819	3723.920511
832.125642	3788.510294
832.442421	3927.401645
832.759157	4177.009336
833.075849	4683.783929
833.392497	5498.535214
833.709101	6244.235294
834.025662	6610.643999
834.342179	6315.807076
834.658653	5675.225136
834.975083	5053.736566
835.291469	4495.650588
835.607811	4090.639247
835.924110	3949.252526
836.240366	3767.758385
836.556578	3559.891447
836.872746	3450.473203
837.188871	3421.514294
837.504952	3355.263451
837.820990	3276.273611
838.136984	3223.948955
838.452935	3247.551637
838.768842	3248.075917
839.084706	3267.091149
839.400526	3408.737490
839.716303	3714.397771
840.032037	4196.064898
840.347727	4487.708251
840.663373	4252.258640
840.978977	3889.139287
841.294537	3590.697938
841.610054	3364.864328
841.925527	3254.642020
842.240957	3189.323789
842.556344	3136.127013
842.871687	3083.651123
843.186987	3034.658669
843.502244	2998.780777
843.817458	2968.228864
844.132629	2930.626898
844.447756	2939.978238
844.762840	2930.163111
845.077881	2899.543143
845.392879	2881.268960
845.707833	2875.607744
846.022745	2871.133720
846.337613	2876.023640
846.652438	2863.667772
846.967221	2862.427648
847.281960	2848.330061
847.596656	2842.817559
847.911309	2843.886284
848.225919	2837.723473
848.540485	2832.236177
848.855009	2832.788184
849.169490	2822.247131
849.483928	2813.941830
849.798323	2814.486275
850.112675	2808.394040
850.426984	2820.006338
850.741251	2820.127326
851.055474	2809.538382
851.369654	2805.228196
851.683792	2807.151396
851.997887	2815.514670
852.311938	2814.703044
852.625947	2807.811787
852.939914	2811.786737
853.253837	2815.517191
853.567718	2802.203503
853.881555	2798.354582
854.195350	2813.213383
854.509103	2810.534010
854.822812	2804.842547
855.136479	2800.960859
855.450103	2802.453040
855.763685	2796.159160
856.077224	2787.143056
856.390720	2801.979172
856.704173	2815.396203
857.017584	2807.146355
857.330953	2802.942032
857.644278	2810.670121
857.957561	2819.996256
858.270802	2821.495999
858.584000	2821.790907
858.897155	2810.934782
859.210268	2808.535192
859.523339	2808.724236
859.836367	2806.982517
860.149352	2800.832309
860.462295	2794.818213
860.775195	2803.458751
861.088054	2806.864050
861.400869	2791.233952
861.713642	2785.303035
862.026373	2796.864921
862.339062	2798.752833
862.651708	2807.471509
862.964312	2811.537200
863.276873	2806.697692
863.589392	2811.330512
863.901869	2819.603046
864.214303	2842.883094
864.526696	2861.663913
864.839045	2858.122502
865.151353	2857.081504
865.463619	2852.456245
865.775842	2854.893643
866.088023	2871.103473
866.400162	2880.318703
866.712258	2856.932790
867.024313	2841.204390
867.336325	2850.437263
867.648296	2868.224975
867.960224	2865.777494
868.272110	2851.795854
868.583954	2853.764425
868.895755	2874.034904
869.207515	2858.533356
869.519233	2855.876668
869.830909	2867.385622
870.142542	2876.588249
870.454134	2878.289638
870.765684	2883.751728
871.077191	2881.815925
871.388657	2886.042933
871.700081	2901.118503
872.011463	2910.285842
872.322803	2913.703744
872.634101	2912.135945
872.945357	2928.575148
873.256571	2952.311421
873.567744	2943.814556
873.878874	2936.537650
874.189963	2959.825261
874.501010	2964.390025
874.812015	2952.228242
875.122979	2955.021041
875.433900	2950.715896
875.744780	2955.714200
876.055618	2960.707463
876.366415	2958.668316
876.677169	2971.311530
876.987882	2969.398412
877.298554	2958.491875
877.609183	2976.360245
877.919771	3000.530057
878.230317	3023.200126
878.540822	3077.458065
878.851285	3113.797222
879.161707	3145.649753
879.472087	3235.536047
879.782425	3437.673713
880.092722	3836.401256
880.402977	4336.950024
880.713191	4921.076082
881.023363	5988.379092
881.333494	7216.767132
881.643583	7787.985316
881.953631	7517.182093
882.263637	6956.643594
882.573602	6420.501759
882.883526	5867.792172
883.193408	5298.492147
883.503248	4842.945759
883.813048	4552.776944
884.122806	4285.046304
884.432522	3982.428359
884.742197	3759.649689
885.051831	3567.816141
885.361424	3430.966458
885.670975	3362.119420
885.980485	3283.303500
886.289954	3212.986966
886.599382	3172.783764
886.908768	3133.911426
887.218113	3088.167996
887.527417	3038.305944
887.836680	2988.980774
888.145901	2985.146976
888.455082	2977.310503
888.764221	2931.075560
889.073319	2902.328380
889.382376	2895.129613
889.691392	2900.563977
890.000366	2900.805952
890.309300	2887.550238
890.618193	2900.816034
890.927044	2918.064342
891.235855	2920.963006
891.544625	2903.011457
891.853353	2911.861202
892.162041	2932.217382
892.470687	2965.594861
892.779293	3017.725433
893.087858	3056.658264
893.396381	3120.302832
893.704864	3233.817013
894.013306	3448.602935
894.321707	3735.505082
894.630068	3941.388326
894.938387	3950.716981
895.246665	3902.319384
895.554903	3792.830563
895.863100	3604.361986
896.171256	3445.306020
896.479371	3314.233499
896.787446	3198.344934
897.095480	3100.433124
897.403473	3037.915254
897.711425	2999.368071
898.019336	2991.985302
898.327207	2965.728452
898.635038	2933.369285
898.942827	2919.173396
899.250576	2907.523289
899.558284	2877.697303
899.865952	2858.646782
900.173579	2841.471571
900.481165	2833.438492
900.788711	2821.901812
901.096216	2800.441620
901.403681	2785.192130
901.711105	2794.452729
902.018489	2790.104734
902.325832	2789.401493
902.633135	2799.491362
902.940397	2827.817606
903.247619	2899.001219
903.554800	3069.999678
903.861941	3384.214797
904.169041	3784.668935
904.476101	4090.959361
904.783121	4074.595775
905.090100	3845.072041
905.397039	3585.782813
905.703938	3344.374558
906.010796	3164.710356
906.317614	3058.021896
906.624391	2970.744400
906.931129	2903.203021
907.237826	2846.782427
907.544483	2795.783594
907.851099	2769.287289
908.157675	2748.086717
908.464211	2730.193141
908.770707	2718.505226
909.077163	2705.511652
909.383578	2691.610670
909.689954	2680.799916
909.996289	2678.743125
910.302584	2679.690862
910.608839	2681.268743
910.915054	2677.757579
911.221229	2671.171312
911.527363	2670.954542
911.833458	2674.856395
912.139513	2679.184226
912.445527	2683.814526
912.751502	2693.561597
913.057436	2699.288348
913.363331	2710.688917
913.669186	2733.139696
913.975000	2762.335538
914.280775	2814.529124
914.586510	2883.320710
914.892205	2954.020372
915.197859	3071.519586
915.503475	3243.889239
915.809050	3441.527675
916.114585	3584.207452
916.420081	3617.100981
916.725536	3567.312025
917.030952	3454.347329
917.336328	3333.468022
917.641665	3209.478322
917.946961	3117.973818
918.252218	3050.427398
918.557435	2977.514669
918.862612	2924.325455
919.167750	2877.339381
919.472848	2836.977382
919.777906	2810.866726
920.082925	2790.802934
920.387904	2760.404776
920.692843	2742.924575
920.997743	2732.156671
921.302603	2718.054043
921.607423	2713.965667
921.912204	2699.142154
922.216946	2689.354754
922.521647	2685.319310
922.826310	2675.589883
923.130932	2668.504542
923.435516	2663.198727
923.740059	2654.127171
924.044564	2648.549134
924.349028	2640.130407
924.653454	2637.453554
924.957840	2629.753192
925.262186	2624.878396
925.566493	2621.730196
925.870761	2615.834566
926.174989	2613.238372
926.479178	2607.952722
926.783328	2602.929212
927.087438	2601.530292
927.391509	2599.660024
927.695541	2596.826896
927.999533	2594.288675
928.303486	2594.835640
928.607400	2587.604105
928.911275	2590.452357
929.215110	2589.371029
929.518906	2587.427664
929.822663	2590.669126
930.126381	2588.919846
930.430060	2589.718869
930.733699	2589.829774
931.037299	2589.676019
931.340861	2592.269692
931.644383	2594.412183
931.947866	2591.891606
932.251309	2589.141657
932.554714	2586.948755
932.858080	2585.567478
933.161407	2582.895667
933.464694	2583.036819
933.767943	2580.992631
934.071153	2584.695359
934.374323	2583.452714
934.677455	2582.061356
934.980548	2579.623958
935.283602	2580.664956
935.586617	2576.690007
935.889593	2580.828794
936.192530	2580.763259
936.495428	2582.477251
936.798287	2581.466500
937.101108	2586.265678
937.403890	2589.466811
937.706632	2595.231370
938.009336	2601.084150
938.312002	2609.896087
938.614628	2617.248610
938.917216	2623.877727
939.219765	2624.921246
939.522275	2624.759929
939.824747	2623.567696
940.127179	2620.043930
940.429573	2616.925976
940.731929	2614.246603
941.034246	2609.676797
941.336524	2606.382403
941.638763	2603.287134
941.940964	2602.203286
942.243126	2598.848398
942.545250	2603.322422
942.847335	2599.413007
943.149381	2592.735999
943.451389	2587.122674
943.753359	2587.067222
944.055290	2585.741398
944.357182	2585.267530
944.659036	2585.267530
944.960851	2587.077304
945.262628	2582.414237
945.564367	2583.462797
945.866067	2583.755184
946.167729	2583.455235
946.469352	2583.372056
946.770937	2584.158476
947.072484	2583.379618
947.373992	2584.372725
947.675462	2578.492219
947.976893	2575.623803
948.278286	2575.465006
948.579641	2576.011971
948.880958	2574.424008
949.182236	2577.436097
949.483476	2573.637588
949.784678	2572.790674
950.085841	2576.702609
950.386967	2574.527352
950.688054	2577.206725
950.989103	2579.024061
951.290114	2576.080027
951.591087	2581.660584
951.892021	2584.639906
952.192917	2585.587643
952.493776	2589.267685
952.794596	2591.417737
953.095378	2585.819536
953.396122	2587.614187
953.696828	2584.856676
953.997496	2583.850966
954.298126	2583.863568
954.598718	2578.219997
954.899272	2578.782085
955.199788	2576.805953
955.500266	2572.536096
955.800706	2573.992989
956.101108	2569.622309
956.401472	2567.792370
956.701798	2565.349931
957.002087	2564.281206
957.302337	2561.652245
957.602550	2560.102090
957.902724	2558.234342
958.202861	2559.895402
958.502960	2558.420865
958.803022	2556.031358
959.103045	2557.069836
959.403031	2556.366595
959.702979	2553.903991
960.002889	2553.127653
960.302762	2558.534291
960.602596	2556.664023
960.902393	2553.288970
961.202153	2552.137067
961.501875	2554.516491
961.801559	2552.976419
962.101205	2554.450956
962.400814	2552.462221
962.700385	2551.161603
962.999918	2549.422405
963.299414	2549.626572
963.598873	2549.314021
963.898293	2549.619010
964.197677	2550.370142
964.497022	2550.327292
964.796331	2552.726882
965.095601	2551.305276
965.394835	2551.252344
965.694030	2549.092210
965.993189	2553.135215
966.292309	2551.605225
966.591393	2550.607077
966.890439	2548.494833
967.189447	2552.016079
967.488419	2550.571788
967.787353	2548.802343
968.086249	2549.019113
968.385108	2551.680842
968.683930	2549.346788
968.982714	2551.879968
969.281462	2549.886192
969.580172	2551.693445
969.878844	2550.821326
970.177480	2549.797971
970.476078	2549.422405
970.774639	2552.958775
971.073162	2553.944320
971.371649	2551.693445
971.670098	2550.806202
971.968510	2553.372149
972.266885	2551.287632
972.565223	2553.687222
972.863524	2550.763352
973.161788	2551.738816
973.460014	2552.242931
973.758204	2551.617828
974.056356	2552.336192
974.354471	2549.997097
974.652550	2551.945503
974.950591	2552.063970
975.248595	2555.134033
975.546563	2551.668239
975.844493	2550.234031
976.142386	2549.117416
976.440243	2550.254196
976.738062	2554.980278
977.035845	2551.219577
977.333590	2551.338044
977.631299	2548.920811
977.928971	2550.488609
978.226606	2547.874771
978.524204	2549.611449
978.821765	2543.652805
979.119290	2549.813095
979.416777	2550.428116
979.714228	2552.116902
980.011642	2549.127498
980.309020	2550.690256
980.606360	2549.903836
980.903664	2547.655481
981.200931	2549.987015
981.498162	2550.082797
981.795356	2552.618497
982.092513	2552.265616
982.389633	2552.169834
982.686717	2560.737275
982.983764	2562.325239
983.280775	2564.916392
983.577749	2566.587534
983.874686	2564.888665
984.171587	2564.283727
984.468451	2560.497820
984.765279	2560.023952
985.062070	2558.516647
985.358824	2556.812737
985.655543	2556.961451
985.952224	2554.014897
986.248869	2552.285781
986.545478	2551.353167
986.842050	2550.365101
987.138586	2552.048847
987.435086	2548.464586
987.731549	2547.937786
988.027975	2548.199926
988.324366	2548.381407
988.620719	2547.849565
988.917037	2547.058104
989.213318	2548.699000
989.509563	2545.059287
989.805772	2548.381407
990.101944	2548.220090
990.398080	2548.769576
990.694180	2547.821839
990.990244	2546.377548
991.286271	2546.458207
991.582262	2546.533824
991.878217	2547.547096
992.174136	2548.149514
992.470019	2544.456869
992.765865	2542.238761
993.061676	2541.278421
993.357450	2543.932589
993.653188	2541.951415
993.948890	2547.945347
994.244556	2550.619679
994.540186	2547.247147
994.835780	2544.474513
995.131337	2546.606921
995.426859	2550.065153
995.722345	2549.941644
996.017795	2550.438198
996.313208	2551.607746
996.608586	2550.062632
996.903928	2554.277037
997.199234	2552.245452
997.494504	2551.879968
997.789738	2552.494989
998.084936	2552.348795
998.380099	2551.322920
998.675225	2548.532642
998.970316	2549.714792
999.265371	2547.501726
999.560390	2550.370142
999.855373	2548.187323
1000.150320	2548.247817
1000.445232	2545.921324
1000.740108	2547.907539
1001.034948	2545.351674
1001.329752	2546.909390
1001.624521	2545.449976
1001.919254	2545.994421
1002.213951	2549.273691
1002.508613	2545.006355
1002.803239	2546.992569
1003.097829	2544.804708
1003.392384	2548.018444
1003.686903	2543.985521
1003.981386	2546.743032
1004.275834	2546.541386
1004.570246	2546.228834
1004.864623	2545.684390
1005.158964	2545.893598
1005.453270	2547.363094
1005.747540	2547.380738
1006.041775	2546.869061
1006.335974	2546.286808
1006.630138	2547.673125
1006.924266	2546.843855
1007.218359	2545.094575
1007.512416	2543.688093
1007.806438	2542.566436
1008.100425	2546.652291
1008.394376	2540.527289
1008.688292	2544.749256
1008.982172	2544.794626
1009.276017	2545.979297
1009.569827	2546.576674
1009.863602	2545.119781
1010.157341	2544.756818
1010.451045	2545.870912
1010.744714	2546.569112
1011.038347	2544.164482
1011.331945	2545.323947
1011.625508	2548.638506
1011.919036	2545.197918
1012.212528	2542.785726
1012.505986	2545.518032
1012.799408	2549.243444
1013.092795	2546.004503
1013.386147	2545.414688
1013.679464	2544.817311
1013.972745	2547.060625
1014.265992	2548.325954
1014.559204	2545.807898
1014.852380	2546.634647
1015.145521	2548.111705
1015.438628	2545.190357
1015.731699	2544.782023
1016.024736	2544.721529
1016.317737	2546.995090
1016.610703	2542.523586
1016.903635	2547.184133
1017.196531	2543.320089
1017.489393	2546.551468
1017.782219	2548.638506
1018.075011	2547.267312
1018.367768	2544.678680
1018.660490	2546.848896
1018.953177	2546.848896
1019.245829	2546.848896
