Dividing Wavelength (nm)	Counts (n)	Blue Motor Position (mm): 7.000000	Red Motor Position (mm): 0.000000	
326.493990	2143.241517
326.888308	2143.241517
327.282561	2143.241517
327.676750	2109.702720
328.070874	2107.207349
328.464933	2111.653647
328.858929	2118.113885
329.252859	2126.681326
329.646726	2138.200363
330.040528	2150.581437
330.434265	2168.527944
330.827938	2185.672908
331.221547	2203.150589
331.615091	2223.131202
332.008571	2239.348594
332.401986	2261.101173
332.795338	2281.041457
333.188625	2301.095167
333.581847	2320.947231
333.975006	2338.850889
334.368100	2354.062570
334.761129	2373.607124
335.154095	2392.783673
335.546996	2408.461662
335.939833	2422.279464
336.332606	2440.120108
336.725315	2449.635286
337.117960	2456.967644
337.510540	2467.778398
337.903056	2481.568475
338.295508	2485.046871
338.687896	2495.020794
339.080220	2503.920951
339.472480	2509.360356
339.864676	2512.022085
340.256807	2518.124402
340.648875	2518.356295
341.040879	2522.797551
341.432818	2525.570186
341.824694	2526.815351
342.216506	2524.067922
342.608253	2529.608150
342.999937	2527.110258
343.391557	2524.690505
343.783113	2525.328211
344.174605	2525.320649
344.566033	2524.009949
344.957397	2522.553055
345.348697	2518.008455
345.739934	2518.550379
346.131106	2517.953003
346.522215	2514.570388
346.913260	2517.491737
347.304241	2509.677948
347.695159	2513.191633
348.086012	2509.446055
348.476802	2505.576970
348.867528	2504.069665
349.258191	2501.392812
349.648789	2504.125118
350.039324	2500.679489
350.429796	2502.448934
350.820203	2498.552122
351.210548	2497.221257
351.600828	2496.553304
351.991045	2499.840137
352.381198	2496.384426
352.771288	2496.470125
353.161314	2492.366626
353.551276	2494.788901
353.941175	2496.719663
354.331010	2495.537512
354.720782	2496.109683
355.110490	2495.986175
355.500135	2492.054075
355.889717	2492.666575
356.279235	2492.878303
356.668689	2494.836792
357.058080	2494.572131
357.447408	2494.234374
357.836672	2490.826554
358.225873	2493.299240
358.615010	2489.667088
359.004084	2497.198572
359.393095	2496.452481
359.782043	2497.064982
360.170927	2496.391987
360.559748	2498.776453
360.948505	2497.952225
361.337199	2500.374499
361.725830	2498.630260
362.114398	2501.760816
362.502903	2499.189828
362.891344	2500.901300
363.279722	2501.470950
363.668037	2502.033039
364.056289	2505.766013
364.444478	2501.793584
364.832603	2503.454644
365.220665	2504.087309
365.608665	2505.453462
365.996601	2510.156858
366.384474	2504.694768
366.772284	2505.415653
367.160031	2504.445231
367.547715	2506.214676
367.935336	2508.768020
368.322893	2508.087464
368.710388	2508.014368
369.097820	2507.560664
369.485189	2508.513442
369.872495	2507.721981
370.259738	2508.614265
370.646918	2504.467916
371.034035	2507.147289
371.421090	2508.899090
371.808081	2510.547548
372.195010	2509.632578
372.581875	2510.469410
372.968678	2512.087620
373.355418	2510.393792
373.742096	2512.178361
374.128710	2508.236178
374.515262	2509.040243
374.901751	2509.322547
375.288177	2512.564009
375.674540	2511.931344
376.060841	2512.836231
376.447079	2511.850686
376.833254	2512.533762
377.219367	2507.177536
377.605417	2510.194667
377.991404	2507.784995
378.377329	2511.059225
378.763191	2506.471775
379.148991	2513.557116
379.534727	2511.956550
379.920402	2513.582322
380.306013	2511.054183
380.691563	2514.381345
381.077049	2512.891684
381.462474	2513.073166
381.847835	2513.877230
382.233134	2517.416120
382.618371	2514.124246
383.003545	2512.932013
383.388657	2516.748167
383.773706	2520.312263
384.158693	2514.565347
384.543618	2514.703979
384.928480	2517.640451
385.313280	2515.820594
385.698017	2518.053826
386.082692	2516.405368
386.467305	2516.201202
386.851856	2516.831346
387.236344	2515.190450
387.620770	2518.767149
388.005133	2517.360667
388.389435	2516.249093
388.773674	2517.337982
389.157851	2517.390914
389.541965	2519.215812
389.926018	2518.154649
390.310008	2516.337313
390.693936	2521.290246
391.077802	2518.794875
391.461606	2520.700431
391.845348	2521.456604
392.229027	2521.164218
392.612645	2520.929804
392.996200	2519.213291
393.379694	2521.605318
393.763125	2518.873013
394.146494	2523.659589
394.529801	2519.750174
394.913047	2520.750843
395.296230	2522.540452
395.679351	2520.859228
396.062410	2520.521470
396.445408	2521.968282
396.828343	2522.815195
397.211217	2518.094155
397.594028	2521.191944
397.976778	2519.838394
398.359466	2521.469207
398.742092	2520.022396
399.124656	2523.452901
399.507158	2520.707993
399.889598	2521.875020
400.271977	2525.149250
400.654294	2524.372912
401.036549	2523.911646
401.418742	2523.309228
401.800874	2524.496420
402.182944	2525.113962
402.564952	2523.248735
402.946898	2525.270237
403.328783	2522.948786
403.710606	2526.364168
404.092367	2524.009949
404.474067	2527.137985
404.855705	2526.205371
405.237282	2523.868797
405.618797	2526.497758
406.000250	2528.123530
406.381642	2527.551359
406.762972	2525.252593
407.144240	2527.952131
407.525447	2527.735362
407.906593	2527.710156
408.287677	2527.924405
408.668700	2523.629342
409.049661	2526.737213
409.430560	2525.613036
409.811399	2527.069929
410.192176	2528.831813
410.572891	2529.961031
410.953545	2526.727131
411.334138	2528.423479
411.714669	2527.692512
412.095139	2530.412214
412.475547	2529.706453
412.855894	2527.609333
413.236180	2531.659900
413.616405	2530.225692
413.996568	2529.817358
414.376670	2531.256608
414.756711	2527.314425
415.136691	2530.941535
415.516609	2531.309540
415.896466	2532.491690
416.276262	2531.110414
416.655997	2526.719569
417.035670	2528.594878
417.415283	2526.475073
417.794834	2529.335928
418.174324	2531.090249
418.553753	2533.207534
418.933121	2531.090249
419.312428	2530.039169
419.691674	2532.312729
420.070859	2531.944725
420.449983	2530.089580
420.829045	2531.932122
421.208047	2533.978831
421.586988	2531.690147
421.965867	2529.464477
422.344686	2534.475384
422.723444	2532.554705
423.102141	2533.973789
423.480777	2531.480939
423.859352	2529.981196
424.237866	2534.092257
424.616319	2534.160312
424.994712	2533.625950
425.373044	2534.934129
425.751314	2531.780887
426.129524	2535.166022
426.507673	2537.116949
426.885762	2532.063192
427.263789	2533.714170
427.641756	2534.568646
428.019662	2534.442617
428.397508	2533.459592
428.775292	2533.260466
429.153016	2536.448996
429.530679	2536.549819
429.908282	2533.232740
430.285824	2534.281300
430.663305	2535.718029
431.040726	2532.184180
431.418086	2535.758358
431.795385	2535.065199
432.172624	2534.951773
432.549802	2535.637370
432.926920	2537.321116
433.303977	2536.718698
433.680974	2538.054603
434.057910	2536.895138
434.434786	2536.675848
434.811601	2533.855322
435.188355	2536.476722
435.565050	2537.646270
435.941683	2538.581404
436.318257	2534.470343
436.694770	2533.515044
437.071222	2534.992103
437.447614	2533.593182
437.823946	2534.122503
438.200218	2536.600231
438.576429	2540.156765
438.952580	2536.769109
439.328670	2537.076620
439.704700	2536.683410
440.080670	2535.304654
440.456580	2537.147196
440.832429	2538.160468
441.208218	2537.522762
441.583947	2538.546116
441.959616	2537.643749
442.335224	2541.081816
442.710773	2537.946219
443.086261	2539.390509
443.461689	2538.573842
443.837057	2538.389840
444.212365	2540.633154
444.587612	2538.992258
444.962800	2541.051569
445.337927	2538.760365
445.712995	2540.040818
446.088002	2541.041487
446.462949	2538.231044
446.837837	2540.111394
447.212664	2538.972093
447.587431	2539.811446
447.962139	2539.340098
448.336786	2542.301776
448.711374	2539.002340
449.085901	2540.958308
449.460369	2541.376724
449.834776	2540.199614
450.209124	2540.880170
450.583412	2541.220448
450.957640	2543.710778
451.331808	2540.870088
451.705917	2539.811446
452.079965	2538.548637
452.453954	2541.172557
452.827883	2540.176929
453.201752	2541.840510
453.575562	2542.266488
453.949311	2541.462423
454.323001	2541.865716
454.696632	2542.006868
455.070202	2541.296065
455.443713	2540.678524
455.817164	2539.146013
456.190556	2537.530323
456.563888	2538.505787
456.937160	2540.255067
457.310373	2541.296065
457.683526	2542.090047
458.056619	2541.303627
458.429653	2541.943854
458.802628	2540.938143
459.175542	2541.722043
459.548398	2543.292362
459.921194	2543.350336
460.293930	2545.172713
460.666607	2544.411498
461.039224	2545.185316
461.411782	2543.710778
461.784280	2542.148020
462.156719	2539.718184
462.529099	2542.364790
462.901419	2542.266487
463.273680	2542.934440
463.645882	2541.298586
464.018024	2542.936961
464.390106	2542.279090
464.762130	2544.174564
465.134094	2543.231868
465.505999	2542.505942
465.877845	2543.851930
466.249631	2545.520552
466.621358	2542.261446
466.993026	2545.644061
467.364634	2544.744215
467.736184	2542.876467
468.107674	2543.925027
468.479105	2542.397558
468.850477	2542.218597
469.221790	2546.170861
469.593043	2542.148020
469.964238	2543.186498
470.335373	2544.666077
470.706449	2545.802857
471.077467	2542.810932
471.448425	2542.752959
471.819324	2545.875954
472.190164	2546.548948
472.560945	2545.253371
472.931667	2546.450645
473.302330	2545.442414
473.672934	2544.789585
474.043479	2543.005017
474.413965	2545.470141
474.784393	2540.542413
475.154761	2543.516694
475.525070	2540.277752
475.895321	2541.522917
476.265513	2539.526620
476.635645	2548.986346
477.005719	2544.913093
477.375734	2545.639019
477.745691	2545.528114
478.115588	2543.625078
478.485427	2543.788916
478.855207	2546.538865
479.224928	2544.282949
479.594591	2544.575336
479.964194	2546.223793
480.333739	2545.346632
480.703226	2545.384441
481.072653	2544.502239
481.442022	2545.835624
481.811333	2544.809750
482.180584	2546.233876
482.549777	2546.233876
482.918912	2545.744884
483.287988	2545.734801
483.657005	2546.997610
484.025964	2548.497354
484.394864	2545.790254
484.763706	2548.477189
485.132489	2544.802188
485.501213	2548.441901
485.869879	2546.473330
486.238487	2545.533155
486.607036	2547.300080
486.975527	2547.594987
487.343959	2546.929555
487.712333	2545.626417
488.080648	2545.507949
488.448905	2547.068187
488.817104	2547.151366
489.185244	2547.105995
489.553326	2544.149358
489.921350	2548.348640
490.289315	2545.109698
490.657222	2548.494833
491.025070	2548.467107
491.392861	2548.691438
491.760593	2546.380069
492.128267	2548.762014
492.495883	2548.172199
492.863440	2546.208670
493.230939	2546.039791
493.598380	2547.844524
493.965763	2543.052908
494.333088	2547.340409
494.700354	2544.847558
495.067563	2545.412167
495.434713	2544.779503
495.801805	2549.523228
496.168839	2546.720347
496.535815	2547.746222
496.902733	2550.433157
497.269593	2547.118598
497.636395	2549.145142
498.003139	2549.308979
498.369825	2548.585574
498.736453	2548.923331
499.103023	2545.785213
499.469535	2548.189843
499.835989	2550.226469
500.202385	2549.117416
500.568723	2549.815615
500.935003	2548.020965
501.301226	2550.546583
501.667390	2545.031560
502.033497	2551.862324
502.399546	2549.709751
502.765537	2547.625234
503.131470	2549.689587
503.497345	2548.167158
503.863163	2551.975750
504.228923	2547.191695
504.594625	2549.606408
504.960269	2546.344781
505.325856	2547.259750
505.691385	2547.267312
506.056856	2550.959957
506.422270	2550.476007
506.787625	2549.659340
507.152924	2548.232693
507.518164	2549.495502
507.883347	2548.315872
508.248472	2550.334854
508.613540	2546.773279
508.978550	2550.428116
509.343503	2548.946016
509.708398	2549.961809
510.073236	2550.435677
510.438016	2549.563558
510.802738	2548.260419
511.167403	2550.596994
511.532010	2548.494833
511.896561	2550.269319
512.261053	2547.796633
512.625488	2544.867723
512.989866	2544.648433
513.354186	2547.443752
513.718449	2544.522404
514.082655	2547.272353
514.446803	2549.518187
514.810894	2549.268650
515.174927	2551.912735
515.538904	2549.939124
515.902822	2548.356201
516.266684	2551.433826
516.630488	2547.819318
516.994235	2550.249155
517.357925	2548.169679
517.721558	2550.100441
518.085133	2549.475338
518.448651	2551.179247
518.812112	2549.934083
519.175516	2547.219421
519.538863	2550.158414
519.902152	2548.830070
520.265385	2551.673281
520.628560	2550.402910
520.991678	2551.136398
521.354739	2550.319731
521.717743	2550.281922
522.080690	2549.888712
522.443580	2549.041798
522.806413	2549.929041
523.169189	2549.555996
523.531908	2551.073383
523.894569	2551.645554
524.257174	2550.541542
524.619722	2549.853424
524.982213	2548.562889
525.344647	2549.702189
525.707025	2549.591284
526.069345	2547.468958
526.431608	2550.924669
526.793815	2548.842673
527.155964	2552.313507
527.518057	2548.149514
527.880093	2551.106151
528.242072	2551.728733
528.603995	2553.800647
528.965860	2552.278219
529.327669	2553.049516
529.689421	2550.758311
530.051117	2550.846531
530.412755	2550.710420
530.774337	2548.807385
531.135862	2550.259237
531.497331	2547.925183
531.858743	2545.210521
532.220098	2548.295707
532.581396	2546.085162
532.942638	2549.182951
533.303824	2549.742519
533.664953	2549.089689
534.026025	2550.123126
534.387040	2551.118754
534.747999	2549.001469
535.108902	2551.680842
535.469748	2549.934082
535.830537	2550.541542
536.191270	2550.788558
536.551947	2553.198230
536.912567	2548.572971
537.273131	2554.196378
537.633638	2549.712272
537.994089	2550.854093
538.354483	2551.600184
538.714821	2552.663867
539.075103	2550.841490
539.435328	2551.789227
539.795497	2551.733774
540.155609	2552.101779
540.515665	2550.223949
540.875665	2551.035575
541.235609	2551.534649
541.595496	2552.996583
541.955328	2552.938610
542.315102	2550.864175
542.674821	2552.081614
543.034483	2553.263765
543.394090	2548.167158
543.753640	2552.121943
544.113134	2549.140101
544.472571	2551.234700
544.831953	2551.557334
545.191278	2551.519525
545.550548	2551.678322
545.909761	2552.817622
546.268918	2553.798127
546.628019	2551.925338
546.987064	2552.888199
547.346053	2554.370298
547.704986	2551.930379
548.063863	2552.941131
548.422684	2552.494989
548.781449	2553.316697
549.140158	2552.762170
549.498811	2555.517160
549.857408	2553.659495
550.215949	2550.102961
550.574434	2548.683876
550.932864	2550.634803
551.291237	2551.025492
551.649555	2552.991542
552.007817	2552.966337
552.366022	2554.662685
552.724173	2551.232180
553.082267	2550.450801
553.440305	2551.338044
553.798288	2554.191337
554.156215	2555.456667
554.514086	2553.596481
554.871902	2553.697304
555.229661	2554.602191
555.587365	2552.593291
555.945014	2554.430792
556.302606	2554.977757
556.660143	2553.651933
557.017625	2551.643034
557.375050	2552.278219
557.732421	2554.277037
558.089735	2553.518343
558.446994	2555.277706
558.804197	2552.734443
559.161345	2551.685883
559.518437	2556.351471
559.875474	2551.683363
560.232455	2551.874927
560.589381	2554.524053
560.946251	2555.088662
561.303065	2555.902809
561.659825	2552.739485
562.016528	2554.609753
562.373177	2552.502550
562.729770	2553.551110
563.086307	2554.541697
563.442789	2552.840308
563.799216	2553.674619
564.155587	2552.787376
564.511904	2554.932387
564.868164	2553.813250
565.224370	2555.227294
565.580520	2553.586398
565.936615	2553.223435
566.292654	2554.826522
566.648638	2555.885165
567.004567	2551.154042
567.360441	2552.779814
567.716260	2556.164949
568.072023	2554.052705
568.427732	2550.438198
568.783385	2551.103630
569.138982	2549.538352
569.494525	2552.361398
569.850013	2548.635985
570.205445	2556.911039
570.560823	2550.405430
570.916145	2555.514640
571.271412	2553.858621
571.626625	2555.141594
571.981782	2552.926007
572.336884	2557.064795
572.691931	2552.061449
573.046923	2553.167983
573.401860	2551.680842
573.756743	2553.687222
574.111570	2553.503219
574.466342	2549.639175
574.821059	2554.350133
575.175722	2553.702345
575.530330	2554.798796
575.884882	2551.201933
576.239380	2553.357026
576.593823	2553.309135
576.948211	2555.312994
577.302544	2549.888712
577.656823	2552.817622
578.011047	2554.395504
578.365216	2552.069011
578.719330	2552.852911
579.073389	2551.577499
579.427394	2549.868547
579.781344	2551.476676
580.135239	2554.982798
580.489080	2553.455328
580.842866	2552.794937
581.196597	2557.261400
581.550273	2554.284598
581.903895	2553.099927
582.257463	2550.476007
582.610975	2552.389124
582.964434	2554.093034
583.317837	2551.194371
583.671186	2554.224104
584.024481	2553.125133
584.377721	2553.906512
584.730906	2553.452808
585.084037	2554.191337
585.437113	2553.104968
585.790135	2553.228477
586.143103	2551.955585
586.496016	2553.132695
586.848874	2549.750080
587.201679	2551.199412
587.554428	2550.682694
587.907124	2552.560524
588.259765	2548.930893
588.612352	2553.543549
588.964884	2551.025492
589.317362	2553.079762
589.669786	2553.967006
590.022155	2554.196378
590.374470	2551.020451
590.726731	2551.761501
591.078937	2550.483568
591.431090	2550.516336
591.783188	2551.141439
592.135232	2555.134033
592.487222	2553.273847
592.839157	2553.442726
593.191038	2551.625390
593.542866	2553.422561
593.894639	2552.893240
594.246358	2554.329969
594.598022	2551.055739
594.949633	2552.240410
595.301190	2553.747715
595.652692	2552.762170
596.004141	2552.593291
596.355535	2553.205791
596.706876	2553.044474
597.058162	2552.860472
597.409395	2548.726726
597.760573	2554.428271
598.111698	2550.962478
598.462768	2553.735113
598.813785	2553.674619
599.164748	2551.186809
599.515657	2552.129505
599.866511	2555.444064
600.217312	2552.406768
600.568060	2551.406099
600.918753	2552.195040
601.269392	2551.532128
601.619978	2554.251831
601.970510	2554.884496
602.320988	2553.599001
602.671412	2554.087993
603.021783	2550.922149
603.372100	2552.792417
603.722363	2554.115720
604.072572	2554.697973
604.422728	2553.480534
604.772830	2549.185471
605.122878	2547.453835
605.472872	2550.937272
605.822813	2548.799823
606.172701	2550.775955
606.522534	2552.666388
606.872314	2554.667726
607.222041	2551.053219
607.571714	2550.869217
607.921333	2553.016748
608.270899	2554.314845
608.620411	2555.237376
608.969870	2555.781821
609.319276	2552.671429
609.668627	2557.490772
610.017926	2557.533622
610.367171	2560.454971
610.716362	2558.975392
611.065500	2558.572100
611.414585	2556.573282
611.763616	2558.415824
612.112594	2555.055895
612.461518	2554.599670
612.810389	2551.852242
613.159207	2555.171841
613.507971	2554.007335
613.856682	2555.496996
614.205340	2552.023641
614.553945	2554.221584
614.902496	2554.478683
615.250994	2555.570092
615.599439	2553.901471
615.947830	2552.497509
616.296169	2552.847869
616.644454	2552.888199
616.992686	2552.421892
617.340864	2553.041954
617.688990	2554.506409
618.037063	2552.890719
618.385082	2553.856100
618.733048	2553.278888
619.080961	2553.788045
619.428821	2554.125802
619.776628	2553.407437
620.124382	2553.891388
620.472083	2550.758311
620.819731	2555.204609
621.167326	2552.005997
621.514868	2551.317879
621.862357	2553.659495
622.209793	2553.528425
622.557176	2553.374670
622.904506	2551.597663
623.251783	2547.917621
623.599007	2552.547921
623.946179	2549.518187
624.293297	2550.813764
624.640363	2551.227138
624.987376	2553.094886
625.334336	2551.595143
625.681243	2554.075390
626.028097	2551.506922
626.374899	2553.019269
626.721647	2552.074052
627.068343	2552.792417
627.414987	2553.488096
627.761577	2554.723179
628.108115	2552.552962
628.454600	2553.563713
628.801032	2553.248641
629.147412	2552.401727
629.493739	2553.044474
629.840014	2552.008517
630.186236	2552.386604
630.532405	2555.068498
630.878521	2553.223435
631.224585	2553.631769
631.570597	2552.439536
631.916556	2553.432643
632.262462	2551.877447
632.608316	2553.447767
632.954117	2551.625390
633.299866	2553.057077
633.645562	2550.143290
633.991206	2553.346944
634.336797	2552.618497
634.682336	2549.951727
635.027823	2550.823846
635.373257	2552.036244
635.718639	2554.324927
636.063968	2553.339382
636.409245	2551.567416
636.754470	2551.206974
637.099642	2554.690411
637.444762	2552.134546
637.789829	2551.453990
638.134845	2552.671429
638.479808	2554.544218
638.824719	2553.273847
639.169577	2550.493651
639.514383	2553.024310
639.859137	2553.742674
640.203839	2553.914073
640.548489	2552.676470
640.893086	2549.750080
641.237632	2551.547252
641.582125	2551.345606
641.926566	2545.470141
642.270955	2553.430123
642.615292	2552.661347
642.959576	2554.793755
643.303809	2552.671429
643.647990	2552.981460
643.992118	2550.864175
644.336195	2553.195709
644.680219	2554.236707
645.024192	2553.387273
645.368112	2550.672612
645.711981	2554.244269
646.055797	2553.147818
646.399562	2553.969526
646.743274	2554.140925
647.086935	2554.854249
647.430544	2552.205122
647.774101	2550.685214
648.117606	2555.708724
648.461059	2554.115720
648.804460	2555.318035
649.147810	2553.036913
649.491108	2553.021789
649.834354	2553.977088
650.177548	2552.275698
650.520690	2552.565565
650.863781	2551.098589
651.206820	2553.851059
651.549807	2553.840977
651.892742	2552.492468
652.235626	2550.400389
652.578458	2551.567416
652.921238	2554.148487
653.263967	2550.796120
653.606644	2552.464742
653.949269	2556.167469
654.291843	2554.329969
654.634365	2552.247972
654.976836	2551.504402
655.319255	2553.447767
655.661622	2552.923487
656.003938	2553.344423
656.346203	2551.433826
656.688416	2555.013045
657.030577	2551.146480
657.372687	2553.041954
657.714746	2552.870555
658.056753	2554.214022
658.398708	2546.357384
658.740612	2551.965668
659.082465	2548.333516
659.424266	2547.458876
659.766016	2549.591284
660.107715	2554.539177
660.449362	2552.419371
660.790958	2553.397355
661.132503	2554.115720
661.473996	2554.824002
661.815438	2553.626728
662.156829	2553.954403
662.498168	2554.513971
662.839456	2552.386604
663.180693	2551.953065
663.521879	2553.717468
663.863013	2552.051367
664.204097	2556.669064
664.545129	2554.413148
664.886110	2553.052036
665.227040	2554.952551
665.567918	2555.408776
665.908746	2554.211502
666.249522	2555.257541
666.590248	2553.891388
666.930922	2555.449105
667.271545	2554.307283
667.612118	2555.199568
667.952639	2554.937428
668.293109	2554.740823
668.633528	2554.806358
668.973896	2553.556152
669.314213	2553.523384
669.654480	2552.053888
669.994695	2552.989022
670.334859	2553.591440
670.674973	2555.214691
671.015035	2554.337530
671.355047	2554.077911
671.695008	2554.813919
672.034918	2554.231666
672.374777	2555.660833
672.714585	2555.464228
673.054342	2556.280895
673.394049	2554.997922
673.733705	2557.067315
674.073310	2556.177552
674.412864	2557.228632
674.752368	2558.680484
675.091820	2556.966492
675.431223	2555.726368
675.770574	2555.461708
676.109875	2550.415513
676.449125	2551.509443
676.788324	2553.659495
677.127473	2555.643189
677.466571	2551.547252
677.805619	2552.767211
678.144616	2554.745864
678.483562	2554.345092
678.822458	2555.978426
679.161303	2555.741492
679.500098	2556.656461
679.838842	2556.636297
680.177535	2556.767367
680.516179	2553.815771
680.854771	2557.268961
681.193314	2556.888354
681.531805	2558.357851
681.870247	2560.918757
682.208638	2557.377346
682.546978	2558.186451
682.885268	2558.869528
683.223508	2557.389949
683.561697	2561.357337
683.899836	2560.328942
684.237925	2561.246432
684.575963	2558.995557
684.913951	2557.631924
685.251889	2564.732390
685.589776	2561.954714
685.927614	2563.164591
686.265401	2562.519323
686.603137	2561.730382
686.940824	2562.037893
687.278460	2563.756926
687.616046	2562.693243
687.953582	2562.289951
688.291068	2566.806824
688.628504	2567.726835
688.965889	2566.239695
689.303224	2567.958728
689.640510	2566.612740
689.977745	2567.857905
690.314930	2566.806824
690.652065	2567.920919
690.989150	2563.799776
691.326185	2566.494273
691.663170	2564.555949
692.000105	2564.820610
692.336990	2563.764488
692.673825	2565.980075
693.010610	2567.071485
693.347345	2561.775753
693.684030	2560.034034
694.020665	2561.135526
694.357251	2558.110834
694.693786	2563.565362
695.030272	2565.866649
695.366707	2564.182904
695.703093	2564.828172
696.039429	2564.669375
696.375716	2567.331104
696.711952	2564.256001
697.048139	2564.374468
697.384276	2564.898748
697.720363	2567.260528
698.056400	2567.603327
698.392388	2566.501835
698.728326	2565.090312
699.064214	2565.254149
699.400053	2567.205076
699.735842	2566.211968
700.071581	2563.640980
700.407270	2566.544684
700.742910	2568.263718
701.078501	2565.022256
701.414042	2565.722976
701.749533	2568.205745
702.084974	2566.645507
702.420366	2567.225240
702.755709	2570.224727
703.091002	2563.968655
703.426246	2569.781105
703.761440	2565.667524
704.096584	2567.008471
704.431679	2568.137689
704.766725	2568.551064
705.101721	2566.385888
705.436668	2571.071641
705.771565	2565.826320
706.106413	2565.869170
706.441212	2568.059551
706.775961	2571.651373
707.110661	2567.416804
707.445311	2569.682803
707.779913	2570.862433
708.114465	2575.112125
708.448967	2572.510890
708.783421	2575.515418
709.117825	2577.433577
709.452180	2574.930644
709.786485	2577.093299
710.120742	2580.579257
710.454949	2581.025399
710.789107	2580.833835
711.123216	2582.003383
711.457275	2580.803588
711.791286	2582.169741
712.125247	2587.215936
712.459159	2584.592015
712.793023	2586.863055
713.126837	2589.436564
713.460602	2587.097469
713.794318	2584.854155
714.127985	2588.796338
714.461602	2586.091758
714.795171	2583.455235
715.128691	2582.696541
715.462162	2583.351891
715.795584	2580.238979
716.128957	2580.783423
716.462281	2579.152610
716.795556	2580.748135
717.128782	2582.295770
717.461960	2582.905749
717.795088	2580.299473
718.128167	2578.766962
718.461198	2578.567836
718.794180	2580.828794
719.127113	2581.927765
719.459997	2579.654205
719.792833	2580.281829
720.125619	2576.684965
720.458357	2578.290573
720.791046	2577.068093
721.123686	2580.181006
721.456278	2579.311407
721.788821	2577.831828
722.121315	2581.779051
722.453761	2580.496078
722.786158	2580.790985
723.118506	2580.390213
723.450805	2577.519276
723.783056	2579.215625
724.115259	2582.870461
724.447412	2578.146900
724.779518	2586.406831
725.111574	2581.166551
725.443582	2585.174268
725.775542	2582.968764
726.107453	2589.171903
726.439315	2587.004207
726.771129	2592.012594
727.102895	2586.018662
727.434612	2591.153077
727.766281	2590.515371
728.097901	2588.629979
728.429473	2588.579568
728.760996	2589.441605
729.092471	2588.821543
729.423897	2593.542584
729.755276	2593.814806
730.086606	2594.883531
730.417887	2593.474528
730.749120	2595.985023
731.080305	2600.108687
731.411442	2600.428800
731.742530	2598.545929
732.073570	2599.181114
732.404562	2604.471805
732.735506	2607.178905
733.066401	2604.708740
733.397249	2599.415528
733.728048	2600.433841
734.058798	2598.639190
734.389501	2595.112903
734.720156	2592.680547
735.050762	2590.825402
735.381320	2594.102152
735.711831	2588.650144
736.042293	2590.563262
736.372707	2592.070567
736.703073	2590.928746
737.033391	2589.910433
737.363661	2592.783890
737.693883	2592.551997
738.024056	2596.504262
738.354182	2594.845722
738.684260	2598.510641
739.014290	2596.768922
739.344272	2595.196082
739.674207	2602.828389
740.004093	2601.893255
740.333931	2602.629264
740.663722	2601.764706
740.993464	2603.004830
741.323159	2603.050200
741.652806	2606.289141
741.982405	2605.086826
742.311956	2600.867380
742.641460	2602.866198
742.970915	2598.006526
743.300323	2597.595672
743.629683	2596.647935
743.958996	2597.192379
744.288260	2596.640373
744.617477	2595.470825
744.946647	2590.144846
745.275768	2593.572831
745.604842	2592.292378
745.933869	2590.679208
746.262847	2587.727613
746.591778	2601.036259
746.920662	2596.267327
747.249498	2591.412696
747.578286	2596.458891
747.907027	2598.220775
748.235720	2595.001998
748.564365	2598.727411
748.892963	2599.816300
749.221514	2598.165322
749.550017	2599.123141
749.878473	2601.734459
750.206881	2600.305292
750.535242	2598.916454
750.863555	2597.870414
751.191821	2601.116917
751.520039	2597.835126
751.848210	2595.521237
752.176334	2600.307812
752.504411	2600.179263
752.832440	2598.122472
753.160421	2593.587954
753.488356	2598.188007
753.816243	2602.533482
754.144082	2593.605598
754.471875	2595.463263
754.799620	2596.148860
755.127318	2594.956627
755.454969	2599.244129
755.782572	2596.466453
756.110129	2597.431834
756.437638	2598.666917
756.765100	2600.451485
757.092515	2599.634818
757.419882	2600.108687
757.747203	2598.276227
758.074477	2599.453337
758.401703	2604.028184
758.728882	2603.007350
759.056014	2601.865529
759.383099	2605.593462
759.710138	2602.641867
760.037129	2604.244953
760.364073	2609.573453
760.690970	2605.122114
761.017820	2605.399378
761.344623	2603.178749
761.671379	2612.146962
761.998088	2609.011364
762.324751	2619.156687
762.651366	2626.965434
762.977935	2653.612973
763.304456	2680.668846
763.630931	2698.476722
763.957359	2672.625685
764.283740	2652.589619
764.610074	2651.344454
764.936362	2639.575880
765.262602	2628.069447
765.588796	2620.727006
765.914943	2614.022271
766.241044	2609.641509
766.567097	2607.337701
766.893104	2602.029366
767.219064	2600.171701
767.544978	2600.128851
767.870845	2593.013263
768.196665	2595.095259
768.522438	2595.732965
768.848165	2595.133068
769.173846	2595.914447
769.499479	2593.519899
769.825066	2591.165680
770.150607	2592.017635
770.476101	2592.615012
770.801548	2595.097780
771.126949	2587.163004
771.452303	2586.711820
771.777611	2586.668971
772.102872	2590.033941
772.428087	2590.780032
772.753256	2588.690473
773.078378	2589.726430
773.403453	2584.818867
773.728482	2583.621593
774.053465	2587.079825
774.378401	2589.144177
774.703291	2583.833322
775.028135	2583.467838
775.352932	2584.251737
775.677683	2581.700913
776.002388	2581.345512
776.327046	2582.792323
776.651658	2582.472210
776.976224	2579.991962
777.300743	2582.815008
777.625216	2579.288721
777.949643	2585.103692
778.274024	2582.028588
778.598359	2577.426015
778.922647	2577.778896
779.246889	2579.520614
779.571086	2578.000707
779.895236	2579.528176
780.219339	2580.601942
780.543397	2585.635534
780.867409	2585.131419
781.191374	2584.236614
781.515294	2585.854824
781.839167	2580.299473
782.162995	2582.953640
782.486776	2584.037488
782.810511	2584.750812
783.134201	2582.099165
783.457844	2584.042529
783.781441	2584.564289
784.104993	2580.614545
784.428498	2577.685634
784.751958	2583.160327
785.075372	2580.995152
785.398739	2577.572208
785.722061	2582.147056
786.045337	2584.962540
786.368568	2581.471541
786.691752	2578.983732
787.014891	2584.846593
787.337983	2588.246852
787.661030	2587.278950
787.984031	2593.862697
788.306987	2601.089191
788.629897	2599.181114
788.952760	2600.567432
789.275579	2598.999633
789.598351	2596.383274
789.921078	2590.487645
790.243759	2589.159301
790.566395	2590.215422
790.888984	2585.436408
791.211529	2583.886254
791.534027	2582.431881
791.856480	2583.674525
792.178888	2578.703948
792.501249	2579.318968
792.823566	2580.657395
793.145836	2581.958012
793.468062	2579.450038
793.790241	2579.258474
794.112375	2581.015317
794.434464	2581.060687
794.756507	2581.698393
795.078505	2582.227714
795.400457	2579.918866
795.722364	2581.403485
796.044226	2589.454208
796.366042	2588.473704
796.687812	2588.647623
797.009538	2588.922366
797.331218	2592.816658
797.652852	2592.214240
797.974442	2584.690318
798.295986	2589.192068
798.617484	2590.119640
798.938938	2587.742736
799.260346	2584.297108
799.581709	2587.742736
799.903026	2585.519587
800.224299	2582.247879
800.545526	2581.958012
800.866708	2581.128742
801.187845	2577.713361
801.508936	2581.330389
801.829983	2581.519432
802.150984	2575.553226
802.471940	2579.757549
802.792851	2577.983063
803.113717	2579.828125
803.434538	2579.593711
803.755314	2577.794019
804.076045	2577.302507
804.396731	2577.075655
804.717372	2576.606827
805.037967	2576.742939
805.358518	2574.643298
805.679024	2579.127404
805.999485	2577.569688
806.319901	2579.699575
806.640272	2576.006930
806.960598	2576.614389
807.280879	2578.789647
807.601115	2584.355081
807.921306	2578.479616
808.241453	2577.347877
808.561554	2578.073803
808.881611	2578.870306
809.201623	2579.717219
809.521590	2580.652353
809.841513	2579.571026
810.161390	2579.966757
810.481223	2577.912486
810.801011	2578.285532
811.120755	2578.378793
811.440453	2578.930799
811.760107	2578.179667
812.079716	2576.816035
812.399281	2573.168761
812.718801	2574.093812
813.038276	2575.646488
813.357707	2577.884760
813.677093	2578.887950
813.996434	2579.480285
814.315731	2580.518763
814.634983	2577.042887
814.954191	2579.235789
815.273354	2582.023547
815.592473	2580.803588
815.911547	2581.148907
816.230577	2584.342478
816.549562	2582.908270
816.868502	2580.974987
817.187399	2585.282653
817.506250	2590.434712
817.825058	2590.285998
818.143821	2590.245669
818.462539	2592.156267
818.781213	2592.836822
819.099843	2598.518203
819.418429	2605.006168
819.736970	2613.311469
820.055466	2621.021913
820.373919	2636.213431
820.692327	2655.105155
821.010691	2670.553771
821.329011	2710.358721
821.647286	2779.762807
821.965517	2885.800958
822.283704	2930.541198
822.601847	2949.372428
822.919945	2941.354473
823.237999	2928.870055
823.556010	2870.526261
823.873976	2819.222439
824.191897	2778.610903
824.509775	2747.338105
824.827609	2711.157744
825.145398	2696.913964
825.463144	2698.698532
825.780845	2704.216075
826.098502	2710.653629
826.416116	2738.032135
826.733685	2768.568925
827.051210	2780.397992
827.368692	2770.413987
827.686129	2753.057294
828.003522	2712.355018
828.320872	2681.127591
828.638177	2660.831905
828.955439	2636.755355
829.272656	2625.654734
829.589830	2614.841459
829.906960	2609.316354
830.224046	2600.925354
830.541088	2602.014243
830.858086	2596.093408
831.175041	2597.210023
831.491952	2596.257245
831.808819	2599.165991
832.125642	2600.816969
832.442421	2607.458689
832.759157	2616.797427
833.075849	2641.168885
833.392497	2666.334325
833.709101	2693.556556
834.025662	2696.876155
834.342179	2680.313444
834.658653	2660.085815
834.975083	2639.701909
835.291469	2631.741927
835.607811	2615.978239
835.924110	2605.815273
836.240366	2596.264807
836.556578	2591.541246
836.872746	2589.534867
837.188871	2581.083372
837.504952	2579.555902
837.820990	2580.934658
838.136984	2575.384348
838.452935	2577.294945
838.768842	2574.439131
839.084706	2575.643967
839.400526	2587.493199
839.716303	2602.745210
840.032037	2614.294494
840.347727	2613.298866
840.663373	2612.272991
840.978977	2603.990375
841.294537	2590.654003
841.610054	2583.553537
841.925527	2579.076993
842.240957	2577.441138
842.556344	2571.797567
842.871687	2569.294634
843.186987	2566.877401
843.502244	2566.983265
843.817458	2565.617112
844.132629	2561.916905
844.447756	2561.654765
844.762840	2560.291133
845.077881	2559.708880
845.392879	2558.942624
845.707833	2560.333983
846.022745	2556.442212
846.337613	2560.936401
846.652438	2562.201730
846.967221	2559.867676
847.281960	2560.911195
847.596656	2561.526216
847.911309	2558.874569
848.225919	2558.854404
848.540485	2558.743499
848.855009	2560.381874
849.169490	2559.696277
849.483928	2556.994218
849.798323	2559.981102
850.112675	2558.882131
850.426984	2554.861810
850.741251	2558.120916
851.055474	2557.357182
851.369654	2558.728375
851.683792	2556.129661
851.997887	2558.294836
852.311938	2560.129816
852.625947	2558.655279
852.939914	2559.877758
853.253837	2560.056719
853.567718	2557.979764
853.881555	2562.789025
854.195350	2559.837429
854.509103	2560.906154
854.822812	2560.608726
855.136479	2558.541853
855.450103	2558.304918
855.763685	2561.526216
856.077224	2558.874569
856.390720	2560.089487
856.704173	2559.088818
857.017584	2559.865156
857.330953	2562.277348
857.644278	2561.490928
857.957561	2563.792214
858.270802	2562.453788
858.584000	2561.223747
858.897155	2561.299364
859.210268	2560.427244
859.523339	2559.560166
859.836367	2557.417675
860.149352	2560.041596
860.462295	2562.529405
860.775195	2556.296019
861.088054	2556.870710
861.400869	2558.352809
861.713642	2554.753426
862.026373	2557.856256
862.339062	2563.265414
862.651708	2562.161401
862.964312	2560.800290
863.276873	2559.308108
863.589392	2562.713408
863.901869	2559.789538
864.214303	2562.484035
864.526696	2564.714746
864.839045	2563.512430
865.151353	2564.681978
865.463619	2562.978068
865.775842	2565.516289
866.088023	2565.382698
866.400162	2564.676937
866.712258	2565.806155
867.024313	2564.845816
867.336325	2564.324056
867.648296	2564.976886
867.960224	2565.856567
868.272110	2566.035528
868.583954	2564.515620
868.895755	2563.111659
869.207515	2566.847154
869.519233	2566.166598
869.830909	2567.721794
870.142542	2566.985785
870.454134	2566.262380
870.765684	2568.193142
871.077191	2567.066444
871.388657	2570.181877
871.700081	2568.293965
872.011463	2565.982596
872.322803	2566.721125
872.634101	2567.981413
872.945357	2570.837227
873.256571	2570.479305
873.567744	2569.403019
873.878874	2573.693041
874.189963	2572.223544
874.501010	2571.963925
874.812015	2574.166909
875.122979	2572.911662
875.433900	2571.646332
875.744780	2570.764130
876.055618	2571.099367
876.366415	2573.849316
876.677169	2574.615572
876.987882	2575.049111
877.298554	2570.333112
877.609183	2575.296127
877.919771	2576.311920
878.230317	2578.986252
878.540822	2581.731160
878.851285	2588.718200
879.161707	2592.859507
879.472087	2602.954418
879.782425	2611.605038
880.092722	2633.425672
880.402977	2662.490445
880.713191	2692.402131
881.023363	2721.769373
881.333494	2736.262690
881.643583	2759.396545
881.953631	2772.027156
882.263637	2764.750251
882.573602	2740.048597
882.883526	2728.350599
883.193408	2711.107333
883.503248	2700.924202
883.813048	2683.549865
884.122806	2661.767039
884.432522	2647.271202
884.742197	2633.324849
885.051831	2625.379991
885.361424	2617.853548
885.670975	2612.935903
885.980485	2605.827876
886.289954	2598.931577
886.599382	2595.211206
886.908768	2593.164497
887.218113	2587.538570
887.527417	2584.410534
887.836680	2583.402303
888.145901	2583.641758
888.455082	2580.034812
888.764221	2577.141190
889.073319	2572.536096
889.382376	2575.263360
889.691392	2572.102557
890.000366	2575.061714
890.309300	2575.223031
890.618193	2575.323854
890.927044	2577.937692
891.235855	2577.254616
891.544625	2574.305541
891.853353	2575.878381
892.162041	2578.935841
892.470687	2582.636047
892.779293	2585.827098
893.087858	2584.743250
893.396381	2586.868096
893.704864	2598.926536
894.013306	2608.998762
894.321707	2628.979375
894.630068	2638.860036
894.938387	2645.738691
895.246665	2650.245482
895.554903	2644.543937
895.863100	2638.338277
896.171256	2625.495938
896.479371	2607.927516
896.787446	2602.273862
897.095480	2595.498552
897.403473	2594.611308
897.711425	2592.274734
898.019336	2587.205853
898.327207	2580.697724
898.635038	2582.051274
898.942827	2579.187898
899.250576	2578.109091
899.558284	2575.659091
899.865952	2573.423339
900.173579	2572.558781
900.481165	2575.165058
900.788711	2572.306723
901.096216	2571.767320
901.403681	2567.089129
901.711105	2569.052658
902.018489	2568.132648
902.325832	2572.946950
902.633135	2569.314798
902.940397	2573.209090
903.247619	2583.800554
903.554800	2593.900506
903.861941	2620.817747
904.169041	2642.640902
904.476101	2654.553148
904.783121	2655.347130
905.090100	2650.371511
905.397039	2638.912968
905.703938	2627.809827
906.010796	2610.443052
906.317614	2599.092894
906.624391	2590.893457
906.931129	2583.379618
907.237826	2577.915007
907.544483	2573.945098
907.851099	2567.242884
908.157675	2565.846485
908.464211	2565.077709
908.770707	2558.869528
909.077163	2558.430947
909.383578	2555.169321
909.689954	2555.320555
909.996289	2553.213353
910.302584	2558.466235
910.608839	2556.550597
910.915054	2558.168807
911.221229	2558.937583
911.527363	2560.923798
911.833458	2557.455484
912.139513	2560.757440
912.445527	2559.663509
912.751502	2561.281720
913.057436	2561.344734
913.363331	2566.063254
913.669186	2567.941084
913.975000	2569.960066
914.280775	2574.981055
914.586510	2578.545151
914.892205	2586.268199
915.197859	2601.426948
915.503475	2617.982098
915.809050	2630.620270
916.114585	2633.768471
916.420081	2634.718728
916.725536	2644.458238
917.030952	2639.694347
917.336328	2627.913171
917.641665	2619.907818
917.946961	2605.749738
918.252218	2599.165991
918.557435	2592.330186
918.862612	2587.019331
919.167750	2583.747622
919.472848	2578.071283
919.777906	2575.447362
920.082925	2571.197669
920.387904	2566.738769
920.692843	2568.377144
920.997743	2569.092988
921.302603	2564.397153
921.607423	2562.226936
921.912204	2562.322718
922.216946	2561.818603
922.521647	2559.792059
922.826310	2562.068140
923.130932	2561.984961
923.435516	2558.027655
923.740059	2556.205278
924.044564	2555.587737
924.349028	2554.650082
924.653454	2550.523897
924.957840	2550.191181
925.262186	2549.636654
925.566493	2551.552293
925.870761	2547.917621
926.174989	2550.347457
926.479178	2551.915256
926.783328	2549.934083
927.087438	2549.518187
927.391509	2551.320400
927.695541	2550.241593
927.999533	2549.530790
928.303486	2549.039278
928.607400	2547.915100
928.911275	2548.699000
929.215110	2549.603887
929.518906	2547.383259
929.822663	2547.199257
930.126381	2549.326623
930.430060	2549.533311
930.733699	2546.750594
931.037299	2548.162117
931.340861	2547.834442
931.644383	2547.731098
931.947866	2548.124308
932.251309	2549.291335
932.554714	2547.219421
932.858080	2550.818805
933.161407	2549.356870
933.464694	2547.098433
933.767943	2545.820501
934.071153	2548.469627
934.374323	2547.481561
934.677455	2549.455173
934.980548	2547.211859
935.283602	2547.191695
935.586617	2546.483413
935.889593	2548.998948
936.192530	2546.405275
936.495428	2549.918959
936.798287	2545.787733
937.101108	2546.289328
937.403890	2548.489792
937.706632	2550.748229
938.009336	2549.180430
938.312002	2552.631100
938.614628	2553.644372
938.917216	2555.985988
939.219765	2552.570606
939.522275	2557.314332
939.824747	2554.085473
940.127179	2550.954916
940.429573	2545.381921
940.731929	2549.190512
941.034246	2547.416026
941.336524	2549.457693
941.638763	2552.005997
941.940964	2554.133364
942.243126	2548.517518
942.545250	2549.908877
942.847335	2549.185471
943.149381	2548.008362
943.451389	2550.198743
943.753359	2548.913249
944.055290	2549.485420
944.357182	2548.676315
944.659036	2548.658671
944.960851	2547.993238
945.262628	2546.995090
945.564367	2547.531973
945.866067	2547.995759
946.167729	2550.728064
946.469352	2547.310162
946.770937	2548.981304
947.072484	2548.777138
947.373992	2548.494833
947.675462	2546.453166
947.976893	2548.104144
948.278286	2546.107847
948.579641	2548.951058
948.880958	2548.946016
949.182236	2546.110367
949.483476	2546.259081
949.784678	2547.592467
950.085841	2548.517518
950.386967	2546.564071
950.688054	2547.451314
950.989103	2549.316541
951.290114	2547.882333
951.591087	2548.444422
951.892021	2549.122457
952.192917	2548.845193
952.493776	2548.431819
952.794596	2549.248486
953.095378	2549.432488
953.396122	2551.542211
953.696828	2547.315203
953.997496	2549.719833
954.298126	2549.334185
954.598718	2546.642209
954.899272	2550.191181
955.199788	2544.550130
955.500266	2546.352343
955.800706	2544.923176
956.101108	2540.131559
956.401472	2542.629451
956.701798	2539.438400
957.002087	2542.311858
957.302337	2544.633309
957.602550	2545.492826
957.902724	2541.575849
958.202861	2544.169523
958.502960	2546.097764
958.803022	2542.969728
959.103045	2546.470810
959.403031	2544.572815
959.702979	2545.144986
960.002889	2544.401416
960.302762	2540.733977
960.602596	2544.890408
960.902393	2543.378062
961.202153	2547.917621
961.501875	2541.626261
961.801559	2542.193391
962.101205	2543.627599
962.400814	2543.378062
962.700385	2542.135418
962.999918	2543.990562
963.299414	2545.908721
963.598873	2545.351674
963.898293	2543.501570
964.197677	2545.238248
964.497022	2541.648946
964.796331	2540.005530
965.095601	2543.413350
965.394835	2542.589121
965.694030	2544.489636
965.993189	2541.051569
966.292309	2540.839841
966.591393	2541.026364
966.890439	2543.350336
967.189447	2542.271529
967.488419	2541.517876
967.787353	2542.747918
968.086249	2544.817311
968.385108	2541.321271
968.683930	2546.816129
968.982714	2541.883360
969.281462	2544.933258
969.580172	2543.912424
969.878844	2542.717671
970.177480	2542.047197
970.476078	2545.475182
970.774639	2546.175902
971.073162	2542.931920
971.371649	2543.057949
971.670098	2538.936805
971.968510	2541.258257
972.266885	2537.270704
972.565223	2542.326981
972.863524	2543.403268
973.161788	2544.900490
973.460014	2540.398740
973.758204	2546.533824
974.056356	2543.678011
974.354471	2545.674307
974.652550	2542.763041
974.950591	2542.778165
975.248595	2543.433515
975.546563	2541.159954
975.844493	2541.596014
976.142386	2545.202960
976.440243	2540.154244
976.738062	2543.577187
977.035845	2544.834955
977.333590	2542.153062
977.631299	2540.058462
977.928971	2542.775644
978.226606	2544.598021
978.524204	2541.860675
978.821765	2540.580222
979.119290	2538.833462
979.416777	2542.387475
979.714228	2542.785726
980.011642	2542.705068
980.309020	2544.144317
980.606360	2543.375541
980.903664	2542.523586
981.200931	2541.437218
981.498162	2544.676159
981.795356	2541.248174
982.092513	2546.604400
982.389633	2545.281098
982.686717	2547.244627
982.983764	2546.470810
983.280775	2547.773948
983.577749	2547.350491
983.874686	2547.776469
984.171587	2546.185985
984.468451	2544.126673
984.765279	2543.872095
985.062070	2543.365459
985.358824	2545.654143
985.655543	2542.069882
985.952224	2544.086344
986.248869	2543.980480
986.545478	2540.020653
986.842050	2541.505273
987.138586	2540.267670
987.435086	2541.245654
987.731549	2537.353883
988.027975	2543.877136
988.324366	2541.865716
988.620719	2541.800181
988.917037	2540.423946
989.213318	2545.664225
989.509563	2544.726571
989.805772	2541.908566
990.101944	2542.057280
990.398080	2541.699358
990.694180	2541.603576
990.990244	2541.167516
991.286271	2541.192722
991.582262	2541.984183
991.878217	2539.970242
992.174136	2542.710109
992.470019	2542.934440
992.765865	2543.100798
993.061676	2538.238606
993.357450	2541.149872
993.653188	2540.844882
993.948890	2542.601724
994.244556	2542.952084
994.540186	2541.533000
994.835780	2541.341436
995.131337	2543.151210
995.426859	2541.648946
995.722345	2543.284801
996.017795	2541.938812
996.313208	2542.952084
996.608586	2545.039122
996.903928	2544.711447
997.199234	2544.449307
997.494504	2545.160110
997.789738	2544.192208
998.084936	2543.501570
998.380099	2541.459903
998.675225	2543.040305
998.970316	2545.588608
999.265371	2541.901004
999.560390	2541.422094
999.855373	2542.016950
1000.150320	2541.333874
1000.445232	2541.792619
1000.740108	2542.024512
1001.034948	2543.602393
1001.329752	2538.825900
1001.624521	2540.658359
1001.919254	2535.866743
1002.213951	2540.255067
1002.508613	2537.462268
1002.803239	2539.246836
1003.097829	2537.530323
1003.392384	2542.299255
1003.686903	2538.140303
1003.981386	2538.523431
1004.275834	2543.035263
1004.570246	2542.142979
1004.864623	2539.516538
1005.158964	2540.950746
1005.453270	2540.776827
1005.747540	2540.814635
1006.041775	2541.744728
1006.335974	2540.860006
1006.630138	2541.444779
1006.924266	2542.281611
1007.218359	2541.076775
1007.512416	2539.234233
1007.806438	2541.313709
1008.100425	2543.640202
1008.394376	2539.398071
1008.688292	2542.135417
1008.982172	2539.314892
1009.276017	2543.985521
1009.569827	2540.234903
1009.863602	2542.826056
1010.157341	2540.522248
1010.451045	2540.751621
1010.744714	2537.479912
1011.038347	2540.827238
1011.331945	2537.651311
1011.625508	2540.945705
1011.919036	2539.990407
1012.212528	2537.316074
1012.505986	2537.416897
1012.799408	2539.282124
1013.092795	2541.008720
1013.386147	2541.787578
1013.679464	2538.069727
1013.972745	2541.011240
1014.265992	2538.256250
1014.559204	2543.557023
1014.852380	2542.377393
1015.145521	2542.541230
1015.438628	2539.617361
1015.731699	2541.230530
1016.024736	2541.855633
1016.317737	2539.781199
1016.610703	2541.759852
1016.903635	2539.806404
1017.196531	2537.794984
1017.489393	2537.497556
1017.782219	2538.296579
1018.075011	2537.800025
1018.367768	2540.842362
1018.660490	2542.538710
1018.953177	2542.538710
1019.245829	2542.538710
