Dividing Wavelength (nm)	Counts (n)	Blue Motor Position (mm): 27.100000	Red Motor Position (mm): 0.000000	
326.493990	2134.429580
326.888308	2134.429580
327.282561	2134.429580
327.676750	2100.099322
328.070874	2097.288879
328.464933	2100.903386
328.858929	2106.612493
329.252859	2117.135901
329.646726	2126.474639
330.040528	2142.200518
330.434265	2161.046872
330.827938	2176.283759
331.221547	2192.042406
331.615091	2211.891950
332.008571	2229.883828
332.401986	2255.044227
332.795338	2272.748759
333.188625	2293.271296
333.581847	2309.279480
333.975006	2326.396718
334.368100	2347.955213
334.761129	2361.967100
335.154095	2380.810933
335.546996	2402.838254
335.939833	2422.274423
336.332606	2441.430808
336.725315	2452.521346
337.117960	2460.168777
337.510540	2469.741928
337.903056	2481.744915
338.295508	2487.040647
338.687896	2496.341576
339.080220	2504.583862
339.472480	2514.111643
339.864676	2517.295132
340.256807	2521.882582
340.648875	2522.162366
341.040879	2527.480783
341.432818	2529.474560
341.824694	2529.303160
342.216506	2530.379447
342.608253	2533.099149
342.999937	2531.307019
343.391557	2530.213089
343.783113	2527.241328
344.174605	2527.639580
344.566033	2525.925587
344.957397	2524.292253
345.348697	2523.009280
345.739934	2518.943589
346.131106	2519.503157
346.522215	2517.229597
346.913260	2514.857734
347.304241	2512.483351
347.695159	2511.086951
348.086012	2508.599142
348.476802	2506.166785
348.867528	2506.262567
349.258191	2506.915396
349.648789	2504.251146
350.039324	2505.750890
350.429796	2501.559170
350.820203	2499.978768
351.210548	2498.229488
351.600828	2498.479025
351.991045	2496.460043
352.381198	2498.163953
352.771288	2496.165136
353.161314	2491.693632
353.551276	2496.752430
353.941175	2495.040958
354.331010	2496.762512
354.720782	2495.870228
355.110490	2497.198572
355.500135	2497.465753
355.889717	2496.089518
356.279235	2496.386946
356.668689	2497.496000
357.058080	2493.707573
357.447408	2494.801503
357.836672	2493.183293
358.225873	2493.142964
358.615010	2493.962151
359.004084	2499.063799
359.393095	2500.434993
359.782043	2498.839468
360.170927	2502.660662
360.559748	2502.096053
360.948505	2500.961793
361.337199	2502.650580
361.725830	2501.473471
362.114398	2503.189983
362.502903	2502.650580
362.891344	2502.280055
363.279722	2505.201404
363.668037	2502.660662
364.056289	2508.117711
364.444478	2504.362052
364.832603	2505.579490
365.220665	2508.463030
365.608665	2506.791888
365.996601	2506.686024
366.384474	2509.579646
366.772284	2509.249450
367.160031	2507.578308
367.547715	2507.689213
367.935336	2508.989831
368.322893	2509.025119
368.710388	2510.250119
369.097820	2512.795902
369.485189	2508.715088
369.872495	2512.430418
370.259738	2509.488905
370.646918	2510.635768
371.034035	2509.425891
371.421090	2510.413957
371.808081	2511.714575
372.195010	2510.519821
372.581875	2508.437825
372.968678	2513.184071
373.355418	2513.040398
373.742096	2514.242713
374.128710	2516.357477
374.515262	2514.530059
374.901751	2513.184071
375.288177	2512.569050
375.674540	2513.862106
376.060841	2515.520646
376.447079	2514.030985
376.833254	2515.077024
377.219367	2510.998731
377.605417	2515.303876
377.991404	2511.117198
378.377329	2511.530572
378.763191	2511.528052
379.148991	2518.590708
379.534727	2513.620131
379.920402	2516.092817
380.306013	2515.681963
380.691563	2519.094824
381.077049	2517.542148
381.462474	2517.469052
381.847835	2518.540297
382.233134	2517.942920
382.618371	2515.916376
383.003545	2517.877385
383.388657	2518.298322
383.773706	2517.801768
384.158693	2517.983249
384.543618	2518.593229
384.928480	2516.453259
385.313280	2522.941224
385.698017	2518.237828
386.082692	2520.987777
386.467305	2519.596419
386.851856	2521.048271
387.236344	2518.414268
387.620770	2521.572551
388.005133	2520.690349
388.389435	2519.772859
388.773674	2520.934845
389.157851	2519.538445
389.541965	2522.737058
389.926018	2522.036337
390.310008	2523.142870
390.693936	2522.812675
391.077802	2521.348220
391.461606	2524.753519
391.845348	2522.585823
392.229027	2525.063550
392.612645	2524.609846
392.996200	2521.859897
393.379694	2524.269568
393.763125	2523.921729
394.146494	2522.036337
394.529801	2527.505989
394.913047	2524.758560
395.296230	2527.637059
395.679351	2525.912984
396.062410	2526.238139
396.445408	2524.332583
396.828343	2522.409382
397.211217	2519.828312
397.594028	2523.331914
397.976778	2524.256965
398.359466	2525.413910
398.742092	2524.619928
399.124656	2528.783922
399.507158	2526.941380
399.889598	2527.057326
400.271977	2528.925074
400.654294	2527.190917
401.036549	2529.653521
401.418742	2528.718387
401.800874	2528.972965
402.182944	2528.877183
402.564952	2529.988757
402.946898	2531.808614
403.328783	2530.996988
403.710606	2530.492873
404.092367	2531.349869
404.474067	2530.444982
404.855705	2530.873480
405.237282	2531.566638
405.618797	2529.446833
406.000250	2529.209899
406.381642	2530.601258
406.762972	2533.623429
407.144240	2531.387677
407.525447	2531.954807
407.906593	2532.287523
408.287677	2531.589324
408.668700	2532.247194
409.049661	2534.790456
409.430560	2531.012112
409.811399	2535.413039
410.192176	2534.755168
410.572891	2532.963038
410.953545	2532.831968
411.334138	2535.017308
411.714669	2538.556198
412.095139	2533.925898
412.475547	2534.641742
412.855894	2533.535209
413.236180	2534.735004
413.616405	2536.219623
413.996568	2535.125693
414.376670	2538.014274
414.756711	2537.174922
415.136691	2539.105684
415.516609	2537.666435
415.896466	2536.131403
416.276262	2539.642567
416.655997	2532.312729
417.035670	2531.727955
417.415283	2535.183666
417.794834	2532.617719
418.174324	2536.935467
418.553753	2537.409336
418.933121	2538.886394
419.312428	2536.128883
419.691674	2537.056455
420.070859	2537.507638
420.449983	2537.807587
420.829045	2538.168029
421.208047	2540.529810
421.586988	2541.298586
421.965867	2540.045859
422.344686	2539.917310
422.723444	2540.396219
423.102141	2539.206507
423.480777	2541.868236
423.859352	2541.270860
424.237866	2541.472506
424.616319	2543.017619
424.994712	2540.242464
425.373044	2539.635005
425.751314	2543.340253
426.129524	2541.681714
426.507673	2544.305634
426.885762	2541.172557
427.263789	2545.492826
427.641756	2542.334543
428.019662	2544.345963
428.397508	2544.096426
428.775292	2543.811601
429.153016	2541.807742
429.530679	2543.980480
429.908282	2546.581715
430.285824	2549.782848
430.663305	2543.788916
431.040726	2545.823022
431.418086	2546.153217
431.795385	2550.279402
432.172624	2547.983156
432.549802	2547.514329
432.926920	2548.898125
433.303977	2550.052550
433.680974	2551.264947
434.057910	2551.227138
434.434786	2551.138918
434.811601	2550.100441
435.188355	2550.274360
435.565050	2550.763352
435.941683	2552.971378
436.318257	2551.416182
436.694770	2552.290822
437.071222	2554.745864
437.447614	2555.484393
437.823946	2557.594116
438.200218	2562.022769
438.576429	2566.027966
438.952580	2568.765313
439.328670	2569.423183
439.704700	2573.766137
440.080670	2576.132959
440.456580	2581.335430
440.832429	2585.486820
441.208218	2587.467993
441.583947	2597.220106
441.959616	2602.530961
442.335224	2605.979110
442.710773	2612.948506
443.086261	2623.492079
443.461689	2625.604322
443.837057	2637.856847
444.212365	2649.012920
444.587612	2656.574651
444.962800	2668.479336
445.337927	2680.447035
445.712995	2677.618948
446.088002	2707.820500
446.462949	2714.870554
446.837837	2724.388252
447.212664	2742.957343
447.587431	2768.773092
447.962139	2820.228149
448.336786	2892.929149
448.711374	2894.408728
449.085901	2855.632172
449.460369	2867.693133
449.834776	2882.204094
450.209124	2937.802980
450.583412	2983.511122
450.957640	3012.648991
451.331808	3021.203829
451.705917	3000.010818
452.079965	3015.915659
452.453954	3068.991447
452.827883	3080.076944
453.201752	3119.075311
453.575562	3123.854324
453.949311	3183.218952
454.323001	3201.107487
454.696632	3241.403950
455.070202	3300.168680
455.443713	3361.995912
455.817164	3421.075714
456.190556	3475.454641
456.563888	3536.649207
456.937160	3581.134869
457.310373	3552.117988
457.683526	3599.585492
458.056619	3621.680870
458.429653	3663.587982
458.802628	3693.237528
459.175542	3761.446860
459.548398	3912.938574
459.921194	4009.678317
460.293930	4065.131009
460.666607	4293.608704
461.039224	4453.887149
461.411782	4556.348601
461.784280	4622.622130
462.156719	4644.813290
462.529099	4670.102238
462.901419	4582.066048
463.273680	4597.350826
463.645882	4653.836955
464.018024	4678.447868
464.390106	4803.745747
464.762130	5032.299059
465.134094	5312.496472
465.505999	5853.513103
465.877845	6504.769686
466.249631	6886.231277
466.621358	6806.576005
466.993026	6610.638958
467.364634	6569.878709
467.736184	6477.726417
468.107674	6382.713269
468.479105	6493.575804
468.850477	6428.517193
469.221790	6381.004318
469.593043	6274.177227
469.964238	6272.357371
470.335373	6351.785791
470.706449	6454.123734
471.077467	6512.747312
471.448425	7418.153667
471.819324	8192.865587
472.190164	8290.908467
472.560945	7536.792181
472.931667	7081.412151
473.302330	7052.793521
473.672934	6865.549944
474.043479	7187.959458
474.413965	7197.832558
474.784393	7181.811771
475.154761	7350.239242
475.525070	7486.587330
475.895321	7402.268991
476.265513	7593.742096
476.635645	7784.791745
477.005719	7847.622166
477.375734	7994.493662
477.745691	8231.556443
478.115588	8402.282679
478.485427	8654.027820
478.855207	9146.939240
479.224928	9869.911278
479.594591	10446.594072
479.964194	10358.499909
480.333739	10376.685871
480.703226	10384.998734
481.072653	10509.363999
481.442022	10763.259192
481.811333	10974.246604
482.180584	10865.317352
482.549777	10655.955712
482.918912	10544.284072
483.287988	10603.300860
483.657005	10659.103912
484.025964	10417.057952
484.394864	10576.250028
484.763706	10586.211348
485.132489	10400.175127
485.501213	10400.379294
485.869879	10499.203554
486.238487	10389.427387
486.607036	10518.150730
486.975527	10341.992650
487.343959	10541.382888
487.712333	10610.804617
488.080648	10560.551875
488.448905	10630.848245
488.817104	10593.221073
489.185244	10870.368588
489.553326	11035.385718
489.921350	11574.159035
490.289315	12599.842279
490.657222	12948.584261
491.025070	12877.483827
491.392861	12774.790482
491.760593	12418.789239
492.128267	12103.505395
492.495883	11798.104733
492.863440	11477.918367
493.230939	11156.456589
493.598380	11106.876841
493.965763	10980.820269
494.333088	10888.020188
494.700354	10818.830352
495.067563	10888.022709
495.434713	10720.018695
495.801805	10847.753972
496.168839	10779.126224
496.535815	10725.563964
496.902733	10728.830632
497.269593	10663.787144
497.636395	10768.232290
498.003139	10762.959243
498.369825	10634.440067
498.736453	10791.653491
499.103023	10715.300175
499.469535	10750.018602
499.835989	10747.371996
500.202385	10709.427231
500.568723	10558.074148
500.935003	10786.284662
501.301226	10596.603687
501.667390	10850.120793
502.033497	10948.428335
502.399546	10811.424897
502.765537	10719.983407
503.131470	10798.675818
503.497345	10964.842332
503.863163	10587.111194
504.228923	10899.476210
504.594625	10957.083996
504.960269	10708.779443
505.325856	10929.027454
505.691385	10720.401823
506.056856	10877.635411
506.422270	10898.503267
506.787625	10793.609459
507.152924	10908.860318
507.518164	10895.924717
507.883347	10811.213168
508.248472	10734.113761
508.613540	10966.458021
508.978550	10849.636843
509.343503	10835.458597
509.708398	10949.807090
510.073236	11060.009234
510.438016	11069.529453
510.802738	11012.289672
511.167403	11066.557693
511.532010	10965.316200
511.896561	11189.735766
512.261053	11269.330544
512.625488	11136.791048
512.989866	11119.595672
513.354186	11105.268713
513.718449	11007.001501
514.082655	11200.453259
514.446803	11101.402148
514.810894	11224.905376
515.174927	11090.543503
515.538904	11113.321956
515.902822	11272.745926
516.266684	11154.334263
516.630488	11091.463513
516.994235	11146.071812
517.357925	11212.148736
517.721558	11294.387600
518.085133	11309.143057
518.448651	11324.110243
518.812112	11207.868797
519.175516	11225.863195
519.538863	11342.064312
519.902152	11263.029102
520.265385	11426.327199
520.628560	11327.462610
520.991678	11308.817902
521.354739	11377.422965
521.717743	11309.627008
522.080690	11287.201435
522.443580	11421.737228
522.806413	11374.395752
523.169189	11404.499003
523.531908	11469.121554
523.894569	11284.537185
524.257174	11292.154368
524.619722	11405.141750
524.982213	11353.101918
525.344647	11410.366906
525.707025	11365.268743
526.069345	11451.671600
526.431608	11368.968950
526.793815	11478.437606
527.155964	11270.805082
527.518057	11323.220479
527.880093	11271.253745
528.242072	11343.465753
528.603995	11240.379198
528.965860	11167.698362
529.327669	11217.323481
529.689421	11167.910091
530.051117	11140.143415
530.412755	11246.110990
530.774337	11133.408434
531.135862	11111.847419
531.497331	11136.859104
531.858743	10990.965591
532.220098	11156.383492
532.581396	11027.627382
532.942638	11010.857984
533.303824	10971.579834
533.664953	10989.450724
534.026025	10903.733465
534.387040	11003.024031
534.747999	10995.210242
535.108902	11057.050077
535.469748	10818.830352
535.830537	10923.809860
536.191270	10900.111396
536.551947	10922.617627
536.912567	10922.904973
537.273131	10848.157264
537.633638	10825.966105
537.994089	10819.384878
538.354483	10768.985943
538.714821	10910.322253
539.075103	10923.691393
539.435328	10889.003213
539.795497	10710.511079
540.155609	10873.635256
540.515665	10955.334715
540.875665	10704.209637
541.235609	10765.757084
541.595496	10758.563357
541.955328	10911.905175
542.315102	10795.895622
542.674821	10746.845195
543.034483	10747.059444
543.394090	10747.487942
543.753640	10680.760709
544.113134	10903.831767
544.472571	10753.804508
544.831953	10901.437219
545.191278	10704.633093
545.550548	10735.215253
545.909761	10871.485203
546.268918	10849.520896
546.628019	10927.177351
546.987064	10788.729622
547.346053	10718.760927
547.704986	10807.598661
548.063863	10797.307145
548.422684	10791.482092
548.781449	10709.210461
549.140158	10810.257869
549.498811	10686.676503
549.857408	10547.822962
550.215949	10771.839236
550.574434	10622.696699
550.932864	10726.476413
551.291237	10787.562595
551.649555	10732.666950
552.007817	10739.192724
552.366022	10703.150994
552.724173	10693.885353
553.082267	10684.788591
553.440305	10824.151289
553.798288	10621.754004
554.156215	10775.294947
554.514086	10752.246792
554.871902	10601.097876
555.229661	10638.036931
555.587365	10615.029104
555.945014	10504.174131
556.302606	10630.863369
556.660143	10527.865034
557.017625	10685.017964
557.375050	10581.457540
557.732421	10711.615092
558.089735	10624.957657
558.446994	10630.248348
558.804197	10668.785448
559.161345	10660.709520
559.518437	10516.842551
559.875474	10603.565521
560.232455	10632.037957
560.589381	10589.170506
560.946251	10580.262787
561.303065	10686.270691
561.659825	10625.111412
562.016528	10548.717767
562.373177	10438.235839
562.729770	10541.619822
563.086307	10462.579571
563.442789	10559.823429
563.799216	10433.184603
564.155587	10482.252674
564.511904	10435.836250
564.868164	10430.603532
565.224370	10442.445202
565.580520	10360.483603
565.936615	10373.469615
566.292654	10240.320139
566.648638	10371.821158
567.004567	10327.544703
567.360441	10309.089039
567.716260	10224.259023
568.072023	10316.673455
568.427732	10262.410475
568.783385	10178.596251
569.138982	10252.955791
569.494525	10267.335683
569.850013	10139.386157
570.205445	10221.327592
570.560823	10120.837231
570.916145	10041.232371
571.271412	10114.192990
571.626625	10055.024968
571.981782	10031.505464
572.336884	9999.184107
572.691931	10006.589562
573.046923	9953.286921
573.401860	9911.374768
573.756743	9849.534934
574.111570	9893.541687
574.466342	9871.748778
574.821059	9899.848170
575.175722	9801.598602
575.530330	9804.724117
575.884882	9797.898395
576.239380	9723.732940
576.593823	9697.602119
576.948211	9715.979645
577.302544	9602.339435
577.656823	9613.903842
578.011047	9616.963822
578.365216	9586.961395
578.719330	9513.063121
579.073389	9524.272126
579.427394	9471.355134
579.781344	9446.575343
580.135239	9397.350996
580.489080	9403.526409
580.842866	9313.617430
581.196597	9314.587853
581.550273	9353.767700
581.903895	9328.193927
582.257463	9384.901866
582.610975	9265.078681
582.964434	9294.423237
583.317837	9217.137308
583.671186	9202.044093
584.024481	9195.452784
584.377721	9111.232748
584.730906	9088.429088
585.084037	9122.479562
585.437113	9056.901712
585.790135	9081.000948
586.143103	8977.460689
586.496016	8947.813663
586.848874	9006.666614
587.201679	8993.405859
587.554428	8879.614413
587.907124	8929.582330
588.259765	8897.334069
588.612352	8903.683403
588.964884	8780.921224
589.317362	8795.374212
589.669786	8793.151063
590.022155	8842.214093
590.374470	8849.987552
590.726731	8794.338255
591.078937	8646.788723
591.431090	8764.413966
591.783188	8635.413359
592.135232	8626.714848
592.487222	8624.489179
592.839157	8673.247219
593.191038	8613.817056
593.542866	8561.162204
593.894639	8452.951317
594.246358	8509.576077
594.598022	8523.973613
594.949633	8420.924866
595.301190	8397.042400
595.652692	8427.977440
596.004141	8538.598000
596.355535	8314.735481
596.706876	8294.500289
597.058162	8230.593582
597.409395	8305.553019
597.760573	8369.532823
598.111698	8276.120243
598.462768	8261.142974
598.813785	8232.541988
599.164748	8196.003705
599.515657	8187.804268
599.866511	8099.581555
600.217312	8224.710556
600.568060	8083.061694
600.918753	8189.518261
601.269392	8150.794637
601.619978	8067.204745
601.970510	8127.237325
602.320988	8127.045762
602.671412	8179.912342
603.021783	8123.542160
603.372100	8091.261131
603.722363	8094.043848
604.072572	8070.035353
604.422728	8076.253616
604.772830	8016.730192
605.122878	8018.794544
605.472872	8017.062908
605.822813	8045.525263
606.172701	7989.455029
606.522534	8060.661327
606.872314	8057.359371
607.222041	8034.434724
607.571714	8087.825585
607.921333	8043.017289
608.270899	8052.464411
608.620411	8136.298799
608.969870	8044.096096
609.319276	8035.717698
609.668627	8055.524391
610.017926	8093.562418
610.367171	8137.206207
610.716362	8116.166952
611.065500	8105.956094
611.414585	8133.879046
611.763616	8120.547714
612.112594	8104.254705
612.461518	8116.103937
612.810389	8175.095519
613.159207	8116.945810
613.507971	8066.995537
613.856682	8184.610697
614.205340	8143.220304
614.553945	8216.619504
614.902496	8115.322558
615.250994	8175.609717
615.599439	8155.019124
615.947830	8165.613109
616.296169	8138.138821
616.644454	8154.883013
616.992686	8148.339595
617.340864	8209.080458
617.688990	8110.876261
618.037063	8199.562760
618.385082	8151.568454
618.733048	8235.508707
619.080961	8171.246598
619.428821	8188.431892
619.776628	8184.940893
620.124382	8146.232393
620.472083	8130.294785
620.819731	8154.956110
621.167326	8052.696304
621.514868	8061.825834
621.862357	7948.951878
622.209793	7966.850495
622.557176	7900.287100
622.904506	7874.403295
623.251783	7805.311761
623.599007	7759.444823
623.946179	7762.898013
624.293297	7722.321766
624.640363	7637.668190
624.987376	7625.161088
625.334336	7569.763848
625.681243	7524.411107
626.028097	7508.720516
626.374899	7483.794531
626.721647	7476.005948
627.068343	7410.947337
627.414987	7383.949438
627.761577	7337.686769
628.108115	7372.735391
628.454600	7265.376458
628.801032	7321.900396
629.147412	7278.856503
629.493739	7265.086592
629.840014	7204.398661
630.186236	7257.991168
630.532405	7147.786503
630.878521	7192.889707
631.224585	7150.803634
631.570597	7072.859834
631.916556	7111.628827
632.262462	7107.777386
632.608316	7073.356387
632.954117	7048.619446
633.299866	7032.039091
633.645562	7025.236053
633.991206	6943.803775
634.336797	6883.514095
634.682336	6842.842066
635.027823	6814.142777
635.373257	6806.359236
635.718639	6736.226703
636.063968	6749.646255
636.409245	6642.594833
636.754470	6642.544421
637.099642	6598.832576
637.444762	6542.553134
637.789829	6553.580658
638.134845	6492.575135
638.479808	6481.643393
638.824719	6482.139947
639.169577	6416.234422
639.514383	6434.203615
639.859137	6360.721236
640.203839	6372.394027
640.548489	6359.627305
640.893086	6335.253327
641.237632	6309.611497
641.582125	6328.679662
641.926566	6299.110774
642.270955	6312.608463
642.615292	6303.995652
642.959576	6319.736655
643.303809	6314.438402
643.647990	6318.183980
643.992118	6307.665612
644.336195	6255.787098
644.680219	6280.755933
645.024192	6271.603718
645.368112	6367.655343
645.711981	6385.453137
646.055797	6464.843748
646.399562	6421.555360
646.743274	6546.228136
647.086935	6597.466423
647.430544	6593.433500
647.774101	6618.493076
648.117606	6614.984433
648.461059	6613.262879
648.804460	6576.361633
649.147810	6483.226315
649.491108	6452.815555
649.834354	6430.720177
650.177548	6346.603484
650.520690	6262.375886
650.863781	6242.294450
651.206820	6261.806236
651.549807	6181.107445
651.892742	6118.264421
652.235626	6124.344053
652.578458	6111.232011
652.921238	6023.740266
653.263967	6063.477161
653.606644	6002.045660
653.949269	6001.569271
654.291843	5947.575993
654.634365	5992.651470
654.976836	5952.498680
655.319255	5947.124810
655.661622	5930.110915
656.003938	5920.126910
656.346203	5878.834819
656.688416	5916.855201
657.030577	5865.959712
657.372687	5839.624724
657.714746	5826.558054
658.056753	5868.533221
658.398708	5810.365868
658.740612	5798.335154
659.082465	5850.742989
659.424266	5842.094890
659.766016	5839.027348
660.107715	5813.912319
660.449362	5829.885215
660.790958	5822.688968
661.132503	5810.353265
661.473996	5850.591755
661.815438	5834.208005
662.156829	5834.150031
662.498168	5822.210058
662.839456	5799.925638
663.180693	5835.306976
663.521879	5838.137584
663.863013	5831.175751
664.204097	5842.200754
664.545129	5887.251025
664.886110	5880.783225
665.227040	5922.947436
665.567918	5878.320621
665.908746	5908.509571
666.249522	5914.072484
666.590248	5897.025823
666.930922	5925.089926
667.271545	5935.005876
667.612118	5941.569458
667.952639	5914.211116
668.293109	5937.334889
668.633528	5895.810905
668.973896	5898.399537
669.314213	5889.358228
669.654480	5874.549838
669.994695	5864.671697
670.334859	5858.534093
670.674973	5846.415159
671.015035	5850.473288
671.355047	5847.178893
671.695008	5836.993242
672.034918	5809.735723
672.374777	5821.068237
672.714585	5803.479651
673.054342	5806.721113
673.394049	5802.872192
673.733705	5830.172561
674.073310	5817.373071
674.412864	5776.602740
674.752368	5770.828098
675.091820	5774.067039
675.431223	5712.741403
675.770574	5707.594385
676.109875	5664.588301
676.449125	5672.228170
676.788324	5634.442201
677.127473	5582.651907
677.466571	5568.859310
677.805619	5565.365791
678.144616	5547.124375
678.483562	5529.503022
678.822458	5492.495912
679.161303	5490.663452
679.500098	5478.791535
679.838842	5460.383762
680.177535	5468.099248
680.516179	5486.116332
680.854771	5495.928937
681.193314	5573.459363
681.531805	5681.632442
681.870247	5839.591957
682.208638	5935.540238
682.546978	5945.488955
682.885268	5925.715029
683.223508	5836.670608
683.561697	5786.962311
683.899836	5756.012147
684.237925	5712.413728
684.575963	5676.205640
684.913951	5637.683663
685.251889	5697.877561
685.589776	5667.575185
685.927614	5642.946628
686.265401	5708.194282
686.603137	5691.674421
686.940824	5769.734168
687.278460	5794.720647
687.616046	5802.262213
687.953582	5868.190423
688.291068	5852.598134
688.628504	5911.574593
688.965889	5874.738882
689.303224	5817.352907
689.640510	5776.340600
689.977745	5700.740936
690.314930	5600.258137
690.652065	5544.974323
690.989150	5453.401764
691.326185	5375.284044
691.663170	5323.990303
692.000105	5247.268983
692.336990	5171.364329
692.673825	5145.750227
693.010610	5075.524433
693.347345	5009.379453
693.684030	4995.382690
694.020665	4952.558088
694.357251	4864.539542
694.693786	4873.364082
695.030272	4842.119010
695.366707	4809.490142
695.703093	4771.603350
696.039429	4791.893994
696.375716	4778.282879
696.711952	4749.208024
697.048139	4737.973813
697.384276	4720.256677
697.720363	4729.371084
698.056400	4735.874172
698.392388	4689.487995
698.728326	4667.193492
699.064214	4644.183145
699.400053	4642.176766
699.735842	4609.958752
700.071581	4586.461934
700.407270	4559.232141
700.742910	4540.126168
701.078501	4487.453672
701.414042	4488.126666
701.749533	4456.533755
702.084974	4393.756266
702.420366	4444.278710
702.755709	4388.727715
703.091002	4336.909695
703.426246	4381.352507
703.761440	4337.794418
704.096584	4300.777225
704.431679	4321.962674
704.766725	4310.511693
705.101721	4296.958551
705.436668	4324.450483
705.771565	4271.760343
706.106413	4302.256803
706.441212	4334.225281
706.775961	4340.347762
707.110661	4322.368487
707.445311	4349.774720
707.779913	4373.647104
708.114465	4381.975090
708.448967	4409.013318
708.783421	4471.478256
709.117825	4510.799256
709.452180	4512.288917
709.786485	4560.469745
710.120742	4646.691119
710.454949	4631.587822
710.789107	4694.869427
711.123216	4770.254841
711.457275	4757.480557
711.791286	4836.840922
712.125247	4847.129917
712.459159	4752.530144
712.793023	4826.619982
713.126837	4786.847799
713.460602	4784.186070
713.794318	4696.837997
714.127985	4710.335687
714.461602	4624.389055
714.795171	4593.345629
715.128691	4527.266185
715.462162	4469.734017
715.795584	4427.836987
716.128957	4407.372423
716.462281	4354.052139
716.795556	4324.747911
717.128782	4292.391265
717.461960	4220.723702
717.795088	4229.301225
718.128167	4191.096841
718.461198	4133.811689
718.794180	4125.952530
719.127113	4108.396712
719.459997	4087.949792
719.792833	4043.680899
720.125619	4033.717059
720.458357	4000.599198
720.791046	4007.084643
721.123686	3980.260663
721.456278	3937.294909
721.788821	3954.021457
722.121315	3927.953651
722.453761	3904.590423
722.786158	3916.520314
723.118506	3939.155095
723.450805	3889.527456
723.783056	3908.716608
724.115259	3928.593877
724.447412	3934.330711
724.779518	3924.200512
725.111574	3927.202519
725.443582	3956.390800
725.775542	3945.910241
726.107453	3995.487468
726.439315	3992.256089
726.771129	4009.806866
727.102895	4045.057134
727.434612	4092.595215
727.766281	4103.829426
728.097901	4103.284982
728.429473	4112.049028
728.760996	4114.894759
729.092471	4113.248822
729.423897	4095.650154
729.755276	4102.548973
730.086606	4100.817337
730.417887	4137.063233
730.749120	4204.886917
731.080305	4267.916463
731.411442	4294.816060
731.742530	4265.136267
732.073570	4265.136267
732.404562	4322.078620
732.735506	4316.150223
733.066401	4269.638018
733.397249	4209.456723
733.728048	4135.492914
734.058798	4050.178947
734.389501	3981.241168
734.720156	3920.898556
735.050762	3877.010271
735.381320	3870.640773
735.711831	3818.114470
736.042293	3789.142959
736.372707	3809.365548
736.703073	3786.647588
737.033391	3774.135444
737.363661	3792.994401
737.693883	3820.594718
738.024056	3824.872137
738.354182	3823.180830
738.684260	3886.870768
739.014290	3904.497162
739.344272	3899.995412
739.674207	3941.123665
740.004093	3949.786888
740.333931	3945.338070
740.663722	3940.349848
740.993464	3942.693985
741.323159	3919.166920
741.652806	3888.299935
741.982405	3860.598794
742.311956	3829.557890
742.641460	3822.099503
742.970915	3797.138229
743.300323	3754.706837
743.629683	3722.277095
743.958996	3712.451886
744.288260	3687.523380
744.617477	3653.901404
744.946647	3639.889517
745.275768	3613.955301
745.604842	3612.269035
745.933869	3565.724062
746.262847	3554.371383
746.591778	3594.531736
746.920662	3566.253383
747.249498	3536.722304
747.578286	3581.828028
747.907027	3600.172787
748.235720	3596.964092
748.564365	3619.061990
748.892963	3620.682721
749.221514	3601.390225
749.550017	3580.708892
749.878473	3576.517172
750.206881	3550.461969
750.535242	3544.561298
750.863555	3548.420301
751.191821	3539.454609
751.520039	3522.274357
751.848210	3499.364833
752.176334	3534.554608
752.504411	3539.915875
752.832440	3500.030266
753.160421	3481.405723
753.488356	3493.799399
753.816243	3505.101666
754.144082	3462.546766
754.471875	3449.560754
754.799620	3468.339052
755.127318	3458.869244
755.454969	3457.671970
755.782572	3461.054585
756.110129	3440.958025
756.437638	3432.193979
756.765100	3444.983386
757.092515	3458.680201
757.419882	3461.072229
757.747203	3436.294958
758.074477	3436.037859
758.401703	3452.144345
758.728882	3475.321050
759.056014	3479.888335
759.383099	3485.731033
759.710138	3483.112153
760.037129	3496.650172
760.364073	3525.959440
760.690970	3514.652132
761.017820	3487.722288
761.344623	3506.480422
761.671379	3554.131929
761.998088	3604.488014
762.324751	3732.109865
762.651366	3979.698575
762.977935	4449.675265
763.304456	4888.618613
763.630931	4982.454651
763.957359	4615.826655
764.283740	4279.241416
764.610074	4092.960699
764.936362	3892.640368
765.262602	3735.300916
765.588796	3623.283957
765.914943	3540.258673
766.241044	3450.158131
766.567097	3421.625200
766.893104	3375.957387
767.219064	3344.482943
767.544978	3318.828511
767.870845	3262.733072
768.196665	3244.829414
768.522438	3250.485588
768.848165	3248.693458
769.173846	3210.199207
769.499479	3198.821323
769.825066	3178.404650
770.150607	3160.483348
770.476101	3177.794671
770.801548	3171.909123
771.126949	3128.277937
771.452303	3109.229937
771.777611	3119.085393
772.102872	3124.171917
772.428087	3096.427927
772.753256	3084.397213
773.078378	3080.402099
773.403453	3047.402706
773.728482	3037.590100
774.053465	3055.952503
774.378401	3044.027653
774.703291	3011.824763
775.028135	3014.594877
775.352932	3007.864936
775.677683	2996.371105
776.002388	2993.739623
776.327046	2996.857577
776.651658	2982.908704
776.976224	2972.879328
777.300743	2975.188177
777.625216	2963.401959
777.949643	2959.003553
778.274024	2960.636886
778.598359	2951.025927
778.922647	2953.060032
779.246889	2955.525156
779.571086	2938.607044
779.895236	2932.822320
780.219339	2945.357149
780.543397	2955.220167
780.867409	2959.540435
781.191374	2951.565330
781.515294	2950.357974
781.839167	2950.547017
782.162995	2939.839606
782.486776	2949.818570
782.810511	2945.291614
783.134201	2934.062444
783.457844	2941.450255
783.781441	2930.979778
784.104993	2909.506983
784.428498	2911.273908
784.751958	2929.401897
785.075372	2919.995104
785.398739	2903.550860
785.722061	2920.612645
786.045337	2933.013884
786.368568	2918.999476
786.691752	2909.474216
787.014891	2956.235959
787.337983	2984.398365
787.661030	3012.268384
787.984031	3080.306317
788.306987	3125.533029
788.629897	3119.680249
788.952760	3101.514451
789.275579	3087.041298
789.598351	3029.103317
789.921078	2982.525576
790.243759	2975.828403
790.566395	2959.757205
790.888984	2937.102260
791.211529	2916.201636
791.534027	2910.757190
791.856480	2897.569531
792.178888	2884.051677
792.501249	2875.156561
792.823566	2872.184801
793.145836	2871.262270
793.468062	2864.975951
793.790241	2865.122144
794.112375	2873.117414
794.434464	2882.380535
794.756507	2889.065105
795.078505	2891.905795
795.400457	2905.340470
795.722364	2942.909669
796.044226	2967.903710
796.366042	2971.097281
796.687812	2958.403655
797.009538	2975.825883
797.331218	2963.245683
797.652852	2951.061215
797.974442	2932.713935
798.295986	2929.570776
798.617484	2925.769746
798.938938	2909.189391
799.260346	2894.643141
799.581709	2889.675084
799.903026	2884.449928
800.224299	2878.992879
800.545526	2868.857639
800.866708	2850.747294
801.187845	2841.143896
801.508936	2842.759586
801.829983	2851.677387
802.150984	2835.427228
802.471940	2824.051864
802.792851	2825.259220
803.113717	2827.994046
803.434538	2831.595951
803.755314	2822.811740
804.076045	2814.922334
804.396731	2816.666574
804.717372	2816.031388
805.037967	2812.525266
805.358518	2819.628252
805.679024	2832.331959
805.999485	2827.268120
806.319901	2828.261227
806.640272	2823.061277
806.960598	2826.698470
807.280879	2837.012671
807.601115	2844.413084
807.921306	2830.141578
808.241453	2828.949345
808.561554	2832.770540
808.881611	2836.952177
809.201623	2828.752740
809.521590	2827.623522
809.841513	2824.999601
810.161390	2829.738286
810.481223	2823.441884
810.801011	2813.682211
811.120755	2810.191212
811.440453	2812.895791
811.760107	2810.927220
812.079716	2812.406799
812.399281	2801.522947
812.718801	2794.319139
813.038276	2789.908129
813.357707	2794.651855
813.677093	2803.002526
813.996434	2798.596558
814.315731	2792.476597
814.634983	2789.676236
814.954191	2790.046761
815.273354	2802.304326
815.592473	2811.958136
815.911547	2814.082982
816.230577	2818.645227
816.549562	2830.925477
816.868502	2829.781135
817.187399	2836.962259
817.506250	2855.458253
817.825058	2847.188240
818.143821	2859.975126
818.462539	2873.331663
818.781213	2903.818041
819.099843	2937.528237
819.418429	2995.383039
819.736970	3058.117678
820.055466	3132.144502
820.373919	3235.261304
820.692327	3371.168291
821.010691	3540.586348
821.329011	3983.910459
821.647286	4877.092015
821.965517	6251.111428
822.283704	6985.811710
822.601847	6959.801877
822.919945	6328.387275
823.237999	5828.544268
823.556010	5250.167646
823.873976	4700.533163
824.191897	4292.736584
824.509775	4001.216740
824.827609	3733.700349
825.145398	3607.757203
825.463144	3600.545832
825.780845	3691.715099
826.098502	3794.683187
826.416116	4076.786157
826.733685	4390.915576
827.051210	4455.626348
827.368692	4341.451775
827.686129	4073.766505
828.003522	3748.937237
828.320872	3492.271930
828.638177	3300.448464
828.955439	3162.827485
829.272656	3081.082655
829.589830	3014.662932
829.906960	2965.272227
830.224046	2920.784045
830.541088	2888.008983
830.858086	2872.852754
831.175041	2856.418592
831.491952	2858.167873
831.808819	2867.443596
832.125642	2890.947976
832.442421	2937.656787
832.759157	3018.312728
833.075849	3195.436188
833.392497	3477.410608
833.709101	3677.156247
834.025662	3624.113226
834.342179	3467.895430
834.658653	3290.219963
834.975083	3143.109012
835.291469	3048.166441
835.607811	2964.203503
835.924110	2906.547826
836.240366	2853.971112
836.556578	2815.149186
836.872746	2791.682615
837.188871	2769.488935
837.504952	2751.285329
837.820990	2745.578743
838.136984	2730.172977
838.452935	2723.833726
838.768842	2720.962788
839.084706	2741.795357
839.400526	2818.216728
839.716303	2948.840586
840.032037	3030.204809
840.347727	3012.182684
840.663373	2953.652368
840.978977	2879.323075
841.294537	2806.967394
841.610054	2759.020979
841.925527	2736.824779
842.240957	2715.319217
842.556344	2694.259797
842.871687	2678.233968
843.186987	2669.401867
843.502244	2664.585044
843.817458	2657.663540
844.132629	2647.999648
844.447756	2640.417753
844.762840	2633.713018
845.077881	2636.215951
845.392879	2637.947587
845.707833	2629.163377
846.022745	2623.918056
846.337613	2628.863428
846.652438	2625.374950
846.967221	2624.676750
847.281960	2625.727831
847.596656	2620.495113
847.911309	2621.243724
848.225919	2616.968826
848.540485	2616.744494
848.855009	2617.598970
849.169490	2614.649895
849.483928	2615.423712
849.798323	2613.709720
850.112675	2616.336161
850.426984	2613.442539
850.741251	2612.368773
851.055474	2613.553444
851.369654	2618.466048
851.683792	2615.486727
851.997887	2613.689555
852.311938	2612.633433
852.625947	2615.403547
852.939914	2617.621655
853.253837	2617.951851
853.567718	2610.967332
853.881555	2612.207456
854.195350	2617.427571
854.509103	2614.670060
854.822812	2612.935903
855.136479	2610.140583
855.450103	2612.608228
855.763685	2615.895060
856.077224	2617.508229
856.390720	2611.242075
856.704173	2612.242744
857.017584	2619.502006
857.330953	2616.469752
857.644278	2619.610390
857.957561	2620.164917
858.270802	2615.302724
858.584000	2615.388424
858.897155	2621.238683
859.210268	2621.359671
859.523339	2615.761469
859.836367	2609.916252
860.149352	2610.652260
860.462295	2614.735595
860.775195	2611.161417
861.088054	2610.712754
861.400869	2611.174019
861.713642	2604.222268
862.026373	2605.175046
862.339062	2611.468927
862.651708	2615.385903
862.964312	2616.845317
863.276873	2611.413474
863.589392	2616.295832
863.901869	2620.777417
864.214303	2628.205558
864.526696	2628.777729
864.839045	2628.903757
865.151353	2631.918367
865.463619	2632.835857
865.775842	2631.688995
866.088023	2634.146557
866.400162	2631.885600
866.712258	2634.219654
867.024313	2631.653707
867.336325	2625.838736
867.648296	2628.387039
867.960224	2635.726959
868.272110	2635.119500
868.583954	2626.645321
868.895755	2628.369395
869.207515	2632.452730
869.519233	2641.254584
869.830909	2636.483132
870.142542	2630.675723
870.454134	2633.244191
870.765684	2639.613689
871.077191	2640.198463
871.388657	2644.453197
871.700081	2642.623258
872.011463	2640.957156
872.322803	2643.767600
872.634101	2648.014772
872.945357	2655.432830
873.256571	2660.128664
873.567744	2657.056081
873.878874	2655.011893
874.189963	2656.655309
874.501010	2660.640342
874.812015	2664.769047
875.122979	2665.000940
875.433900	2659.090187
875.744780	2656.544404
876.055618	2664.204437
876.366415	2666.593944
876.677169	2664.247287
876.987882	2658.303767
877.298554	2657.938283
877.609183	2669.144768
877.919771	2675.189112
878.230317	2684.084227
878.540822	2692.046730
878.851285	2707.540716
879.161707	2731.191290
879.472087	2768.730242
879.782425	2815.587767
880.092722	2932.724018
880.402977	3118.682101
880.713191	3376.128786
881.023363	3666.537057
881.333494	3852.918597
881.643583	4028.539794
881.953631	4026.477962
882.263637	3847.063296
882.573602	3628.504071
882.883526	3497.224863
883.193408	3386.926938
883.503248	3287.648975
883.813048	3170.898372
884.122806	3056.537277
884.432522	2973.844709
884.742197	2908.924730
885.051831	2873.223279
885.361424	2837.715912
885.670975	2804.900521
885.980485	2771.790222
886.289954	2753.662233
886.599382	2741.939030
886.908768	2730.775394
887.218113	2708.067517
887.527417	2694.753830
887.836680	2689.190916
888.145901	2683.570030
888.455082	2677.956705
888.764221	2664.529592
889.073319	2658.646565
889.382376	2657.877789
889.691392	2655.747902
890.000366	2660.726041
890.309300	2654.492654
890.618193	2661.086484
890.927044	2662.165291
891.235855	2661.182266
891.544625	2658.558345
891.853353	2662.256031
892.162041	2668.980931
892.470687	2688.850638
892.779293	2697.460929
893.087858	2706.829914
893.396381	2730.830847
893.704864	2771.873401
894.013306	2841.146417
894.321707	2933.059254
894.630068	2981.298055
894.938387	3005.503156
895.246665	2994.652072
895.554903	2952.714713
895.863100	2907.999678
896.171256	2852.788962
896.479371	2790.883592
896.787446	2753.626945
897.095480	2733.638770
897.403473	2728.327914
897.711425	2713.635471
898.019336	2695.888089
898.327207	2678.725481
898.635038	2680.850327
898.942827	2679.010306
899.250576	2669.467402
899.558284	2660.456339
899.865952	2652.070380
900.173579	2648.871768
900.481165	2646.862868
900.788711	2641.519245
901.096216	2634.529685
901.403681	2629.954838
901.711105	2631.043727
902.018489	2629.062554
902.325832	2632.137658
902.633135	2633.506331
902.940397	2649.741367
903.247619	2686.365350
903.554800	2756.394538
903.861941	2877.815770
904.169041	3003.161540
904.476101	3070.481108
904.783121	3060.728996
905.090100	3002.997702
905.397039	2929.109510
905.703938	2855.475897
906.010796	2794.813172
906.317614	2741.563464
906.624391	2706.812270
906.931129	2681.593897
907.237826	2658.732265
907.544483	2639.507825
907.851099	2626.597430
908.157675	2615.920266
908.464211	2612.058742
908.770707	2600.617843
909.077163	2596.179107
909.383578	2591.871441
909.689954	2591.435382
909.996289	2588.793817
910.302584	2590.336410
910.608839	2586.875658
910.915054	2586.883220
911.221229	2590.606112
911.527363	2591.616863
911.833458	2587.838518
912.139513	2590.354054
912.445527	2592.113417
912.751502	2599.123141
913.057436	2605.071703
913.363331	2608.081272
913.669186	2618.450925
913.975000	2633.150930
914.280775	2647.205667
914.586510	2668.532268
914.892205	2702.766744
915.197859	2769.625047
915.503475	2851.843745
915.809050	2919.564085
916.114585	2932.093873
916.420081	2945.069803
916.725536	2954.761422
917.030952	2930.904161
917.336328	2884.580998
917.641665	2837.075685
917.946961	2786.389404
918.252218	2752.583426
918.557435	2725.351113
918.862612	2703.480067
919.167750	2686.075483
919.472848	2672.691220
919.777906	2655.369815
920.082925	2643.785244
920.387904	2630.383336
920.692843	2627.363685
920.997743	2621.813375
921.302603	2617.162910
921.607423	2611.138731
921.912204	2605.550612
922.216946	2603.493822
922.521647	2602.523399
922.826310	2597.280599
923.130932	2594.243304
923.435516	2583.495564
923.740059	2585.975812
924.044564	2583.692169
924.349028	2581.912642
924.653454	2572.168092
924.957840	2571.941240
925.262186	2569.967628
925.566493	2570.486867
925.870761	2566.416135
926.174989	2564.374468
926.479178	2564.765157
926.783328	2561.279199
927.087438	2558.695608
927.391509	2562.456309
927.695541	2559.522357
927.999533	2559.345917
928.303486	2557.001780
928.607400	2557.891544
928.911275	2556.588406
929.215110	2556.611091
929.518906	2553.906512
929.822663	2555.088662
930.126381	2554.239228
930.430060	2558.897254
930.733699	2555.335679
931.037299	2559.439178
931.340861	2558.098231
931.644383	2557.785680
931.947866	2558.277192
932.251309	2556.573282
932.554714	2557.084959
932.858080	2557.561348
933.161407	2554.050185
933.464694	2554.710576
933.767943	2556.931204
934.071153	2557.387428
934.374323	2553.084804
934.677455	2557.251317
934.980548	2554.403065
935.283602	2553.876265
935.586617	2554.352654
935.889593	2555.464228
936.192530	2555.262582
936.495428	2551.506923
936.798287	2554.360216
937.101108	2557.241235
937.403890	2559.484548
937.706632	2563.363716
938.009336	2567.053841
938.312002	2569.985272
938.614628	2572.296641
938.917216	2575.386868
939.219765	2574.799574
939.522275	2580.990111
939.824747	2579.026581
940.127179	2572.425190
940.429573	2567.590724
940.731929	2569.294634
941.034246	2567.129458
941.336524	2566.433779
941.638763	2569.682803
941.940964	2567.247925
942.243126	2564.445044
942.545250	2565.551577
942.847335	2562.242060
943.149381	2560.661658
943.451389	2560.835578
943.753359	2562.526885
944.055290	2559.920608
944.357182	2558.325083
944.659036	2558.604867
944.960851	2558.506565
945.262628	2558.017573
945.564367	2557.820968
945.866067	2558.783828
946.167729	2556.966492
946.469352	2557.578992
946.770937	2558.219219
947.072484	2558.526729
947.373992	2557.757953
947.675462	2557.541184
947.976893	2554.632438
948.278286	2553.783003
948.579641	2556.018755
948.880958	2553.977088
949.182236	2554.203940
949.483476	2554.977757
949.784678	2554.173693
950.085841	2557.037068
950.386967	2555.181924
950.688054	2553.490617
950.989103	2556.172510
951.290114	2557.790721
951.591087	2557.238714
951.892021	2557.185782
952.192917	2560.626370
952.493776	2561.748027
952.794596	2559.885320
953.095378	2563.482183
953.396122	2563.189797
953.696828	2563.348593
953.997496	2556.941286
954.298126	2556.185113
954.598718	2556.230484
954.899272	2553.422561
955.199788	2557.548745
955.500266	2552.613456
955.800706	2548.351160
956.101108	2548.769576
956.401472	2546.811088
956.701798	2544.300593
957.002087	2545.049204
957.302337	2545.255892
957.602550	2548.315872
957.902724	2546.027188
958.202861	2545.886036
958.502960	2541.467465
958.803022	2544.293031
959.103045	2542.901673
959.403031	2543.420912
959.702979	2539.151054
960.002889	2541.018802
960.302762	2539.778678
960.602596	2541.318751
960.902393	2538.561239
961.202153	2541.512835
961.501875	2538.941847
961.801559	2539.776158
962.101205	2542.321940
962.400814	2541.316230
962.700385	2542.498381
962.999918	2542.500901
963.299414	2541.797660
963.598873	2538.785571
963.898293	2539.161137
964.197677	2539.997968
964.497022	2540.131559
964.796331	2539.526620
965.095601	2538.641898
965.394835	2541.472506
965.694030	2539.995448
965.993189	2540.718853
966.292309	2541.653987
966.591393	2540.804553
966.890439	2539.196425
967.189447	2538.367155
967.488419	2541.066693
967.787353	2538.044521
968.086249	2538.919161
968.385108	2542.631971
968.683930	2539.226672
968.982714	2538.679707
969.281462	2536.920344
969.580172	2539.745911
969.878844	2540.612989
970.177480	2538.243647
970.476078	2538.425128
970.774639	2540.560057
971.073162	2540.297917
971.371649	2537.774819
971.670098	2534.944212
971.968510	2536.577545
972.266885	2536.174253
972.565223	2539.541744
972.863524	2541.664070
973.161788	2541.096940
973.460014	2539.380427
973.758204	2541.447300
974.056356	2542.793288
974.354471	2540.224820
974.652550	2540.411343
974.950591	2541.429656
975.248595	2539.816487
975.546563	2538.289017
975.844493	2539.395550
976.142386	2541.401930
976.440243	2537.593338
976.738062	2539.448482
977.035845	2539.975283
977.333590	2538.243647
977.631299	2537.275745
977.928971	2538.649460
978.226606	2536.990920
978.524204	2537.716846
978.821765	2537.311033
979.119290	2538.331867
979.416777	2536.930426
979.714228	2538.117618
980.011642	2539.864378
980.309020	2540.096271
980.606360	2536.852288
980.903664	2540.053421
981.200931	2538.107536
981.498162	2539.816487
981.795356	2542.505942
982.092513	2545.858310
982.389633	2547.468958
982.686717	2550.090358
982.983764	2552.154711
983.280775	2555.595298
983.577749	2552.321069
983.874686	2551.343085
984.171587	2549.881150
984.468451	2550.410472
984.765279	2547.322765
985.062070	2545.326468
985.358824	2541.031405
985.655543	2540.363452
985.952224	2539.304810
986.248869	2538.886394
986.545478	2536.673327
986.842050	2536.557381
987.138586	2534.540919
987.435086	2535.284489
987.731549	2531.130579
988.027975	2535.362627
988.324366	2539.045190
988.620719	2534.724921
988.917037	2534.339273
989.213318	2535.763399
989.509563	2534.838347
989.805772	2533.452030
990.101944	2533.363810
990.398080	2535.513862
990.694180	2535.133255
990.990244	2535.534027
991.286271	2534.709798
991.582262	2535.133255
991.878217	2535.395395
992.174136	2536.388502
992.470019	2538.384799
992.765865	2537.547968
993.061676	2536.658204
993.357450	2534.903882
993.653188	2535.070240
993.948890	2536.307844
994.244556	2534.094777
994.540186	2535.544109
994.835780	2537.575694
995.131337	2538.397402
995.426859	2537.106867
995.722345	2536.632998
996.017795	2538.939326
996.313208	2537.857998
996.608586	2538.931764
996.903928	2538.755324
997.199234	2540.033256
997.494504	2538.772968
997.789738	2538.107536
998.084936	2540.202135
998.380099	2537.452186
998.675225	2537.716846
998.970316	2534.016639
999.265371	2535.907072
999.560390	2536.020498
999.855373	2537.855478
1000.150320	2532.290044
1000.445232	2536.050745
1000.740108	2534.235929
1001.034948	2531.793490
1001.329752	2535.077802
1001.624521	2531.675023
1001.919254	2527.937008
1002.213951	2528.037831
1002.508613	2529.214940
1002.803239	2532.101001
1003.097829	2527.432892
1003.392384	2535.067720
1003.686903	2533.908254
1003.981386	2533.444468
1004.275834	2531.165867
1004.570246	2537.578214
1004.864623	2535.236598
1005.158964	2533.888090
1005.453270	2532.020342
1005.747540	2532.471526
1006.041775	2532.587472
1006.335974	2531.982534
1006.630138	2533.641073
1006.924266	2533.663758
1007.218359	2531.823737
1007.512416	2534.155271
1007.806438	2533.008408
1008.100425	2532.932791
1008.394376	2532.887421
1008.688292	2533.872966
1008.982172	2534.218285
1009.276017	2535.009747
1009.569827	2531.480939
1009.863602	2535.781043
1010.157341	2533.504962
1010.451045	2532.174098
1010.744714	2532.055630
1011.038347	2534.863553
1011.331945	2533.903213
1011.625508	2534.984541
1011.919036	2530.439941
1012.212528	2534.064530
1012.505986	2531.647297
1012.799408	2534.195600
1013.092795	2532.075795
1013.386147	2529.865249
1013.679464	2530.913809
1013.972745	2531.022194
1014.265992	2533.391536
1014.559204	2534.440096
1014.852380	2534.568646
1015.145521	2532.819365
1015.438628	2531.667462
1015.731699	2534.016639
1016.024736	2533.610826
1016.317737	2530.679395
1016.610703	2534.709798
1016.903635	2531.513706
1017.196531	2529.308202
1017.489393	2532.350538
1017.782219	2529.172090
1018.075011	2530.659231
1018.367768	2532.365661
1018.660490	2531.778367
1018.953177	2531.778367
1019.245829	2531.778367
