Dividing Wavelength (nm)	Counts (n)	Blue Motor Position (mm): 44.200000	Red Motor Position (mm): 0.000000	
326.493990	2046.912628
326.888308	2046.912628
327.282561	2046.912628
327.676750	2022.798269
328.070874	2023.975378
328.464933	2032.079033
328.858929	2041.498429
329.252859	2050.146528
329.646726	2063.515668
330.040528	2078.651733
330.434265	2098.700402
330.827938	2121.884668
331.221547	2140.635240
331.615091	2161.493014
332.008571	2182.517146
332.401986	2201.466843
332.795338	2222.896788
333.188625	2239.923286
333.581847	2259.545977
333.975006	2277.421908
334.368100	2294.884465
334.761129	2312.720068
335.154095	2326.384115
335.546996	2376.553678
335.939833	2486.619711
336.332606	2496.054230
336.725315	2513.007631
337.117960	2520.995339
337.510540	2530.828109
337.903056	2538.399922
338.295508	2546.760676
338.687896	2552.074052
339.080220	2558.332645
339.472480	2562.536967
339.864676	2566.277503
340.256807	2568.997206
340.648875	2571.333781
341.040879	2570.454099
341.432818	2573.138514
341.824694	2574.479461
342.216506	2576.690007
342.608253	2570.696075
342.999937	2570.290262
343.391557	2570.680951
343.783113	2571.424521
344.174605	2567.396639
344.566033	2567.928481
344.957397	2564.263562
345.348697	2565.196176
345.739934	2562.206772
346.131106	2564.278686
346.522215	2558.637635
346.913260	2558.556976
347.304241	2556.507747
347.695159	2552.356357
348.086012	2555.796944
348.476802	2549.682025
348.867528	2547.605069
349.258191	2543.801519
349.648789	2544.872764
350.039324	2538.939326
350.429796	2544.683721
350.820203	2547.713454
351.210548	2546.072559
351.600828	2540.817156
351.991045	2542.450490
352.381198	2542.241282
352.771288	2542.148020
353.161314	2541.795140
353.551276	2540.804553
353.941175	2539.912269
354.331010	2543.872095
354.720782	2546.745553
355.110490	2546.720347
355.500135	2542.848741
355.889717	2544.056097
356.279235	2543.998124
356.668689	2544.338402
357.058080	2545.515511
357.447408	2542.710109
357.836672	2544.358566
358.225873	2542.843700
358.615010	2545.137425
359.004084	2544.088865
359.393095	2549.006510
359.782043	2547.360573
360.170927	2548.131870
360.559748	2548.172199
360.948505	2548.877961
361.337199	2548.610780
361.725830	2550.526418
362.114398	2548.348640
362.502903	2550.685214
362.891344	2552.200081
363.279722	2549.913918
363.668037	2553.392314
364.056289	2552.240410
364.444478	2556.805175
364.832603	2554.463559
365.220665	2555.514640
365.608665	2553.493137
365.996601	2558.302398
366.384474	2556.530432
366.772284	2557.679815
367.160031	2556.452294
367.547715	2556.406924
367.935336	2554.995401
368.322893	2554.498847
368.710388	2556.001111
369.097820	2553.830894
369.485189	2554.544218
369.872495	2559.383725
370.259738	2557.629404
370.646918	2559.610577
371.034035	2559.698797
371.421090	2560.694425
371.808081	2563.363716
372.195010	2562.826833
372.581875	2560.820454
372.968678	2562.297512
373.355418	2562.985630
373.742096	2563.197358
374.128710	2563.925805
374.515262	2565.445713
374.901751	2562.446226
375.288177	2568.299006
375.674540	2566.809345
376.060841	2569.660117
376.447079	2566.907647
376.833254	2568.641804
377.219367	2566.932853
377.605417	2572.798236
377.991404	2569.939902
378.377329	2572.102557
378.763191	2570.955694
379.148991	2573.493915
379.534727	2569.418142
379.920402	2573.483833
380.306013	2571.177505
380.691563	2576.455593
381.077049	2575.838052
381.462474	2574.393761
381.847835	2579.273598
382.233134	2579.192939
382.618371	2578.761921
383.003545	2585.108733
383.388657	2585.965730
383.773706	2586.729464
384.158693	2590.974116
384.543618	2595.110383
384.928480	2600.595158
385.313280	2601.026177
385.698017	2606.125304
386.082692	2614.833897
386.467305	2621.180710
386.851856	2624.649024
387.236344	2630.910137
387.620770	2640.637043
388.005133	2646.865389
388.389435	2659.422903
388.773674	2662.618994
389.157851	2678.102898
389.541965	2692.344158
389.926018	2701.655169
390.310008	2718.220401
390.693936	2729.651217
391.077802	2741.654204
391.461606	2760.261103
391.845348	2770.615633
392.229027	2788.234466
392.612645	2808.883032
392.996200	2828.389777
393.379694	2851.758046
393.763125	2876.179915
394.146494	2896.344531
394.529801	2924.164138
394.913047	2952.911318
395.296230	2968.526292
395.679351	2992.892709
396.062410	3027.810261
396.445408	3034.663710
396.828343	3066.246539
397.211217	3099.218206
397.594028	3102.580655
397.976778	3141.170688
398.359466	3175.616892
398.742092	3199.842157
399.124656	3225.025241
399.507158	3275.008281
399.889598	3296.150881
400.271977	3352.427802
400.654294	3366.144781
401.036549	3417.589756
401.418742	3438.044238
401.800874	3501.106552
402.182944	3538.731204
402.564952	3611.442286
402.946898	3628.370481
403.328783	3644.300527
403.710606	3703.949980
404.092367	3769.762243
404.474067	3838.518541
404.855705	3840.837471
405.237282	3835.844208
405.618797	3929.821398
406.000250	4008.304602
406.381642	4091.110595
406.762972	4105.924026
407.144240	4092.930452
407.525447	4162.999970
407.906593	4188.644319
408.287677	4273.807052
408.668700	4309.942043
409.049661	4357.802757
409.430560	4400.471083
409.811399	4402.028800
410.192176	4452.614258
410.572891	4528.042522
410.953545	4632.439777
411.334138	4551.012540
411.714669	4660.392976
412.095139	4598.860652
412.475547	4701.246486
412.855894	4709.433320
413.236180	4806.261283
413.616405	4750.972428
413.996568	4847.490359
414.376670	4858.538048
414.756711	4857.930589
415.136691	4924.501546
415.516609	5005.235625
415.896466	5052.251946
416.276262	5129.041322
416.655997	5237.063167
417.035670	5325.416950
417.415283	5453.245488
417.794834	5509.759343
418.174324	5469.420030
418.553753	5474.473787
418.933121	5630.101768
419.312428	5642.064426
419.691674	5582.296506
420.070859	5789.553464
420.449983	5686.350962
420.829045	5865.248909
421.208047	5801.601822
421.586988	5952.289472
421.965867	6018.290778
422.344686	6092.526810
422.723444	6257.458240
423.102141	5898.785185
423.480777	6261.045021
423.859352	6096.393375
424.237866	6439.776610
424.616319	6429.931237
424.994712	6585.632315
425.373044	6509.349575
425.751314	6793.032946
426.129524	6543.518515
426.507673	6795.094778
426.885762	6831.575087
427.263789	6865.416353
427.641756	6950.899199
428.019662	7019.169025
428.397508	7056.733183
428.775292	7054.389046
429.153016	7197.832558
429.530679	7145.880947
429.908282	7198.024122
430.285824	7142.400031
430.663305	7387.599233
431.040726	7292.485263
431.418086	7291.787063
431.795385	7425.652383
432.172624	7610.125846
432.549802	7490.917681
432.926920	7621.481045
433.303977	7574.182419
433.680974	7622.668237
434.057910	7807.252606
434.434786	7854.253803
434.811601	7813.740571
435.188355	8144.122670
435.565050	8043.050056
435.941683	8055.650420
436.318257	8367.859160
436.694770	8309.681724
437.071222	8523.996298
437.447614	8291.679764
437.823946	8268.727390
438.200218	8415.130060
438.576429	8312.363618
438.952580	8462.358110
439.328670	8470.681055
439.704700	8555.314466
440.080670	8443.622661
440.456580	8694.283954
440.832429	8678.069083
441.208218	8428.128675
441.583947	8541.373155
441.959616	8644.883167
442.335224	8683.407665
442.710773	8766.894213
443.086261	8934.434441
443.461689	8673.849637
443.837057	8825.784973
444.212365	9020.161783
444.587612	9018.241103
444.962800	8918.703520
445.337927	9051.953819
445.712995	8607.102239
446.088002	9243.762162
446.462949	9304.687026
446.837837	9313.067945
447.212664	9374.867450
447.587431	10264.381566
447.962139	11242.163766
448.336786	11977.602577
448.711374	11581.256980
449.085901	10441.139544
449.460369	10417.304968
449.834776	10339.681281
450.209124	11253.922258
450.583412	11029.026302
450.957640	11232.225132
451.331808	10825.512401
451.705917	10342.229585
452.079965	10269.455488
452.453954	10458.677718
452.827883	10421.784033
453.201752	10378.137723
453.575562	10405.468339
453.949311	10750.313509
454.323001	10826.805457
454.696632	10747.049362
455.070202	11326.507311
455.443713	11380.702236
455.817164	11540.930270
456.190556	11849.285048
456.563888	11678.833554
456.937160	11891.749207
457.310373	11402.515308
457.683526	11436.371698
458.056619	11482.321815
458.429653	11559.327961
458.802628	11727.279042
459.175542	11788.458485
459.548398	12328.492091
459.921194	12903.715471
460.293930	13235.937592
460.666607	14063.584148
461.039224	14783.869251
461.411782	15045.379107
461.784280	14647.919414
462.156719	14558.718717
462.529099	14465.243122
462.901419	13885.870872
463.273680	13537.701061
463.645882	13776.797947
464.018024	13732.617275
464.390106	14139.448472
464.762130	15312.789633
465.134094	16976.967779
465.505999	19242.036340
465.877845	21244.700240
466.249631	22139.094194
466.621358	21480.691775
466.993026	20649.954992
467.364634	19942.847465
467.736184	19235.213138
468.107674	18694.173822
468.479105	18566.476354
468.850477	18293.341598
469.221790	17872.256537
469.593043	17245.076505
469.964238	16898.764359
470.335373	17009.531112
470.706449	17871.656640
471.077467	19011.393469
471.448425	21353.135459
471.819324	22841.901616
472.190164	22328.331547
472.560945	20652.034468
472.931667	19245.534901
473.302330	18997.895780
473.672934	18554.075116
474.043479	18999.655142
474.413965	18798.054359
474.784393	18653.983223
475.154761	19284.676940
475.525070	19412.276105
475.895321	19250.616384
476.265513	19773.931003
476.635645	20346.848055
477.005719	20414.765000
477.375734	20801.088784
477.745691	21396.746481
478.115588	22056.900701
478.485427	23329.832376
478.855207	25203.183119
479.224928	26906.253767
479.594591	28090.972812
479.964194	27541.270273
480.333739	27924.907122
480.703226	28201.961375
481.072653	28715.584376
481.442022	29203.542862
481.811333	29509.913946
482.180584	29006.247224
482.549777	28799.002869
482.918912	28601.492982
483.287988	28550.655466
483.657005	28386.492812
484.025964	28035.623463
484.394864	28220.762358
484.763706	28159.363625
485.132489	27673.782043
485.501213	27738.588596
485.869879	27941.121993
486.238487	27905.307115
486.607036	28165.914605
486.975527	27884.600576
487.343959	28222.481392
487.712333	28538.816316
488.080648	28511.959569
488.448905	28942.128789
488.817104	28872.127326
489.185244	29768.247875
489.553326	30921.583217
489.921350	32851.349512
490.289315	35243.402218
490.657222	35912.043220
491.025070	36307.786400
491.392861	35924.872956
491.760593	35101.410558
492.128267	34090.177782
492.495883	33154.332940
492.863440	32318.368480
493.230939	31436.093461
493.598380	30936.373962
493.965763	30824.029328
494.333088	30374.197088
494.700354	30190.454592
495.067563	30176.679639
495.434713	30096.984038
495.801805	30383.555990
496.168839	30239.762118
496.535815	30126.048811
496.902733	30270.833270
497.269593	30085.144888
497.636395	30246.272768
498.003139	30538.793282
498.369825	30316.075105
498.736453	30725.494935
499.103023	30585.572669
499.469535	30678.478614
499.835989	30813.861321
500.202385	30679.917863
500.568723	30765.962797
500.935003	31081.211353
501.301226	30988.464205
501.667390	31687.072346
502.033497	31882.303632
502.399546	31689.013190
502.765537	31285.521757
503.131470	31762.949273
503.497345	32205.129042
503.863163	31195.874918
504.228923	31951.203602
504.594625	32353.966588
504.960269	31850.188961
505.325856	32535.798487
505.691385	32228.653586
506.056856	32540.993396
506.422270	33031.006153
506.787625	32587.767742
507.152924	33031.169990
507.518164	33242.507762
507.883347	32807.345280
508.248472	32992.552231
508.613540	33659.809437
508.978550	33930.617701
509.343503	33769.457053
509.708398	34144.153416
510.073236	34741.820013
510.438016	34844.853636
510.802738	34559.214297
511.167403	35120.025018
511.532010	35380.554370
511.896561	35836.504050
512.261053	36609.184385
512.625488	36400.505822
512.989866	36342.910639
513.354186	36404.256440
513.718449	36369.182612
514.082655	37260.272090
514.446803	36957.470143
514.810894	37586.880886
515.174927	37611.000286
515.538904	37601.885880
515.902822	38260.255531
516.266684	37967.215779
516.630488	38316.968512
516.994235	38352.964871
517.357925	38939.271228
517.721558	39195.016524
518.085133	39576.158002
518.448651	39771.404411
518.812112	39661.345940
519.175516	39823.923152
519.538863	40273.488211
519.902152	40357.912414
520.265385	40888.871943
520.628560	40908.792062
520.991678	40873.899716
521.354739	41104.479572
521.717743	41472.476241
522.080690	41383.877963
522.443580	42061.439286
522.806413	42091.116559
523.169189	42235.412026
523.531908	42464.582880
523.894569	42323.695233
524.257174	42545.969788
524.619722	42869.407698
524.982213	43002.839479
525.344647	43049.397055
525.707025	43176.408927
526.069345	43623.965086
526.431608	43527.928584
526.793815	43910.322789
527.155964	43478.820184
527.518057	43746.780196
527.880093	43591.749592
528.242072	44235.837654
528.603995	43967.650790
528.965860	43899.728804
529.327669	44109.337460
529.689421	44168.334084
530.051117	44120.990087
530.412755	44410.077575
530.774337	44479.592566
531.135862	44419.469245
531.497331	44558.282457
531.858743	44566.446606
532.220098	44981.552857
532.581396	44699.492738
532.942638	44483.721271
533.303824	44721.509978
533.664953	44787.743177
534.026025	44467.549250
534.387040	45035.077308
534.747999	45126.879241
535.108902	45421.582574
535.469748	44761.337613
535.830537	45022.476944
536.191270	45255.166524
536.551947	44996.157080
536.912567	45284.669877
537.273131	45437.626046
537.633638	45049.696655
537.994089	45253.505463
538.354483	44995.862173
538.714821	45652.147307
539.075103	45935.671881
539.435328	45807.482901
539.795497	45536.294030
540.155609	45657.851372
540.515665	46247.653769
540.875665	45554.200208
541.235609	45844.232912
541.595496	45976.185114
541.955328	46548.638380
542.315102	45974.604712
542.674821	45874.184928
543.034483	45748.612306
543.394090	45775.895031
543.753640	45742.078971
544.113134	46813.140161
544.472571	45927.177537
544.831953	47057.550423
545.191278	46312.586352
545.550548	46003.515730
545.909761	46650.015984
546.268918	46797.154662
546.628019	47201.692135
546.987064	46637.350085
547.346053	45935.649196
547.704986	46837.640169
548.063863	46483.509193
548.422684	46687.554936
548.781449	46287.088195
549.140158	46820.810277
549.498811	46578.676096
549.857408	45956.842207
550.215949	46821.755493
550.574434	46636.896381
550.932864	46570.779128
551.291237	47298.683935
551.649555	47048.637663
552.007817	47217.990185
552.366022	46896.737615
552.724173	46953.742983
553.082267	47376.720996
553.440305	47709.716934
553.798288	46960.750187
554.156215	47357.458748
554.514086	47544.019248
554.871902	47163.550765
555.229661	47346.574896
555.587365	47034.731640
555.945014	47158.411308
556.302606	47164.967329
556.660143	47296.037329
557.017625	47495.193153
557.375050	47191.990434
557.732421	47602.451263
558.089735	47653.465219
558.446994	47530.997948
558.804197	48015.382257
559.161345	47871.709372
559.518437	47222.862460
559.875474	47472.326479
560.232455	47691.906538
560.589381	47757.930530
560.946251	47541.750729
561.303065	48210.038851
561.659825	47895.170902
562.016528	47709.227942
562.373177	47278.935215
562.729770	47908.630783
563.086307	47439.218701
563.442789	47964.143969
563.799216	47830.450048
564.155587	47698.989359
564.511904	47677.531688
564.868164	47741.564424
565.224370	48040.398983
565.580520	47777.326369
565.936615	47979.574941
566.292654	47617.630177
566.648638	47989.269080
567.004567	47924.649049
567.360441	48022.213020
567.716260	47738.287674
568.072023	48101.565823
568.427732	48033.868168
568.783385	47578.931759
569.138982	47977.228284
569.494525	48111.794324
569.850013	47704.292653
570.205445	47831.977518
570.560823	47608.414948
570.916145	47492.342380
571.271412	47710.780618
571.626625	47363.704737
571.981782	47450.636915
572.336884	47018.289917
572.691931	47373.955923
573.046923	47020.639094
573.401860	46852.594752
573.756743	46865.174951
574.111570	47020.714712
574.466342	46928.789271
574.821059	47081.460616
575.175722	46585.947960
575.530330	46684.847837
575.884882	46318.461816
576.239380	46230.153404
576.593823	46313.599623
576.948211	46239.139261
577.302544	45784.979190
577.656823	45788.339119
578.011047	46045.208593
578.365216	45856.331682
578.719330	45589.710096
579.073389	45566.750161
579.427394	45623.553882
579.781344	45559.140539
580.135239	45301.948431
580.489080	45362.769953
580.842866	44845.290469
581.196597	45350.721595
581.550273	45342.474267
581.903895	45268.649090
582.257463	45732.760398
582.610975	45145.191232
582.964434	45486.217728
583.317837	44997.525753
583.671186	44933.664417
584.024481	45229.756588
584.377721	44770.625939
584.730906	44980.300131
585.084037	45091.502943
585.437113	44803.610209
585.790135	44935.779181
586.143103	44486.619935
586.496016	44638.325898
586.848874	44758.718734
587.201679	44786.329134
587.554428	44281.475220
587.907124	44564.288992
588.259765	44319.515767
588.612352	44476.187267
588.964884	43931.276345
589.317362	44245.219242
589.669786	44237.377727
590.022155	44095.234832
590.374470	44558.378239
590.726731	44125.635511
591.078937	43475.689627
591.431090	43814.508098
591.783188	43350.230432
592.135232	43128.409580
592.487222	43411.669494
592.839157	43548.753591
593.191038	43186.274465
593.542866	42979.594719
593.894639	42394.757858
594.246358	42697.156513
594.598022	42695.694578
594.949633	42271.418468
595.301190	42248.335024
595.652692	42201.482540
596.004141	42672.391844
596.355535	41577.508682
596.706876	41608.705862
597.058162	41318.733652
597.409395	41804.635348
597.760573	42030.983155
598.111698	41632.326189
598.462768	41552.703684
598.813785	41563.756414
599.164748	41170.990036
599.515657	41450.131327
599.866511	40938.222318
600.217312	41639.063691
600.568060	40574.974416
600.918753	41414.684454
601.269392	41318.836996
601.619978	41037.346527
601.970510	41242.173648
602.320988	41378.524257
602.671412	41638.693166
603.021783	41541.524926
603.372100	41095.115629
603.722363	41208.382794
604.072572	41233.109654
604.422728	41226.034394
604.772830	41002.716320
605.122878	41155.251553
605.472872	41023.795905
605.822813	41291.680300
606.172701	41027.269260
606.522534	41363.899870
606.872314	41571.638258
607.222041	41401.428740
607.571714	41724.775909
607.921333	41226.941802
608.270899	41441.372322
608.620411	41832.051663
608.969870	41568.984091
609.319276	41587.207862
609.668627	41616.779270
610.017926	42017.538398
610.367171	42149.477997
610.716362	42200.575133
611.065500	42077.402100
611.414585	42316.945128
611.763616	42495.437262
612.112594	42369.819270
612.461518	42500.518745
612.810389	42907.057556
613.159207	42673.702544
613.507971	42664.641070
613.856682	43155.173066
614.205340	43001.992565
614.553945	43679.639589
614.902496	43000.830579
615.250994	43414.865586
615.599439	43486.543232
615.947830	43599.908699
616.296169	43582.408334
616.644454	43630.576559
616.992686	43792.160663
617.340864	44242.542389
617.688990	43774.322540
618.037063	44455.742867
618.385082	44278.384993
618.733048	44598.468015
619.080961	44469.318695
619.428821	44494.605122
619.776628	44515.062125
620.124382	44339.866905
620.472083	44437.579590
620.819731	44541.777719
621.167326	44082.125312
621.514868	44067.634515
621.862357	43549.751739
622.209793	43631.385664
622.557176	43194.433572
622.904506	42951.954072
623.251783	42596.877880
623.599007	42265.258177
623.946179	42188.085674
624.293297	41936.151490
624.640363	41401.375807
624.987376	41241.230953
625.334336	41030.634230
625.681243	40628.675308
626.028097	40533.246265
626.374899	40347.663748
626.721647	40317.696609
627.068343	40113.761772
627.414987	39826.733595
627.761577	39558.816433
628.108115	39887.161906
628.454600	39143.639605
628.801032	39364.396773
629.147412	39264.902040
629.493739	39177.788381
629.840014	38734.512162
630.186236	39164.076442
630.532405	38608.193449
630.878521	38843.726239
631.224585	38612.632185
631.570597	38276.989641
631.916556	38441.003582
632.262462	38324.318514
632.608316	38261.470449
632.954117	38133.011767
633.299866	38085.813964
633.645562	37987.987853
633.991206	37468.239850
634.336797	37068.420898
634.682336	36950.841025
635.027823	36709.130301
635.373257	36586.078257
635.718639	36246.299446
636.063968	36143.739692
636.409245	35489.276935
636.754470	35460.247450
637.099642	35226.040484
637.444762	34655.661652
637.789829	34814.654604
638.134845	34425.187660
638.479808	34339.430072
638.824719	34287.939726
639.169577	33765.361116
639.514383	33872.485635
639.859137	33490.537573
640.203839	33658.612162
640.548489	33355.961450
640.893086	33356.349619
641.237632	33095.225412
641.582125	33193.810216
641.926566	32982.583349
642.270955	33013.105015
642.615292	32941.855868
642.959576	32830.136337
643.303809	32839.044055
643.647990	32917.499533
643.992118	32879.264901
644.336195	32722.890830
644.680219	32814.420539
645.024192	33019.981149
645.368112	33538.249573
645.711981	33568.554470
646.055797	34298.382477
646.399562	34100.986015
646.743274	34972.278882
647.086935	35388.131224
647.430544	35324.411039
647.774101	35372.564141
648.117606	35643.435419
648.461059	35797.785468
648.804460	35377.146550
649.147810	34869.290629
649.491108	34521.282135
649.834354	34376.908530
650.177548	33543.038669
650.520690	33060.438929
650.863781	33039.162740
651.206820	32860.199257
651.549807	32455.944089
651.892742	31880.438405
652.235626	31790.784004
652.578458	31653.518426
652.921238	30968.692799
653.263967	31259.995874
653.606644	30981.313328
653.949269	30877.790713
654.291843	30501.390441
654.634365	30858.810769
654.976836	30393.794574
655.319255	30482.307153
655.661622	30345.533087
656.003938	30215.471318
656.346203	30033.168072
656.688416	30263.553843
657.030577	30036.487671
657.372687	29867.689676
657.714746	30035.189574
658.056753	30213.013756
658.398708	29607.760222
658.740612	29670.537711
659.082465	29885.361441
659.424266	29771.164183
659.766016	29782.224474
660.107715	29637.054367
660.449362	29745.799617
660.790958	29733.784027
661.132503	29644.149791
661.473996	29719.855319
661.815438	29803.324224
662.156829	29923.953994
662.498168	29728.546268
662.839456	29697.344046
663.180693	29839.514667
663.521879	29917.471070
663.863013	29878.442457
664.204097	29853.773571
664.545129	30268.547106
664.886110	30204.534535
665.227040	30308.163014
665.567918	30302.204370
665.908746	30387.977082
666.249522	30469.091768
666.590248	30488.245632
666.930922	30586.832957
667.271545	30582.865569
667.612118	30645.249848
667.952639	30455.543667
668.293109	30496.127476
668.633528	30355.285199
668.973896	30321.590127
669.314213	30287.516968
669.654480	30094.115622
669.994695	30087.279817
670.334859	30004.988022
670.674973	29846.650420
671.015035	30032.963905
671.355047	29969.694903
671.695008	29899.675797
672.034918	29817.164712
672.374777	29913.637273
672.714585	29782.300092
673.054342	29910.312632
673.394049	29772.106878
673.733705	29986.058489
674.073310	29707.103720
674.412864	29768.046229
674.752368	29454.080647
675.091820	29696.547544
675.431223	29283.697209
675.770574	29090.487426
676.109875	28925.583722
676.449125	28711.004488
676.788324	28618.627864
677.127473	28144.391398
677.466571	28033.213791
677.805619	27759.312779
678.144616	27691.940279
678.483562	27654.028281
678.822458	27323.678949
679.161303	27265.753571
679.500098	27195.903343
679.838842	27130.728786
680.177535	27207.049334
680.516179	27446.186549
680.854771	27574.511641
681.193314	28350.506535
681.531805	29374.127947
681.870247	30114.388622
682.208638	30856.822034
682.546978	31124.290533
682.885268	31247.501375
683.223508	30819.245273
683.561697	30539.723375
683.899836	30380.954755
684.237925	29963.713574
684.575963	29821.253087
684.913951	29461.654981
685.251889	29633.344078
685.589776	29656.868622
685.927614	29670.356229
686.265401	29861.443686
686.603137	29955.738469
686.940824	30468.597735
687.278460	30800.739197
687.616046	30966.174743
687.953582	31648.136994
688.291068	31542.010623
688.628504	31883.107696
688.965889	31876.710471
689.303224	31606.252568
689.640510	31319.408393
689.977745	30688.447495
690.314930	29948.448961
690.652065	29505.878503
690.989150	28830.076542
691.326185	27986.401637
691.663170	27347.712650
692.000105	26616.314324
692.336990	26009.586253
692.673825	25593.789363
693.010610	25098.243940
693.347345	24599.386479
693.684030	23967.427433
694.020665	23775.987095
694.357251	23103.189661
694.693786	23106.438685
695.030272	22867.160317
695.366707	22373.487683
695.703093	22105.116817
696.039429	22184.789733
696.375716	21946.247374
696.711952	21935.771856
697.048139	21794.992594
697.384276	21643.727732
697.720363	21762.298191
698.056400	21653.600832
698.392388	21495.298518
698.728326	21491.472283
699.064214	21331.760967
699.400053	21333.976554
699.735842	20940.501894
700.071581	20742.306410
700.407270	20498.307002
700.742910	20327.048923
701.078501	20068.636857
701.414042	19870.209479
701.749533	19566.106915
702.084974	19252.348020
702.420366	19481.586929
702.755709	19071.042922
703.091002	18777.080638
703.426246	18841.650257
703.761440	18772.926728
704.096584	18534.701961
704.431679	18464.234192
704.766725	18409.114216
705.101721	18348.915278
705.436668	18469.792064
705.771565	18191.152368
706.106413	18506.630296
706.441212	18581.912367
706.775961	18698.249595
707.110661	18770.678373
707.445311	19132.839906
707.779913	19013.304066
708.114465	19313.214912
708.448967	19621.345358
708.783421	20247.149155
709.117825	20620.189499
709.452180	20852.072493
709.786485	21308.256587
710.120742	22068.127351
710.454949	22174.601561
710.789107	22693.462321
711.123216	23408.766763
711.457275	23622.867088
711.791286	24180.206975
712.125247	24326.140817
712.459159	24056.476895
712.793023	24804.274094
713.126837	23776.639924
713.460602	24025.733418
713.794318	23689.107849
714.127985	23406.841042
714.461602	22521.483357
714.795171	22494.782886
715.128691	21512.269563
715.462162	21003.677634
715.795584	20564.078936
716.128957	20297.175046
716.462281	19924.701832
716.795556	19645.961312
717.128782	19168.422891
717.461960	18557.659376
717.795088	18521.403397
718.128167	18181.266665
718.461198	17721.954535
718.794180	17599.315865
719.127113	17270.093231
719.459997	17075.764312
719.792833	16715.876339
720.125619	16743.978251
720.458357	16413.563384
720.791046	16280.918023
721.123686	16132.415713
721.456278	15908.222999
721.788821	15904.462298
722.121315	15637.205527
722.453761	15740.135806
722.786158	15621.366222
723.118506	15697.958992
723.450805	15579.484315
723.783056	15769.039262
724.115259	15662.504558
724.447412	15661.511450
724.779518	15865.199271
725.111574	15923.172541
725.443582	16193.247317
725.775542	16141.056251
726.107453	16659.914490
726.439315	16582.089157
726.771129	17007.623035
727.102895	17427.437725
727.434612	17698.361935
727.766281	17865.849231
728.097901	18190.779322
728.429473	18266.605838
728.760996	18284.411193
729.092471	18400.703051
729.423897	18294.415363
729.755276	18172.694183
730.086606	18277.162014
730.417887	18871.440956
730.749120	19421.302291
731.080305	19639.576691
731.411442	20035.304747
731.742530	20143.621499
732.073570	20319.666153
732.404562	20634.748351
732.735506	20478.457458
733.066401	20272.702764
733.397249	19771.377658
733.728048	19154.259769
734.058798	18281.071429
734.389501	17518.556581
734.720156	17006.952562
735.050762	16430.935200
735.381320	16043.673762
735.711831	15769.566062
736.042293	15402.106276
736.372707	15438.876452
736.703073	15231.581686
737.033391	15438.352172
737.363661	15436.328149
737.693883	15556.894905
738.024056	15758.228507
738.354182	15973.684902
738.684260	16339.879359
739.014290	16614.450844
739.344272	16834.623238
739.674207	17195.612703
740.004093	17363.243672
740.333931	17415.074295
740.663722	17506.961927
740.993464	17540.994756
741.323159	17384.320736
741.652806	17081.143223
741.982405	16914.722132
742.311956	16549.883746
742.641460	16444.432889
742.970915	16109.486025
743.300323	15765.875938
743.629683	15547.790581
743.958996	15233.013373
744.288260	14920.681125
744.617477	14614.650319
744.946647	14579.785699
745.275768	14264.610240
745.604842	14065.086412
745.933869	13888.209968
746.262847	13858.048744
746.591778	13776.969346
746.920662	13656.684895
747.249498	13665.428776
747.578286	13827.564887
747.907027	13996.292306
748.235720	14263.717956
748.564365	14344.872971
748.892963	14265.106794
749.221514	14362.413666
749.550017	14234.690992
749.878473	14202.480539
750.206881	13983.215553
750.535242	13904.250919
750.863555	13824.706552
751.191821	13720.198392
751.520039	13739.458120
751.848210	13668.884487
752.176334	13719.757291
752.504411	13638.675373
752.832440	13457.171149
753.160421	13580.616404
753.488356	13460.180718
753.816243	13373.772820
754.144082	13212.723078
754.471875	13157.842557
754.799620	13125.553967
755.127318	13101.333743
755.454969	13087.964603
755.782572	13062.839492
756.110129	13071.807705
756.437638	12980.860248
756.765100	12980.862769
757.092515	13015.654292
757.419882	13051.827092
757.747203	13067.605903
758.074477	13151.715035
758.401703	13131.691572
758.728882	13330.295389
759.056014	13376.293397
759.383099	13543.490826
759.710138	13671.054704
760.037129	13791.170277
760.364073	13856.811141
760.690970	13884.313156
761.017820	13894.430751
761.344623	14116.153300
761.671379	14503.500438
761.998088	15204.808118
762.324751	16972.733210
762.651366	20380.338961
762.977935	24873.085844
763.304456	27856.221400
763.630931	28921.326467
763.957359	27722.013282
764.283740	25447.870644
764.610074	23178.587679
764.936362	20534.197497
765.262602	18650.676226
765.588796	16720.975466
765.914943	15430.800524
766.241044	14318.853055
766.567097	13531.059341
766.893104	12811.409424
767.219064	12346.471366
767.544978	11867.181144
767.870845	11487.002526
768.196665	11257.413257
768.522438	11022.976918
768.848165	10824.625158
769.173846	10616.876687
769.499479	10482.313168
769.825066	10307.473349
770.150607	10082.816849
770.476101	10005.198203
770.801548	9880.099450
771.126949	9724.441222
771.452303	9608.323284
771.777611	9409.921113
772.102872	9404.753930
772.428087	9262.011138
772.753256	9102.383002
773.078378	9014.651802
773.403453	8831.078184
773.728482	8715.313127
774.053465	8641.855954
774.378401	8542.038587
774.703291	8416.891943
775.028135	8296.731000
775.352932	8261.999971
775.677683	8158.852922
776.002388	8051.861993
776.327046	8056.915750
776.651658	7960.208775
776.976224	7857.379319
777.300743	7855.050306
777.625216	7770.545444
777.949643	7728.552632
778.274024	7749.110458
778.598359	7654.059502
778.922647	7671.905187
779.246889	7623.628577
779.571086	7634.474619
779.895236	7641.993500
780.219339	7651.496075
780.543397	7652.068246
780.867409	7731.214362
781.191374	7744.414623
781.515294	7708.322482
781.839167	7801.311606
782.162995	7771.737677
782.486776	7723.866880
782.810511	7669.901328
783.134201	7580.423368
783.457844	7578.316165
783.781441	7521.958586
784.104993	7455.644728
784.428498	7433.904752
784.751958	7418.577123
785.075372	7388.103348
785.398739	7336.174423
785.722061	7383.682257
786.045337	7382.043882
786.368568	7542.319806
786.691752	7568.990031
787.014891	7907.344715
787.337983	8268.092205
787.661030	8862.847536
787.984031	9492.026386
788.306987	9897.967820
788.629897	10101.080949
788.952760	10055.624865
789.275579	9833.153705
789.598351	9438.317932
789.921078	9079.513808
790.243759	8662.418821
790.566395	8374.856282
790.888984	8123.844629
791.211529	7904.272132
791.534027	7687.958741
791.856480	7482.153635
792.178888	7414.372801
792.501249	7313.229611
792.823566	7157.778070
793.145836	7159.885273
793.468062	7131.289327
793.790241	7084.499858
794.112375	7149.785321
794.434464	7302.335677
794.756507	7346.765887
795.078505	7503.515525
795.400457	7817.957496
795.722364	8176.585180
796.044226	8464.644273
796.366042	8732.558915
796.687812	8684.534362
797.009538	8767.168956
797.331218	8654.640320
797.652852	8570.818535
797.974442	8419.888909
798.295986	8326.889703
798.617484	8136.689489
798.938938	7993.714804
799.260346	7894.719145
799.581709	7695.880914
799.903026	7612.830425
800.224299	7508.269333
800.545526	7336.214752
800.866708	7235.915955
801.187845	7172.853641
801.508936	7061.708802
801.829983	7028.290993
802.150984	6872.592436
802.471940	6826.576783
802.792851	6820.731565
803.113717	6780.510719
803.434538	6748.622901
803.755314	6690.102666
804.076045	6690.856319
804.396731	6641.324462
804.717372	6665.612741
805.037967	6677.371232
805.358518	6717.045113
805.679024	6795.278780
805.999485	6807.070038
806.319901	6848.667119
806.640272	6874.450101
806.960598	6956.721732
807.280879	6956.192410
807.601115	7034.778958
807.921306	6982.822306
808.241453	6992.304716
808.561554	7016.550145
808.881611	6977.924825
809.201623	6990.769685
809.521590	6930.520334
809.841513	6912.077273
810.161390	6953.444982
810.481223	6822.619478
810.801011	6805.711448
811.120755	6783.338807
811.440453	6705.478186
811.760107	6668.544172
812.079716	6638.256920
812.399281	6578.304997
812.718801	6564.280508
813.038276	6514.683115
813.357707	6452.573579
813.677093	6497.729715
813.996434	6402.749335
814.315731	6446.383042
814.634983	6439.136384
814.954191	6451.499814
815.273354	6558.251288
815.592473	6620.315453
815.911547	6744.990749
816.230577	6826.869170
816.549562	6976.435164
816.868502	7076.605411
817.187399	7174.897829
817.506250	7333.845410
817.825058	7364.891356
818.143821	7633.095864
818.462539	7903.541165
818.781213	8275.646374
819.099843	8822.561155
819.418429	9826.161624
819.736970	10804.253855
820.055466	11993.298210
820.373919	13526.151778
820.692327	15868.168511
821.010691	20008.929430
821.329011	28984.824841
821.647286	41978.706390
821.965517	55431.768999
822.283704	60843.510667
822.601847	62847.364280
822.919945	60175.255313
823.237999	56019.726333
823.556010	49865.760461
823.873976	43165.855271
824.191897	36624.726262
824.509775	31763.697884
824.827609	27225.086583
825.145398	24607.527942
825.463144	23235.736719
825.780845	23520.753475
826.098502	25302.176257
826.416116	29087.881149
826.733685	32752.396703
827.051210	33937.287147
827.368692	32179.918231
827.686129	28216.401760
828.003522	24075.915584
828.320872	20342.462251
828.638177	17482.950911
828.955439	15317.422453
829.272656	13496.040966
829.589830	12002.896567
829.906960	10732.054450
830.224046	9783.720150
830.541088	9035.166777
830.858086	8571.874656
831.175041	8191.010442
831.491952	8070.065600
831.808819	8113.953885
832.125642	8518.713168
832.442421	9398.523064
832.759157	11197.937724
833.075849	14129.656031
833.392497	17364.813991
833.709101	19569.214786
834.025662	19423.265821
834.342179	17730.590032
834.658653	15522.534400
834.975083	13584.283843
835.291469	11958.640277
835.607811	10634.084666
835.924110	9714.411846
836.240366	8843.086213
836.556578	8035.949591
836.872746	7386.253245
837.188871	6882.369753
837.504952	6461.607327
837.820990	6150.232898
838.136984	5929.155617
838.452935	5829.920503
838.768842	5864.033991
839.084706	6281.159225
839.400526	7487.431723
839.716303	9088.396321
840.032037	10194.072594
840.347727	10128.401482
840.663373	9145.048808
840.978977	8099.148016
841.294537	7282.496217
841.610054	6680.572365
841.925527	6248.474904
842.240957	5882.976127
842.556344	5543.850146
842.871687	5261.467393
843.186987	4977.786542
843.502244	4755.426287
843.817458	4588.702727
844.132629	4450.078558
844.447756	4357.820401
844.762840	4279.788381
845.077881	4200.211247
845.392879	4141.857370
845.707833	4090.097323
846.022745	4048.525448
846.337613	4017.245088
846.652438	3971.753716
846.967221	3957.255358
847.281960	3925.475924
847.596656	3905.684354
847.911309	3885.406313
848.225919	3862.166593
848.540485	3844.416691
848.855009	3833.696677
849.169490	3809.836896
849.483928	3802.514620
849.798323	3788.180099
850.112675	3769.779887
850.426984	3780.429325
850.741251	3763.158332
851.055474	3759.395110
851.369654	3763.428033
851.683792	3761.908126
851.997887	3765.477262
852.311938	3769.290895
852.625947	3775.786422
852.939914	3763.183538
853.253837	3769.764764
853.567718	3767.997839
853.881555	3759.430398
854.195350	3772.587810
854.509103	3772.749127
854.822812	3768.764095
855.136479	3760.420985
855.450103	3769.767284
855.763685	3759.518619
856.077224	3760.587343
856.390720	3775.940177
856.704173	3795.777118
857.017584	3807.704488
857.330953	3821.179492
857.644278	3840.303109
857.957561	3847.070858
858.270802	3846.947350
858.584000	3851.875078
858.897155	3845.379551
859.210268	3827.833815
859.523339	3804.266421
859.836367	3805.103252
860.149352	3796.069505
860.462295	3788.033905
860.775195	3775.912451
861.088054	3777.644087
861.400869	3773.724590
861.713642	3771.617388
862.026373	3785.299079
862.339062	3787.129018
862.651708	3808.420332
862.964312	3843.486598
863.276873	3856.021427
863.589392	3911.504366
863.901869	3958.613949
864.214303	4005.781505
864.526696	4038.763254
864.839045	4082.996858
865.151353	4107.953090
865.463619	4120.616469
865.775842	4124.059577
866.088023	4149.769461
866.400162	4135.631545
866.712258	4143.780571
867.024313	4144.352742
867.336325	4140.592041
867.648296	4149.325840
867.960224	4149.282990
868.272110	4159.977798
868.583954	4162.657171
868.895755	4175.418852
869.207515	4168.691432
869.519233	4218.556006
869.830909	4232.272985
870.142542	4254.265019
870.454134	4267.792955
870.765684	4297.384528
871.077191	4333.958099
871.388657	4354.336964
871.700081	4396.170979
872.011463	4439.136733
872.322803	4478.677023
872.634101	4507.550232
872.945357	4544.015418
873.256571	4601.492134
873.567744	4632.225528
873.878874	4646.655831
874.189963	4687.395916
874.501010	4696.747257
874.812015	4694.105692
875.122979	4740.416252
875.433900	4736.791662
875.744780	4747.206686
876.055618	4778.330770
876.366415	4776.601654
876.677169	4796.733502
876.987882	4843.676727
877.298554	4895.373759
877.609183	4973.814113
877.919771	5082.357717
878.230317	5232.488320
878.540822	5447.072595
878.851285	5768.894815
879.161707	6228.809363
879.472087	6990.779767
879.782425	8228.017553
880.092722	10408.921529
880.402977	13714.466600
880.713191	17477.027555
881.023363	21195.856501
881.333494	23419.254884
881.643583	24653.326825
881.953631	24649.369519
882.263637	23822.408560
882.573602	22335.253052
882.883526	20797.028135
883.193408	19111.311659
883.503248	17413.710663
883.813048	15867.230856
884.122806	14430.224747
884.432522	12954.933594
884.742197	11682.805983
885.051831	10587.791750
885.361424	9579.911341
885.670975	8763.428420
885.980485	8070.108449
886.289954	7491.608319
886.599382	7013.154928
886.908768	6634.937320
887.218113	6268.344612
887.527417	5979.005067
887.836680	5713.522782
888.145901	5494.542620
888.455082	5331.242003
888.764221	5179.795659
889.073319	5043.031676
889.382376	4968.863700
889.691392	4910.388836
890.000366	4883.519486
890.309300	4867.642372
890.618193	4868.159090
890.927044	4855.319271
891.235855	4875.625039
891.544625	4906.423968
891.853353	4969.322445
892.162041	5087.048511
892.470687	5279.746617
892.779293	5527.847003
893.087858	5899.919445
893.396381	6477.292877
893.704864	7284.300950
894.013306	8442.145603
894.321707	9620.389286
894.630068	10449.709505
894.938387	10656.212811
895.246665	10425.524570
895.554903	9810.493718
895.863100	9112.445145
896.171256	8549.464207
896.479371	8041.439407
896.787446	7541.687142
897.095480	7113.345340
897.403473	6790.272914
897.711425	6475.407486
898.019336	6198.010434
898.327207	5928.989259
898.635038	5699.868816
898.942827	5451.173574
899.250576	5256.259881
899.558284	5059.659922
899.865952	4935.138381
900.173579	4784.251605
900.481165	4679.536757
900.788711	4587.840689
901.096216	4511.658772
901.403681	4450.726346
901.711105	4422.687448
902.018489	4410.034152
902.325832	4482.793126
902.633135	4600.637658
902.940397	4948.421821
903.247619	5737.415330
903.554800	7178.567789
903.861941	9103.381150
904.169041	10633.172217
904.476101	11270.179979
904.783121	10921.848851
905.090100	10181.172281
905.397039	9341.215227
905.703938	8584.258251
906.010796	7888.153042
906.317614	7328.312743
906.624391	6794.237781
906.931129	6365.051587
907.237826	5963.090144
907.544483	5589.255819
907.851099	5209.732551
908.157675	4858.550651
908.464211	4527.853479
908.770707	4293.510402
909.077163	4092.333075
909.383578	3950.643884
909.689954	3832.917819
909.996289	3759.143053
910.302584	3695.357333
910.608839	3663.260307
910.915054	3630.276037
911.221229	3619.049387
911.527363	3625.504585
911.833458	3640.474291
912.139513	3669.861698
912.445527	3699.604505
912.751502	3786.894605
913.057436	3885.474368
913.363331	4020.105943
913.669186	4224.746543
913.975000	4483.660204
914.280775	4906.232405
914.586510	5489.400643
914.892205	6280.735768
915.197859	7322.913667
915.503475	8549.985966
915.809050	9616.452145
916.114585	10260.394014
916.420081	10527.862513
916.725536	10492.254323
917.030952	10057.069156
917.336328	9642.202359
917.641665	9234.778825
917.946961	8754.598839
918.252218	8328.018921
918.557435	7812.271074
918.862612	7382.474900
919.167750	7012.063518
919.472848	6580.233239
919.777906	6203.127205
920.082925	5849.840623
920.387904	5480.129961
920.692843	5210.080391
920.997743	4962.332885
921.302603	4730.235642
921.607423	4561.301535
921.912204	4399.185589
922.216946	4282.208135
922.521647	4153.411695
922.826310	4055.996438
923.130932	3960.219556
923.435516	3860.543342
923.740059	3791.663536
924.044564	3708.776885
924.349028	3655.683452
924.653454	3585.755087
924.957840	3517.681866
925.262186	3472.331646
925.566493	3412.203283
925.870761	3355.006352
926.174989	3318.374807
926.479178	3278.801750
926.783328	3239.889083
927.087438	3207.013198
927.391509	3175.831141
927.695541	3145.964825
927.999533	3117.608335
928.303486	3097.857094
928.607400	3080.145000
928.911275	3067.360634
929.215110	3048.355484
929.518906	3042.666542
929.822663	3041.217210
930.126381	3039.919113
930.430060	3045.577808
930.733699	3050.442522
931.037299	3058.959551
931.340861	3058.636917
931.644383	3068.394070
931.947866	3064.895510
932.251309	3056.895198
932.554714	3057.099365
932.858080	3052.474107
933.161407	3043.039587
933.464694	3032.921991
933.767943	3027.386804
934.071153	3021.954961
934.374323	3014.552027
934.677455	3008.273270
934.980548	3003.582476
935.283602	2993.762308
935.586617	2992.643172
935.889593	3001.419821
936.192530	3006.450893
936.495428	3022.822040
936.798287	3040.332488
937.101108	3077.445462
937.403890	3126.090076
937.706632	3186.795651
938.009336	3268.520316
938.312002	3340.288703
938.614628	3405.740524
938.917216	3454.554017
939.219765	3491.656909
939.522275	3523.680839
939.824747	3530.181407
940.127179	3526.367774
940.429573	3520.280581
940.731929	3517.155065
941.034246	3501.817355
941.336524	3488.657423
941.638763	3476.543530
941.940964	3461.699852
942.243126	3416.473141
942.545250	3396.769791
942.847335	3359.046837
943.149381	3323.368070
943.451389	3291.021507
943.753359	3255.153697
944.055290	3230.578072
944.357182	3204.694267
944.659036	3190.914273
944.960851	3180.025381
945.262628	3166.537774
945.564367	3165.592558
945.866067	3162.535098
946.167729	3158.592916
946.469352	3160.838750
946.770937	3150.658139
947.072484	3136.280769
947.373992	3139.363434
947.675462	3132.325983
947.976893	3112.998200
948.278286	3109.025770
948.579641	3097.486569
948.880958	3091.664037
949.182236	3096.374995
949.483476	3090.010538
949.784678	3089.778645
950.085841	3090.489448
950.386967	3102.401694
950.688054	3120.340640
950.989103	3137.294041
951.290114	3159.351609
951.591087	3186.951927
951.892021	3213.634754
952.192917	3243.690113
952.493776	3268.273300
952.794596	3277.102881
953.095378	3283.106895
953.396122	3275.721605
953.696828	3272.404525
953.997496	3257.386928
954.298126	3235.904051
954.598718	3216.576267
954.899272	3188.978470
955.199788	3163.419820
955.500266	3129.583596
955.800706	3095.502875
956.101108	3055.403017
956.401472	3020.588808
956.701798	2990.435147
957.002087	2950.073148
957.302337	2919.798499
957.602550	2891.164745
957.902724	2861.605940
958.202861	2836.584172
958.502960	2818.582212
958.803022	2796.897689
959.103045	2778.741973
959.403031	2761.463418
959.702979	2744.590677
960.002889	2733.275807
960.302762	2719.944475
960.602596	2707.659183
960.902393	2701.375385
961.202153	2691.267872
961.501875	2685.120185
961.801559	2677.807991
962.101205	2670.952022
962.400814	2666.682164
962.700385	2659.158242
962.999918	2653.754125
963.299414	2648.102992
963.598873	2644.170892
963.898293	2633.844088
964.197677	2639.427166
964.497022	2635.192597
964.796331	2636.241157
965.095601	2631.608337
965.394835	2630.353089
965.694030	2625.644652
965.993189	2624.003756
966.292309	2623.391256
966.591393	2624.424692
966.890439	2621.591564
967.189447	2624.379322
967.488419	2625.195989
967.787353	2626.110958
968.086249	2624.555762
968.385108	2625.654734
968.683930	2629.228912
968.982714	2633.057668
969.281462	2636.833492
969.580172	2641.400778
969.878844	2651.478044
970.177480	2657.565238
970.476078	2663.450785
970.774639	2671.020077
971.073162	2681.641788
971.371649	2686.660257
971.670098	2688.875844
971.968510	2696.639221
972.266885	2700.606609
972.565223	2703.296065
972.863524	2708.143134
973.161788	2707.734801
973.460014	2714.739484
973.758204	2717.116388
974.056356	2717.590257
974.354471	2719.372304
974.652550	2719.016903
974.950591	2719.112685
975.248595	2720.567058
975.546563	2715.747715
975.844493	2711.457693
976.142386	2708.216231
976.440243	2700.470498
976.738062	2698.184335
977.035845	2690.761236
977.333590	2684.094310
977.631299	2675.572239
977.928971	2674.876560
978.226606	2667.093018
978.524204	2664.370795
978.821765	2658.278561
979.119290	2664.837102
979.416777	2660.887358
979.714228	2664.169149
980.011642	2667.849192
980.309020	2674.049811
980.606360	2690.463808
980.903664	2713.401058
981.200931	2749.616707
981.498162	2798.727628
981.795356	2871.894935
982.092513	2964.044706
982.389633	3066.853998
982.686717	3159.467556
982.983764	3237.008064
983.280775	3286.781896
983.577749	3294.930921
983.874686	3279.852830
984.171587	3244.453848
984.468451	3207.998744
984.765279	3167.485511
985.062070	3117.167234
985.358824	3072.464802
985.655543	3015.439270
985.952224	2964.158132
986.248869	2900.747979
986.545478	2842.986438
986.842050	2782.747170
987.138586	2740.961046
987.435086	2703.086857
987.731549	2669.724501
988.027975	2646.101654
988.324366	2627.681278
988.620719	2614.097889
988.917037	2602.099942
989.213318	2592.645258
989.509563	2585.920359
989.805772	2583.719896
990.101944	2576.017012
990.398080	2574.083730
990.694180	2574.534913
990.990244	2576.213617
991.286271	2572.929306
991.582262	2576.032136
991.878217	2578.260326
992.174136	2581.897518
992.470019	2579.649164
992.765865	2583.924062
993.061676	2591.294229
993.357450	2600.625405
993.653188	2608.517331
993.948890	2624.684312
994.244556	2644.811118
994.540186	2665.469767
994.835780	2696.366999
995.131337	2734.843606
995.426859	2778.913372
995.722345	2821.770742
996.017795	2875.753938
996.313208	2913.267684
996.608586	2941.596448
996.903928	2956.172945
997.199234	2951.923252
997.494504	2953.475927
997.789738	2936.204934
998.084936	2913.166861
998.380099	2879.607900
998.675225	2852.249558
998.970316	2820.134887
999.265371	2783.031995
999.560390	2748.361460
999.855373	2716.778631
1000.150320	2687.527336
1000.445232	2664.075888
1000.740108	2642.240130
1001.034948	2626.075670
1001.329752	2610.180912
1001.624521	2598.298912
1001.919254	2585.943044
1002.213951	2577.728484
1002.508613	2566.350600
1002.803239	2562.037893
1003.097829	2556.381718
1003.392384	2549.757642
1003.686903	2544.829914
1003.981386	2543.577188
1004.275834	2540.948226
1004.570246	2537.121990
1004.864623	2533.477236
1005.158964	2531.264169
1005.453270	2530.626463
1005.747540	2526.664116
1006.041775	2527.821061
1006.335974	2527.863911
1006.630138	2524.393077
1006.924266	2523.846111
1007.218359	2522.578261
1007.512416	2522.164887
1007.806438	2518.389062
1008.100425	2521.275123
1008.394376	2513.650378
1008.688292	2519.475431
1008.982172	2518.366377
1009.276017	2519.170441
1009.569827	2519.278826
1009.863602	2516.470903
1010.157341	2516.143228
1010.451045	2516.538959
1010.744714	2514.958557
1011.038347	2514.572909
1011.331945	2513.274812
1011.625508	2513.786489
1011.919036	2510.587877
1012.212528	2511.903618
1012.505986	2510.171982
1012.799408	2509.909842
1013.092795	2508.616786
1013.386147	2508.279028
1013.679464	2510.955881
1013.972745	2509.965294
1014.265992	2504.699809
1014.559204	2508.435304
1014.852380	2507.570746
1015.145521	2508.460510
1015.438628	2508.039573
1015.731699	2509.289780
1016.024736	2509.032681
1016.317737	2510.797085
1016.610703	2509.816580
1016.903635	2512.276663
1017.196531	2512.223731
1017.489393	2514.766993
1017.782219	2515.190450
1018.075011	2517.973167
1018.367768	2515.976870
1018.660490	2519.896367
1018.953177	2519.896367
1019.245829	2519.896367
