Dividing Wavelength (nm)	Counts (n)	Blue Motor Position (mm): 12.800000	Red Motor Position (mm): 0.000000	
326.493990	2165.815803
326.888308	2165.815803
327.282561	2165.815803
327.676750	2124.932046
328.070874	2121.952724
328.464933	2121.806530
328.858929	2124.291819
329.252859	2127.119907
329.646726	2138.248254
330.040528	2152.716365
330.434265	2163.237253
330.827938	2184.732733
331.221547	2200.289734
331.615091	2217.283464
332.008571	2232.646380
332.401986	2254.819895
332.795338	2270.714653
333.188625	2290.743158
333.581847	2310.484316
333.975006	2328.075422
334.368100	2348.595439
334.761129	2362.614888
335.154095	2380.107692
335.546996	2400.461350
335.939833	2429.813469
336.332606	2442.519697
336.725315	2455.621656
337.117960	2465.981227
337.510540	2478.453042
337.903056	2492.406955
338.295508	2499.089005
338.687896	2507.437156
339.080220	2513.728516
339.472480	2520.707993
339.864676	2526.389373
340.256807	2534.414890
340.648875	2536.549819
341.040879	2536.355735
341.432818	2542.949564
341.824694	2546.148176
342.216506	2546.337219
342.608253	2545.830583
342.999937	2544.744215
343.391557	2547.325285
343.783113	2545.306303
344.174605	2541.560726
344.566033	2542.596683
344.957397	2541.732125
345.348697	2543.277239
345.739934	2538.631816
346.131106	2539.516538
346.522215	2536.517052
346.913260	2537.300951
347.304241	2533.152081
347.695159	2530.515558
348.086012	2530.807945
348.476802	2526.820392
348.867528	2523.266379
349.258191	2517.085924
349.648789	2518.913342
350.039324	2517.370749
350.429796	2521.655730
350.820203	2516.034843
351.210548	2519.621624
351.600828	2517.423681
351.991045	2518.494927
352.381198	2514.441839
352.771288	2515.503002
353.161314	2510.292969
353.551276	2513.756242
353.941175	2513.995697
354.331010	2514.948475
354.720782	2511.550737
355.110490	2510.701303
355.500135	2511.462517
355.889717	2509.418329
356.279235	2509.761128
356.668689	2510.625685
357.058080	2511.079389
357.447408	2511.144924
357.836672	2514.981242
358.225873	2512.821108
358.615010	2514.232631
359.004084	2513.662981
359.393095	2515.329082
359.782043	2516.909484
360.170927	2514.313289
360.559748	2515.485358
360.948505	2514.288084
361.337199	2519.977026
361.725830	2518.041223
362.114398	2516.362518
362.502903	2518.459638
362.891344	2516.697755
363.279722	2516.516274
363.668037	2520.171110
364.056289	2521.083559
364.444478	2518.368898
364.832603	2516.980060
365.220665	2519.140194
365.608665	2520.700431
365.996601	2524.420803
366.384474	2521.539783
366.772284	2523.069774
367.160031	2526.079343
367.547715	2523.251255
367.935336	2523.488189
368.322893	2520.546676
368.710388	2521.020545
369.097820	2520.647499
369.485189	2520.259330
369.872495	2525.272758
370.259738	2525.315608
370.646918	2527.143026
371.034035	2525.340813
371.421090	2526.160001
371.808081	2526.502799
372.195010	2524.834177
372.581875	2527.548839
372.968678	2528.176463
373.355418	2524.045237
373.742096	2528.045393
374.128710	2528.287368
374.515262	2525.204702
374.901751	2529.908099
375.288177	2530.991947
375.674540	2529.802235
376.060841	2527.601771
376.447079	2526.495238
376.833254	2529.799714
377.219367	2528.307532
377.605417	2529.809796
377.991404	2528.773839
378.377329	2532.461443
378.763191	2530.064375
379.148991	2529.587986
379.534727	2529.976154
379.920402	2529.487162
380.306013	2529.227543
380.691563	2533.192411
381.077049	2534.210724
381.462474	2532.393388
381.847835	2534.175436
382.233134	2533.046217
382.618371	2530.659231
383.003545	2532.736186
383.388657	2531.206196
383.773706	2532.083357
384.158693	2534.515713
384.543618	2535.602082
384.928480	2533.930940
385.313280	2534.588810
385.698017	2534.586290
386.082692	2533.101670
386.467305	2537.946219
386.851856	2531.853984
387.236344	2536.615354
387.620770	2533.162164
388.005133	2530.492873
388.389435	2533.394057
388.773674	2531.196114
389.157851	2535.816331
389.541965	2535.176105
389.926018	2535.387833
390.310008	2535.256763
390.693936	2536.007895
391.077802	2536.360776
391.461606	2535.828934
391.845348	2537.363965
392.229027	2538.848585
392.612645	2540.534851
392.996200	2539.788760
393.379694	2538.299099
393.763125	2539.680376
394.146494	2541.641384
394.529801	2539.448483
394.913047	2540.771785
395.296230	2538.220962
395.679351	2540.282793
396.062410	2539.062834
396.445408	2540.665921
396.828343	2539.430838
397.211217	2541.512835
397.594028	2539.571991
397.976778	2539.796322
398.359466	2539.861857
398.742092	2540.509645
399.124656	2541.568288
399.507158	2538.780530
399.889598	2543.778834
400.271977	2541.437218
400.654294	2541.217927
401.036549	2542.024512
401.418742	2541.971580
401.800874	2545.117260
402.182944	2543.158772
402.564952	2544.066179
402.946898	2543.418391
403.328783	2542.110212
403.710606	2542.014430
404.092367	2543.274718
404.474067	2542.853782
404.855705	2544.945861
405.237282	2544.043494
405.618797	2546.392672
406.000250	2545.379400
406.381642	2543.713299
406.762972	2542.185829
407.144240	2539.269522
407.525447	2545.886036
407.906593	2539.272042
408.287677	2543.007537
408.668700	2545.581046
409.049661	2545.820501
409.430560	2547.224462
409.811399	2544.663556
410.192176	2544.918134
410.572891	2545.691952
410.953545	2547.247148
411.334138	2547.834442
411.714669	2545.807898
412.095139	2549.024154
412.475547	2546.450645
412.855894	2548.704041
413.236180	2544.046015
413.616405	2549.929041
413.996568	2548.595656
414.376670	2547.542055
414.756711	2546.440563
415.136691	2548.598177
415.516609	2546.851417
415.896466	2547.451314
416.276262	2549.114895
416.655997	2546.410316
417.035670	2548.739329
417.415283	2549.931562
417.794834	2550.070194
418.174324	2548.898125
418.553753	2548.545245
418.933121	2550.385266
419.312428	2547.715975
419.691674	2552.530277
420.070859	2549.180430
420.449983	2551.149001
420.829045	2549.414844
421.208047	2551.577499
421.586988	2551.481717
421.965867	2550.249155
422.344686	2548.910728
422.723444	2550.271840
423.102141	2550.854093
423.480777	2549.087169
423.859352	2552.794937
424.237866	2552.187478
424.616319	2552.706717
424.994712	2550.710420
425.373044	2553.120092
425.751314	2550.470965
426.129524	2549.881150
426.507673	2549.918959
426.885762	2545.021478
427.263789	2551.617828
427.641756	2550.216387
428.019662	2552.782334
428.397508	2552.870555
428.775292	2551.756460
429.153016	2553.863662
429.530679	2553.140256
429.908282	2551.338044
430.285824	2551.607746
430.663305	2555.738971
431.040726	2554.377860
431.418086	2554.186296
431.795385	2555.209650
432.172624	2552.353836
432.549802	2552.071532
432.926920	2556.056564
433.303977	2555.575134
433.680974	2552.673950
434.057910	2555.580175
434.434786	2554.370298
434.811601	2555.113868
435.188355	2554.191337
435.565050	2555.045813
435.941683	2553.541028
436.318257	2555.378529
436.694770	2555.418858
437.071222	2555.444064
437.447614	2555.822150
437.823946	2556.215360
438.200218	2556.293498
438.576429	2554.365257
438.952580	2554.259393
439.328670	2554.458518
439.704700	2557.011862
440.080670	2554.282078
440.456580	2554.037582
440.832429	2558.075546
441.208218	2557.337017
441.583947	2558.748540
441.959616	2557.248797
442.335224	2556.588406
442.710773	2558.335165
443.086261	2556.490103
443.461689	2556.921122
443.837057	2555.789383
444.212365	2554.408107
444.587612	2552.706717
444.962800	2552.870555
445.337927	2551.673281
445.712995	2552.094217
446.088002	2555.123950
446.462949	2561.523695
446.837837	2558.894733
447.212664	2559.161915
447.587431	2557.105124
447.962139	2559.171997
448.336786	2559.108983
448.711374	2558.075546
449.085901	2555.930535
449.460369	2559.509754
449.834776	2558.166287
450.209124	2557.664692
450.583412	2559.860114
450.957640	2562.549570
451.331808	2558.413303
451.705917	2556.364074
452.079965	2557.488252
452.453954	2558.304918
452.827883	2558.335165
453.201752	2558.395659
453.575562	2557.294167
453.949311	2562.053016
454.323001	2559.847512
454.696632	2558.163766
455.070202	2558.441030
455.443713	2559.766853
455.817164	2561.281720
456.190556	2560.870866
456.563888	2559.789538
456.937160	2560.848181
457.310373	2559.494631
457.683526	2561.972358
458.056619	2559.887841
458.429653	2559.519837
458.802628	2559.350958
459.175542	2561.437996
459.548398	2559.391287
459.921194	2562.300033
460.293930	2561.823644
460.666607	2562.279868
461.039224	2562.640311
461.411782	2561.586710
461.784280	2560.772563
462.156719	2564.321536
462.529099	2564.576114
462.901419	2560.732234
463.273680	2560.707028
463.645882	2559.444219
464.018024	2561.952193
464.390106	2558.677964
464.762130	2563.943449
465.134094	2562.726010
465.505999	2563.245249
465.877845	2562.206772
466.249631	2568.672051
466.621358	2564.132492
466.993026	2566.189283
467.364634	2570.532237
467.736184	2566.126269
468.107674	2565.115517
468.479105	2566.706001
468.850477	2566.900086
469.221790	2567.139541
469.593043	2563.688871
469.964238	2566.300188
470.335373	2565.153326
470.706449	2565.720456
471.077467	2565.619633
471.448425	2566.653069
471.819324	2565.942267
472.190164	2568.977041
472.560945	2564.891186
472.931667	2567.089129
473.302330	2565.128120
473.672934	2568.911506
474.043479	2566.484191
474.413965	2569.468554
474.784393	2565.710373
475.154761	2567.873028
475.525070	2567.187432
475.895321	2565.496124
476.265513	2567.459654
476.635645	2568.563667
477.005719	2570.779254
477.375734	2567.371434
477.745691	2569.024932
478.115588	2567.444530
478.485427	2569.244222
478.855207	2569.319840
479.224928	2571.694223
479.594591	2571.364027
479.964194	2571.341342
480.333739	2571.507700
480.703226	2572.311764
481.072653	2571.177505
481.442022	2570.723801
481.811333	2571.021229
482.180584	2567.822617
482.549777	2568.906465
482.918912	2568.296485
483.287988	2573.395613
483.657005	2575.754872
484.025964	2572.084912
484.394864	2572.147927
484.763706	2572.944429
485.132489	2572.127762
485.501213	2571.560633
485.869879	2570.854871
486.238487	2574.776889
486.607036	2574.030798
486.975527	2571.449727
487.343959	2572.520972
487.712333	2572.110118
488.080648	2573.004923
488.448905	2570.212124
488.817104	2575.838052
489.185244	2572.276476
489.553326	2574.822259
489.921350	2575.349060
490.289315	2574.524831
490.657222	2577.584811
491.025070	2578.562795
491.392861	2578.940882
491.760593	2580.044894
492.128267	2577.589853
492.495883	2574.232444
492.863440	2573.612382
493.230939	2573.385530
493.598380	2573.753534
493.965763	2576.087589
494.333088	2575.190263
494.700354	2576.357290
495.067563	2576.448031
495.434713	2575.780078
495.801805	2573.751014
496.168839	2575.906107
496.535815	2576.095150
496.902733	2577.378124
497.269593	2579.233269
497.636395	2575.795202
498.003139	2577.809143
498.369825	2576.805953
498.736453	2575.344018
499.103023	2576.793350
499.469535	2576.049780
499.835989	2574.895356
500.202385	2573.806467
500.568723	2572.767989
500.935003	2576.049780
501.301226	2573.090623
501.667390	2578.086406
502.033497	2578.827456
502.399546	2576.231262
502.765537	2577.746128
503.131470	2577.599935
503.497345	2577.476427
503.863163	2579.039184
504.228923	2579.656726
504.594625	2577.635223
504.960269	2578.482137
505.325856	2582.295770
505.691385	2578.129256
506.056856	2579.414750
506.422270	2576.536251
506.787625	2579.041705
507.152924	2577.892322
507.518164	2582.431881
507.883347	2581.751325
508.248472	2582.479772
508.613540	2582.482292
508.978550	2581.811819
509.343503	2582.295770
509.708398	2581.005234
510.073236	2583.712334
510.438016	2585.038157
510.802738	2586.079156
511.167403	2585.212077
511.532010	2583.349371
511.896561	2586.558065
512.261053	2588.148549
512.625488	2586.008579
512.989866	2585.741398
513.354186	2587.682242
513.718449	2587.795668
514.082655	2588.829105
514.446803	2586.663929
514.810894	2591.495875
515.174927	2590.023858
515.538904	2592.990577
515.902822	2589.648292
516.266684	2592.020155
516.630488	2591.838674
516.994235	2594.868407
517.357925	2591.125351
517.721558	2594.238263
518.085133	2595.261617
518.448651	2595.317070
518.812112	2592.037799
519.175516	2596.474015
519.538863	2594.298757
519.902152	2597.636001
520.265385	2600.113728
520.628560	2601.021136
520.991678	2597.731783
521.354739	2600.083481
521.717743	2600.355703
522.080690	2602.437700
522.443580	2607.526745
522.806413	2605.963987
523.169189	2607.083123
523.531908	2607.804008
523.894569	2605.996754
524.257174	2611.428598
524.619722	2606.964656
524.982213	2611.763834
525.344647	2610.543875
525.707025	2614.246603
526.069345	2615.582508
526.431608	2612.131839
526.793815	2615.343054
527.155964	2614.627210
527.518057	2615.990842
527.880093	2619.063425
528.242072	2619.670884
528.603995	2618.362705
528.965860	2618.163579
529.327669	2619.343209
529.689421	2621.672222
530.051117	2622.355299
530.412755	2625.032151
530.774337	2621.715072
531.135862	2619.612911
531.497331	2625.821092
531.858743	2624.512912
532.220098	2627.691360
532.581396	2627.739251
532.942638	2628.739920
533.303824	2631.726804
533.664953	2630.285034
534.026025	2630.103552
534.387040	2634.234778
534.747999	2628.313942
535.108902	2634.121352
535.469748	2632.538429
535.830537	2631.815024
536.191270	2637.171250
536.551947	2631.767133
536.912567	2635.663945
537.273131	2636.508338
537.633638	2634.196969
537.994089	2641.471354
538.354483	2640.453041
538.714821	2643.447486
539.075103	2640.198463
539.435328	2642.691313
539.795497	2643.994452
540.155609	2646.749442
540.515665	2643.215593
540.875665	2645.584936
541.235609	2645.100985
541.595496	2643.812970
541.955328	2644.042342
542.315102	2650.913435
542.674821	2648.959988
543.034483	2650.411840
543.394090	2649.890081
543.753640	2655.122799
544.113134	2655.992398
544.472571	2655.851245
544.831953	2656.146153
545.191278	2655.999959
545.550548	2655.024496
545.909761	2659.616987
546.268918	2659.191010
546.628019	2662.092194
546.987064	2663.662513
547.346053	2661.089004
547.704986	2664.953049
548.063863	2665.401711
548.422684	2667.183759
548.781449	2664.650579
549.140158	2669.477484
549.498811	2670.720129
549.857408	2666.125117
550.215949	2670.097546
550.574434	2669.059068
550.932864	2672.746672
551.291237	2674.054852
551.649555	2677.248423
552.007817	2676.766993
552.366022	2676.441838
552.724173	2678.596932
553.082267	2679.305214
553.440305	2682.009793
553.798288	2685.218487
554.156215	2686.929959
554.514086	2686.874506
554.871902	2681.755214
555.229661	2684.971471
555.587365	2685.082376
555.945014	2693.861545
556.302606	2694.153932
556.660143	2693.518747
557.017625	2699.671475
557.375050	2698.340611
557.732421	2700.694829
558.089735	2702.108873
558.446994	2706.285469
558.804197	2710.051211
559.161345	2711.687065
559.518437	2709.844524
559.875474	2713.827035
560.232455	2711.704709
560.589381	2718.021275
560.946251	2717.920452
561.303065	2722.916236
561.659825	2730.230950
562.016528	2725.683829
562.373177	2728.151474
562.729770	2728.186762
563.086307	2737.233112
563.442789	2741.013978
563.799216	2740.242681
564.155587	2743.141345
564.511904	2749.205853
564.868164	2751.071080
565.224370	2757.644744
565.580520	2754.811616
565.936615	2761.108017
566.292654	2760.455188
566.648638	2770.134203
567.004567	2768.193359
567.360441	2777.272477
567.716260	2775.008999
568.072023	2785.633231
568.427732	2789.698921
568.783385	2790.006432
569.138982	2795.707977
569.494525	2803.773823
569.850013	2811.128866
570.205445	2814.952581
570.560823	2814.009886
570.916145	2819.789568
571.271412	2826.229642
571.626625	2836.216168
571.981782	2839.404698
572.336884	2842.454596
572.691931	2848.332582
573.046923	2848.393075
573.401860	2859.075280
573.756743	2871.340408
574.111570	2878.531614
574.466342	2881.692417
574.821059	2892.510733
575.175722	2895.321177
575.530330	2904.743093
575.884882	2914.359094
576.239380	2924.746392
576.593823	2930.226126
576.948211	2938.662497
577.302544	2944.749690
577.656823	2947.381172
578.011047	2961.241825
578.365216	2970.678865
578.719330	2983.869044
579.073389	2988.779128
579.427394	3013.637057
579.781344	3007.864936
580.135239	3023.167359
580.489080	3033.516848
580.842866	3034.693957
581.196597	3069.356931
581.550273	3071.161664
581.903895	3094.015735
582.257463	3109.789505
582.610975	3113.323354
582.964434	3137.848567
583.317837	3149.478509
583.671186	3169.746468
584.024481	3191.483924
584.377721	3193.081970
584.730906	3210.640308
585.084037	3233.542270
585.437113	3245.630957
585.790135	3266.995367
586.143103	3273.001902
586.496016	3281.206380
586.848874	3317.817760
587.201679	3327.521981
587.554428	3340.838189
587.907124	3374.888663
588.259765	3389.508009
588.612352	3424.062598
588.964884	3424.876744
589.317362	3448.696196
589.669786	3477.501349
590.022155	3500.156294
590.374470	3538.579969
590.726731	3548.014488
591.078937	3561.655851
591.431090	3589.420006
591.783188	3596.402004
592.135232	3613.335239
592.487222	3657.841066
592.839157	3677.814118
593.191038	3698.649207
593.542866	3707.365362
593.894639	3731.565421
594.246358	3773.162502
594.598022	3785.798154
594.949633	3798.811892
595.301190	3813.895025
595.652692	3853.442877
596.004141	3892.037950
596.355535	3877.453892
596.706876	3909.137544
597.058162	3929.503806
597.409395	3962.828353
597.760573	4008.055065
598.111698	4020.441180
598.462768	4046.002351
598.813785	4067.220567
599.164748	4083.143052
599.515657	4117.062455
599.866511	4128.652068
600.217312	4193.380483
600.568060	4176.396836
600.918753	4250.224534
601.269392	4277.666055
601.619978	4279.785860
601.970510	4350.682127
602.320988	4368.555538
602.671412	4427.839507
603.021783	4450.572591
603.372100	4457.723468
603.722363	4513.365203
604.072572	4543.113052
604.422728	4585.241975
604.772830	4613.699288
605.122878	4620.401502
605.472872	4675.090460
605.822813	4716.543868
606.172701	4751.524434
606.522534	4814.435514
606.872314	4851.394733
607.222041	4859.208522
607.571714	4929.996404
607.921333	4958.819201
608.270899	5008.083877
608.620411	5090.975570
608.969870	5072.456891
609.319276	5124.937823
609.668627	5189.446948
610.017926	5252.284931
610.367171	5309.812058
610.716362	5380.473912
611.065500	5374.797572
611.414585	5449.399087
611.763616	5490.597917
612.112594	5535.335637
612.461518	5562.474689
612.810389	5647.203882
613.159207	5652.711343
613.507971	5687.581004
613.856682	5819.172763
614.205340	5854.087795
614.553945	5952.644873
614.902496	5916.202372
615.250994	6045.954110
615.599439	6075.878399
615.947830	6121.911696
616.296169	6164.206977
616.644454	6231.667697
616.992686	6253.727787
617.340864	6368.043512
617.688990	6383.285440
618.037063	6490.853581
618.385082	6512.613722
618.733048	6622.410052
619.080961	6639.383618
619.428821	6723.840588
619.776628	6767.191991
620.124382	6781.282016
620.472083	6854.645928
620.819731	6917.564569
621.167326	6882.263889
621.514868	6930.316168
621.862357	6926.557988
622.209793	6976.538507
622.557176	6977.403065
622.904506	6955.799200
623.251783	6978.844835
623.599007	6991.218347
623.946179	7021.830754
624.293297	7049.884775
624.640363	7030.781323
624.987376	7061.918009
625.334336	7045.037706
625.681243	7050.194806
626.028097	7083.113541
626.374899	7154.408059
626.721647	7118.096628
627.068343	7122.174921
627.414987	7147.509240
627.761577	7213.165228
628.108115	7282.917153
628.454600	7214.959878
628.801032	7275.436081
629.147412	7306.776934
629.493739	7370.978549
629.840014	7367.762293
630.186236	7434.136645
630.532405	7401.883343
630.878521	7529.953856
631.224585	7526.057044
631.570597	7532.943260
631.916556	7559.336221
632.262462	7599.509176
632.608316	7643.946947
632.954117	7662.561408
633.299866	7709.920528
633.645562	7733.858447
633.991206	7671.963160
634.336797	7636.594424
634.682336	7700.687654
635.027823	7676.333840
635.373257	7697.577263
635.718639	7669.278745
636.063968	7695.306223
636.409245	7648.899881
636.754470	7695.104577
637.099642	7678.095723
637.444762	7609.770445
637.789829	7683.237700
638.134845	7647.826115
638.479808	7695.107097
638.824719	7724.106335
639.169577	7694.514762
639.514383	7753.660099
639.859137	7707.805764
640.203839	7788.252497
640.548489	7737.649394
640.893086	7799.496790
641.237632	7743.275322
641.582125	7880.593832
641.926566	7837.534817
642.270955	7873.707616
642.615292	7889.027683
642.959576	7927.945390
643.303809	8002.587235
643.647990	7987.494020
643.992118	8076.135149
644.336195	7972.206721
644.680219	8113.323741
645.024192	8139.941033
645.368112	8280.921942
645.711981	8364.400929
646.055797	8480.586922
646.399562	8510.233948
646.743274	8661.224067
647.086935	8873.953198
647.430544	8892.260148
647.774101	8922.824664
648.117606	9078.659332
648.461059	9060.977485
648.804460	9139.934557
649.147810	9029.228298
649.491108	8981.065114
649.834354	9053.173779
650.177548	8926.124099
650.520690	8857.577009
650.863781	8850.559723
651.206820	8906.708095
651.549807	8839.809463
651.892742	8779.691183
652.235626	8771.544678
652.578458	8813.040936
652.921238	8657.294488
653.263967	8801.569790
653.606644	8737.438752
653.949269	8737.463957
654.291843	8683.412706
654.634365	8788.908932
654.976836	8745.244978
655.319255	8781.700082
655.661622	8791.515209
656.003938	8771.779092
656.346203	8758.719982
656.688416	8829.422165
657.030577	8835.806787
657.372687	8834.120521
657.714746	8833.525664
658.056753	8971.882652
658.398708	8921.818953
658.740612	8941.723949
659.082465	9034.995378
659.424266	9015.181123
659.766016	9070.164988
660.107715	9047.757059
660.449362	9113.027398
660.790958	9129.574986
661.132503	9123.177762
661.473996	9173.559053
661.815438	9230.214061
662.156829	9251.777596
662.498168	9285.883523
662.839456	9297.571438
663.180693	9338.263632
663.521879	9441.907234
663.863013	9458.280902
664.204097	9467.783477
664.545129	9564.959279
664.886110	9565.816275
665.227040	9653.854986
665.567918	9680.804994
665.908746	9746.009799
666.249522	9741.601310
666.590248	9804.557759
666.930922	9913.938195
667.271545	9930.213560
667.612118	10006.894551
667.952639	9980.846909
668.293109	9994.974743
668.633528	10002.879272
668.973896	10013.528710
669.314213	10126.435432
669.654480	9944.104460
669.994695	10000.754426
670.334859	10057.422036
670.674973	10043.828565
671.015035	10098.152039
671.355047	10085.486140
671.695008	10083.646119
672.034918	10110.717115
672.374777	10160.296863
672.714585	10120.663311
673.054342	10160.717799
673.394049	10148.213217
673.733705	10236.360313
674.073310	10201.231032
674.412864	10245.290717
674.752368	10175.011991
675.091820	10186.483137
675.431223	10221.657788
675.770574	10147.512497
676.109875	10105.761661
676.449125	10105.189490
676.788324	10076.240664
677.127473	9981.535027
677.466571	9992.030709
677.805619	9945.062279
678.144616	9896.999918
678.483562	9892.092355
678.822458	9803.158839
679.161303	9799.758581
679.500098	9821.611983
679.838842	9803.365527
680.177535	9840.639818
680.516179	9901.877234
680.854771	9878.670283
681.193314	10075.287886
681.531805	10187.509011
681.870247	10527.698676
682.208638	10847.244815
682.546978	11126.600356
682.885268	11206.847963
683.223508	10984.129786
683.561697	10876.211285
683.899836	10809.224433
684.237925	10668.624132
684.575963	10627.042174
684.913951	10578.821017
685.251889	10530.211691
685.589776	10641.285954
685.927614	10591.829714
686.265401	10557.829652
686.603137	10601.236507
686.940824	10749.776626
687.278460	10846.375216
687.616046	10900.812116
687.953582	11055.341125
688.291068	10974.607047
688.628504	11163.330202
688.965889	11185.569253
689.303224	11195.974194
689.640510	11138.459670
689.977745	10907.721017
690.314930	10732.147711
690.652065	10691.982318
690.989150	10466.312545
691.326185	10294.326020
691.663170	10142.947732
692.000105	9938.488614
692.336990	9881.702537
692.673825	9676.774592
693.010610	9582.510056
693.347345	9420.941075
693.684030	9253.776414
694.020665	9220.388852
694.357251	9060.836332
694.693786	9046.017861
695.030272	8892.746619
695.366707	8796.284140
695.703093	8748.100792
696.039429	8756.862317
696.375716	8710.327426
696.711952	8588.810413
697.048139	8623.722924
697.384276	8591.446936
697.720363	8606.595603
698.056400	8568.078668
698.392388	8532.268831
698.728326	8500.421342
699.064214	8453.488199
699.400053	8512.341150
699.735842	8350.142025
700.071581	8323.078591
700.407270	8269.803677
700.742910	8207.608441
701.078501	8139.961198
701.414042	8035.150568
701.749533	7973.623285
702.084974	7857.316304
702.420366	7963.034342
702.755709	7873.357256
703.091002	7754.146570
703.426246	7786.984647
703.761440	7744.820436
704.096584	7712.471352
704.431679	7657.908423
704.766725	7657.598392
705.101721	7609.586443
705.436668	7660.623084
705.771565	7561.418218
706.106413	7645.159345
706.441212	7699.167747
706.775961	7652.380798
707.110661	7684.208123
707.445311	7836.549271
707.779913	7738.193839
708.114465	7868.278293
708.448967	7910.107267
708.783421	8035.203500
709.117825	8212.826035
709.452180	8247.249554
709.786485	8329.869025
710.120742	8589.110361
710.454949	8589.785876
710.789107	8681.287859
711.123216	8860.974747
711.457275	9013.673818
711.791286	9174.569804
712.125247	9151.393100
712.459159	9148.590218
712.793023	9398.397035
713.126837	9003.278958
713.460602	9144.383375
713.794318	8995.334100
714.127985	9033.682157
714.461602	8766.944625
714.795171	8722.234632
715.128691	8507.892332
715.462162	8266.032894
715.795584	8228.395639
716.128957	8114.089996
716.462281	7946.239738
716.795556	7999.761668
717.128782	7813.954820
717.461960	7550.214253
717.795088	7626.212168
718.128167	7539.610186
718.461198	7386.349027
718.794180	7333.752148
719.127113	7334.112591
719.459997	7201.870522
719.792833	6976.588919
720.125619	7031.905500
720.458357	6904.601242
720.791046	6895.549850
721.123686	6900.298617
721.456278	6754.379898
721.788821	6770.383041
722.121315	6663.931516
722.453761	6723.263376
722.786158	6680.368198
723.118506	6695.471495
723.450805	6665.602659
723.783056	6736.940027
724.115259	6629.855837
724.447412	6628.426670
724.779518	6682.702253
725.111574	6686.127717
725.443582	6766.145952
725.775542	6742.691983
726.107453	6927.551095
726.439315	6838.814184
726.771129	6887.761268
727.102895	7051.961731
727.434612	7160.389388
727.766281	7178.358581
728.097901	7276.096472
728.429473	7257.807166
728.760996	7230.093422
729.092471	7221.049592
729.423897	7173.927407
729.755276	7197.434307
730.086606	7133.474668
730.417887	7225.730304
730.749120	7394.243474
731.080305	7579.682318
731.411442	7716.892443
731.742530	7720.973257
732.073570	7821.032600
732.404562	7903.296669
732.735506	7754.938032
733.066401	7897.128817
733.397249	7835.659507
733.728048	7616.029037
734.058798	7290.209182
734.389501	7084.031031
734.720156	6911.573158
735.050762	6681.691501
735.381320	6582.022848
735.711831	6539.024327
736.042293	6434.223779
736.372707	6463.220496
736.703073	6323.225133
737.033391	6359.634867
737.363661	6372.235231
737.693883	6387.918261
738.024056	6472.612166
738.354182	6523.933633
738.684260	6564.794705
739.014290	6655.792573
739.344272	6762.017247
739.674207	6790.547657
740.004093	6852.266503
740.333931	6877.918415
740.663722	6883.478807
740.993464	6963.497042
741.323159	6963.744059
741.652806	6719.502676
741.982405	6708.107147
742.311956	6776.167765
742.641460	6640.686756
742.970915	6448.429751
743.300323	6435.524397
743.629683	6382.037755
743.958996	6258.216934
744.288260	6171.924983
744.617477	6116.550429
744.946647	6134.464169
745.275768	5966.780268
745.604842	5921.288896
745.933869	5905.119395
746.262847	5855.703485
746.591778	5851.181570
746.920662	5812.500796
747.249498	5800.956554
747.578286	5843.317370
747.907027	5919.436272
748.235720	5978.563966
748.564365	5953.219565
748.892963	5963.374969
749.221514	6126.650380
749.550017	5984.293237
749.878473	5848.265262
750.206881	5895.238734
750.535242	5841.096741
750.863555	5778.536022
751.191821	5799.459331
751.520039	5798.161234
751.848210	5712.045723
752.176334	5726.581891
752.504411	5779.077946
752.832440	5708.947934
753.160421	5632.614783
753.488356	5675.860321
753.816243	5721.780192
754.144082	5575.140588
754.471875	5539.522315
754.799620	5579.982616
755.127318	5594.402837
755.454969	5547.706629
755.782572	5513.076422
756.110129	5552.422628
756.437638	5546.496752
756.765100	5489.710674
757.092515	5481.206248
757.419882	5523.730901
757.747203	5510.124827
758.074477	5574.205454
758.401703	5571.359722
758.728882	5520.441548
759.056014	5560.264143
759.383099	5698.936203
759.710138	5705.474579
760.037129	5684.815931
760.364073	5693.116191
760.690970	5778.341938
761.017820	5767.188385
761.344623	5711.919695
761.671379	5807.686494
761.998088	5917.699595
762.324751	6137.584643
762.651366	6698.692793
762.977935	7938.531813
763.304456	9519.324234
763.630931	10449.616244
763.957359	10118.558630
764.283740	9208.786636
764.610074	8417.496882
764.936362	7451.251362
765.262602	6859.351845
765.588796	6320.633980
765.914943	5978.720241
766.241044	5822.323484
766.567097	5639.453108
766.893104	5383.027256
767.219064	5203.852045
767.544978	5141.253518
767.870845	5074.559052
768.196665	4963.474707
768.522438	4889.677255
768.848165	4863.004510
769.173846	4801.661230
769.499479	4761.818470
769.825066	4702.829409
770.150607	4642.564935
770.476101	4617.356645
770.801548	4617.402016
771.126949	4550.589083
771.452303	4497.256196
771.777611	4448.576294
772.102872	4466.454746
772.428087	4428.189868
772.753256	4395.321545
773.078378	4356.756718
773.403453	4283.133186
773.728482	4273.345786
774.053465	4222.082293
774.378401	4210.777505
774.703291	4216.650449
775.028135	4150.492867
775.352932	4099.824230
775.677683	4083.916869
776.002388	4105.765229
776.327046	4117.586735
776.651658	4043.454047
776.976224	3978.062720
777.300743	3986.355418
777.625216	4002.814786
777.949643	4006.078933
778.274024	3963.390442
778.598359	3911.925302
778.922647	3932.127726
779.246889	3925.029782
779.571086	3925.695214
779.895236	3912.731887
780.219339	3898.155391
780.543397	3884.110736
780.867409	3933.884568
781.191374	3955.793423
781.515294	3894.049371
781.839167	3885.935634
782.162995	3901.656472
782.486776	3889.570306
782.810511	3896.887540
783.134201	3902.808376
783.457844	3861.072663
783.781441	3801.203920
784.104993	3807.190290
784.428498	3824.516736
784.751958	3828.547138
785.075372	3804.566369
785.398739	3761.893002
785.722061	3775.680558
786.045337	3812.244047
786.368568	3851.958257
786.691752	3769.137140
787.014891	3805.987975
787.337983	3923.731685
787.661030	4075.112493
787.984031	4238.894541
788.306987	4419.002365
788.629897	4495.083459
788.952760	4449.113177
789.275579	4383.197570
789.598351	4325.655319
789.921078	4194.489537
790.243759	3998.716327
790.566395	3969.238180
790.888984	3972.456957
791.211529	3867.721945
791.534027	3806.497131
791.856480	3800.994712
792.178888	3738.441554
792.501249	3688.549255
792.823566	3692.746015
793.145836	3728.200450
793.468062	3678.681196
793.790241	3629.328300
794.112375	3658.471210
794.434464	3717.334243
794.756507	3745.085795
795.078505	3731.701532
795.400457	3753.751539
795.722364	3883.762896
796.044226	3986.032784
796.366042	4060.394845
796.687812	4054.020306
797.009538	4059.837797
797.331218	4011.717463
797.652852	3981.067248
797.974442	3969.712049
798.295986	3969.989312
798.617484	3893.860327
798.938938	3800.709887
799.260346	3843.002647
799.581709	3837.951411
799.903026	3769.860546
800.224299	3734.206985
800.545526	3725.924369
800.866708	3693.734082
801.187845	3626.006180
801.508936	3659.527332
801.829983	3672.402439
802.150984	3587.796754
802.471940	3570.392170
802.792851	3587.925303
803.113717	3583.957915
803.434538	3590.380345
803.755314	3536.281203
804.076045	3507.425638
804.396731	3520.177237
804.717372	3549.362997
805.037967	3539.273128
805.358518	3531.905481
805.679024	3551.326527
805.999485	3564.899833
806.319901	3568.390832
806.640272	3583.315168
806.960598	3598.846963
807.280879	3568.751275
807.601115	3584.212494
807.921306	3598.017693
808.241453	3635.581851
808.561554	3616.312041
808.881611	3554.015982
809.201623	3583.078234
809.521590	3598.242025
809.841513	3569.900658
810.161390	3598.322683
810.481223	3580.580342
810.801011	3526.607229
811.120755	3512.335722
811.440453	3550.328378
811.760107	3558.878175
812.079716	3517.064324
812.399281	3482.406392
812.718801	3508.030577
813.038276	3480.571412
813.357707	3476.417501
813.677093	3495.039523
813.996434	3445.532872
814.315731	3447.451031
814.634983	3449.142338
814.954191	3462.851756
815.273354	3496.826612
815.592473	3493.491889
815.911547	3495.619256
816.230577	3530.219215
816.549562	3578.485743
816.868502	3622.810088
817.187399	3651.761435
817.506250	3651.632885
817.825058	3614.230044
818.143821	3697.792210
818.462539	3799.502530
818.781213	3849.987166
819.099843	3901.444743
819.418429	4120.994555
819.736970	4358.170761
820.055466	4584.682407
820.373919	4942.992498
820.692327	5343.668447
821.010691	5733.987346
821.329011	6988.889334
821.647286	9540.814672
821.965517	13864.098129
822.283704	17823.551429
822.601847	20121.909250
822.919945	18437.692517
823.237999	15986.779299
823.556010	13570.498808
823.873976	11563.718806
824.191897	9531.294453
824.509775	8180.063577
824.827609	7075.541728
825.145398	6521.332397
825.463144	6406.971302
825.780845	6528.412698
826.098502	6681.429361
826.416116	7467.105791
826.733685	8731.611178
827.051210	9850.278504
827.368692	9985.751952
827.686129	8821.230290
828.003522	7323.579100
828.320872	6325.120607
828.638177	5648.580117
828.955439	5109.990802
829.272656	4625.210763
829.589830	4335.886341
829.906960	4167.721010
830.224046	3991.699041
830.541088	3860.225749
830.858086	3819.387362
831.175041	3747.079572
831.491952	3723.618042
831.808819	3732.069536
832.125642	3795.696459
832.442421	3932.687294
832.759157	4189.120708
833.075849	4696.868244
833.392497	5522.301734
833.709101	6275.356857
834.025662	6636.013606
834.342179	6331.931206
834.658653	5683.908523
834.975083	5057.711516
835.291469	4504.636445
835.607811	4094.813323
835.924110	3961.900781
836.240366	3769.701749
836.556578	3566.175245
836.872746	3457.659368
837.188871	3426.810027
837.504952	3360.954913
837.820990	3282.653191
838.136984	3231.901375
838.452935	3254.379880
838.768842	3249.936103
839.084706	3271.693723
839.400526	3412.788057
839.716303	3726.466293
840.032037	4216.995768
840.347727	4502.352803
840.663373	4259.033950
840.978977	3898.858632
841.294537	3596.490224
841.610054	3369.361037
841.925527	3261.477824
842.240957	3192.051054
842.556344	3140.837972
842.871687	3089.738316
843.186987	3040.219062
843.502244	3001.263545
843.817458	2967.893627
844.132629	2935.068154
844.447756	2947.149279
844.762840	2934.523709
845.077881	2906.056314
845.392879	2886.065618
845.707833	2880.122098
846.022745	2879.958260
846.337613	2880.646378
846.652438	2871.557177
846.967221	2868.955942
847.281960	2853.948427
847.596656	2850.747294
847.911309	2846.119515
848.225919	2842.754545
848.540485	2836.445541
848.855009	2840.465861
849.169490	2830.247442
849.483928	2819.751760
849.798323	2816.157417
850.112675	2813.289001
850.426984	2825.405414
850.741251	2823.343582
851.055474	2813.057107
851.369654	2809.997127
851.683792	2811.524597
851.997887	2821.347285
852.311938	2820.439877
852.625947	2811.549802
852.939914	2816.638847
853.253837	2822.864672
853.567718	2807.171560
853.881555	2802.949594
854.195350	2816.240596
854.509103	2814.904690
854.822812	2810.347487
855.136479	2804.275417
855.450103	2806.753145
855.763685	2798.659572
856.077224	2796.035652
856.390720	2807.043011
856.704173	2818.115905
857.017584	2813.967036
857.330953	2806.997641
857.644278	2816.858137
857.957561	2822.965495
858.270802	2826.552276
858.584000	2829.854232
858.897155	2816.117088
859.210268	2815.335709
859.523339	2813.054587
859.836367	2813.967036
860.149352	2803.688123
860.462295	2805.061837
860.775195	2810.148362
861.088054	2807.721046
861.400869	2794.498100
861.713642	2790.069446
862.026373	2805.117290
862.339062	2808.416725
862.651708	2814.730771
862.964312	2816.822849
863.276873	2809.624082
863.589392	2814.332519
863.901869	2828.782987
864.214303	2850.555730
864.526696	2867.889738
864.839045	2860.895137
865.151353	2861.948738
865.463619	2860.945548
865.775842	2858.372039
866.088023	2878.680328
866.400162	2887.918242
866.712258	2861.124509
867.024313	2847.286542
867.336325	2854.374404
867.648296	2874.115563
867.960224	2870.397712
868.272110	2856.088397
868.583954	2860.083511
868.895755	2874.453320
869.207515	2863.203985
869.519233	2868.194728
869.830909	2873.326622
870.142542	2883.628220
870.454134	2884.533107
870.765684	2892.540980
871.077191	2885.649723
871.388657	2890.315311
871.700081	2904.117990
872.011463	2916.917480
872.322803	2916.199115
872.634101	2915.856317
872.945357	2931.178904
873.256571	2956.840898
873.567744	2949.997531
873.878874	2941.142744
874.189963	2964.117803
874.501010	2970.716673
874.812015	2958.922894
875.122979	2960.296608
875.433900	2955.257975
875.744780	2958.701083
876.055618	2967.129893
876.366415	2965.126034
876.677169	2974.298413
876.987882	2969.983186
877.298554	2962.701239
877.609183	2981.204794
877.919771	3002.854029
878.230317	3030.686240
878.540822	3079.950916
878.851285	3116.695886
879.161707	3152.709889
879.472087	3243.188518
879.782425	3446.611679
880.092722	3850.211497
880.402977	4347.241540
880.713191	4937.565696
881.023363	6012.455643
881.333494	7246.320897
881.643583	7827.278589
881.953631	7547.741567
882.263637	6977.392983
882.573602	6429.916113
882.883526	5868.530701
883.193408	5308.922294
883.503248	4847.422304
883.813048	4560.454621
884.122806	4286.871202
884.432522	3985.279132
884.742197	3760.284874
885.051831	3572.635484
885.361424	3436.569700
885.670975	3366.681664
885.980485	3291.145015
886.289954	3217.345043
886.599382	3176.857016
886.908768	3138.690440
887.218113	3099.745006
887.527417	3044.496481
887.836680	2997.134840
888.145901	2989.578151
888.455082	2982.722181
888.764221	2935.869698
889.073319	2905.733680
889.382376	2902.862743
889.691392	2906.041190
890.000366	2908.811304
890.309300	2891.676422
890.618193	2905.738721
890.927044	2923.791093
891.235855	2925.033737
891.544625	2906.878022
891.853353	2915.102664
892.162041	2935.030345
892.470687	2974.305975
892.779293	3020.495547
893.087858	3064.966086
893.396381	3126.947072
893.704864	3237.968403
894.013306	3460.646251
894.321707	3742.618150
894.630068	3950.585911
894.938387	3954.606231
895.246665	3907.428593
895.554903	3799.230308
895.863100	3611.044035
896.171256	3450.284159
896.479371	3320.557627
896.787446	3201.835933
897.095480	3104.468567
897.403473	3042.316182
897.711425	3004.520131
898.019336	2998.674913
898.327207	2972.919658
898.635038	2938.849019
898.942827	2925.336207
899.250576	2914.681728
899.558284	2885.322048
899.865952	2865.835468
900.173579	2845.252437
900.481165	2839.175326
900.788711	2829.897082
901.096216	2802.649645
901.403681	2787.798406
901.711105	2798.215951
902.018489	2797.810138
902.325832	2795.087915
902.633135	2805.339101
902.940397	2834.592917
903.247619	2906.618402
903.554800	3081.090216
903.861941	3390.102865
904.169041	3795.227632
904.476101	4101.553345
904.783121	4076.771033
905.090100	3848.789892
905.397039	3586.786003
905.703938	3345.324816
906.010796	3168.821417
906.317614	3064.708987
906.624391	2973.665748
906.931129	2904.649832
907.237826	2849.270236
907.544483	2806.556540
907.851099	2775.094698
908.157675	2755.018303
908.464211	2737.964080
908.770707	2726.634087
909.077163	2712.821325
909.383578	2696.639221
909.689954	2686.443487
909.996289	2684.540452
910.302584	2688.870803
910.608839	2688.472552
910.915054	2680.915862
911.221229	2675.136179
911.527363	2675.867147
911.833458	2682.171110
912.139513	2684.913497
912.445527	2690.962882
912.751502	2698.239787
913.057436	2705.415870
913.363331	2719.203426
913.669186	2737.522979
913.975000	2767.301075
914.280775	2820.545742
914.586510	2885.019579
914.892205	2960.304170
915.197859	3076.704413
915.503475	3251.392996
915.809050	3452.905559
916.114585	3592.908484
916.420081	3621.522073
916.725536	3569.504927
917.030952	3459.673308
917.336328	3340.013960
917.641665	3214.083417
917.946961	3120.093624
918.252218	3055.052657
918.557435	2983.637151
918.862612	2925.444591
919.167750	2876.807539
919.472848	2845.053311
919.777906	2818.211687
920.082925	2792.965589
920.387904	2765.629932
920.692843	2748.185019
920.997743	2737.603637
921.302603	2726.102245
921.607423	2717.693600
921.912204	2707.021477
922.216946	2695.159642
922.521647	2686.950123
922.826310	2679.090965
923.130932	2671.708195
923.435516	2664.237205
923.740059	2657.865186
924.044564	2654.162459
924.349028	2645.688279
924.653454	2642.656025
924.957840	2635.348873
925.262186	2630.584982
925.566493	2623.789507
925.870761	2619.383538
926.174989	2616.527725
926.479178	2613.230810
926.783328	2607.932557
927.087438	2607.299893
927.391509	2605.807711
927.695541	2602.667072
927.999533	2599.773450
928.303486	2594.931422
928.607400	2595.470825
928.911275	2595.180959
929.215110	2594.074426
929.518906	2593.529981
929.822663	2593.890423
930.126381	2593.943356
930.430060	2596.025352
930.733699	2593.928232
931.037299	2597.769591
931.340861	2598.760178
931.644383	2601.063985
931.947866	2597.197420
932.251309	2596.811772
932.554714	2595.140630
932.858080	2591.795824
933.161407	2590.686770
933.464694	2586.855493
933.767943	2589.108889
934.071153	2589.633169
934.374323	2588.297263
934.677455	2589.807089
934.980548	2586.285843
935.283602	2585.786769
935.586617	2586.979002
935.889593	2588.970257
936.192530	2585.587643
936.495428	2587.528487
936.798287	2590.694332
937.101108	2594.490321
937.403890	2595.516196
937.706632	2597.232708
938.009336	2606.203442
938.312002	2615.287601
938.614628	2623.842439
938.917216	2628.197996
939.219765	2629.072636
939.522275	2631.716721
939.824747	2624.696915
940.127179	2623.171966
940.429573	2618.738271
940.731929	2618.370267
941.034246	2614.352467
941.336524	2612.525049
941.638763	2608.600510
941.940964	2609.981787
942.243126	2603.927361
942.545250	2608.587907
942.847335	2604.444079
943.149381	2599.007195
943.451389	2593.845053
943.753359	2594.661720
944.055290	2593.192224
944.357182	2592.725917
944.659036	2593.282964
944.960851	2590.921184
945.262628	2588.584609
945.564367	2589.610484
945.866067	2589.159301
946.167729	2589.822212
946.469352	2589.164342
946.770937	2590.671647
947.072484	2589.935638
947.373992	2585.743919
947.675462	2584.818867
947.976893	2583.361974
948.278286	2578.403999
948.579641	2580.763259
948.880958	2579.712178
949.182236	2579.984401
949.483476	2580.428022
949.784678	2577.441138
950.085841	2579.404668
950.386967	2581.708475
950.688054	2582.837694
950.989103	2583.142683
951.290114	2583.508167
951.591087	2585.333065
951.892021	2586.361460
952.192917	2592.199116
952.493776	2593.897985
952.794596	2590.500247
953.095378	2591.180803
953.396122	2593.562748
953.696828	2591.634507
953.997496	2589.355906
954.298126	2588.274578
954.598718	2586.530339
954.899272	2584.034968
955.199788	2583.523291
955.500266	2578.509863
955.800706	2577.887281
956.101108	2575.291086
956.401472	2570.633060
956.701798	2571.351425
957.002087	2569.128276
957.302337	2567.830179
957.602550	2566.650549
957.902724	2563.819941
958.202861	2563.436813
958.502960	2566.146433
958.803022	2562.201730
959.103045	2562.312636
959.403031	2559.212326
959.702979	2560.734755
960.002889	2561.175856
960.302762	2563.628377
960.602596	2563.809858
960.902393	2558.924980
961.202153	2560.318859
961.501875	2560.853222
961.801559	2557.707542
962.101205	2559.146791
962.400814	2561.498489
962.700385	2558.244425
962.999918	2555.504557
963.299414	2556.129661
963.598873	2557.233673
963.898293	2554.372818
964.197677	2558.493962
964.497022	2555.128992
964.796331	2557.788200
965.095601	2556.207798
965.394835	2554.191337
965.694030	2556.711914
965.993189	2553.992211
966.292309	2556.233004
966.591393	2556.885834
966.890439	2554.937428
967.189447	2556.711914
967.488419	2555.151677
967.787353	2555.479352
968.086249	2554.889537
968.385108	2555.065977
968.683930	2555.801986
968.982714	2556.530432
969.281462	2557.117727
969.580172	2555.867521
969.878844	2556.540515
970.177480	2557.445402
970.476078	2552.197561
970.774639	2554.922304
971.073162	2553.709907
971.371649	2555.812068
971.670098	2557.883982
971.968510	2556.187634
972.266885	2558.458674
972.565223	2556.739640
972.863524	2557.664692
973.161788	2557.757953
973.460014	2556.109496
973.758204	2555.365926
974.056356	2555.320555
974.354471	2557.006821
974.652550	2554.007335
974.950591	2556.676626
975.248595	2557.906667
975.546563	2557.541184
975.844493	2554.503888
976.142386	2554.216543
976.440243	2557.886503
976.738062	2556.767367
977.035845	2554.836605
977.333590	2555.683518
977.631299	2555.260062
977.928971	2553.722510
978.226606	2549.409802
978.524204	2551.053219
978.821765	2550.153373
979.119290	2554.145967
979.416777	2554.322407
979.714228	2557.382387
980.011642	2554.307283
980.309020	2553.571275
980.606360	2554.461039
980.903664	2557.553787
981.200931	2551.622869
981.498162	2554.483724
981.795356	2556.245607
982.092513	2555.643189
982.389633	2559.756771
982.686717	2563.981258
982.983764	2567.774726
983.280775	2568.851012
983.577749	2571.306054
983.874686	2571.734552
984.171587	2566.310271
984.468451	2567.051320
984.765279	2566.393450
985.062070	2562.385732
985.358824	2563.487225
985.655543	2558.887172
985.952224	2559.492110
986.248869	2557.342058
986.545478	2557.538663
986.842050	2556.439692
987.138586	2554.934907
987.435086	2553.742674
987.731549	2553.054557
988.027975	2553.054557
988.324366	2551.123795
988.620719	2552.772252
988.917037	2555.154197
989.213318	2550.418033
989.509563	2553.624207
989.805772	2552.739485
990.101944	2550.849052
990.398080	2550.493651
990.694180	2552.159752
990.990244	2550.284443
991.286271	2552.167314
991.582262	2551.164124
991.878217	2550.284443
992.174136	2552.658826
992.470019	2549.689587
992.765865	2550.723023
993.061676	2549.883671
993.357450	2548.648588
993.653188	2547.947868
993.948890	2549.770245
994.244556	2553.004145
994.540186	2552.936090
994.835780	2549.999618
995.131337	2552.280740
995.426859	2554.128322
995.722345	2555.507078
996.017795	2553.833415
996.313208	2557.190823
996.608586	2556.064126
996.903928	2557.800803
997.199234	2555.355843
997.494504	2558.405742
997.789738	2555.779300
998.084936	2555.696121
998.380099	2552.799978
998.675225	2553.846018
998.970316	2553.452808
999.265371	2552.053888
999.560390	2553.024310
999.855373	2552.983981
1000.150320	2550.256716
1000.445232	2551.557334
1000.740108	2552.946172
1001.034948	2551.527087
1001.329752	2550.332334
1001.624521	2551.401058
1001.919254	2549.792930
1002.213951	2553.397355
1002.508613	2552.547921
1002.803239	2551.310317
1003.097829	2548.895605
1003.392384	2553.329300
1003.686903	2549.477858
1003.981386	2550.196222
1004.275834	2549.432488
1004.570246	2551.002807
1004.864623	2550.395348
1005.158964	2551.002807
1005.453270	2553.092365
1005.747540	2549.603887
1006.041775	2550.859134
1006.335974	2548.489792
1006.630138	2550.634803
1006.924266	2550.773435
1007.218359	2550.851573
1007.512416	2548.026006
1007.806438	2546.125491
1008.100425	2547.826880
1008.394376	2543.292362
1008.688292	2549.891233
1008.982172	2549.303938
1009.276017	2548.247817
1009.569827	2551.312838
1009.863602	2548.968702
1010.157341	2550.755791
1010.451045	2548.888043
1010.744714	2550.949875
1011.038347	2552.293342
1011.331945	2550.387786
1011.625508	2548.971222
1011.919036	2550.080276
1012.212528	2549.790410
1012.505986	2549.520708
1012.799408	2549.104813
1013.092795	2551.053219
1013.386147	2549.961809
1013.679464	2550.912066
1013.972745	2551.612787
1014.265992	2549.755122
1014.559204	2548.368804
1014.852380	2550.007179
1015.145521	2551.685883
1015.438628	2547.753783
1015.731699	2549.291335
1016.024736	2551.827036
1016.317737	2549.147663
1016.610703	2551.209494
1016.903635	2551.257385
1017.196531	2551.731254
1017.489393	2547.708413
1017.782219	2548.134391
1018.075011	2549.203115
1018.367768	2547.385779
1018.660490	2548.411654
1018.953177	2548.411654
1019.245829	2548.411654
