Dividing Wavelength (nm)	Counts (n)	Blue Motor Position (mm): 7.800000	Red Motor Position (mm): 0.000000	
326.493990	2099.640577
326.888308	2099.640577
327.282561	2099.640577
327.676750	2039.146731
328.070874	2071.914231
328.464933	2092.078846
328.858929	2079.475962
329.252859	2094.599423
329.646726	2137.449231
330.040528	2109.722885
330.434265	2114.764038
330.827938	2157.613846
331.221547	2114.764038
331.615091	2167.696154
332.008571	2177.778462
332.401986	2240.792885
332.795338	2253.395769
333.188625	2220.628269
333.581847	2228.190000
333.975006	2238.272308
334.368100	2303.807308
334.761129	2260.957500
335.154095	2313.889615
335.546996	2354.218846
335.939833	2399.589231
336.332606	2477.727115
336.725315	2334.054231
337.117960	2528.138654
337.510540	2376.904038
337.903056	2444.959615
338.295508	2361.780577
338.687896	2366.821731
339.080220	2447.480192
339.472480	2477.727115
339.864676	2492.850577
340.256807	2450.000769
340.648875	2467.644808
341.040879	2472.685962
341.432818	2533.179808
341.824694	2465.124231
342.216506	2515.535769
342.608253	2502.932885
342.999937	2409.671538
343.391557	2424.795000
343.783113	2442.439038
344.174605	2518.056346
344.566033	2424.795000
344.957397	2434.877308
345.348697	2457.562500
345.739934	2429.836154
346.131106	2366.821731
346.522215	2437.397885
346.913260	2472.685962
347.304241	2417.233269
347.695159	2555.865000
348.086012	2472.685962
348.476802	2482.768269
348.867528	2460.083077
349.258191	2437.397885
349.648789	2487.809423
350.039324	2444.959615
350.429796	2404.630385
350.820203	2379.424615
351.210548	2487.809423
351.600828	2452.521346
351.991045	2397.068654
352.381198	2397.068654
352.771288	2450.000769
353.161314	2417.233269
353.551276	2480.247692
353.941175	2447.480192
354.331010	2432.356731
354.720782	2404.630385
355.110490	2427.315577
355.500135	2475.206538
355.889717	2417.233269
356.279235	2323.971923
356.668689	2417.233269
357.058080	2502.932885
357.447408	2432.356731
357.836672	2402.109808
358.225873	2513.015192
358.615010	2351.698269
359.004084	2414.712692
359.393095	2409.671538
359.782043	2444.959615
360.170927	2359.260000
360.559748	2409.671538
360.948505	2427.315577
361.337199	2414.712692
361.725830	2397.068654
362.114398	2439.918462
362.502903	2470.165385
362.891344	2452.521346
363.279722	2492.850577
363.668037	2437.397885
364.056289	2460.083077
364.444478	2515.535769
364.832603	2404.630385
365.220665	2444.959615
365.608665	2452.521346
365.996601	2500.412308
366.384474	2442.439038
366.772284	2497.891731
367.160031	2558.385577
367.547715	2429.836154
367.935336	2424.795000
368.322893	2500.412308
368.710388	2412.192115
369.097820	2427.315577
369.485189	2444.959615
369.872495	2492.850577
370.259738	2520.576923
370.646918	2419.753846
371.034035	2452.521346
371.421090	2563.426731
371.808081	2475.206538
372.195010	2470.165385
372.581875	2434.877308
372.968678	2490.330000
373.355418	2414.712692
373.742096	2502.932885
374.128710	2439.918462
374.515262	2472.685962
374.901751	2480.247692
375.288177	2412.192115
375.674540	2581.070769
376.060841	2444.959615
376.447079	2364.301154
376.833254	2460.083077
377.219367	2384.465769
377.605417	2525.618077
377.991404	2422.274423
378.377329	2457.562500
378.763191	2439.918462
379.148991	2422.274423
379.534727	2407.150962
379.920402	2465.124231
380.306013	2392.027500
380.691563	2444.959615
381.077049	2500.412308
381.462474	2442.439038
381.847835	2482.768269
382.233134	2460.083077
382.618371	2407.150962
383.003545	2409.671538
383.388657	2485.288846
383.773706	2434.877308
384.158693	2444.959615
384.543618	2442.439038
384.928480	2450.000769
385.313280	2528.138654
385.698017	2467.644808
386.082692	2447.480192
386.467305	2455.041923
386.851856	2424.795000
387.236344	2472.685962
387.620770	2457.562500
388.005133	2417.233269
388.389435	2492.850577
388.773674	2437.397885
389.157851	2424.795000
389.541965	2462.603654
389.926018	2477.727115
390.310008	2480.247692
390.693936	2538.220962
391.077802	2452.521346
391.461606	2404.630385
391.845348	2513.015192
392.229027	2515.535769
392.612645	2492.850577
392.996200	2490.330000
393.379694	2412.192115
393.763125	2404.630385
394.146494	2452.521346
394.529801	2399.589231
394.913047	2434.877308
395.296230	2505.453462
395.679351	2502.932885
396.062410	2455.041923
396.445408	2394.548077
396.828343	2548.303269
397.211217	2417.233269
397.594028	2455.041923
397.976778	2467.644808
398.359466	2457.562500
398.742092	2472.685962
399.124656	2553.344423
399.507158	2462.603654
399.889598	2422.274423
400.271977	2472.685962
400.654294	2500.412308
401.036549	2490.330000
401.418742	2404.630385
401.800874	2389.506923
402.182944	2470.165385
402.564952	2475.206538
402.946898	2495.371154
403.328783	2467.644808
403.710606	2500.412308
404.092367	2344.136538
404.474067	2457.562500
404.855705	2538.220962
405.237282	2452.521346
405.618797	2525.618077
406.000250	2407.150962
406.381642	2447.480192
406.762972	2518.056346
407.144240	2450.000769
407.525447	2442.439038
407.906593	2482.768269
408.287677	2528.138654
408.668700	2528.138654
409.049661	2414.712692
409.430560	2505.453462
409.811399	2460.083077
410.192176	2457.562500
410.572891	2407.150962
410.953545	2467.644808
411.334138	2492.850577
411.714669	2500.412308
412.095139	2482.768269
412.475547	2467.644808
412.855894	2487.809423
413.236180	2550.823846
413.616405	2460.083077
413.996568	2455.041923
414.376670	2447.480192
414.756711	2492.850577
415.136691	2475.206538
415.516609	2439.918462
415.896466	2553.344423
416.276262	2412.192115
416.655997	2530.659231
417.035670	2422.274423
417.415283	2429.836154
417.794834	2505.453462
418.174324	2510.494615
418.553753	2515.535769
418.933121	2455.041923
419.312428	2470.165385
419.691674	2402.109808
420.070859	2490.330000
420.449983	2432.356731
420.829045	2543.262115
421.208047	2460.083077
421.586988	2485.288846
421.965867	2450.000769
422.344686	2525.618077
422.723444	2530.659231
423.102141	2475.206538
423.480777	2457.562500
423.859352	2409.671538
424.237866	2457.562500
424.616319	2510.494615
424.994712	2507.974038
425.373044	2487.809423
425.751314	2475.206538
426.129524	2533.179808
426.507673	2414.712692
426.885762	2502.932885
427.263789	2497.891731
427.641756	2507.974038
428.019662	2470.165385
428.397508	2492.850577
428.775292	2414.712692
429.153016	2487.809423
429.530679	2497.891731
429.908282	2530.659231
430.285824	2394.548077
430.663305	2523.097500
431.040726	2432.356731
431.418086	2472.685962
431.795385	2364.301154
432.172624	2467.644808
432.549802	2555.865000
432.926920	2439.918462
433.303977	2460.083077
433.680974	2457.562500
434.057910	2472.685962
434.434786	2472.685962
434.811601	2505.453462
435.188355	2550.823846
435.565050	2502.932885
435.941683	2424.795000
436.318257	2475.206538
436.694770	2513.015192
437.071222	2495.371154
437.447614	2500.412308
437.823946	2553.344423
438.200218	2472.685962
438.576429	2515.535769
438.952580	2442.439038
439.328670	2495.371154
439.704700	2470.165385
440.080670	2359.260000
440.456580	2402.109808
440.832429	2540.741538
441.208218	2452.521346
441.583947	2439.918462
441.959616	2545.782692
442.335224	2475.206538
442.710773	2444.959615
443.086261	2404.630385
443.461689	2535.700385
443.837057	2427.315577
444.212365	2427.315577
444.587612	2563.426731
444.962800	2578.550192
445.337927	2417.233269
445.712995	2492.850577
446.088002	2457.562500
446.462949	2450.000769
446.837837	2472.685962
447.212664	2497.891731
447.587431	2510.494615
447.962139	2502.932885
448.336786	2505.453462
448.711374	2419.753846
449.085901	2528.138654
449.460369	2444.959615
449.834776	2505.453462
450.209124	2523.097500
450.583412	2450.000769
450.957640	2523.097500
451.331808	2447.480192
451.705917	2507.974038
452.079965	2465.124231
452.453954	2515.535769
452.827883	2470.165385
453.201752	2497.891731
453.575562	2417.233269
453.949311	2528.138654
454.323001	2528.138654
454.696632	2460.083077
455.070202	2487.809423
455.443713	2397.068654
455.817164	2457.562500
456.190556	2427.315577
456.563888	2475.206538
456.937160	2487.809423
457.310373	2472.685962
457.683526	2487.809423
458.056619	2523.097500
458.429653	2523.097500
458.802628	2533.179808
459.175542	2510.494615
459.548398	2412.192115
459.921194	2510.494615
460.293930	2439.918462
460.666607	2505.453462
461.039224	2439.918462
461.411782	2495.371154
461.784280	2505.453462
462.156719	2399.589231
462.529099	2467.644808
462.901419	2520.576923
463.273680	2417.233269
463.645882	2497.891731
464.018024	2480.247692
464.390106	2507.974038
464.762130	2576.029615
465.134094	2487.809423
465.505999	2523.097500
465.877845	2404.630385
466.249631	2452.521346
466.621358	2538.220962
466.993026	2472.685962
467.364634	2525.618077
467.736184	2548.303269
468.107674	2515.535769
468.479105	2558.385577
468.850477	2500.412308
469.221790	2437.397885
469.593043	2492.850577
469.964238	2528.138654
470.335373	2518.056346
470.706449	2455.041923
471.077467	2472.685962
471.448425	2480.247692
471.819324	2497.891731
472.190164	2497.891731
472.560945	2487.809423
472.931667	2515.535769
473.302330	2510.494615
473.672934	2502.932885
474.043479	2437.397885
474.413965	2502.932885
474.784393	2533.179808
475.154761	2591.153077
475.525070	2530.659231
475.895321	2427.315577
476.265513	2500.412308
476.635645	2505.453462
477.005719	2480.247692
477.375734	2515.535769
477.745691	2553.344423
478.115588	2450.000769
478.485427	2497.891731
478.855207	2560.906154
479.224928	2452.521346
479.594591	2581.070769
479.964194	2565.947308
480.333739	2513.015192
480.703226	2510.494615
481.072653	2495.371154
481.442022	2490.330000
481.811333	2472.685962
482.180584	2525.618077
482.549777	2465.124231
482.918912	2518.056346
483.287988	2439.918462
483.657005	2565.947308
484.025964	2513.015192
484.394864	2487.809423
484.763706	2452.521346
485.132489	2500.412308
485.501213	2462.603654
485.869879	2550.823846
486.238487	2528.138654
486.607036	2535.700385
486.975527	2535.700385
487.343959	2545.782692
487.712333	2429.836154
488.080648	2523.097500
488.448905	2397.068654
488.817104	2518.056346
489.185244	2447.480192
489.553326	2545.782692
489.921350	2475.206538
490.289315	2417.233269
490.657222	2442.439038
491.025070	2543.262115
491.392861	2533.179808
491.760593	2467.644808
492.128267	2502.932885
492.495883	2429.836154
492.863440	2520.576923
493.230939	2455.041923
493.598380	2502.932885
493.965763	2465.124231
494.333088	2490.330000
494.700354	2439.918462
495.067563	2583.591346
495.434713	2485.288846
495.801805	2513.015192
496.168839	2450.000769
496.535815	2525.618077
496.902733	2439.918462
497.269593	2472.685962
497.636395	2495.371154
498.003139	2424.795000
498.369825	2427.315577
498.736453	2520.576923
499.103023	2450.000769
499.469535	2533.179808
499.835989	2452.521346
500.202385	2548.303269
500.568723	2444.959615
500.935003	2450.000769
501.301226	2450.000769
501.667390	2535.700385
502.033497	2533.179808
502.399546	2452.521346
502.765537	2455.041923
503.131470	2510.494615
503.497345	2422.274423
503.863163	2505.453462
504.228923	2404.630385
504.594625	2518.056346
504.960269	2485.288846
505.325856	2455.041923
505.691385	2457.562500
506.056856	2593.673654
506.422270	2462.603654
506.787625	2553.344423
507.152924	2513.015192
507.518164	2523.097500
507.883347	2455.041923
508.248472	2439.918462
508.613540	2409.671538
508.978550	2525.618077
509.343503	2379.424615
509.708398	2578.550192
510.073236	2465.124231
510.438016	2515.535769
510.802738	2397.068654
511.167403	2535.700385
511.532010	2497.891731
511.896561	2497.891731
512.261053	2452.521346
512.625488	2593.673654
512.989866	2437.397885
513.354186	2497.891731
513.718449	2497.891731
514.082655	2399.589231
514.446803	2550.823846
514.810894	2482.768269
515.174927	2467.644808
515.538904	2487.809423
515.902822	2429.836154
516.266684	2555.865000
516.630488	2576.029615
516.994235	2457.562500
517.357925	2588.632500
517.721558	2530.659231
518.085133	2497.891731
518.448651	2523.097500
518.812112	2467.644808
519.175516	2487.809423
519.538863	2465.124231
519.902152	2467.644808
520.265385	2530.659231
520.628560	2442.439038
520.991678	2518.056346
521.354739	2452.521346
521.717743	2452.521346
522.080690	2560.906154
522.443580	2520.576923
522.806413	2563.426731
523.169189	2560.906154
523.531908	2460.083077
523.894569	2485.288846
524.257174	2465.124231
524.619722	2545.782692
524.982213	2540.741538
525.344647	2495.371154
525.707025	2482.768269
526.069345	2528.138654
526.431608	2533.179808
526.793815	2490.330000
527.155964	2487.809423
527.518057	2520.576923
527.880093	2467.644808
528.242072	2530.659231
528.603995	2510.494615
528.965860	2548.303269
529.327669	2515.535769
529.689421	2568.467885
530.051117	2550.823846
530.412755	2515.535769
530.774337	2568.467885
531.135862	2518.056346
531.497331	2487.809423
531.858743	2470.165385
532.220098	2502.932885
532.581396	2381.945192
532.942638	2462.603654
533.303824	2518.056346
533.664953	2540.741538
534.026025	2460.083077
534.387040	2460.083077
534.747999	2404.630385
535.108902	2477.727115
535.469748	2525.618077
535.830537	2540.741538
536.191270	2470.165385
536.551947	2487.809423
536.912567	2467.644808
537.273131	2472.685962
537.633638	2460.083077
537.994089	2520.576923
538.354483	2417.233269
538.714821	2497.891731
539.075103	2439.918462
539.435328	2586.111923
539.795497	2510.494615
540.155609	2513.015192
540.515665	2452.521346
540.875665	2505.453462
541.235609	2462.603654
541.595496	2475.206538
541.955328	2495.371154
542.315102	2500.412308
542.674821	2523.097500
543.034483	2429.836154
543.394090	2543.262115
543.753640	2593.673654
544.113134	2510.494615
544.472571	2535.700385
544.831953	2490.330000
545.191278	2475.206538
545.550548	2520.576923
545.909761	2450.000769
546.268918	2533.179808
546.628019	2480.247692
546.987064	2477.727115
547.346053	2545.782692
547.704986	2450.000769
548.063863	2414.712692
548.422684	2611.317692
548.781449	2482.768269
549.140158	2548.303269
549.498811	2540.741538
549.857408	2578.550192
550.215949	2505.453462
550.574434	2460.083077
550.932864	2412.192115
551.291237	2525.618077
551.649555	2477.727115
552.007817	2507.974038
552.366022	2429.836154
552.724173	2525.618077
553.082267	2472.685962
553.440305	2482.768269
553.798288	2487.809423
554.156215	2500.412308
554.514086	2497.891731
554.871902	2510.494615
555.229661	2450.000769
555.587365	2518.056346
555.945014	2455.041923
556.302606	2523.097500
556.660143	2505.453462
557.017625	2475.206538
557.375050	2588.632500
557.732421	2502.932885
558.089735	2555.865000
558.446994	2538.220962
558.804197	2513.015192
559.161345	2477.727115
559.518437	2470.165385
559.875474	2452.521346
560.232455	2502.932885
560.589381	2444.959615
560.946251	2442.439038
561.303065	2505.453462
561.659825	2444.959615
562.016528	2495.371154
562.373177	2502.932885
562.729770	2490.330000
563.086307	2507.974038
563.442789	2528.138654
563.799216	2442.439038
564.155587	2434.877308
564.511904	2515.535769
564.868164	2477.727115
565.224370	2502.932885
565.580520	2470.165385
565.936615	2518.056346
566.292654	2487.809423
566.648638	2487.809423
567.004567	2505.453462
567.360441	2439.918462
567.716260	2467.644808
568.072023	2523.097500
568.427732	2513.015192
568.783385	2417.233269
569.138982	2500.412308
569.494525	2437.397885
569.850013	2500.412308
570.205445	2490.330000
570.560823	2472.685962
570.916145	2404.630385
571.271412	2543.262115
571.626625	2434.877308
571.981782	2545.782692
572.336884	2475.206538
572.691931	2523.097500
573.046923	2520.576923
573.401860	2422.274423
573.756743	2507.974038
574.111570	2543.262115
574.466342	2480.247692
574.821059	2495.371154
575.175722	2591.153077
575.530330	2507.974038
575.884882	2500.412308
576.239380	2586.111923
576.593823	2608.797115
576.948211	2465.124231
577.302544	2452.521346
577.656823	2500.412308
578.011047	2477.727115
578.365216	2502.932885
578.719330	2432.356731
579.073389	2535.700385
579.427394	2570.988462
579.781344	2437.397885
580.135239	2500.412308
580.489080	2530.659231
580.842866	2492.850577
581.196597	2450.000769
581.550273	2442.439038
581.903895	2565.947308
582.257463	2444.959615
582.610975	2485.288846
582.964434	2465.124231
583.317837	2510.494615
583.671186	2553.344423
584.024481	2432.356731
584.377721	2518.056346
584.730906	2482.768269
585.084037	2540.741538
585.437113	2470.165385
585.790135	2505.453462
586.143103	2497.891731
586.496016	2455.041923
586.848874	2565.947308
587.201679	2535.700385
587.554428	2563.426731
587.907124	2462.603654
588.259765	2477.727115
588.612352	2472.685962
588.964884	2467.644808
589.317362	2465.124231
589.669786	2510.494615
590.022155	2422.274423
590.374470	2490.330000
590.726731	2487.809423
591.078937	2482.768269
591.431090	2510.494615
591.783188	2450.000769
592.135232	2560.906154
592.487222	2528.138654
592.839157	2465.124231
593.191038	2480.247692
593.542866	2439.918462
593.894639	2520.576923
594.246358	2543.262115
594.598022	2518.056346
594.949633	2414.712692
595.301190	2490.330000
595.652692	2490.330000
596.004141	2545.782692
596.355535	2507.974038
596.706876	2422.274423
597.058162	2414.712692
597.409395	2414.712692
597.760573	2422.274423
598.111698	2502.932885
598.462768	2429.836154
598.813785	2548.303269
599.164748	2487.809423
599.515657	2550.823846
599.866511	2424.795000
600.217312	2520.576923
600.568060	2472.685962
600.918753	2518.056346
601.269392	2389.506923
601.619978	2492.850577
601.970510	2444.959615
602.320988	2570.988462
602.671412	2442.439038
603.021783	2515.535769
603.372100	2631.482308
603.722363	2528.138654
604.072572	2500.412308
604.422728	2535.700385
604.772830	2467.644808
605.122878	2565.947308
605.472872	2467.644808
605.822813	2510.494615
606.172701	2613.838269
606.522534	2513.015192
606.872314	2513.015192
607.222041	2447.480192
607.571714	2485.288846
607.921333	2510.494615
608.270899	2434.877308
608.620411	2485.288846
608.969870	2528.138654
609.319276	2477.727115
609.668627	2535.700385
610.017926	2447.480192
610.367171	2548.303269
610.716362	2507.974038
611.065500	2447.480192
611.414585	2502.932885
611.763616	2513.015192
612.112594	2472.685962
612.461518	2497.891731
612.810389	2533.179808
613.159207	2455.041923
613.507971	2581.070769
613.856682	2540.741538
614.205340	2573.509038
614.553945	2535.700385
614.902496	2523.097500
615.250994	2480.247692
615.599439	2495.371154
615.947830	2535.700385
616.296169	2588.632500
616.644454	2601.235385
616.992686	2475.206538
617.340864	2487.809423
617.688990	2487.809423
618.037063	2518.056346
618.385082	2495.371154
618.733048	2528.138654
619.080961	2543.262115
619.428821	2462.603654
619.776628	2533.179808
620.124382	2603.755962
620.472083	2427.315577
620.819731	2560.906154
621.167326	2450.000769
621.514868	2515.535769
621.862357	2419.753846
622.209793	2543.262115
622.557176	2495.371154
622.904506	2545.782692
623.251783	2487.809423
623.599007	2581.070769
623.946179	2500.412308
624.293297	2583.591346
624.640363	2477.727115
624.987376	2507.974038
625.334336	2470.165385
625.681243	2555.865000
626.028097	2465.124231
626.374899	2457.562500
626.721647	2563.426731
627.068343	2591.153077
627.414987	2523.097500
627.761577	2467.644808
628.108115	2523.097500
628.454600	2434.877308
628.801032	2535.700385
629.147412	2414.712692
629.493739	2558.385577
629.840014	2555.865000
630.186236	2528.138654
630.532405	2513.015192
630.878521	2442.439038
631.224585	2402.109808
631.570597	2513.015192
631.916556	2502.932885
632.262462	2399.589231
632.608316	2510.494615
632.954117	2515.535769
633.299866	2535.700385
633.645562	2515.535769
633.991206	2480.247692
634.336797	2540.741538
634.682336	2523.097500
635.027823	2452.521346
635.373257	2543.262115
635.718639	2525.618077
636.063968	2450.000769
636.409245	2475.206538
636.754470	2480.247692
637.099642	2475.206538
637.444762	2457.562500
637.789829	2515.535769
638.134845	2422.274423
638.479808	2520.576923
638.824719	2543.262115
639.169577	2548.303269
639.514383	2417.233269
639.859137	2535.700385
640.203839	2434.877308
640.548489	2419.753846
640.893086	2492.850577
641.237632	2462.603654
641.582125	2492.850577
641.926566	2563.426731
642.270955	2419.753846
642.615292	2525.618077
642.959576	2485.288846
643.303809	2460.083077
643.647990	2455.041923
643.992118	2490.330000
644.336195	2523.097500
644.680219	2513.015192
645.024192	2535.700385
645.368112	2462.603654
645.711981	2470.165385
646.055797	2520.576923
646.399562	2500.412308
646.743274	2482.768269
647.086935	2450.000769
647.430544	2470.165385
647.774101	2515.535769
648.117606	2540.741538
648.461059	2550.823846
648.804460	2601.235385
649.147810	2515.535769
649.491108	2568.467885
649.834354	2475.206538
650.177548	2510.494615
650.520690	2560.906154
650.863781	2457.562500
651.206820	2427.315577
651.549807	2482.768269
651.892742	2495.371154
652.235626	2490.330000
652.578458	2583.591346
652.921238	2538.220962
653.263967	2505.453462
653.606644	2533.179808
653.949269	2475.206538
654.291843	2596.194231
654.634365	2417.233269
654.976836	2538.220962
655.319255	2500.412308
655.661622	2497.891731
656.003938	2477.727115
656.346203	2523.097500
656.688416	2492.850577
657.030577	2470.165385
657.372687	2472.685962
657.714746	2502.932885
658.056753	2460.083077
658.398708	2475.206538
658.740612	2510.494615
659.082465	2545.782692
659.424266	2485.288846
659.766016	2520.576923
660.107715	2487.809423
660.449362	2444.959615
660.790958	2502.932885
661.132503	2457.562500
661.473996	2485.288846
661.815438	2477.727115
662.156829	2492.850577
662.498168	2535.700385
662.839456	2502.932885
663.180693	2467.644808
663.521879	2487.809423
663.863013	2505.453462
664.204097	2422.274423
664.545129	2550.823846
664.886110	2538.220962
665.227040	2528.138654
665.567918	2477.727115
665.908746	2480.247692
666.249522	2535.700385
666.590248	2593.673654
666.930922	2497.891731
667.271545	2497.891731
667.612118	2515.535769
667.952639	2518.056346
668.293109	2505.453462
668.633528	2447.480192
668.973896	2588.632500
669.314213	2492.850577
669.654480	2492.850577
669.994695	2528.138654
670.334859	2472.685962
670.674973	2533.179808
671.015035	2475.206538
671.355047	2500.412308
671.695008	2502.932885
672.034918	2510.494615
672.374777	2505.453462
672.714585	2502.932885
673.054342	2520.576923
673.394049	2490.330000
673.733705	2616.358846
674.073310	2502.932885
674.412864	2500.412308
674.752368	2444.959615
675.091820	2520.576923
675.431223	2457.562500
675.770574	2495.371154
676.109875	2475.206538
676.449125	2528.138654
676.788324	2510.494615
677.127473	2513.015192
677.466571	2477.727115
677.805619	2548.303269
678.144616	2588.632500
678.483562	2485.288846
678.822458	2535.700385
679.161303	2487.809423
679.500098	2563.426731
679.838842	2482.768269
680.177535	2477.727115
680.516179	2538.220962
680.854771	2462.603654
681.193314	2490.330000
681.531805	2555.865000
681.870247	2427.315577
682.208638	2467.644808
682.546978	2505.453462
682.885268	2369.342308
683.223508	2477.727115
683.561697	2523.097500
683.899836	2578.550192
684.237925	2462.603654
684.575963	2510.494615
684.913951	2457.562500
685.251889	2560.906154
685.589776	2472.685962
685.927614	2555.865000
686.265401	2515.535769
686.603137	2427.315577
686.940824	2530.659231
687.278460	2490.330000
687.616046	2447.480192
687.953582	2533.179808
688.291068	2457.562500
688.628504	2550.823846
688.965889	2515.535769
689.303224	2513.015192
689.640510	2530.659231
689.977745	2457.562500
690.314930	2540.741538
690.652065	2467.644808
690.989150	2500.412308
691.326185	2439.918462
691.663170	2482.768269
692.000105	2384.465769
692.336990	2487.809423
692.673825	2465.124231
693.010610	2565.947308
693.347345	2485.288846
693.684030	2422.274423
694.020665	2402.109808
694.357251	2543.262115
694.693786	2472.685962
695.030272	2598.714808
695.366707	2495.371154
695.703093	2480.247692
696.039429	2409.671538
696.375716	2530.659231
696.711952	2513.015192
697.048139	2497.891731
697.384276	2485.288846
697.720363	2455.041923
698.056400	2480.247692
698.392388	2470.165385
698.728326	2518.056346
699.064214	2502.932885
699.400053	2553.344423
699.735842	2490.330000
700.071581	2500.412308
700.407270	2518.056346
700.742910	2495.371154
701.078501	2500.412308
701.414042	2500.412308
701.749533	2429.836154
702.084974	2467.644808
702.420366	2613.838269
702.755709	2500.412308
703.091002	2505.453462
703.426246	2450.000769
703.761440	2442.439038
704.096584	2535.700385
704.431679	2520.576923
704.766725	2533.179808
705.101721	2369.342308
705.436668	2419.753846
705.771565	2432.356731
706.106413	2495.371154
706.441212	2525.618077
706.775961	2535.700385
707.110661	2490.330000
707.445311	2444.959615
707.779913	2432.356731
708.114465	2533.179808
708.448967	2538.220962
708.783421	2419.753846
709.117825	2472.685962
709.452180	2490.330000
709.786485	2515.535769
710.120742	2548.303269
710.454949	2485.288846
710.789107	2525.618077
711.123216	2424.795000
711.457275	2518.056346
711.791286	2467.644808
712.125247	2457.562500
712.459159	2563.426731
712.793023	2538.220962
713.126837	2467.644808
713.460602	2381.945192
713.794318	2583.591346
714.127985	2480.247692
714.461602	2603.755962
714.795171	2447.480192
715.128691	2470.165385
715.462162	2475.206538
715.795584	2495.371154
716.128957	2444.959615
716.462281	2457.562500
716.795556	2500.412308
717.128782	2513.015192
717.461960	2462.603654
717.795088	2563.426731
718.128167	2558.385577
718.461198	2465.124231
718.794180	2475.206538
719.127113	2414.712692
719.459997	2515.535769
719.792833	2533.179808
720.125619	2437.397885
720.458357	2477.727115
720.791046	2528.138654
721.123686	2422.274423
721.456278	2530.659231
721.788821	2477.727115
722.121315	2502.932885
722.453761	2538.220962
722.786158	2460.083077
723.118506	2535.700385
723.450805	2452.521346
723.783056	2455.041923
724.115259	2533.179808
724.447412	2470.165385
724.779518	2513.015192
725.111574	2525.618077
725.443582	2412.192115
725.775542	2460.083077
726.107453	2500.412308
726.439315	2485.288846
726.771129	2497.891731
727.102895	2510.494615
727.434612	2444.959615
727.766281	2505.453462
728.097901	2462.603654
728.429473	2462.603654
728.760996	2631.482308
729.092471	2548.303269
729.423897	2397.068654
729.755276	2550.823846
730.086606	2500.412308
730.417887	2500.412308
730.749120	2502.932885
731.080305	2412.192115
731.411442	2560.906154
731.742530	2535.700385
732.073570	2520.576923
732.404562	2530.659231
732.735506	2525.618077
733.066401	2515.535769
733.397249	2492.850577
733.728048	2480.247692
734.058798	2500.412308
734.389501	2538.220962
734.720156	2447.480192
735.050762	2515.535769
735.381320	2495.371154
735.711831	2429.836154
736.042293	2533.179808
736.372707	2502.932885
736.703073	2513.015192
737.033391	2457.562500
737.363661	2510.494615
737.693883	2621.400000
738.024056	2495.371154
738.354182	2444.959615
738.684260	2507.974038
739.014290	2460.083077
739.344272	2505.453462
739.674207	2507.974038
740.004093	2497.891731
740.333931	2482.768269
740.663722	2475.206538
740.993464	2472.685962
741.323159	2593.673654
741.652806	2492.850577
741.982405	2490.330000
742.311956	2462.603654
742.641460	2515.535769
742.970915	2480.247692
743.300323	2530.659231
743.629683	2530.659231
743.958996	2434.877308
744.288260	2452.521346
744.617477	2545.782692
744.946647	2465.124231
745.275768	2495.371154
745.604842	2533.179808
745.933869	2439.918462
746.262847	2452.521346
746.591778	2467.644808
746.920662	2417.233269
747.249498	2510.494615
747.578286	2611.317692
747.907027	2606.276538
748.235720	2492.850577
748.564365	2447.480192
748.892963	2520.576923
749.221514	2455.041923
749.550017	2437.397885
749.878473	2520.576923
750.206881	2477.727115
750.535242	2565.947308
750.863555	2563.426731
751.191821	2472.685962
751.520039	2434.877308
751.848210	2482.768269
752.176334	2518.056346
752.504411	2560.906154
752.832440	2520.576923
753.160421	2492.850577
753.488356	2470.165385
753.816243	2492.850577
754.144082	2429.836154
754.471875	2475.206538
754.799620	2490.330000
755.127318	2606.276538
755.454969	2576.029615
755.782572	2470.165385
756.110129	2563.426731
756.437638	2480.247692
756.765100	2447.480192
757.092515	2528.138654
757.419882	2555.865000
757.747203	2424.795000
758.074477	2565.947308
758.401703	2533.179808
758.728882	2507.974038
759.056014	2467.644808
759.383099	2553.344423
759.710138	2432.356731
760.037129	2525.618077
760.364073	2472.685962
760.690970	2467.644808
761.017820	2515.535769
761.344623	2535.700385
761.671379	2432.356731
761.998088	2505.453462
762.324751	2432.356731
762.651366	2518.056346
762.977935	2457.562500
763.304456	2439.918462
763.630931	2603.755962
763.957359	2460.083077
764.283740	2472.685962
764.610074	2523.097500
764.936362	2555.865000
765.262602	2455.041923
765.588796	2530.659231
765.914943	2515.535769
766.241044	2505.453462
766.567097	2608.797115
766.893104	2513.015192
767.219064	2475.206538
767.544978	2568.467885
767.870845	2492.850577
768.196665	2507.974038
768.522438	2500.412308
768.848165	2593.673654
769.173846	2467.644808
769.499479	2490.330000
769.825066	2513.015192
770.150607	2535.700385
770.476101	2485.288846
770.801548	2462.603654
771.126949	2510.494615
771.452303	2535.700385
771.777611	2548.303269
772.102872	2492.850577
772.428087	2470.165385
772.753256	2535.700385
773.078378	2447.480192
773.403453	2487.809423
773.728482	2500.412308
774.053465	2490.330000
774.378401	2548.303269
774.703291	2477.727115
775.028135	2568.467885
775.352932	2455.041923
775.677683	2540.741538
776.002388	2497.891731
776.327046	2477.727115
776.651658	2578.550192
776.976224	2507.974038
777.300743	2434.877308
777.625216	2613.838269
777.949643	2477.727115
778.274024	2533.179808
778.598359	2507.974038
778.922647	2472.685962
779.246889	2565.947308
779.571086	2432.356731
779.895236	2475.206538
780.219339	2593.673654
780.543397	2500.412308
780.867409	2513.015192
781.191374	2500.412308
781.515294	2386.986346
781.839167	2419.753846
782.162995	2399.589231
782.486776	2565.947308
782.810511	2520.576923
783.134201	2538.220962
783.457844	2475.206538
783.781441	2450.000769
784.104993	2497.891731
784.428498	2515.535769
784.751958	2523.097500
785.075372	2447.480192
785.398739	2369.342308
785.722061	2432.356731
786.045337	2523.097500
786.368568	2480.247692
786.691752	2502.932885
787.014891	2460.083077
787.337983	2419.753846
787.661030	2434.877308
787.984031	2490.330000
788.306987	2465.124231
788.629897	2581.070769
788.952760	2576.029615
789.275579	2518.056346
789.598351	2424.795000
789.921078	2598.714808
790.243759	2550.823846
790.566395	2497.891731
790.888984	2447.480192
791.211529	2497.891731
791.534027	2457.562500
791.856480	2505.453462
792.178888	2548.303269
792.501249	2422.274423
792.823566	2467.644808
793.145836	2502.932885
793.468062	2518.056346
793.790241	2467.644808
794.112375	2596.194231
794.434464	2417.233269
794.756507	2480.247692
795.078505	2417.233269
795.400457	2543.262115
795.722364	2402.109808
796.044226	2502.932885
796.366042	2495.371154
796.687812	2553.344423
797.009538	2505.453462
797.331218	2520.576923
797.652852	2596.194231
797.974442	2528.138654
798.295986	2560.906154
798.617484	2548.303269
798.938938	2565.947308
799.260346	2507.974038
799.581709	2553.344423
799.903026	2485.288846
800.224299	2452.521346
800.545526	2472.685962
800.866708	2518.056346
801.187845	2470.165385
801.508936	2407.150962
801.829983	2470.165385
802.150984	2455.041923
802.471940	2482.768269
802.792851	2465.124231
803.113717	2392.027500
803.434538	2480.247692
803.755314	2427.315577
804.076045	2560.906154
804.396731	2523.097500
804.717372	2530.659231
805.037967	2444.959615
805.358518	2477.727115
805.679024	2455.041923
805.999485	2535.700385
806.319901	2540.741538
806.640272	2462.603654
806.960598	2477.727115
807.280879	2482.768269
807.601115	2548.303269
807.921306	2535.700385
808.241453	2515.535769
808.561554	2452.521346
808.881611	2450.000769
809.201623	2523.097500
809.521590	2533.179808
809.841513	2442.439038
810.161390	2510.494615
810.481223	2475.206538
810.801011	2444.959615
811.120755	2465.124231
811.440453	2465.124231
811.760107	2470.165385
812.079716	2442.439038
812.399281	2523.097500
812.718801	2452.521346
813.038276	2407.150962
813.357707	2490.330000
813.677093	2470.165385
813.996434	2515.535769
814.315731	2485.288846
814.634983	2583.591346
814.954191	2565.947308
815.273354	2581.070769
815.592473	2543.262115
815.911547	2492.850577
816.230577	2460.083077
816.549562	2477.727115
816.868502	2434.877308
817.187399	2525.618077
817.506250	2520.576923
817.825058	2510.494615
818.143821	2472.685962
818.462539	2487.809423
818.781213	2472.685962
819.099843	2470.165385
819.418429	2520.576923
819.736970	2485.288846
820.055466	2583.591346
820.373919	2485.288846
820.692327	2505.453462
821.010691	2434.877308
821.329011	2482.768269
821.647286	2465.124231
821.965517	2467.644808
822.283704	2502.932885
822.601847	2588.632500
822.919945	2480.247692
823.237999	2507.974038
823.556010	2513.015192
823.873976	2570.988462
824.191897	2432.356731
824.509775	2450.000769
824.827609	2452.521346
825.145398	2500.412308
825.463144	2460.083077
825.780845	2525.618077
826.098502	2434.877308
826.416116	2560.906154
826.733685	2510.494615
827.051210	2485.288846
827.368692	2543.262115
827.686129	2518.056346
828.003522	2591.153077
828.320872	2530.659231
828.638177	2447.480192
828.955439	2465.124231
829.272656	2467.644808
829.589830	2434.877308
829.906960	2409.671538
830.224046	2573.509038
830.541088	2492.850577
830.858086	2497.891731
831.175041	2553.344423
831.491952	2434.877308
831.808819	2505.453462
832.125642	2444.959615
832.442421	2538.220962
832.759157	2560.906154
833.075849	2563.426731
833.392497	2528.138654
833.709101	2482.768269
834.025662	2497.891731
834.342179	2535.700385
834.658653	2530.659231
834.975083	2482.768269
835.291469	2555.865000
835.607811	2578.550192
835.924110	2462.603654
836.240366	2460.083077
836.556578	2555.865000
836.872746	2472.685962
837.188871	2543.262115
837.504952	2560.906154
837.820990	2540.741538
838.136984	2528.138654
838.452935	2480.247692
838.768842	2535.700385
839.084706	2450.000769
839.400526	2545.782692
839.716303	2482.768269
840.032037	2520.576923
840.347727	2507.974038
840.663373	2434.877308
840.978977	2502.932885
841.294537	2545.782692
841.610054	2404.630385
841.925527	2402.109808
842.240957	2578.550192
842.556344	2500.412308
842.871687	2548.303269
843.186987	2523.097500
843.502244	2485.288846
843.817458	2467.644808
844.132629	2505.453462
844.447756	2523.097500
844.762840	2444.959615
845.077881	2513.015192
845.392879	2437.397885
845.707833	2462.603654
846.022745	2510.494615
846.337613	2432.356731
846.652438	2530.659231
846.967221	2548.303269
847.281960	2505.453462
847.596656	2540.741538
847.911309	2485.288846
848.225919	2545.782692
848.540485	2507.974038
848.855009	2548.303269
849.169490	2555.865000
849.483928	2472.685962
849.798323	2472.685962
850.112675	2492.850577
850.426984	2492.850577
850.741251	2507.974038
851.055474	2570.988462
851.369654	2389.506923
851.683792	2434.877308
851.997887	2460.083077
852.311938	2543.262115
852.625947	2409.671538
852.939914	2475.206538
853.253837	2502.932885
853.567718	2535.700385
853.881555	2490.330000
854.195350	2460.083077
854.509103	2538.220962
854.822812	2545.782692
855.136479	2437.397885
855.450103	2450.000769
855.763685	2434.877308
856.077224	2528.138654
856.390720	2513.015192
856.704173	2513.015192
857.017584	2389.506923
857.330953	2477.727115
857.644278	2462.603654
857.957561	2565.947308
858.270802	2465.124231
858.584000	2505.453462
858.897155	2447.480192
859.210268	2535.700385
859.523339	2392.027500
859.836367	2472.685962
860.149352	2427.315577
860.462295	2492.850577
860.775195	2462.603654
861.088054	2434.877308
861.400869	2394.548077
861.713642	2513.015192
862.026373	2540.741538
862.339062	2591.153077
862.651708	2507.974038
862.964312	2417.233269
863.276873	2404.630385
863.589392	2490.330000
863.901869	2520.576923
864.214303	2513.015192
864.526696	2467.644808
864.839045	2472.685962
865.151353	2485.288846
865.463619	2480.247692
865.775842	2495.371154
866.088023	2427.315577
866.400162	2460.083077
866.712258	2462.603654
867.024313	2545.782692
867.336325	2538.220962
867.648296	2497.891731
867.960224	2475.206538
868.272110	2550.823846
868.583954	2477.727115
868.895755	2472.685962
869.207515	2442.439038
869.519233	2523.097500
869.830909	2470.165385
870.142542	2472.685962
870.454134	2470.165385
870.765684	2439.918462
871.077191	2439.918462
871.388657	2540.741538
871.700081	2434.877308
872.011463	2570.988462
872.322803	2460.083077
872.634101	2490.330000
872.945357	2505.453462
873.256571	2518.056346
873.567744	2429.836154
873.878874	2414.712692
874.189963	2510.494615
874.501010	2452.521346
874.812015	2538.220962
875.122979	2510.494615
875.433900	2457.562500
875.744780	2500.412308
876.055618	2505.453462
876.366415	2583.591346
876.677169	2444.959615
876.987882	2568.467885
877.298554	2424.795000
877.609183	2538.220962
877.919771	2495.371154
878.230317	2528.138654
878.540822	2452.521346
878.851285	2477.727115
879.161707	2437.397885
879.472087	2462.603654
879.782425	2482.768269
880.092722	2460.083077
880.402977	2507.974038
880.713191	2437.397885
881.023363	2520.576923
881.333494	2465.124231
881.643583	2485.288846
881.953631	2477.727115
882.263637	2472.685962
882.573602	2480.247692
882.883526	2472.685962
883.193408	2402.109808
883.503248	2513.015192
883.813048	2565.947308
884.122806	2510.494615
884.432522	2515.535769
884.742197	2525.618077
885.051831	2414.712692
885.361424	2492.850577
885.670975	2495.371154
885.980485	2518.056346
886.289954	2477.727115
886.599382	2472.685962
886.908768	2460.083077
887.218113	2472.685962
887.527417	2422.274423
887.836680	2538.220962
888.145901	2455.041923
888.455082	2515.535769
888.764221	2470.165385
889.073319	2500.412308
889.382376	2472.685962
889.691392	2502.932885
890.000366	2558.385577
890.309300	2515.535769
890.618193	2530.659231
890.927044	2485.288846
891.235855	2490.330000
891.544625	2457.562500
891.853353	2513.015192
892.162041	2480.247692
892.470687	2497.891731
892.779293	2525.618077
893.087858	2523.097500
893.396381	2510.494615
893.704864	2500.412308
894.013306	2492.850577
894.321707	2407.150962
894.630068	2510.494615
894.938387	2540.741538
895.246665	2470.165385
895.554903	2520.576923
895.863100	2452.521346
896.171256	2470.165385
896.479371	2475.206538
896.787446	2419.753846
897.095480	2570.988462
897.403473	2525.618077
897.711425	2565.947308
898.019336	2412.192115
898.327207	2470.165385
898.635038	2530.659231
898.942827	2507.974038
899.250576	2457.562500
899.558284	2540.741538
899.865952	2525.618077
900.173579	2510.494615
900.481165	2492.850577
900.788711	2417.233269
901.096216	2460.083077
901.403681	2447.480192
901.711105	2434.877308
902.018489	2480.247692
902.325832	2507.974038
902.633135	2485.288846
902.940397	2507.974038
903.247619	2523.097500
903.554800	2485.288846
903.861941	2467.644808
904.169041	2447.480192
904.476101	2462.603654
904.783121	2505.453462
905.090100	2502.932885
905.397039	2472.685962
905.703938	2513.015192
906.010796	2439.918462
906.317614	2538.220962
906.624391	2515.535769
906.931129	2429.836154
907.237826	2545.782692
907.544483	2475.206538
907.851099	2528.138654
908.157675	2482.768269
908.464211	2525.618077
908.770707	2447.480192
909.077163	2417.233269
909.383578	2447.480192
909.689954	2510.494615
909.996289	2492.850577
910.302584	2457.562500
910.608839	2507.974038
910.915054	2513.015192
911.221229	2409.671538
911.527363	2525.618077
911.833458	2452.521346
912.139513	2528.138654
912.445527	2500.412308
912.751502	2596.194231
913.057436	2482.768269
913.363331	2500.412308
913.669186	2538.220962
913.975000	2455.041923
914.280775	2568.467885
914.586510	2460.083077
914.892205	2540.741538
915.197859	2467.644808
915.503475	2507.974038
915.809050	2553.344423
916.114585	2455.041923
916.420081	2470.165385
916.725536	2523.097500
917.030952	2528.138654
917.336328	2470.165385
917.641665	2487.809423
917.946961	2470.165385
918.252218	2475.206538
918.557435	2518.056346
918.862612	2490.330000
919.167750	2472.685962
919.472848	2470.165385
919.777906	2492.850577
920.082925	2437.397885
920.387904	2495.371154
920.692843	2530.659231
920.997743	2510.494615
921.302603	2429.836154
921.607423	2513.015192
921.912204	2457.562500
922.216946	2520.576923
922.521647	2414.712692
922.826310	2424.795000
923.130932	2399.589231
923.435516	2437.397885
923.740059	2485.288846
924.044564	2427.315577
924.349028	2553.344423
924.653454	2470.165385
924.957840	2462.603654
925.262186	2507.974038
925.566493	2457.562500
925.870761	2450.000769
926.174989	2439.918462
926.479178	2485.288846
926.783328	2492.850577
927.087438	2492.850577
927.391509	2444.959615
927.695541	2530.659231
927.999533	2492.850577
928.303486	2495.371154
928.607400	2490.330000
928.911275	2497.891731
929.215110	2520.576923
929.518906	2424.795000
929.822663	2397.068654
930.126381	2455.041923
930.430060	2497.891731
930.733699	2480.247692
931.037299	2492.850577
931.340861	2543.262115
931.644383	2513.015192
931.947866	2513.015192
932.251309	2369.342308
932.554714	2384.465769
932.858080	2490.330000
933.161407	2485.288846
933.464694	2394.548077
933.767943	2475.206538
934.071153	2518.056346
934.374323	2434.877308
934.677455	2528.138654
934.980548	2548.303269
935.283602	2467.644808
935.586617	2442.439038
935.889593	2412.192115
936.192530	2563.426731
936.495428	2507.974038
936.798287	2381.945192
937.101108	2525.618077
937.403890	2490.330000
937.706632	2490.330000
938.009336	2523.097500
938.312002	2434.877308
938.614628	2538.220962
938.917216	2505.453462
939.219765	2500.412308
939.522275	2455.041923
939.824747	2442.439038
940.127179	2477.727115
940.429573	2442.439038
940.731929	2465.124231
941.034246	2457.562500
941.336524	2515.535769
941.638763	2477.727115
941.940964	2465.124231
942.243126	2492.850577
942.545250	2462.603654
942.847335	2452.521346
943.149381	2492.850577
943.451389	2477.727115
943.753359	2490.330000
944.055290	2470.165385
944.357182	2515.535769
944.659036	2530.659231
944.960851	2523.097500
945.262628	2490.330000
945.564367	2490.330000
945.866067	2482.768269
946.167729	2525.618077
946.469352	2490.330000
946.770937	2500.412308
947.072484	2510.494615
947.373992	2419.753846
947.675462	2528.138654
947.976893	2510.494615
948.278286	2394.548077
948.579641	2485.288846
948.880958	2530.659231
949.182236	2513.015192
949.483476	2500.412308
949.784678	2538.220962
950.085841	2502.932885
950.386967	2485.288846
950.688054	2545.782692
950.989103	2505.453462
951.290114	2437.397885
951.591087	2495.371154
951.892021	2462.603654
952.192917	2366.821731
952.493776	2457.562500
952.794596	2593.673654
953.095378	2497.891731
953.396122	2576.029615
953.696828	2482.768269
953.997496	2558.385577
954.298126	2460.083077
954.598718	2457.562500
954.899272	2513.015192
955.199788	2525.618077
955.500266	2507.974038
955.800706	2530.659231
956.101108	2452.521346
956.401472	2439.918462
956.701798	2457.562500
957.002087	2472.685962
957.302337	2525.618077
957.602550	2550.823846
957.902724	2525.618077
958.202861	2447.480192
958.502960	2550.823846
958.803022	2457.562500
959.103045	2525.618077
959.403031	2497.891731
959.702979	2507.974038
960.002889	2465.124231
960.302762	2507.974038
960.602596	2548.303269
960.902393	2442.439038
961.202153	2513.015192
961.501875	2472.685962
961.801559	2492.850577
962.101205	2457.562500
962.400814	2565.947308
962.700385	2520.576923
962.999918	2591.153077
963.299414	2450.000769
963.598873	2427.315577
963.898293	2513.015192
964.197677	2490.330000
964.497022	2540.741538
964.796331	2414.712692
965.095601	2497.891731
965.394835	2414.712692
965.694030	2495.371154
965.993189	2510.494615
966.292309	2507.974038
966.591393	2507.974038
966.890439	2518.056346
967.189447	2437.397885
967.488419	2409.671538
967.787353	2533.179808
968.086249	2462.603654
968.385108	2437.397885
968.683930	2432.356731
968.982714	2439.918462
969.281462	2515.535769
969.580172	2439.918462
969.878844	2492.850577
970.177480	2500.412308
970.476078	2495.371154
970.774639	2538.220962
971.073162	2450.000769
971.371649	2490.330000
971.670098	2490.330000
971.968510	2533.179808
972.266885	2497.891731
972.565223	2399.589231
972.863524	2475.206538
973.161788	2455.041923
973.460014	2460.083077
973.758204	2477.727115
974.056356	2450.000769
974.354471	2533.179808
974.652550	2452.521346
974.950591	2570.988462
975.248595	2518.056346
975.546563	2505.453462
975.844493	2505.453462
976.142386	2495.371154
976.440243	2465.124231
976.738062	2513.015192
977.035845	2513.015192
977.333590	2392.027500
977.631299	2467.644808
977.928971	2492.850577
978.226606	2470.165385
978.524204	2505.453462
978.821765	2409.671538
979.119290	2467.644808
979.416777	2500.412308
979.714228	2444.959615
980.011642	2477.727115
980.309020	2586.111923
980.606360	2452.521346
980.903664	2525.618077
981.200931	2523.097500
981.498162	2487.809423
981.795356	2513.015192
982.092513	2510.494615
982.389633	2442.439038
982.686717	2505.453462
982.983764	2608.797115
983.280775	2490.330000
983.577749	2510.494615
983.874686	2591.153077
984.171587	2442.439038
984.468451	2397.068654
984.765279	2465.124231
985.062070	2596.194231
985.358824	2545.782692
985.655543	2460.083077
985.952224	2452.521346
986.248869	2482.768269
986.545478	2507.974038
986.842050	2442.439038
987.138586	2540.741538
987.435086	2475.206538
987.731549	2520.576923
988.027975	2462.603654
988.324366	2460.083077
988.620719	2434.877308
988.917037	2553.344423
989.213318	2550.823846
989.509563	2560.906154
989.805772	2455.041923
990.101944	2533.179808
990.398080	2500.412308
990.694180	2505.453462
990.990244	2460.083077
991.286271	2492.850577
991.582262	2450.000769
991.878217	2475.206538
992.174136	2533.179808
992.470019	2530.659231
992.765865	2490.330000
993.061676	2500.412308
993.357450	2417.233269
993.653188	2465.124231
993.948890	2475.206538
994.244556	2545.782692
994.540186	2414.712692
994.835780	2553.344423
995.131337	2492.850577
995.426859	2497.891731
995.722345	2558.385577
996.017795	2442.439038
996.313208	2480.247692
996.608586	2475.206538
996.903928	2538.220962
997.199234	2477.727115
997.494504	2495.371154
997.789738	2525.618077
998.084936	2523.097500
998.380099	2492.850577
998.675225	2497.891731
998.970316	2497.891731
999.265371	2472.685962
999.560390	2424.795000
999.855373	2510.494615
1000.150320	2422.274423
1000.445232	2462.603654
1000.740108	2545.782692
1001.034948	2568.467885
1001.329752	2460.083077
1001.624521	2490.330000
1001.919254	2404.630385
1002.213951	2533.179808
1002.508613	2437.397885
1002.803239	2389.506923
1003.097829	2586.111923
1003.392384	2472.685962
1003.686903	2470.165385
1003.981386	2427.315577
1004.275834	2555.865000
1004.570246	2502.932885
1004.864623	2480.247692
1005.158964	2576.029615
1005.453270	2482.768269
1005.747540	2427.315577
1006.041775	2525.618077
1006.335974	2490.330000
1006.630138	2487.809423
1006.924266	2419.753846
1007.218359	2462.603654
1007.512416	2402.109808
1007.806438	2485.288846
1008.100425	2482.768269
1008.394376	2404.630385
1008.688292	2545.782692
1008.982172	2460.083077
1009.276017	2442.439038
1009.569827	2460.083077
1009.863602	2523.097500
1010.157341	2568.467885
1010.451045	2596.194231
1010.744714	2439.918462
1011.038347	2444.959615
1011.331945	2480.247692
1011.625508	2447.480192
1011.919036	2477.727115
1012.212528	2470.165385
1012.505986	2568.467885
1012.799408	2525.618077
1013.092795	2568.467885
1013.386147	2462.603654
1013.679464	2495.371154
1013.972745	2593.673654
1014.265992	2523.097500
1014.559204	2518.056346
1014.852380	2419.753846
1015.145521	2477.727115
1015.438628	2596.194231
1015.731699	2450.000769
1016.024736	2452.521346
1016.317737	2515.535769
1016.610703	2543.262115
1016.903635	2502.932885
1017.196531	2455.041923
1017.489393	2535.700385
1017.782219	2502.932885
1018.075011	2520.576923
1018.367768	2535.700385
1018.660490	2487.809423
1018.953177	2487.809423
1019.245829	2487.809423
