Dividing Wavelength (nm)	Counts (n)	Blue Motor Position (mm): 10.500000	Red Motor Position (mm): 0.000000	
326.493990	2160.159629
326.888308	2160.159629
327.282561	2160.159629
327.676750	2131.788015
328.070874	2134.580814
328.464933	2141.119191
328.858929	2149.379121
329.252859	2162.866728
329.646726	2175.930879
330.040528	2190.255317
330.434265	2209.063862
330.827938	2227.511965
331.221547	2245.607187
331.615091	2267.263983
332.008571	2286.064967
332.401986	2308.760241
332.795338	2328.246822
333.188625	2347.773731
333.581847	2366.884745
333.975006	2382.348485
334.368100	2403.564181
334.761129	2421.798034
335.154095	2439.565581
335.546996	2457.655761
335.939833	2481.417240
336.332606	2495.073726
336.725315	2509.730881
337.117960	2512.228772
337.510540	2521.875020
337.903056	2531.354910
338.295508	2537.406815
338.687896	2543.723381
339.080220	2555.658313
339.472480	2559.686195
339.864676	2562.226936
340.256807	2566.985785
340.648875	2567.333625
341.040879	2571.676579
341.432818	2572.959553
341.824694	2572.152968
342.216506	2571.855540
342.608253	2569.788667
342.999937	2569.773543
343.391557	2569.067782
343.783113	2568.427555
344.174605	2567.308419
344.566033	2566.826989
344.957397	2565.680127
345.348697	2561.344734
345.739934	2560.432285
346.131106	2559.381205
346.522215	2556.921122
346.913260	2556.114537
347.304241	2553.752757
347.695159	2555.023127
348.086012	2552.394166
348.476802	2550.448280
348.867528	2548.595656
349.258191	2545.898639
349.648789	2545.271015
350.039324	2542.364790
350.429796	2545.651622
350.820203	2544.731612
351.210548	2541.482588
351.600828	2540.998637
351.991045	2539.456044
352.381198	2540.902855
352.771288	2539.037628
353.161314	2539.796322
353.551276	2539.819007
353.941175	2539.909748
354.331010	2537.784902
354.720782	2539.594676
355.110490	2539.483771
355.500135	2540.214738
355.889717	2540.265149
356.279235	2539.287166
356.668689	2541.245654
357.058080	2540.895294
357.447408	2539.350180
357.836672	2540.028215
358.225873	2540.302958
358.615010	2537.036290
359.004084	2543.922507
359.393095	2542.521066
359.782043	2543.166333
360.170927	2544.179605
360.559748	2545.200439
360.948505	2545.283618
361.337199	2546.160779
361.725830	2546.228834
362.114398	2549.805533
362.502903	2548.167158
362.891344	2548.267981
363.279722	2547.751263
363.668037	2550.473486
364.056289	2549.946685
364.444478	2551.070863
364.832603	2550.793599
365.220665	2552.011038
365.608665	2549.175389
365.996601	2553.936759
366.384474	2548.819987
366.772284	2550.423074
367.160031	2551.509443
367.547715	2554.425751
367.935336	2553.455328
368.322893	2551.968188
368.710388	2554.660164
369.097820	2555.227294
369.485189	2552.976419
369.872495	2554.216543
370.259738	2552.759649
370.646918	2554.680329
371.034035	2555.295350
371.421090	2556.522871
371.808081	2555.096224
372.195010	2553.765359
372.581875	2552.487427
372.968678	2556.588406
373.355418	2555.302911
373.742096	2553.634289
374.128710	2558.516647
374.515262	2556.250648
374.901751	2557.619322
375.288177	2556.185113
375.674540	2556.512788
376.060841	2558.612429
376.447079	2559.134188
376.833254	2558.935063
377.219367	2556.099414
377.605417	2554.713096
377.991404	2555.814588
378.377329	2554.145967
378.763191	2554.642520
379.148991	2558.410783
379.534727	2558.224260
379.920402	2560.419683
380.306013	2559.149312
380.691563	2560.454971
381.077049	2559.134188
381.462474	2557.952038
381.847835	2561.284240
382.233134	2559.708880
382.618371	2562.345403
383.003545	2562.388253
383.388657	2561.115362
383.773706	2560.853222
384.158693	2562.584858
384.543618	2563.099056
384.928480	2563.789694
385.313280	2563.217523
385.698017	2565.218861
386.082692	2562.544529
386.467305	2560.810372
386.851856	2563.459498
387.236344	2564.172822
387.620770	2564.560990
388.005133	2565.367575
388.389435	2565.417987
388.773674	2564.548387
389.157851	2561.876576
389.541965	2565.488563
389.926018	2565.264231
390.310008	2564.881104
390.693936	2565.110476
391.077802	2566.605178
391.461606	2566.224571
391.845348	2564.414797
392.229027	2568.634243
392.612645	2564.329097
392.996200	2566.640466
393.379694	2568.062072
393.763125	2567.280693
394.146494	2568.364541
394.529801	2569.264387
394.913047	2565.707853
395.296230	2569.012329
395.679351	2569.592062
396.062410	2566.874880
396.445408	2568.813204
396.828343	2566.839592
397.211217	2565.314643
397.594028	2564.477811
397.976778	2563.411607
398.359466	2567.620971
398.742092	2565.947308
399.124656	2570.338153
399.507158	2568.533420
399.889598	2569.846640
400.271977	2571.956363
400.654294	2570.703636
401.036549	2571.427042
401.418742	2570.481826
401.800874	2571.515262
402.182944	2573.163719
402.564952	2570.680951
402.946898	2570.723801
403.328783	2569.914696
403.710606	2570.431414
404.092367	2573.040211
404.474067	2573.440983
404.855705	2571.651373
405.237282	2571.180025
405.618797	2574.071127
406.000250	2576.009451
406.381642	2572.712536
406.762972	2574.368555
407.144240	2570.864953
407.525447	2575.565829
407.906593	2573.362845
408.287677	2571.157340
408.668700	2573.715726
409.049661	2573.924934
409.430560	2573.244378
409.811399	2576.299317
410.192176	2574.189594
410.572891	2576.566498
410.953545	2574.333267
411.334138	2575.202866
411.714669	2574.867629
412.095139	2574.797053
412.475547	2574.650860
412.855894	2576.450552
413.236180	2573.715726
413.616405	2578.076324
413.996568	2577.516756
414.376670	2576.964749
414.756711	2576.175809
415.136691	2576.155644
415.516609	2575.462486
415.896466	2574.855027
416.276262	2578.608166
416.655997	2575.419636
417.035670	2572.974676
417.415283	2574.469378
417.794834	2573.478792
418.174324	2576.269070
418.553753	2577.015161
418.933121	2576.901735
419.312428	2578.086406
419.691674	2577.572208
420.070859	2579.724781
420.449983	2573.902248
420.829045	2576.742939
421.208047	2576.538772
421.586988	2578.401478
421.965867	2577.640264
422.344686	2577.892322
422.723444	2580.070100
423.102141	2579.407188
423.480777	2579.744946
423.859352	2578.933320
424.237866	2581.000193
424.616319	2579.369380
424.994712	2581.093454
425.373044	2580.017168
425.751314	2580.128073
426.129524	2580.899370
426.507673	2581.955492
426.885762	2581.277457
427.263789	2580.077662
427.641756	2581.053125
428.019662	2579.979359
428.397508	2581.554720
428.775292	2582.411716
429.153016	2580.523804
429.530679	2580.869123
429.908282	2583.936665
430.285824	2581.060687
430.663305	2582.671336
431.040726	2580.606983
431.418086	2581.355594
431.795385	2583.603949
432.172624	2581.466500
432.549802	2580.294432
432.926920	2581.915162
433.303977	2582.681418
433.680974	2581.937848
434.057910	2579.969277
434.434786	2580.584298
434.811601	2581.708475
435.188355	2581.620255
435.565050	2581.146387
435.941683	2584.554207
436.318257	2579.288721
436.694770	2579.568505
437.071222	2579.429874
437.447614	2578.651015
437.823946	2578.328382
438.200218	2583.089751
438.576429	2583.614031
438.952580	2581.940368
439.328670	2582.232755
439.704700	2584.592015
440.080670	2584.483630
440.456580	2586.013621
440.832429	2584.365163
441.208218	2581.776531
441.583947	2581.267374
441.959616	2584.655030
442.335224	2584.297108
442.710773	2580.823753
443.086261	2582.499936
443.461689	2584.949937
443.837057	2585.126377
444.212365	2584.304669
444.587612	2586.729464
444.962800	2583.001531
445.337927	2584.400451
445.712995	2584.350040
446.088002	2587.407500
446.462949	2583.102354
446.837837	2589.265165
447.212664	2585.438929
447.587431	2585.512026
447.962139	2587.457911
448.336786	2587.107551
448.711374	2583.717375
449.085901	2584.730647
449.460369	2585.254927
449.834776	2586.074114
450.209124	2584.894484
450.583412	2586.757191
450.957640	2584.952458
451.331808	2587.359609
451.705917	2586.946234
452.079965	2585.837180
452.453954	2583.853486
452.827883	2588.758529
453.201752	2585.600246
453.575562	2586.071594
453.949311	2589.681060
454.323001	2586.036306
454.696632	2587.485637
455.070202	2585.955647
455.443713	2584.939855
455.817164	2584.125708
456.190556	2584.198805
456.563888	2586.293405
456.937160	2583.551017
457.310373	2589.590319
457.683526	2585.060842
458.056619	2587.077304
458.429653	2585.882551
458.802628	2589.423961
459.175542	2587.314238
459.548398	2590.109558
459.921194	2586.875658
460.293930	2588.514033
460.666607	2589.552511
461.039224	2591.483273
461.411782	2589.837336
461.784280	2592.045361
462.156719	2590.341451
462.529099	2589.875144
462.901419	2589.668457
463.273680	2589.802048
463.645882	2586.931111
464.018024	2586.805082
464.390106	2590.162490
464.762130	2590.369177
465.134094	2588.793817
465.505999	2590.565782
465.877845	2587.964547
466.249631	2589.129054
466.621358	2589.396235
466.993026	2592.799014
467.364634	2594.051740
467.736184	2591.014445
468.107674	2589.870103
468.479105	2589.227356
468.850477	2589.083683
469.221790	2590.482603
469.593043	2590.641400
469.964238	2587.329362
470.335373	2589.759198
470.706449	2589.643251
471.077467	2589.789445
471.448425	2590.003694
471.819324	2591.516040
472.190164	2591.979826
472.560945	2590.747264
472.931667	2592.408324
473.302330	2590.651482
473.672934	2591.485793
474.043479	2591.500917
474.413965	2590.101996
474.784393	2587.901533
475.154761	2589.181986
475.525070	2588.004876
475.895321	2586.232911
476.265513	2587.810792
476.635645	2596.053078
477.005719	2589.630648
477.375734	2591.755495
477.745691	2592.108376
478.115588	2594.087028
478.485427	2592.894796
478.855207	2591.324476
479.224928	2589.923035
479.594591	2592.698191
479.964194	2591.574013
480.333739	2595.546442
480.703226	2593.358582
481.072653	2591.263982
481.442022	2593.736668
481.811333	2593.852615
482.180584	2592.650300
482.549777	2594.197934
482.918912	2591.475711
483.287988	2595.659868
483.657005	2593.139292
484.025964	2595.070053
484.394864	2592.070567
484.763706	2594.523088
485.132489	2595.942173
485.501213	2593.252718
485.869879	2594.220619
486.238487	2594.167687
486.607036	2592.705752
486.975527	2594.669282
487.343959	2597.071392
487.712333	2595.246494
488.080648	2593.086359
488.448905	2596.993254
488.817104	2595.312029
489.185244	2595.788418
489.553326	2594.903695
489.921350	2595.014601
490.289315	2598.180445
490.657222	2595.541401
491.025070	2595.979982
491.392861	2595.155753
491.760593	2598.124993
492.128267	2594.717173
492.495883	2596.219437
492.863440	2595.954776
493.230939	2597.429313
493.598380	2595.228850
493.965763	2590.951431
494.333088	2592.297419
494.700354	2593.035948
495.067563	2591.949579
495.434713	2591.142995
495.801805	2594.621391
496.168839	2594.132399
496.535815	2594.336566
496.902733	2595.821185
497.269593	2595.599375
497.636395	2593.933273
498.003139	2594.323963
498.369825	2597.754468
498.736453	2596.100969
499.103023	2594.790269
499.469535	2597.711618
499.835989	2594.719693
500.202385	2596.700867
500.568723	2595.483428
500.935003	2597.799838
501.301226	2596.355548
501.667390	2596.600044
502.033497	2595.748089
502.399546	2595.664910
502.765537	2595.564087
503.131470	2598.281268
503.497345	2597.787235
503.863163	2598.954262
504.228923	2596.985692
504.594625	2596.529467
504.960269	2596.108531
505.325856	2599.561722
505.691385	2596.577358
506.056856	2598.533326
506.422270	2597.028542
506.787625	2596.310177
507.152924	2596.645414
507.518164	2595.122986
507.883347	2596.733634
508.248472	2596.925198
508.613540	2596.421083
508.978550	2598.437544
509.343503	2596.277410
509.708398	2601.530292
510.073236	2598.760178
510.438016	2597.469643
510.802738	2597.119282
511.167403	2600.028028
511.532010	2597.913264
511.896561	2600.199427
512.261053	2602.183122
512.625488	2596.847060
512.989866	2597.678851
513.354186	2598.578697
513.718449	2598.394694
514.082655	2596.970568
514.446803	2598.878645
514.810894	2601.275714
515.174927	2601.898296
515.538904	2600.872422
515.902822	2600.574993
516.266684	2603.587083
516.630488	2603.188832
516.994235	2602.087340
517.357925	2604.192021
517.721558	2603.687906
518.085133	2603.433328
518.448651	2602.745210
518.812112	2603.851743
519.175516	2607.504059
519.538863	2602.359562
519.902152	2604.134048
520.265385	2608.285438
520.628560	2602.790581
520.991678	2605.958946
521.354739	2607.400716
521.717743	2607.052876
522.080690	2607.715788
522.443580	2608.124121
522.806413	2609.112187
523.169189	2608.487084
523.531908	2609.197887
523.894569	2607.945160
524.257174	2608.640840
524.619722	2608.658484
524.982213	2608.650922
525.344647	2608.938268
525.707025	2609.810387
526.069345	2607.380551
526.431608	2610.566560
526.793815	2611.325254
527.155964	2612.267950
527.518057	2612.071345
527.880093	2612.063783
528.242072	2612.623351
528.603995	2615.196860
528.965860	2611.312651
529.327669	2615.620317
529.689421	2612.146962
530.051117	2610.206118
530.412755	2614.682662
530.774337	2615.363218
531.135862	2613.576129
531.497331	2611.504215
531.858743	2611.224431
532.220098	2612.479678
532.581396	2612.169647
532.942638	2611.574791
533.303824	2614.886829
533.664953	2617.026799
534.026025	2612.139400
534.387040	2617.644340
534.747999	2614.894391
535.108902	2617.036881
535.469748	2615.262395
535.830537	2616.573095
536.191270	2615.635441
536.551947	2615.285080
536.912567	2617.598970
537.273131	2616.941099
537.633638	2613.440018
537.994089	2612.676283
538.354483	2615.189298
538.714821	2617.639299
539.075103	2615.993362
539.435328	2615.262395
539.795497	2617.210801
540.155609	2617.147787
540.515665	2617.790534
540.875665	2616.240379
541.235609	2618.236676
541.595496	2617.238527
541.955328	2618.667695
542.315102	2616.701645
542.674821	2617.115019
543.034483	2618.534104
543.394090	2617.359515
543.753640	2621.405041
544.113134	2618.224073
544.472571	2615.045626
544.831953	2619.053343
545.191278	2616.036212
545.550548	2618.380349
545.909761	2617.057046
546.268918	2617.646861
546.628019	2620.568210
546.987064	2618.672736
547.346053	2620.611059
547.704986	2618.823970
548.063863	2617.054525
548.422684	2617.777931
548.781449	2618.922273
549.140158	2619.111316
549.498811	2619.915380
549.857408	2617.208281
550.215949	2613.896242
550.574434	2613.079576
550.932864	2615.519494
551.291237	2615.176696
551.649555	2617.346912
552.007817	2619.975874
552.366022	2618.637448
552.724173	2619.300359
553.082267	2619.726337
553.440305	2618.584516
553.798288	2618.496295
554.156215	2622.193982
554.514086	2617.856069
554.871902	2620.359002
555.229661	2619.731378
555.587365	2621.384877
555.945014	2621.284053
556.302606	2621.107613
556.660143	2622.390587
557.017625	2618.506378
557.375050	2620.623662
557.732421	2622.357819
558.089735	2622.017541
558.446994	2619.998559
558.804197	2624.757408
559.161345	2622.136008
559.518437	2623.953344
559.875474	2620.840432
560.232455	2620.343878
560.589381	2622.637603
560.946251	2623.887809
561.303065	2623.948303
561.659825	2621.795731
562.016528	2622.440998
562.373177	2621.831019
562.729770	2622.990484
563.086307	2624.916205
563.442789	2626.279837
563.799216	2626.176493
564.155587	2622.952675
564.511904	2625.511061
564.868164	2624.046606
565.224370	2623.955865
565.580520	2624.114661
565.936615	2628.177831
566.292654	2625.967285
566.648638	2627.484673
567.004567	2625.183386
567.360441	2627.063736
567.716260	2625.543828
568.072023	2626.604991
568.427732	2623.053498
568.783385	2625.274127
569.138982	2626.340331
569.494525	2623.436626
569.850013	2623.502161
570.205445	2627.358644
570.560823	2627.162039
570.916145	2630.438789
571.271412	2627.759416
571.626625	2627.998870
571.981782	2631.595734
572.336884	2630.350569
572.691931	2629.695219
573.046923	2631.305867
573.401860	2629.254118
573.756743	2631.631022
574.111570	2632.818213
574.466342	2632.735034
574.821059	2629.536422
575.175722	2632.099849
575.530330	2631.381485
575.884882	2633.750827
576.239380	2633.743265
576.593823	2636.294089
576.948211	2636.838534
577.302544	2636.362145
577.656823	2635.164871
578.011047	2635.237967
578.365216	2635.066568
578.719330	2636.316774
579.073389	2635.936167
579.427394	2635.837865
579.781344	2636.546147
580.135239	2637.723256
580.489080	2639.263329
580.842866	2640.483288
581.196597	2638.008081
581.550273	2639.462454
581.903895	2641.468833
582.257463	2642.852630
582.610975	2642.837507
582.964434	2641.385654
583.317837	2646.250368
583.671186	2645.214411
584.024481	2644.916983
584.377721	2647.036788
584.730906	2644.959832
585.084037	2649.501912
585.437113	2648.839000
585.790135	2648.231541
586.143103	2649.943013
586.496016	2651.936789
586.848874	2647.339257
587.201679	2649.338075
587.554428	2650.006027
587.907124	2656.010042
588.259765	2649.219607
588.612352	2660.050527
588.964884	2659.876607
589.317362	2659.342244
589.669786	2660.834426
590.022155	2662.490445
590.374470	2663.586896
590.726731	2665.280724
591.078937	2662.303922
591.431090	2666.072185
591.783188	2667.513955
592.135232	2668.186949
592.487222	2668.643173
592.839157	2669.036383
593.191038	2670.316836
593.542866	2674.725325
593.894639	2674.455624
594.246358	2677.223217
594.598022	2679.070800
594.949633	2679.927796
595.301190	2680.018537
595.652692	2681.722447
596.004141	2681.886284
596.355535	2684.013651
596.706876	2684.237983
597.058162	2686.183868
597.409395	2689.115299
597.760573	2691.812316
598.111698	2691.043540
598.462768	2693.428006
598.813785	2692.772656
599.164748	2697.476053
599.515657	2699.023687
599.866511	2700.984696
600.217312	2702.310519
600.568060	2703.752289
600.918753	2707.187836
601.269392	2709.269832
601.619978	2710.961139
601.970510	2714.626058
602.320988	2716.637478
602.671412	2719.301728
603.021783	2720.017572
603.372100	2723.594271
603.722363	2725.860269
604.072572	2730.926629
604.422728	2734.982237
604.772830	2726.828171
605.122878	2736.449213
605.472872	2738.609347
605.822813	2739.090778
606.172701	2745.939185
606.522534	2749.246182
606.872314	2755.782038
607.222041	2755.252717
607.571714	2761.478542
607.921333	2760.515682
608.270899	2766.817124
608.620411	2771.200407
608.969870	2775.419853
609.319276	2778.633588
609.668627	2783.420164
610.017926	2789.061215
610.367171	2795.851649
610.716362	2798.236115
611.065500	2802.004378
611.414585	2805.634008
611.763616	2813.654484
612.112594	2818.277222
612.461518	2825.173521
612.810389	2832.460509
613.159207	2837.395798
613.507971	2839.301354
613.856682	2848.627489
614.205340	2854.331555
614.553945	2865.049048
614.902496	2864.265148
615.250994	2872.230171
615.599439	2881.140411
615.947830	2887.925804
616.296169	2894.330590
616.644454	2904.957342
616.992686	2914.296080
617.340864	2920.915115
617.688990	2926.258738
618.037063	2939.534616
618.385082	2948.061728
618.733048	2958.746454
619.080961	2967.749954
619.428821	2977.933085
619.776628	2985.179744
620.124382	2988.164107
620.472083	2998.193483
620.819731	3006.264370
621.167326	3008.669000
621.514868	3014.660412
621.862357	3015.862727
622.209793	3022.506968
622.557176	3027.827905
622.904506	3028.062319
623.251783	3028.034593
623.599007	3031.011394
623.946179	3034.940973
624.293297	3040.080430
624.640363	3045.759290
624.987376	3050.596277
625.334336	3056.156669
625.681243	3061.807803
626.028097	3065.268555
626.374899	3073.755338
626.721647	3080.356728
627.068343	3086.721185
627.414987	3089.266968
627.761577	3097.695777
628.108115	3109.882767
628.454600	3113.373766
628.801032	3124.136629
629.147412	3129.117289
629.493739	3139.691109
629.840014	3146.446255
630.186236	3160.480828
630.532405	3164.659944
630.878521	3181.273067
631.224585	3187.105682
631.570597	3195.947866
631.916556	3209.367417
632.262462	3216.969477
632.608316	3226.814851
632.954117	3234.787435
633.299866	3246.969384
633.645562	3254.924324
633.991206	3256.938265
634.336797	3257.762494
634.682336	3266.292126
635.027823	3268.795059
635.373257	3274.564660
635.718639	3276.515586
636.063968	3282.653191
636.409245	3279.320988
636.754470	3289.294911
637.099642	3290.051084
637.444762	3294.976292
637.789829	3304.499031
638.134845	3303.755461
638.479808	3313.058911
638.824719	3321.492761
639.169577	3321.230621
639.514383	3336.386850
639.859137	3335.348372
640.203839	3353.496526
640.548489	3351.291021
640.893086	3362.656303
641.237632	3364.793752
641.582125	3376.605175
641.926566	3385.795199
642.270955	3400.429668
642.615292	3410.874939
642.959576	3424.309614
643.303809	3430.439657
643.647990	3447.287193
643.992118	3456.394038
644.336195	3463.434009
644.680219	3477.975218
645.024192	3495.251252
645.368112	3519.763862
645.711981	3535.998898
646.055797	3570.644228
646.399562	3580.817277
646.743274	3623.478041
647.086935	3653.588853
647.430544	3667.991429
647.774101	3687.848534
648.117606	3705.472408
648.461059	3730.085842
648.804460	3730.721027
649.147810	3722.108216
649.491108	3725.861355
649.834354	3728.855800
650.177548	3718.763410
650.520690	3712.411557
650.863781	3720.885736
651.206820	3733.528950
651.549807	3724.487641
651.892742	3722.715675
652.235626	3728.263465
652.578458	3730.726068
652.921238	3729.929566
653.263967	3748.481012
653.606644	3748.962443
653.949269	3758.064246
654.291843	3754.989142
654.634365	3783.267494
654.976836	3779.975621
655.319255	3794.254689
655.661622	3806.277841
656.003938	3809.264725
656.346203	3817.275118
656.688416	3835.314887
657.030577	3838.374868
657.372687	3849.414995
657.714746	3871.301164
658.056753	3881.940519
658.398708	3874.610682
658.740612	3884.995458
659.082465	3906.342224
659.424266	3913.190632
659.766016	3929.531532
660.107715	3939.749951
660.449362	3959.226449
660.790958	3973.903768
661.132503	3986.541941
661.473996	3998.935618
661.815438	4019.624513
662.156829	4041.291392
662.498168	4038.511196
662.839456	4054.791602
663.180693	4075.659459
663.521879	4092.217128
663.863013	4104.555353
664.204097	4117.614462
664.545129	4152.078310
664.886110	4167.242101
665.227040	4181.533772
665.567918	4199.190413
665.908746	4219.642374
666.249522	4240.984099
666.590248	4258.713837
666.930922	4277.595479
667.271545	4286.541006
667.612118	4307.560097
667.952639	4315.056293
668.293109	4329.670598
668.633528	4339.294161
668.973896	4345.499821
669.314213	4363.958006
669.654480	4364.099158
669.994695	4378.899986
670.334859	4384.150348
670.674973	4396.145773
671.015035	4417.868105
671.355047	4432.235394
671.695008	4442.206796
672.034918	4445.297023
672.374777	4465.196978
672.714585	4474.611333
673.054342	4498.647554
673.394049	4503.492103
673.733705	4529.940517
674.073310	4527.639230
674.412864	4546.243608
674.752368	4538.994429
675.091820	4572.137495
675.431223	4561.689704
675.770574	4557.467737
676.109875	4559.562337
676.449125	4558.004620
676.788324	4572.152619
677.127473	4549.356521
677.466571	4559.469076
677.805619	4551.640164
678.144616	4563.877565
678.483562	4576.324173
678.822458	4569.974840
679.161303	4581.693002
679.500098	4579.646294
679.838842	4591.641719
680.177535	4609.666365
680.516179	4633.163183
680.854771	4656.092871
681.193314	4714.822314
681.531805	4796.854490
681.870247	4861.464438
682.208638	4938.581489
682.546978	4991.468234
682.885268	5012.207541
683.223508	5000.378473
683.561697	4989.403881
683.899836	4991.649715
684.237925	4974.287982
684.575963	4975.747396
684.913951	4951.237306
685.251889	4980.095391
685.589776	4987.205938
685.927614	4996.234645
686.265401	5018.151061
686.603137	5036.863824
686.940824	5081.588941
687.278460	5121.620744
687.616046	5132.423937
687.953582	5200.207291
688.291068	5201.039082
688.628504	5241.517026
688.965889	5259.077886
689.303224	5256.940437
689.640510	5249.930712
689.977745	5213.828489
690.314930	5170.648486
690.652065	5154.274818
690.989150	5114.031287
691.326185	5056.544489
691.663170	5017.513355
692.000105	4974.671109
692.336990	4932.428761
692.673825	4906.459257
693.010610	4872.703690
693.347345	4836.326724
693.684030	4793.744098
694.020665	4781.844454
694.357251	4738.485490
694.693786	4744.461778
695.030272	4739.793669
695.366707	4698.022668
695.703093	4677.928629
696.039429	4689.359446
696.375716	4675.130789
696.711952	4678.352086
697.048139	4671.884286
697.384276	4663.329448
697.720363	4683.178991
698.056400	4681.734700
698.392388	4674.614071
698.728326	4680.950801
699.064214	4675.952497
699.400053	4685.926420
699.735842	4662.626207
700.071581	4654.081451
700.407270	4633.314418
700.742910	4627.060866
701.078501	4615.927478
701.414042	4597.630610
701.749533	4581.861881
702.084974	4556.598138
702.420366	4585.869598
702.755709	4556.802305
703.091002	4537.013256
703.426246	4547.138413
703.761440	4545.870563
704.096584	4529.562430
704.431679	4531.278943
704.766725	4527.591339
705.101721	4527.281308
705.436668	4546.178073
705.771565	4519.563302
706.106413	4562.269437
706.441212	4570.098348
706.775961	4588.322120
707.110661	4599.669757
707.445311	4645.682889
707.779913	4630.307369
708.114465	4661.479344
708.448967	4700.172721
708.783421	4769.120582
709.117825	4805.066529
709.452180	4830.090817
709.786485	4871.418196
710.120742	4958.297442
710.454949	4961.412875
710.789107	5011.849619
711.123216	5085.619344
711.457275	5110.726810
711.791286	5175.833312
712.125247	5193.376528
712.459159	5185.691289
712.793023	5274.279485
713.126837	5174.817520
713.460602	5222.521959
713.794318	5209.120051
714.127985	5190.359397
714.461602	5105.312611
714.795171	5123.775837
715.128691	5025.609448
715.462162	4983.049507
715.795584	4945.699598
716.128957	4930.923976
716.462281	4895.676228
716.795556	4882.193662
717.128782	4835.890664
717.461960	4780.329587
717.795088	4779.210451
718.128167	4742.566304
718.461198	4693.720044
718.794180	4684.976162
719.127113	4652.803518
719.459997	4636.573524
719.792833	4600.564562
720.125619	4605.101600
720.458357	4568.764963
720.791046	4552.736615
721.123686	4541.290675
721.456278	4518.870143
721.788821	4515.358979
722.121315	4495.809385
722.453761	4499.920446
722.786158	4493.487933
723.118506	4504.071836
723.450805	4490.642202
723.783056	4511.757075
724.115259	4504.601157
724.447412	4497.790558
724.779518	4534.719531
725.111574	4537.857649
725.443582	4572.384512
725.775542	4563.779262
726.107453	4632.679232
726.439315	4614.142910
726.771129	4672.549718
727.102895	4716.006985
727.434612	4746.596706
727.766281	4771.310963
728.097901	4810.160615
728.429473	4829.132998
728.760996	4840.004246
729.092471	4863.163307
729.423897	4861.840004
729.755276	4849.887428
730.086606	4860.557030
730.417887	4937.164925
730.749120	5003.277137
731.080305	5040.841295
731.411442	5104.027117
731.742530	5124.388337
732.073570	5147.703674
732.404562	5201.306263
732.735506	5195.549265
733.066401	5191.644891
733.397249	5152.676772
733.728048	5087.005661
734.058798	4989.696268
734.389501	4904.067229
734.720156	4847.409701
735.050762	4769.723000
735.381320	4722.537800
735.711831	4684.817366
736.042293	4631.108913
736.372707	4631.847442
736.703073	4599.659675
737.033391	4632.056650
737.363661	4615.050317
737.693883	4624.285711
738.024056	4646.096263
738.354182	4666.104603
738.684260	4703.789748
739.014290	4733.398966
739.344272	4758.718161
739.674207	4800.070746
740.004093	4824.974046
740.333931	4833.707845
740.663722	4844.097663
740.993464	4862.659191
741.323159	4851.551009
741.652806	4825.780630
741.982405	4807.582065
742.311956	4770.350623
742.641460	4766.973050
742.970915	4737.126899
743.300323	4693.639385
743.629683	4673.295809
743.958996	4638.993278
744.288260	4604.100931
744.617477	4558.952357
744.946647	4558.831370
745.275768	4518.310575
745.604842	4496.641175
745.933869	4473.923215
746.262847	4466.820230
746.591778	4460.556596
746.920662	4444.835758
747.249498	4446.471612
747.578286	4458.091472
747.907027	4479.516376
748.235720	4517.199001
748.564365	4525.622769
748.892963	4515.137169
749.221514	4531.833470
749.550017	4514.819576
749.878473	4512.036859
750.206881	4486.586594
750.535242	4477.431858
750.863555	4470.442299
751.191821	4454.794557
751.520039	4461.731185
751.848210	4446.655614
752.176334	4458.015854
752.504411	4441.498514
752.832440	4417.873146
753.160421	4427.922687
753.488356	4410.828134
753.816243	4398.739447
754.144082	4376.170201
754.471875	4366.443295
754.799620	4358.208570
755.127318	4352.832179
755.454969	4351.660111
755.782572	4351.992827
756.110129	4353.127087
756.437638	4339.813400
756.765100	4342.626363
757.092515	4344.017722
757.419882	4344.116024
757.747203	4340.894727
758.074477	4353.056511
758.401703	4345.199873
758.728882	4373.153071
759.056014	4381.360069
759.383099	4401.411258
759.710138	4424.058642
760.037129	4445.786015
760.364073	4459.039209
760.690970	4454.797078
761.017820	4454.955874
761.344623	4489.167665
761.671379	4550.868867
761.998088	4628.721927
762.324751	4828.747349
762.651366	5219.512390
762.977935	5801.773221
763.304456	6266.892760
763.630931	6543.316869
763.957359	6505.059553
764.283740	6266.486947
764.610074	5995.784547
764.936362	5659.761396
765.262602	5388.065889
765.588796	5093.526393
765.914943	4877.976737
766.241044	4684.061193
766.567097	4536.738513
766.893104	4407.909306
767.219064	4324.584074
767.544978	4239.179366
767.870845	4168.578006
768.196665	4127.182572
768.522438	4089.149586
768.848165	4052.782702
769.173846	4018.311292
769.499479	3991.784741
769.825066	3958.797951
770.150607	3923.293104
770.476101	3917.233637
770.801548	3899.249321
771.126949	3874.908110
771.452303	3859.575440
771.777611	3825.048577
772.102872	3827.276768
772.428087	3801.650062
772.753256	3779.592493
773.078378	3764.201851
773.403453	3735.774784
773.728482	3711.904921
774.053465	3702.717418
774.378401	3686.890715
774.703291	3665.054957
775.028135	3647.065600
775.352932	3637.792397
775.677683	3622.114409
776.002388	3602.287551
776.327046	3610.300465
776.651658	3587.718616
776.976224	3575.687902
777.300743	3570.581214
777.625216	3560.987898
777.949643	3552.508677
778.274024	3556.387845
778.598359	3538.368241
778.922647	3540.402346
779.246889	3531.532436
779.571086	3526.823998
779.895236	3529.664688
780.219339	3529.785676
780.543397	3531.093856
780.867409	3546.028274
781.191374	3545.037687
781.515294	3539.394115
781.839167	3554.746949
782.162995	3552.669994
782.486776	3542.461657
782.810511	3538.895041
783.134201	3525.840973
783.457844	3529.420193
783.781441	3524.371477
784.104993	3518.228831
784.428498	3510.135258
784.751958	3509.255577
785.075372	3506.581245
785.398739	3497.605471
785.722061	3502.205523
786.045337	3501.668641
786.368568	3524.379039
786.691752	3521.447608
787.014891	3563.490831
787.337983	3604.457767
787.661030	3685.128832
787.984031	3770.173097
788.306987	3840.958459
788.629897	3883.364645
788.952760	3891.823701
789.275579	3886.689286
789.598351	3842.233871
789.921078	3793.027168
790.243759	3740.677306
790.566395	3699.047458
790.888984	3653.803102
791.211529	3622.552989
791.534027	3582.120415
791.856480	3543.479971
792.178888	3528.805172
792.501249	3510.147861
792.823566	3483.626351
793.145836	3476.699806
793.468062	3467.114052
793.790241	3450.695013
794.112375	3457.543421
794.434464	3477.624857
794.756507	3477.070330
795.078505	3494.230418
795.400457	3527.623021
795.722364	3573.837799
796.044226	3617.181640
796.366042	3659.381139
796.687812	3653.480468
797.009538	3680.954757
797.331218	3669.203827
797.652852	3664.618898
797.974442	3644.403871
798.295986	3636.753920
798.617484	3609.297275
798.938938	3590.014862
799.260346	3574.699836
799.581709	3543.658932
799.903026	3533.546377
800.224299	3517.460055
800.545526	3487.119871
800.866708	3468.008856
801.187845	3457.818164
801.508936	3435.480811
801.829983	3426.598298
802.150984	3401.470667
802.471940	3395.449008
802.792851	3384.572719
803.113717	3381.411916
803.434538	3370.770040
803.755314	3361.020448
804.076045	3359.775283
804.396731	3347.147193
804.717372	3350.237420
805.037967	3346.214579
805.358518	3349.821525
805.679024	3356.768235
805.999485	3355.074407
806.319901	3361.171683
806.640272	3357.995756
806.960598	3374.233313
807.280879	3374.989486
807.601115	3385.429715
807.921306	3376.053169
808.241453	3376.151472
808.561554	3384.577760
808.881611	3383.246896
809.201623	3384.759242
809.521590	3376.126266
809.841513	3376.511914
810.161390	3384.882750
810.481223	3365.481869
810.801011	3365.968341
811.120755	3362.253010
811.440453	3347.558047
811.760107	3342.037983
812.079716	3338.786439
812.399281	3329.775377
812.718801	3328.832681
813.038276	3319.390600
813.357707	3322.208605
813.677093	3326.503668
813.996434	3309.343580
814.315731	3317.290959
814.634983	3314.886329
814.954191	3313.817604
815.273354	3333.974658
815.592473	3341.579238
815.911547	3360.357537
816.230577	3375.362531
816.549562	3397.145357
816.868502	3415.215373
817.187399	3436.879731
817.506250	3463.572641
817.825058	3472.656800
818.143821	3513.714478
818.462539	3556.793658
818.781213	3610.802060
819.099843	3689.842311
819.418429	3838.034590
819.736970	3985.538751
820.055466	4158.248682
820.373919	4390.668560
820.692327	4711.810224
821.010691	5197.903484
821.329011	6203.268357
821.647286	7786.210829
821.965517	9741.669365
822.283704	11199.162724
822.601847	12177.854852
822.919945	11876.383770
823.237999	11293.102105
823.556010	10494.147276
823.873976	9618.340057
824.191897	8727.381650
824.509775	8017.975357
824.827609	7268.363342
825.145398	6753.414518
825.463144	6402.835035
825.780845	6285.681140
826.098502	6345.386046
826.416116	6700.752104
826.733685	7166.249729
827.051210	7430.880059
827.368692	7353.029521
827.686129	6943.526511
828.003522	6422.629126
828.320872	5891.427621
828.638177	5450.745076
828.955439	5100.853711
829.272656	4786.424342
829.589830	4512.903937
829.906960	4266.084004
830.224046	4067.558324
830.541088	3906.841299
830.858086	3797.692756
831.175041	3706.563818
831.491952	3663.237621
831.808819	3644.091319
832.125642	3683.306455
832.442421	3778.843882
832.759157	3984.094461
833.075849	4342.432279
833.392497	4782.522489
833.709101	5152.956556
834.025662	5246.991719
834.342179	5140.658661
834.658653	4887.045773
834.975083	4621.417295
835.291469	4393.789034
835.607811	4179.151827
835.924110	4027.357643
836.240366	3874.527502
836.556578	3719.217114
836.872746	3587.945468
837.188871	3482.744149
837.504952	3389.641599
837.820990	3319.783810
838.136984	3265.903958
838.452935	3237.928074
838.768842	3225.146229
839.084706	3256.310642
839.400526	3388.343502
839.716303	3598.010132
840.032037	3799.431954
840.347727	3867.421996
840.663373	3778.596865
840.978977	3635.574290
841.294537	3513.923686
841.610054	3409.634815
841.925527	3335.920543
842.240957	3272.618774
842.556344	3211.325905
842.871687	3152.929179
843.186987	3096.979933
843.502244	3047.009496
843.817458	3010.768641
844.132629	2979.493322
844.447756	2958.315435
844.762840	2936.867846
845.077881	2919.327151
845.392879	2903.901220
845.707833	2893.032493
846.022745	2883.706358
846.337613	2882.841800
846.652438	2872.746890
846.967221	2867.436034
847.281960	2861.048892
847.596656	2858.704756
847.911309	2850.505319
848.225919	2846.772344
848.540485	2842.938547
848.855009	2842.724298
849.169490	2836.506035
849.483928	2834.217351
849.798323	2829.582010
850.112675	2830.002946
850.426984	2827.709221
850.741251	2827.265600
851.055474	2821.904332
851.369654	2822.305104
851.683792	2825.291988
851.997887	2824.361895
852.311938	2824.377018
852.625947	2822.695794
852.939914	2819.255206
853.253837	2822.403407
853.567718	2823.706545
853.881555	2822.040444
854.195350	2820.646565
854.509103	2820.936431
854.822812	2818.617500
855.136479	2819.870227
855.450103	2819.439208
855.763685	2817.357212
856.077224	2818.809064
856.390720	2820.258396
856.704173	2822.547080
857.017584	2822.990701
857.330953	2823.419199
857.644278	2827.731906
857.957561	2830.927998
858.270802	2828.687205
858.584000	2830.822134
858.897155	2831.054027
859.210268	2829.392967
859.523339	2824.346772
859.836367	2825.904488
860.149352	2823.290650
860.462295	2822.458859
860.775195	2819.408961
861.088054	2816.883343
861.400869	2818.476348
861.713642	2814.990390
862.026373	2816.235555
862.339062	2820.853252
862.651708	2825.465908
862.964312	2827.802482
863.276873	2829.198882
863.589392	2837.859584
863.901869	2840.022239
864.214303	2848.352746
864.526696	2855.120495
864.839045	2862.576362
865.151353	2869.500387
865.463619	2869.737321
865.775842	2874.329812
866.088023	2877.384751
866.400162	2879.716285
866.712258	2877.024309
867.024313	2881.420195
867.336325	2882.372973
867.648296	2882.786348
867.960224	2882.894732
868.272110	2886.378170
868.583954	2887.494785
868.895755	2889.607029
869.207515	2887.550238
869.519233	2895.341341
869.830909	2898.040879
870.142542	2900.420304
870.454134	2903.450037
870.765684	2907.994637
871.077191	2911.727612
871.388657	2919.609456
871.700081	2922.266144
872.011463	2929.530447
872.322803	2935.617640
872.634101	2939.837086
872.945357	2947.033333
873.256571	2957.904581
873.567744	2962.174438
873.878874	2966.777012
874.189963	2976.458548
874.501010	2981.091368
874.812015	2979.677324
875.122979	2987.511278
875.433900	2982.971718
875.744780	2988.963130
876.055618	2995.834223
876.366415	2997.770026
876.677169	3002.133144
876.987882	3008.868126
877.298554	3019.220135
877.609183	3031.137423
877.919771	3049.827501
878.230317	3069.777867
878.540822	3105.910337
878.851285	3157.942607
879.161707	3221.279664
879.472087	3327.708504
879.782425	3483.775065
880.092722	3749.065786
880.402977	4150.644102
880.713191	4657.665711
881.023363	5217.874015
881.333494	5625.174040
881.643583	5894.787550
881.953631	5974.042051
882.263637	5929.642088
882.573602	5798.138549
882.883526	5642.412265
883.193408	5456.340756
883.503248	5246.296040
883.813048	5043.107293
884.122806	4834.854707
884.432522	4604.784007
884.742197	4391.878437
885.051831	4190.958209
885.361424	4004.196062
885.670975	3843.877287
885.980485	3702.611553
886.289954	3580.839962
886.599382	3483.651557
886.908768	3403.159453
887.218113	3330.783608
887.527417	3269.165584
887.836680	3212.392109
888.145901	3167.062054
888.455082	3132.096611
888.764221	3098.232660
889.073319	3068.331056
889.382376	3050.397151
889.691392	3034.404091
890.000366	3027.099459
890.309300	3019.567975
890.618193	3015.106554
890.927044	3012.238137
891.235855	3011.076151
891.544625	3017.506143
891.853353	3020.961854
892.162041	3034.275541
892.470687	3061.520457
892.779293	3094.824840
893.087858	3137.967035
893.396381	3212.026626
893.704864	3311.743169
894.013306	3467.522385
894.321707	3646.160713
894.630068	3793.438022
894.938387	3866.791852
895.246665	3878.028584
895.554903	3824.700738
895.863100	3737.299733
896.171256	3664.991943
896.479371	3594.546859
896.787446	3523.393493
897.095480	3452.653502
897.403473	3397.586458
897.711425	3343.323478
898.019336	3294.855304
898.327207	3243.871595
898.635038	3197.561035
898.942827	3151.381545
899.250576	3108.849330
899.558284	3068.691498
899.865952	3044.534289
900.173579	3015.620751
900.481165	2992.638131
900.788711	2979.558857
901.096216	2960.140333
901.403681	2947.156841
901.711105	2941.115018
902.018489	2933.815427
902.325832	2943.738939
902.633135	2952.931483
902.940397	2988.605208
903.247619	3073.510842
903.554800	3243.438055
903.861941	3507.075278
904.169041	3760.627673
904.476101	3925.259154
904.783121	3951.558854
905.090100	3885.625603
905.397039	3783.741363
905.703938	3679.681865
906.010796	3582.117894
906.317614	3499.173269
906.624391	3417.151176
906.931129	3347.000999
907.237826	3283.472379
907.544483	3219.069118
907.851099	3150.345588
908.157675	3079.953436
908.464211	3008.822755
908.770707	2953.828808
909.077163	2906.754513
909.383578	2871.602548
909.689954	2846.681604
909.996289	2825.614622
910.302584	2815.681028
910.608839	2808.469657
910.915054	2797.369037
911.221229	2793.217647
911.527363	2792.360650
911.833458	2794.929118
912.139513	2800.681075
912.445527	2799.400622
912.751502	2809.636685
913.057436	2825.410455
913.363331	2844.332426
913.669186	2870.869060
913.975000	2909.834658
914.280775	2964.531178
914.586510	3046.848179
914.892205	3156.117709
915.197859	3293.557207
915.503475	3470.872232
915.809050	3639.289620
916.114585	3767.854167
916.420081	3836.003005
916.725536	3865.140874
917.030952	3832.270030
917.336328	3790.337713
917.641665	3744.957246
917.946961	3686.873071
918.252218	3631.851397
918.557435	3561.812127
918.862612	3496.456088
919.167750	3441.053807
919.472848	3369.141747
919.777906	3303.001809
920.082925	3236.173753
920.387904	3166.028618
920.692843	3111.702623
920.997743	3059.801424
921.302603	3015.121677
921.607423	2979.153044
921.912204	2947.991152
922.216946	2922.258582
922.521647	2900.037176
922.826310	2878.690410
923.130932	2860.340610
923.435516	2842.588187
923.740059	2828.344407
924.044564	2813.536017
924.349028	2799.713173
924.653454	2787.329579
924.957840	2774.255346
925.262186	2766.000457
925.566493	2754.105854
925.870761	2740.552712
926.174989	2738.241343
926.479178	2728.821947
926.783328	2723.485886
927.087438	2715.886347
927.391509	2710.953577
927.695541	2701.128369
927.999533	2700.778008
928.303486	2695.951104
928.607400	2691.313242
928.911275	2689.485824
929.215110	2685.906605
929.518906	2684.560617
929.822663	2682.375276
930.126381	2682.765966
930.430060	2679.262364
930.733699	2677.762621
931.037299	2683.068435
931.340861	2680.396623
931.644383	2681.616583
931.947866	2681.997190
932.251309	2679.693382
932.554714	2681.598939
932.858080	2682.360153
933.161407	2679.164061
933.464694	2679.552230
933.767943	2679.189267
934.071153	2678.564164
934.374323	2675.547033
934.677455	2676.343536
934.980548	2672.860098
935.283602	2670.687361
935.586617	2670.818431
935.889593	2673.875891
936.192530	2672.227434
936.495428	2673.961591
936.798287	2676.913186
937.101108	2680.447035
937.403890	2687.182017
937.706632	2695.444468
938.009336	2706.666076
938.312002	2716.332489
938.614628	2731.138357
938.917216	2740.792167
939.219765	2744.270563
939.522275	2751.557551
939.824747	2753.054774
940.127179	2753.896647
940.429573	2754.415885
940.731929	2753.069897
941.034246	2754.040319
941.336524	2752.734661
941.638763	2754.115937
941.940964	2755.852614
942.243126	2746.234093
942.545250	2745.742580
942.847335	2739.103381
943.149381	2728.431258
943.451389	2726.989488
943.753359	2719.271481
944.055290	2716.100596
944.357182	2710.371324
944.659036	2709.317723
944.960851	2707.646581
945.262628	2704.334542
945.564367	2700.891434
945.866067	2702.290355
946.167729	2700.074767
946.469352	2699.681557
946.770937	2700.034438
947.072484	2694.350537
947.373992	2697.859180
947.675462	2694.025383
947.976893	2691.267872
948.278286	2691.948428
948.579641	2689.664785
948.880958	2688.419620
949.182236	2689.309383
949.483476	2687.456759
949.784678	2685.551203
950.085841	2686.743436
950.386967	2687.912984
950.688054	2690.095803
950.989103	2689.745443
951.290114	2695.154601
951.591087	2696.528316
951.892021	2702.711291
952.192917	2708.977445
952.493776	2712.148331
952.794596	2713.290152
953.095378	2715.644371
953.396122	2713.494319
953.696828	2714.820142
953.997496	2716.221583
954.298126	2711.485419
954.598718	2708.680017
954.899272	2705.040304
955.199788	2700.989737
955.500266	2697.481094
955.800706	2688.752336
956.101108	2681.288908
956.401472	2676.091478
956.701798	2672.144255
957.002087	2664.272493
957.302337	2663.057575
957.602550	2656.085659
957.902724	2649.759011
958.202861	2644.543937
958.502960	2640.289203
958.803022	2637.425828
959.103045	2633.269397
959.403031	2630.143881
959.702979	2628.566000
960.002889	2626.224384
960.302762	2625.621966
960.602596	2620.510236
960.902393	2617.530914
961.202153	2618.410596
961.501875	2613.964298
961.801559	2612.462034
962.101205	2611.582353
962.400814	2606.584049
962.700385	2610.455655
962.999918	2609.155037
963.299414	2606.712598
963.598873	2608.855089
963.898293	2605.134717
964.197677	2605.235540
964.497022	2604.678493
964.796331	2601.706732
965.095601	2601.066506
965.394835	2603.390478
965.694030	2600.189345
965.993189	2606.465582
966.292309	2602.271342
966.591393	2602.775457
966.890439	2602.062134
967.189447	2604.466764
967.488419	2602.301589
967.787353	2600.859819
968.086249	2599.413007
968.385108	2603.607247
968.683930	2602.614140
968.982714	2601.815117
969.281462	2605.883328
969.580172	2602.422576
969.878844	2604.827207
970.177480	2606.102619
970.476078	2608.744183
970.774639	2611.055552
971.073162	2613.119905
971.371649	2609.402054
971.670098	2610.753083
971.968510	2611.350460
972.266885	2611.489092
972.565223	2613.878598
972.863524	2616.131994
973.161788	2616.994032
973.460014	2616.406737
973.758204	2617.299021
974.056356	2618.062756
974.354471	2620.681636
974.652550	2617.672067
974.950591	2616.671398
975.248595	2618.884464
975.546563	2618.483692
975.844493	2618.145935
976.142386	2619.529732
976.440243	2618.937396
976.738062	2615.700976
977.035845	2615.224587
977.333590	2613.997066
977.631299	2612.814915
977.928971	2611.829369
978.226606	2611.620162
978.524204	2612.537652
978.821765	2612.840121
979.119290	2611.201746
979.416777	2607.015067
979.714228	2608.726539
980.011642	2609.137393
980.309020	2613.205604
980.606360	2612.598145
980.903664	2617.341871
981.200931	2621.067284
981.498162	2628.684467
981.795356	2640.947074
982.092513	2656.804023
982.389633	2672.383709
982.686717	2688.840556
982.983764	2701.866898
983.280775	2713.975749
983.577749	2722.354147
983.874686	2724.168962
984.171587	2719.024465
984.468451	2714.346274
984.765279	2707.505428
985.062070	2699.432020
985.358824	2695.215095
985.655543	2685.740247
985.952224	2679.653053
986.248869	2662.490445
986.545478	2650.222797
986.842050	2638.388688
987.138586	2627.620784
987.435086	2616.875564
987.731549	2610.362394
988.027975	2608.681169
988.324366	2605.235540
988.620719	2602.712443
988.917037	2598.808069
989.213318	2597.099118
989.509563	2595.291864
989.805772	2594.018973
990.101944	2595.785897
990.398080	2593.754312
990.694180	2592.567121
990.990244	2591.397573
991.286271	2593.293047
991.582262	2594.724734
991.878217	2590.956472
992.174136	2594.150043
992.470019	2594.911257
992.765865	2595.606936
993.061676	2594.623911
993.357450	2600.209510
993.653188	2601.043821
993.948890	2602.082298
994.244556	2604.141610
994.540186	2608.338370
994.835780	2612.951026
995.131337	2618.856738
995.426859	2626.917543
995.722345	2634.784263
996.017795	2643.202990
996.313208	2652.448467
996.608586	2659.059940
996.903928	2661.330980
997.199234	2661.033552
997.494504	2661.373829
997.789738	2664.252328
998.084936	2658.139929
998.380099	2652.269506
998.675225	2651.707417
998.970316	2645.451345
999.265371	2638.764254
999.560390	2632.833337
999.855373	2624.959055
1000.150320	2618.241717
1000.445232	2613.094699
1000.740108	2608.096395
1001.034948	2605.469954
1001.329752	2601.462237
1001.624521	2599.511310
1001.919254	2595.929570
1002.213951	2590.165011
1002.508613	2589.728951
1002.803239	2590.404466
1003.097829	2588.236769
1003.392384	2590.134764
1003.686903	2587.926738
1003.981386	2586.827767
1004.275834	2588.146029
1004.570246	2588.657706
1004.864623	2586.948755
1005.158964	2586.295925
1005.453270	2586.273240
1005.747540	2585.885071
1006.041775	2580.884247
1006.335974	2584.483630
1006.630138	2583.535893
1006.924266	2583.654361
1007.218359	2581.922724
1007.512416	2585.474217
1007.806438	2585.146542
1008.100425	2580.238979
1008.394376	2581.738722
1008.688292	2581.186716
1008.982172	2582.807447
1009.276017	2581.080852
1009.569827	2583.387179
1009.863602	2584.864237
1010.157341	2584.526480
1010.451045	2581.012796
1010.744714	2579.480285
1011.038347	2581.887436
1011.331945	2584.680235
1011.625508	2581.383321
1011.919036	2581.665625
1012.212528	2578.126735
1012.505986	2580.680080
1012.799408	2581.237127
1013.092795	2582.663774
1013.386147	2581.189236
1013.679464	2580.672518
1013.972745	2578.083886
1014.265992	2580.531366
1014.559204	2582.068918
1014.852380	2578.277970
1015.145521	2580.906932
1015.438628	2581.491706
1015.731699	2583.971953
1016.024736	2580.407857
1016.317737	2583.414906
1016.610703	2581.461459
1016.903635	2576.170768
1017.196531	2577.037846
1017.489393	2578.915676
1017.782219	2575.926272
1018.075011	2581.552199
1018.367768	2582.956161
1018.660490	2581.963053
1018.953177	2581.963053
1019.245829	2581.963053
