Dividing Wavelength (nm)	Counts (n)	Blue Motor Position (mm): 16.400000	Red Motor Position (mm): 0.000000	
326.493990	2059.490307
326.888308	2059.490307
327.282561	2059.490307
327.676750	2036.096833
328.070874	2038.274611
328.464933	2043.567823
328.858929	2050.688453
329.252859	2061.773950
329.646726	2077.499829
330.040528	2094.788466
330.434265	2108.843203
330.827938	2132.299692
331.221547	2154.924391
331.615091	2171.073727
332.008571	2192.430575
332.401986	2212.401106
332.795338	2231.885166
333.188625	2251.918711
333.581847	2270.891094
333.975006	2288.404062
334.368100	2309.314768
334.761129	2322.212560
335.154095	2338.193018
335.546996	2381.486447
335.939833	2466.724797
336.332606	2475.526652
336.725315	2493.359733
337.117960	2499.242760
337.510540	2507.936230
337.903056	2518.003414
338.295508	2527.750485
338.687896	2533.623429
339.080220	2536.224665
339.472480	2540.033256
339.864676	2544.366128
340.256807	2552.041285
340.648875	2551.469114
341.040879	2552.298384
341.432818	2553.324258
341.824694	2551.607746
342.216506	2553.871224
342.608253	2553.533466
342.999937	2552.061449
343.391557	2550.604556
343.783113	2550.634803
344.174605	2548.537683
344.566033	2545.543238
344.957397	2543.541899
345.348697	2541.558205
345.739934	2538.999820
346.131106	2540.207176
346.522215	2539.619882
346.913260	2535.297092
347.304241	2532.975641
347.695159	2532.894982
348.086012	2534.094777
348.476802	2529.479601
348.867528	2525.242511
349.258191	2520.292098
349.648789	2524.395597
350.039324	2518.784793
350.429796	2525.907943
350.820203	2524.141019
351.210548	2523.377284
351.600828	2520.813857
351.991045	2521.196985
352.381198	2519.286388
352.771288	2518.227745
353.161314	2516.831346
353.551276	2518.131963
353.941175	2515.916376
354.331010	2520.813857
354.720782	2520.150946
355.110490	2523.679753
355.500135	2519.611542
355.889717	2520.700431
356.279235	2520.617252
356.668689	2521.658251
357.058080	2520.171110
357.447408	2521.035668
357.836672	2520.980215
358.225873	2523.014321
358.615010	2523.712521
359.004084	2523.626821
359.393095	2524.844260
359.782043	2523.611698
360.170927	2525.454239
360.559748	2524.060360
360.948505	2525.338293
361.337199	2527.271575
361.725830	2528.148736
362.114398	2526.636390
362.502903	2527.581606
362.891344	2527.977337
363.279722	2527.233767
363.668037	2528.098325
364.056289	2527.606812
364.444478	2528.315094
364.832603	2530.636546
365.220665	2531.072605
365.608665	2529.978675
365.996601	2530.765095
366.384474	2529.829961
366.772284	2532.363141
367.160031	2533.174767
367.547715	2532.837009
367.935336	2530.205527
368.322893	2530.795342
368.710388	2528.897347
369.097820	2532.073274
369.485189	2530.056813
369.872495	2536.539737
370.259738	2533.991433
370.646918	2532.355579
371.034035	2534.296423
371.421090	2535.034952
371.808081	2535.516382
372.195010	2535.395395
372.581875	2535.531506
372.968678	2536.751465
373.355418	2536.191897
373.742096	2533.978831
374.128710	2535.337422
374.515262	2538.727598
374.901751	2538.919161
375.288177	2537.731970
375.674540	2537.409336
376.060841	2538.883873
376.447079	2535.639891
376.833254	2540.378575
377.219367	2537.255581
377.605417	2537.689120
377.991404	2539.443441
378.377329	2538.891435
378.763191	2539.151054
379.148991	2540.101312
379.534727	2541.825387
379.920402	2542.178267
380.306013	2538.886394
380.691563	2543.735984
381.077049	2540.320602
381.462474	2543.413350
381.847835	2542.037115
382.233134	2541.860675
382.618371	2541.888401
383.003545	2542.828576
383.388657	2543.211704
383.773706	2543.902342
384.158693	2542.211035
384.543618	2542.258926
384.928480	2542.561395
385.313280	2546.579195
385.698017	2542.304296
386.082692	2541.762372
386.467305	2543.224307
386.851856	2545.669266
387.236344	2543.287321
387.620770	2542.755479
388.005133	2542.732794
388.389435	2539.766075
388.773674	2541.134748
389.157851	2545.444935
389.541965	2544.913093
389.926018	2546.806047
390.310008	2547.390820
390.693936	2547.080789
391.077802	2544.766900
391.461606	2545.369318
391.845348	2547.622713
392.229027	2548.169679
392.612645	2546.601880
392.996200	2550.259237
393.379694	2548.182282
393.763125	2547.857127
394.146494	2545.651622
394.529801	2547.842004
394.913047	2550.135729
395.296230	2551.048178
395.679351	2548.114226
396.062410	2550.259237
396.445408	2550.473486
396.828343	2550.660009
397.211217	2547.549617
397.594028	2550.259237
397.976778	2549.387117
398.359466	2550.047508
398.742092	2548.283105
399.124656	2549.997097
399.507158	2552.545400
399.889598	2553.046995
400.271977	2551.214536
400.654294	2550.521377
401.036549	2551.874927
401.418742	2553.309135
401.800874	2548.996428
402.182944	2552.300904
402.564952	2552.099258
402.946898	2554.541697
403.328783	2554.075390
403.710606	2550.811243
404.092367	2556.152346
404.474067	2551.239741
404.855705	2553.152859
405.237282	2554.271995
405.618797	2553.311656
406.000250	2554.284598
406.381642	2553.346944
406.762972	2551.461552
407.144240	2551.595143
407.525447	2555.733930
407.906593	2550.997766
408.287677	2555.612942
408.668700	2556.195196
409.049661	2557.364743
409.430560	2556.477500
409.811399	2556.729558
410.192176	2555.373488
410.572891	2557.001780
410.953545	2556.122099
411.334138	2556.616132
411.714669	2555.638148
412.095139	2557.863818
412.475547	2556.527912
412.855894	2558.246945
413.236180	2554.012376
413.616405	2558.118396
413.996568	2558.370453
414.376670	2558.337686
414.756711	2555.504558
415.136691	2558.183931
415.516609	2558.070505
415.896466	2558.357851
416.276262	2559.681153
416.655997	2557.664692
417.035670	2557.102603
417.415283	2560.523026
417.794834	2554.970195
418.174324	2557.725186
418.553753	2558.551935
418.933121	2558.062943
419.312428	2560.838098
419.691674	2560.394477
420.070859	2559.224929
420.449983	2557.894064
420.829045	2558.004970
421.208047	2562.209292
421.586988	2558.264589
421.965867	2562.058057
422.344686	2558.685526
422.723444	2561.788356
423.102141	2560.379353
423.480777	2557.962120
423.859352	2560.734755
424.237866	2558.647717
424.616319	2560.855742
424.994712	2560.036555
425.373044	2561.364899
425.751314	2558.133519
426.129524	2555.791903
426.507673	2556.563200
426.885762	2552.482386
427.263789	2559.703839
427.641756	2559.910526
428.019662	2560.258366
428.397508	2559.446740
428.775292	2559.726524
429.153016	2559.252655
429.530679	2559.061092
429.908282	2560.606205
430.285824	2561.395146
430.663305	2560.134857
431.040726	2559.474466
431.418086	2560.492779
431.795385	2562.763819
432.172624	2557.674774
432.549802	2563.222564
432.926920	2561.722821
433.303977	2561.735424
433.680974	2560.759960
434.057910	2559.121585
434.434786	2560.568397
434.811601	2561.690053
435.188355	2559.232491
435.565050	2561.455640
435.941683	2559.933211
436.318257	2559.618139
436.694770	2562.957903
437.071222	2562.174004
437.447614	2562.688202
437.823946	2562.703325
438.200218	2560.253324
438.576429	2560.492779
438.952580	2562.731052
439.328670	2560.485218
439.704700	2559.640824
440.080670	2562.506720
440.456580	2559.519837
440.832429	2562.557132
441.208218	2562.834395
441.583947	2562.778943
441.959616	2560.908674
442.335224	2561.672409
442.710773	2563.051165
443.086261	2563.530074
443.461689	2560.018911
443.837057	2562.478994
444.212365	2560.288612
444.587612	2559.749209
444.962800	2560.422203
445.337927	2556.129661
445.712995	2556.157387
446.088002	2564.331618
446.462949	2562.050496
446.837837	2563.706515
447.212664	2563.172152
447.587431	2562.685681
447.962139	2564.692060
448.336786	2564.513099
448.711374	2562.305074
449.085901	2564.558470
449.460369	2562.801628
449.834776	2564.069478
450.209124	2564.349262
450.583412	2564.583676
450.957640	2563.588048
451.331808	2563.678788
451.705917	2559.862635
452.079965	2563.141906
452.453954	2562.957903
452.827883	2563.646021
453.201752	2565.296999
453.575562	2560.109652
453.949311	2563.464539
454.323001	2566.721125
454.696632	2565.531412
455.070202	2564.034190
455.443713	2564.802966
455.817164	2567.651218
456.190556	2566.731207
456.563888	2567.384037
456.937160	2562.436144
457.310373	2565.969993
457.683526	2567.986454
458.056619	2567.036197
458.429653	2565.294478
458.802628	2565.375137
459.175542	2564.775239
459.548398	2564.510579
459.921194	2566.554767
460.293930	2566.771536
460.666607	2565.070147
461.039224	2567.502504
461.411782	2567.220199
461.784280	2567.081567
462.156719	2567.071485
462.529099	2565.037379
462.901419	2565.975034
463.273680	2562.746175
463.645882	2561.236349
464.018024	2566.781619
464.390106	2561.501010
464.762130	2568.992165
465.134094	2571.389233
465.505999	2570.565005
465.877845	2569.599624
466.249631	2567.573080
466.621358	2571.739593
466.993026	2567.893193
467.364634	2572.100036
467.736184	2571.006106
468.107674	2570.716239
468.479105	2569.904613
468.850477	2571.285890
469.221790	2570.691033
469.593043	2567.338666
469.964238	2570.968297
470.335373	2568.641804
470.706449	2571.260684
471.077467	2571.006106
471.448425	2573.473750
471.819324	2573.478792
472.190164	2572.455437
472.560945	2570.953173
472.931667	2571.575756
473.302330	2570.514593
473.672934	2572.203380
474.043479	2574.146744
474.413965	2571.573235
474.784393	2572.253791
475.154761	2573.854358
475.525070	2571.910993
475.895321	2572.790674
476.265513	2573.503997
476.635645	2571.086764
477.005719	2573.839234
477.375734	2577.632702
477.745691	2575.661611
478.115588	2578.429205
478.485427	2576.299317
478.855207	2576.987435
479.224928	2582.131932
479.594591	2580.987590
479.964194	2578.988773
480.333739	2582.399113
480.703226	2582.144535
481.072653	2583.271233
481.442022	2581.045563
481.811333	2581.090934
482.180584	2578.726633
482.549777	2580.773341
482.918912	2579.245872
483.287988	2585.285174
483.657005	2585.053281
484.025964	2586.573189
484.394864	2585.721234
484.763706	2583.745101
485.132489	2584.912128
485.501213	2586.081676
485.869879	2587.531008
486.238487	2587.732654
486.607036	2588.498909
486.975527	2589.817171
487.343959	2591.276585
487.712333	2590.724579
488.080648	2592.040320
488.448905	2590.981678
488.817104	2590.384301
489.185244	2592.410845
489.553326	2596.736155
489.921350	2596.748758
490.289315	2601.580704
490.657222	2603.151023
491.025070	2604.466764
491.392861	2604.809563
491.760593	2606.110180
492.128267	2603.768564
492.495883	2603.657659
492.863440	2602.231013
493.230939	2602.674634
493.598380	2604.933071
493.965763	2606.311827
494.333088	2603.607248
494.700354	2602.614140
495.067563	2607.020109
495.434713	2606.049687
495.801805	2608.456837
496.168839	2607.713267
496.535815	2608.754266
496.902733	2610.221241
497.269593	2609.444904
497.636395	2610.054883
498.003139	2615.635441
498.369825	2612.522528
498.736453	2613.603856
499.103023	2614.312138
499.469535	2617.238527
499.835989	2617.548558
500.202385	2617.777931
500.568723	2614.481016
500.935003	2617.052005
501.301226	2615.390945
501.667390	2620.502675
502.033497	2627.320835
502.399546	2623.779425
502.765537	2625.579117
503.131470	2626.831843
503.497345	2629.549025
503.863163	2627.615743
504.228923	2631.686474
504.594625	2631.555404
504.960269	2631.179838
505.325856	2634.660755
505.691385	2635.086733
506.056856	2638.494553
506.422270	2637.468678
506.787625	2640.707619
507.152924	2641.299955
507.518164	2646.033598
507.883347	2643.820532
508.248472	2645.781541
508.613540	2648.218938
508.978550	2650.409320
509.343503	2651.009217
509.708398	2654.260761
510.073236	2659.778304
510.438016	2659.606905
510.802738	2658.684374
511.167403	2662.273675
511.532010	2664.040600
511.896561	2667.118224
512.261053	2672.517300
512.625488	2673.364214
512.989866	2678.188598
513.354186	2677.225738
513.718449	2680.288239
514.082655	2681.626665
514.446803	2686.693025
514.810894	2688.855680
515.174927	2693.274251
515.538904	2697.672658
515.902822	2700.478060
516.266684	2704.246322
516.630488	2707.490305
516.994235	2709.589945
517.357925	2715.810729
517.721558	2722.492779
518.085133	2728.779097
518.448651	2733.563152
518.812112	2729.983933
519.175516	2739.952815
519.538863	2742.440624
519.902152	2753.735330
520.265385	2762.416197
520.628560	2767.727052
520.991678	2772.528751
521.354739	2780.196346
521.717743	2789.540125
522.080690	2797.174952
522.443580	2810.690286
522.806413	2817.190854
523.169189	2826.637976
523.531908	2837.715912
523.894569	2845.325533
524.257174	2857.399097
524.619722	2867.557022
524.982213	2878.793754
525.344647	2891.994015
525.707025	2904.501118
526.069345	2920.403438
526.431608	2935.244594
526.793815	2950.315124
527.155964	2960.571351
527.518057	2976.534165
527.880093	2991.549242
528.242072	3011.902900
528.603995	3024.914118
528.965860	3044.569577
529.327669	3061.462484
529.689421	3080.190370
530.051117	3099.306426
530.412755	3118.185547
530.774337	3142.075575
531.135862	3160.150632
531.497331	3186.306659
531.858743	3208.391954
532.220098	3246.039291
532.581396	3263.993360
532.942638	3282.038170
533.303824	3312.358190
533.664953	3341.279290
534.026025	3363.301570
534.387040	3404.449989
534.747999	3436.025256
535.108902	3471.620843
535.469748	3492.937362
535.830537	3530.937580
536.191270	3572.113724
536.551947	3599.328393
536.912567	3640.290289
537.273131	3686.187474
537.633638	3714.034808
537.994089	3760.423506
538.354483	3796.886172
538.714821	3857.979915
539.075103	3911.907658
539.435328	3949.129018
539.795497	3993.995287
540.155609	4045.437741
540.515665	4113.377372
540.875665	4141.000374
541.235609	4198.557748
541.595496	4257.153600
541.955328	4336.466073
542.315102	4369.646948
542.674821	4419.864402
543.034483	4468.700580
543.394090	4528.070249
543.753640	4593.002831
544.113134	4703.308318
544.472571	4722.681472
544.831953	4843.328887
545.191278	4871.818968
545.550548	4922.202780
545.909761	5026.869737
546.268918	5109.547180
546.628019	5203.766346
546.987064	5245.025669
547.346053	5278.062871
547.704986	5409.268982
548.063863	5463.073217
548.422684	5557.229368
548.781449	5611.378922
549.140158	5728.283280
549.498811	5800.374301
549.857408	5837.404096
550.215949	5985.888762
550.574434	6067.933541
550.932864	6150.001005
551.291237	6307.814326
551.649555	6379.459205
552.007817	6493.981617
552.366022	6563.443676
552.724173	6666.610889
553.082267	6803.556354
553.440305	6944.287726
553.798288	6970.708413
554.156215	7120.828933
554.514086	7249.834581
554.871902	7321.958369
555.229661	7450.739685
555.587365	7532.103908
555.945014	7663.241964
556.302606	7789.517826
556.660143	7923.660410
557.017625	8061.838437
557.375050	8156.395359
557.732421	8331.671237
558.089735	8459.633366
558.446994	8571.826765
558.804197	8768.341025
559.161345	8879.737922
559.518437	8918.358201
559.875474	9088.698790
560.232455	9262.714379
560.589381	9401.366275
560.946251	9510.930713
561.303065	9759.557900
561.659825	9854.482827
562.016528	9974.474891
562.373177	10031.409683
562.729770	10291.805443
563.086307	10360.803716
563.442789	10600.714748
563.799216	10732.119985
564.155587	10868.281550
564.511904	11022.860971
564.868164	11184.165291
565.224370	11406.333982
565.580520	11512.966989
565.936615	11722.822662
566.292654	11806.452884
566.648638	12052.516644
567.004567	12208.137063
567.360441	12400.676373
567.716260	12510.790296
568.072023	12787.274900
568.427732	12950.547790
568.783385	13012.427954
569.138982	13290.535809
569.494525	13507.880116
569.850013	13585.052619
570.205445	13790.371254
570.560823	13920.488476
570.916145	14075.950098
571.271412	14314.520184
571.626625	14402.284152
571.981782	14605.488022
572.336884	14685.062635
572.691931	14962.709225
573.046923	15049.956474
573.401860	15191.209605
573.756743	15389.952054
574.111570	15621.751870
574.466342	15784.986952
574.821059	16027.211874
575.175722	16055.039043
575.530330	16287.169054
575.884882	16364.598657
576.239380	16521.416350
576.593823	16749.352121
576.948211	16922.793019
577.302544	16965.446222
577.656823	17151.457237
578.011047	17448.396322
578.365216	17583.872290
578.719330	17680.778391
579.073389	17876.249131
579.427394	18094.528572
579.781344	18270.069111
580.135239	18381.728148
580.489080	18605.401623
580.842866	18608.093600
581.196597	19005.724692
581.550273	19202.707778
581.903895	19374.754797
582.257463	19761.917933
582.610975	19726.077850
582.964434	20061.962369
583.317837	20052.805113
583.671186	20228.539736
584.024481	20550.223325
584.377721	20548.998324
584.730906	20850.068635
585.084037	21104.094898
585.437113	21167.031183
585.790135	21427.452149
586.143103	21421.352353
586.496016	21695.956606
586.848874	21942.620264
587.201679	22157.794354
587.554428	22102.293771
587.907124	22446.465947
588.259765	22521.977390
588.612352	22801.849649
588.964884	22723.784861
589.317362	23067.372263
589.669786	23261.716306
590.022155	23379.913719
590.374470	23823.401667
590.726731	23791.113077
591.078937	23636.984839
591.431090	24000.943544
591.783188	23940.908443
592.135232	24013.548949
592.487222	24357.065775
592.839157	24623.021928
593.191038	24614.393994
593.542866	24686.863101
593.894639	24535.212590
594.246358	24868.231213
594.598022	25074.595887
594.949633	24997.478836
595.301190	25171.912842
595.652692	25321.067981
596.004141	25777.557065
596.355535	25299.842203
596.706876	25492.076522
597.058162	25480.691076
597.409395	25964.561187
597.760573	26262.085046
598.111698	26184.032861
598.462768	26301.801777
598.813785	26494.290674
599.164748	26400.857929
599.515657	26746.050939
599.866511	26585.235610
600.217312	27194.534670
600.568060	26668.737283
600.918753	27368.953552
601.269392	27479.440521
601.619978	27449.412888
601.970510	27756.225073
602.320988	27987.304003
602.671412	28318.911103
603.021783	28387.717812
603.372100	28241.103414
603.722363	28487.998965
604.072572	28648.857143
604.422728	28806.118458
604.772830	28789.301169
605.122878	29059.733867
605.472872	29097.456821
605.822813	29443.751323
606.172701	29396.573684
606.522534	29782.416038
606.872314	30056.861495
607.222041	30096.618554
607.571714	30448.304570
607.921333	30225.067154
608.270899	30519.233605
608.620411	30927.226788
608.969870	30870.186133
609.319276	31015.051250
609.668627	31174.581084
610.017926	31613.995780
610.367171	31822.843222
610.716362	31986.164004
611.065500	32036.953629
611.414585	32327.661847
611.763616	32596.804010
612.112594	32640.868736
612.461518	32851.967053
612.810389	33275.625622
613.159207	33229.909919
613.507971	33311.942095
613.856682	33840.343238
614.205340	33818.512521
614.553945	34475.221112
614.902496	34048.084147
615.250994	34502.894526
615.599439	34660.687683
615.947830	34874.626690
616.296169	34975.578317
616.644454	35110.650993
616.992686	35336.230025
617.340864	35814.454043
617.688990	35510.424575
618.037063	36169.565523
618.385082	36122.067771
618.733048	36496.970821
619.080961	36497.245564
619.428821	36605.748839
619.776628	36716.659265
620.124382	36651.799779
620.472083	36846.973092
620.819731	37035.499642
621.167326	36785.460932
621.514868	36875.281691
621.862357	36542.676442
622.209793	36709.710034
622.557176	36449.568852
622.904506	36340.180854
623.251783	36133.148228
623.599007	35959.795550
623.946179	35980.428992
624.293297	35870.476386
624.640363	35486.254763
624.987376	35424.850989
625.334336	35329.520249
625.681243	35056.261984
626.028097	35062.109722
626.374899	34988.947457
626.721647	35044.115324
627.068343	34930.374290
627.414987	34738.112244
627.761577	34602.124599
628.108115	34959.675997
628.454600	34362.352198
628.801032	34634.158611
629.147412	34598.157211
629.493739	34603.946976
629.840014	34255.051239
630.186236	34696.938620
630.532405	34267.936428
630.878521	34517.208883
631.224585	34379.655959
631.570597	34136.405162
631.916556	34334.605687
632.262462	34283.168274
632.608316	34277.257521
632.954117	34199.258268
633.299866	34243.491873
633.645562	34218.505394
633.991206	33790.549241
634.336797	33477.901921
634.682336	33453.207828
635.027823	33289.544248
635.373257	33220.268712
635.718639	32974.149499
636.063968	32936.804631
636.409245	32394.739441
636.754470	32407.140679
637.099642	32264.692795
637.444762	31794.131330
637.789829	31958.036886
638.134845	31666.171722
638.479808	31629.058747
638.824719	31626.780146
639.169577	31198.377851
639.514383	31330.904744
639.859137	31017.660047
640.203839	31214.181868
640.548489	30976.829222
640.893086	31014.133760
641.237632	30803.680711
641.582125	30925.066654
641.926566	30768.127973
642.270955	30827.704329
642.615292	30817.032207
642.959576	30736.383827
643.303809	30779.866300
643.647990	30890.466695
643.992118	30884.185417
644.336195	30761.710584
644.680219	30895.825441
645.024192	31108.778903
645.368112	31631.826341
645.711981	31667.197597
646.055797	32366.939998
646.399562	32205.580225
646.743274	33067.302460
647.086935	33469.087463
647.430544	33449.560554
647.774101	33515.939947
648.117606	33825.244982
648.461059	33988.394365
648.804460	33619.626399
649.147810	33179.266487
649.491108	32879.890004
649.834354	32764.482869
650.177548	32009.686027
650.520690	31580.373804
650.863781	31594.844436
651.206820	31443.340119
651.549807	31094.744331
651.892742	30556.891024
652.235626	30496.283752
652.578458	30389.179397
652.921238	29752.196841
653.263967	30079.899568
653.606644	29820.648149
653.949269	29753.036193
654.291843	29398.759025
654.634365	29758.823438
654.976836	29349.164153
655.319255	29440.283009
655.661622	29336.576392
656.003938	29237.658871
656.346203	29067.983715
656.688416	29328.132459
657.030577	29130.509146
657.372687	28984.217382
657.714746	29152.218875
658.056753	29366.175527
658.398708	28775.410269
658.740612	28846.523306
659.082465	29074.481762
659.424266	28983.564553
659.766016	29008.684622
660.107715	28883.275838
660.449362	29003.482152
660.790958	28997.316820
661.132503	28940.316494
661.473996	29034.291163
661.815438	29116.283010
662.156829	29260.833055
662.498168	29077.279603
662.839456	29079.860673
663.180693	29218.855367
663.521879	29330.123715
663.863013	29292.854465
664.204097	29289.290369
664.545129	29707.252434
664.886110	29661.551854
665.227040	29775.628124
665.567918	29776.233063
665.908746	29861.569715
666.249522	29955.534302
666.590248	29998.321096
666.930922	30092.300806
667.271545	30105.223804
667.612118	30172.233342
667.952639	29995.223307
668.293109	30049.163653
668.633528	29914.025442
668.973896	29900.200077
669.314213	29882.523271
669.654480	29707.817043
669.994695	29717.337262
670.334859	29635.375663
670.674973	29477.280037
671.015035	29681.361068
671.355047	29642.261879
671.695008	29573.440047
672.034918	29492.882408
672.374777	29611.473032
672.714585	29481.194493
673.054342	29612.224164
673.394049	29471.618821
673.733705	29704.779748
674.073310	29418.338866
674.412864	29483.936881
674.752368	29194.070534
675.091820	29425.686348
675.431223	29030.149855
675.770574	28843.493572
676.109875	28703.210864
676.449125	28490.693462
676.788324	28407.400997
677.127473	27938.326673
677.466571	27843.563063
677.805619	27578.912568
678.144616	27525.914918
678.483562	27478.122259
678.822458	27177.006578
679.161303	27119.038350
679.500098	27045.906331
679.838842	26978.427966
680.177535	27065.095483
680.516179	27302.685064
680.854771	27454.267519
681.193314	28221.397544
681.531805	29251.953063
681.870247	30010.621511
682.208638	30711.551103
682.546978	30982.213174
682.885268	31120.744082
683.223508	30686.123523
683.561697	30404.441491
683.899836	30262.447310
684.237925	29853.100577
684.575963	29712.893485
684.913951	29358.155051
685.251889	29522.554640
685.589776	29558.508149
685.927614	29566.027030
686.265401	29747.803476
686.603137	29882.815658
686.940824	30373.922345
687.278460	30706.492306
687.616046	30862.016943
687.953582	31525.326925
688.291068	31444.187033
688.628504	31782.229166
688.965889	31774.977466
689.303224	31505.487464
689.640510	31228.934805
689.977745	30590.054255
690.314930	29848.122437
690.652065	29426.364383
690.989150	28755.265818
691.326185	27919.084589
691.663170	27303.920147
692.000105	26569.802118
692.336990	25963.066485
692.673825	25541.144593
693.010610	25060.120214
693.347345	24564.075717
693.684030	23941.105048
694.020665	23748.729576
694.357251	23083.362803
694.693786	23075.117996
695.030272	22857.093133
695.366707	22363.985108
695.703093	22087.097212
696.039429	22157.943068
696.375716	21919.695617
696.711952	21917.560688
697.048139	21789.210391
697.384276	21624.881378
697.720363	21745.753124
698.056400	21642.858133
698.392388	21472.018470
698.728326	21479.444090
699.064214	21328.771563
699.400053	21326.876089
699.735842	20937.872932
700.071581	20739.190977
700.407270	20491.864407
700.742910	20325.347534
701.078501	20074.224976
701.414042	19869.939778
701.749533	19559.071985
702.084974	19257.149719
702.420366	19492.793414
702.755709	19079.229756
703.091002	18774.774310
703.426246	18853.489407
703.761440	18786.784859
704.096584	18547.965237
704.431679	18478.906471
704.766725	18429.835879
705.101721	18359.736114
705.436668	18480.076018
705.771565	18207.543680
706.106413	18520.039765
706.441212	18598.669163
706.775961	18713.546976
707.110661	18785.562380
707.445311	19153.881683
707.779913	19035.044042
708.114465	19341.389920
708.448967	19653.752416
708.783421	20282.343971
709.117825	20644.623972
709.452180	20881.139787
709.786485	21334.014363
710.120742	22096.688008
710.454949	22220.859189
710.789107	22718.907545
711.123216	23436.402369
711.457275	23648.443382
711.791286	24182.606564
712.125247	24334.804040
712.459159	24077.218722
712.793023	24813.688449
713.126837	23794.586432
713.460602	24048.471542
713.794318	23714.686664
714.127985	23447.074491
714.461602	22532.964585
714.795171	22534.048433
715.128691	21554.821943
715.462162	21030.761233
715.795584	20603.538568
716.128957	20328.036989
716.462281	19955.992274
716.795556	19669.556433
717.128782	19192.595223
717.461960	18594.800077
717.795088	18555.058141
718.128167	18213.227581
718.461198	17762.538344
718.794180	17640.111403
719.127113	17297.076007
719.459997	17112.224457
719.792833	16737.996922
720.125619	16774.620905
720.458357	16445.420956
720.791046	16306.269986
721.123686	16155.063097
721.456278	15928.206133
721.788821	15923.810247
722.121315	15658.786707
722.453761	15769.107317
722.786158	15648.139790
723.118506	15732.256483
723.450805	15621.482168
723.783056	15796.712676
724.115259	15691.642427
724.447412	15683.107753
724.779518	15906.861887
725.111574	15959.925073
725.443582	16211.587034
725.775542	16180.599062
726.107453	16699.308587
726.439315	16623.973584
726.771129	17041.423972
727.102895	17471.358778
727.434612	17733.029950
727.766281	17899.962719
728.097901	18230.765755
728.429473	18308.704514
728.760996	18318.194486
729.092471	18447.590823
729.423897	18333.864913
729.755276	18209.660964
730.086606	18331.606476
730.417887	18914.545342
730.749120	19463.960535
731.080305	19683.623773
731.411442	20085.562531
731.742530	20205.279852
732.073570	20380.407016
732.404562	20688.388749
732.735506	20532.997702
733.066401	20317.248920
733.397249	19817.670574
733.728048	19195.009936
734.058798	18320.266400
734.389501	17560.282211
734.720156	17044.617543
735.050762	16469.026158
735.381320	16088.834938
735.711831	15816.968032
736.042293	15440.164467
736.372707	15481.343132
736.703073	15275.109528
737.033391	15466.050792
737.363661	15473.052955
737.693883	15593.554176
738.024056	15800.196113
738.354182	16015.045049
738.684260	16379.160029
739.014290	16663.259296
739.344272	16892.432670
739.674207	17231.324237
740.004093	17402.408396
740.333931	17457.982076
740.663722	17535.008386
740.993464	17578.080005
741.323159	17415.991785
741.652806	17130.722971
741.982405	16957.229141
742.311956	16596.186744
742.641460	16488.545506
742.970915	16160.308418
743.300323	15808.758513
743.629683	15590.894967
743.958996	15279.162616
744.288260	14968.340193
744.617477	14652.590043
744.946647	14620.072080
745.275768	14301.468636
745.604842	14097.846350
745.933869	13926.356379
746.262847	13901.765630
746.591778	13815.922342
746.920662	13696.358776
747.249498	13704.275908
747.578286	13871.241444
747.907027	14042.008010
748.235720	14320.791379
748.564365	14378.744484
748.892963	14302.444100
749.221514	14403.219286
749.550017	14260.559673
749.878473	14244.601900
750.206881	14009.885777
750.535242	13927.951904
750.863555	13861.244836
751.191821	13750.208381
751.520039	13783.671560
751.848210	13706.509139
752.176334	13751.269544
752.504411	13678.573585
752.832440	13489.673988
753.160421	13605.824694
753.488356	13500.053724
753.816243	13414.981732
754.144082	13245.067122
754.471875	13191.295654
754.799620	13156.844409
755.127318	13138.136687
755.454969	13117.467956
755.782572	13092.481477
756.110129	13105.573353
756.437638	13012.266637
756.765100	13016.929704
757.092515	13044.479610
757.419882	13088.824120
757.747203	13100.091099
758.074477	13183.512113
758.401703	13166.024350
758.728882	13365.764948
759.056014	13410.757246
759.383099	13581.123040
759.710138	13706.499057
760.037129	13823.171521
760.364073	13883.108320
760.690970	13910.759049
761.017820	13937.436835
761.344623	14164.626515
761.671379	14548.333940
761.998088	15261.337096
762.324751	17056.670942
762.651366	20505.195738
762.977935	24987.409131
763.304456	27963.998749
763.630931	28991.799278
763.957359	27779.429504
764.283740	25494.329918
764.610074	23223.590059
764.936362	20579.323385
765.262602	18681.162604
765.588796	16754.552071
765.914943	15457.170800
766.241044	14358.269837
766.567097	13559.241912
766.893104	12835.692662
767.219064	12370.933565
767.544978	11895.363714
767.870845	11500.311172
768.196665	11281.933429
768.522438	11054.726105
768.848165	10847.247336
769.173846	10641.474998
769.499479	10510.704946
769.825066	10337.679943
770.150607	10109.739131
770.476101	10032.561586
770.801548	9908.884438
771.126949	9746.246733
771.452303	9635.371595
771.777611	9429.967261
772.102872	9414.569057
772.428087	9282.752966
772.753256	9119.545610
773.078378	9031.305253
773.403453	8846.995627
773.728482	8733.914985
774.053465	8663.018718
774.378401	8551.972181
774.703291	8429.691433
775.028135	8312.020820
775.352932	8278.708875
775.677683	8172.476640
776.002388	8067.139210
776.327046	8076.634223
776.651658	7978.276270
776.976224	7873.624437
777.300743	7877.065025
777.625216	7785.915922
777.949643	7745.329592
778.274024	7756.052127
778.598359	7675.028181
778.922647	7686.486724
779.246889	7639.848489
779.571086	7648.579768
779.895236	7652.393401
780.219339	7666.138107
780.543397	7663.360431
780.867409	7744.858244
781.191374	7756.163032
781.515294	7728.804690
781.839167	7817.120664
782.162995	7791.478835
782.486776	7730.143116
782.810511	7681.528749
783.134201	7598.937005
783.457844	7596.736542
783.781441	7539.277470
784.104993	7471.247099
784.428498	7446.595857
784.751958	7436.100174
785.075372	7407.000114
785.398739	7350.536670
785.722061	7400.809577
786.045337	7397.230358
786.368568	7559.825213
786.691752	7583.596774
787.014891	7928.676358
787.337983	8294.522975
787.661030	8889.076659
787.984031	9519.735088
788.306987	9928.920504
788.629897	10127.194126
788.952760	10073.140354
789.275579	9851.868988
789.598351	9451.636661
789.921078	9095.365716
790.243759	8679.273918
790.566395	8388.830360
790.888984	8138.342987
791.211529	7929.177952
791.534027	7701.925258
791.856480	7502.345977
792.178888	7429.655059
792.501249	7325.265366
792.823566	7169.662591
793.145836	7173.037643
793.468062	7147.796586
793.790241	7099.179698
794.112375	7166.537075
794.434464	7324.993143
794.756507	7363.091664
795.078505	7530.934360
795.400457	7841.832400
795.722364	8191.118827
796.044226	8479.712282
796.366042	8757.005990
796.687812	8706.065131
797.009538	8783.567830
797.331218	8676.060183
797.652852	8592.651772
797.974442	8435.161085
798.295986	8348.022220
798.617484	8155.203126
798.938938	8008.356835
799.260346	7903.263901
799.581709	7707.994807
799.903026	7624.843495
800.224299	7520.552104
800.545526	7342.390165
800.866708	7248.153356
801.187845	7183.177924
801.508936	7076.328148
801.829983	7039.192488
802.150984	6884.237501
802.471940	6838.345357
802.792851	6824.449416
803.113717	6790.411546
803.434538	6757.477688
803.755314	6699.806888
804.076045	6702.798812
804.396731	6650.396018
804.717372	6675.795872
805.037967	6682.031779
805.358518	6721.451082
805.679024	6807.914432
805.999485	6819.188972
806.319901	6856.269179
806.640272	6877.603343
806.960598	6960.429500
807.280879	6966.080634
807.601115	7041.130812
807.921306	6988.299519
808.241453	6995.462999
808.561554	7025.341918
808.881611	6993.456620
809.201623	6997.610530
809.521590	6942.475431
809.841513	6918.963489
810.161390	6957.558563
810.481223	6827.963101
810.801011	6812.312838
811.120755	6789.715866
811.440453	6710.126129
811.760107	6677.376273
812.079716	6650.227139
812.399281	6582.219453
812.718801	6570.453400
813.038276	6529.310023
813.357707	6463.890970
813.677093	6510.897209
813.996434	6410.661426
814.315731	6455.580628
814.634983	6449.019566
814.954191	6462.267718
815.273354	6569.120015
815.592473	6627.035311
815.911547	6757.913747
816.230577	6847.182500
816.549562	6995.604151
816.868502	7089.651917
817.187399	7190.172525
817.506250	7346.067687
817.825058	7377.285032
818.143821	7650.538256
818.462539	7916.290243
818.781213	8290.182541
819.099843	8847.164506
819.418429	9860.716213
819.736970	10837.870790
820.055466	12017.278979
820.373919	13571.423860
820.692327	15949.802436
821.010691	20136.692433
821.329011	29192.301089
821.647286	42150.143429
821.965517	55511.477203
822.283704	60826.761433
822.601847	62790.305980
822.919945	60106.420878
823.237999	55950.508771
823.556010	49824.874183
823.873976	43105.374028
824.191897	36567.829280
824.509775	31727.683881
824.827609	27212.682824
825.145398	24611.081956
825.463144	23250.076281
825.780845	23578.358740
826.098502	25376.732402
826.416116	29181.376909
826.733685	32830.670699
827.051210	33992.092051
827.368692	32170.289627
827.686129	28198.989615
828.003522	24059.864550
828.320872	20342.230358
828.638177	17473.725599
828.955439	15311.047914
829.272656	13486.961848
829.589830	12002.967143
829.906960	10732.850952
830.224046	9787.954719
830.541088	9034.098053
830.858086	8576.043691
831.175041	8195.043365
831.491952	8084.742919
831.808819	8134.799056
832.125642	8536.107670
832.442421	9442.867574
832.759157	11252.167936
833.075849	14194.397049
833.392497	17419.601251
833.709101	19607.542679
834.025662	19433.590104
834.342179	17716.149647
834.658653	15508.091495
834.975083	13578.352926
835.291469	11955.988630
835.607811	10624.214087
835.924110	9713.461589
836.240366	8847.477058
836.556578	8036.680558
836.872746	7384.975312
837.188871	6885.671709
837.504952	6467.051773
837.820990	6157.300596
838.136984	5928.086892
838.452935	5839.733109
838.768842	5872.709817
839.084706	6299.687986
839.400526	7522.014039
839.716303	9105.579093
840.032037	10204.951404
840.347727	10118.548547
840.663373	9143.685175
840.978977	8094.190041
841.294537	7280.295753
841.610054	6679.201171
841.925527	6249.495738
842.240957	5878.708790
842.556344	5542.625146
842.871687	5261.643833
843.186987	4980.871728
843.502244	4750.415380
843.817458	4588.848920
844.132629	4450.804484
844.447756	4357.694372
844.762840	4278.288637
845.077881	4203.346844
845.392879	4139.853512
845.707833	4092.396089
846.022745	4046.713153
846.337613	4019.874050
846.652438	3973.888645
846.967221	3957.096561
847.281960	3923.063732
847.596656	3906.818613
847.911309	3891.085172
848.225919	3864.883775
848.540485	3848.789892
848.855009	3839.529292
849.169490	3813.915189
849.483928	3799.283240
849.798323	3791.071201
850.112675	3774.768109
850.426984	3779.335394
850.741251	3765.880555
851.055474	3755.694903
851.369654	3764.486676
851.683792	3763.488527
851.997887	3764.640431
852.311938	3768.265021
852.625947	3772.088736
852.939914	3761.058691
853.253837	3766.835853
853.567718	3770.127727
853.881555	3759.127929
854.195350	3774.705095
854.509103	3772.408849
854.822812	3769.278293
855.136479	3757.106427
855.450103	3769.658900
855.763685	3752.584512
856.077224	3756.599791
856.390720	3772.514713
856.704173	3799.343734
857.017584	3809.975527
857.330953	3822.782579
857.644278	3843.037935
857.957561	3846.292000
858.270802	3841.346628
858.584000	3848.505066
858.897155	3841.820496
859.210268	3827.548990
859.523339	3801.060247
859.836367	3805.327584
860.149352	3793.889206
860.462295	3787.151703
860.775195	3777.608799
861.088054	3774.604272
861.400869	3774.359776
861.713642	3773.442286
862.026373	3782.055097
862.339062	3788.807722
862.651708	3807.762461
862.964312	3842.183459
863.276873	3856.248279
863.589392	3911.398502
863.901869	3960.496820
864.214303	4003.954086
864.526696	4037.548336
864.839045	4084.892332
865.151353	4109.319243
865.463619	4117.344760
865.775842	4125.735760
866.088023	4143.677227
866.400162	4134.504848
866.712258	4139.619098
867.024313	4141.428872
867.336325	4141.635560
867.648296	4146.674193
867.960224	4146.462464
868.272110	4157.653826
868.583954	4159.302283
868.895755	4175.638142
869.207515	4173.041948
869.519233	4214.132393
869.830909	4227.655288
870.142542	4250.237137
870.454134	4267.220784
870.765684	4295.478972
871.077191	4333.632945
871.388657	4354.422663
871.700081	4397.494282
872.011463	4438.166311
872.322803	4471.165704
872.634101	4502.078060
872.945357	4543.876787
873.256571	4600.274695
873.567744	4627.481803
873.878874	4647.596007
874.189963	4685.593704
874.501010	4694.430846
874.812015	4692.353891
875.122979	4733.010797
875.433900	4732.161362
875.744780	4747.534361
876.055618	4771.797434
876.366415	4775.255666
876.677169	4793.802071
876.987882	4842.582796
877.298554	4894.199170
877.609183	4972.523578
877.919771	5082.234209
878.230317	5231.512857
878.540822	5447.846412
878.851285	5772.025372
879.161707	6235.609880
879.472087	7005.333578
879.782425	8247.607476
880.092722	10436.196692
880.402977	13737.431577
880.713191	17469.112944
881.023363	21154.337557
881.333494	23316.286796
881.643583	24537.738208
881.953631	24539.590832
882.263637	23727.897008
882.573602	22248.507397
882.883526	20696.971313
883.193408	19031.411891
883.503248	17340.863469
883.813048	15793.554393
884.122806	14370.668555
884.432522	12902.372004
884.742197	11641.299643
885.051831	10546.567715
885.361424	9555.398731
885.670975	8738.850275
885.980485	8048.272692
886.289954	7467.388096
886.599382	7002.518094
886.908768	6621.434589
887.218113	6257.745586
887.527417	5969.008458
887.836680	5701.648344
888.145901	5482.398481
888.455082	5322.510725
888.764221	5169.282333
889.073319	5036.384915
889.382376	4962.494202
889.691392	4907.195265
890.000366	4878.717787
890.309300	4861.522411
890.618193	4864.836970
890.927044	4850.331050
891.235855	4873.442219
891.544625	4904.571344
891.853353	4964.016631
892.162041	5088.601186
892.470687	5272.850318
892.779293	5521.419532
893.087858	5900.655453
893.396381	6475.687270
893.704864	7279.658047
894.013306	8443.965460
894.321707	9608.724056
894.630068	10422.855279
894.938387	10630.263471
895.246665	10387.090813
895.554903	9786.054204
895.863100	9092.590561
896.171256	8526.600054
896.479371	8025.695884
896.787446	7526.049482
897.095480	7093.218534
897.403473	6774.093331
897.711425	6450.378157
898.019336	6187.232447
898.327207	5909.285909
898.635038	5683.575807
898.942827	5433.141366
899.250576	5243.790587
899.558284	5051.440321
899.865952	4924.632616
900.173579	4782.222541
900.481165	4673.507537
900.788711	4578.489349
901.096216	4508.510572
901.403681	4443.744348
901.711105	4414.634205
902.018489	4404.251949
902.325832	4477.086539
902.633135	4602.119758
902.940397	4946.841419
903.247619	5743.071505
903.554800	7188.219078
903.861941	9103.834854
904.169041	10612.233785
904.476101	11231.932745
904.783121	10868.979750
905.090100	10134.294591
905.397039	9302.332808
905.703938	8552.559475
906.010796	7856.867642
906.317614	7309.022768
906.624391	6771.461848
906.931129	6345.199523
907.237826	5937.070228
907.544483	5567.508281
907.851099	5195.329975
908.157675	4838.990974
908.464211	4517.980379
908.770707	4285.547899
909.077163	4084.186570
909.383578	3938.915640
909.689954	3823.609328
909.996289	3757.988628
910.302584	3688.851724
910.608839	3655.630520
910.915054	3629.154380
911.221229	3612.851289
911.527363	3627.952065
911.833458	3635.274341
912.139513	3663.424144
912.445527	3696.239535
912.751502	3775.940177
913.057436	3879.649315
913.363331	4015.972197
913.669186	4220.355698
913.975000	4480.393536
914.280775	4901.614708
914.586510	5481.586855
914.892205	6279.175531
915.197859	7320.088101
915.503475	8531.245477
915.809050	9578.804808
916.114585	10228.130629
916.420081	10490.179888
916.725536	10453.714702
917.030952	10009.793215
917.336328	9595.879196
917.641665	9190.262916
917.946961	8710.624854
918.252218	8292.488869
918.557435	7782.377032
918.862612	7355.749223
919.167750	6979.275854
919.472848	6557.474950
919.777906	6176.719120
920.082925	5823.719884
920.387904	5457.696827
920.692843	5195.040108
920.997743	4945.732366
921.302603	4713.619998
921.607423	4551.967839
921.912204	4389.821646
922.216946	4272.602216
922.521647	4148.458761
922.826310	4047.252557
923.130932	3952.433494
923.435516	3850.012371
923.740059	3783.844707
924.044564	3704.139023
924.349028	3647.121052
924.653454	3583.093357
924.957840	3510.795650
925.262186	3466.133547
925.566493	3407.845206
925.870761	3350.423943
926.174989	3312.958088
926.479178	3275.479629
926.783328	3230.232753
927.087438	3203.804504
927.391509	3171.294103
927.695541	3143.245123
927.999533	3115.405351
928.303486	3093.320056
928.607400	3078.983014
928.911275	3067.731159
929.215110	3049.877912
929.518906	3041.572611
929.822663	3037.920295
930.126381	3038.368958
930.430060	3041.436500
930.733699	3044.809032
931.037299	3054.808161
931.340861	3051.846483
931.644383	3060.660940
931.947866	3055.992832
932.251309	3054.346895
932.554714	3054.241031
932.858080	3046.046635
933.161407	3037.723690
933.464694	3032.092722
933.767943	3025.773635
934.071153	3022.408665
934.374323	3008.074144
934.677455	3005.719925
934.980548	2996.403873
935.283602	2993.308604
935.586617	2989.273161
935.889593	2999.836899
936.192530	3003.000223
936.495428	3019.673839
936.798287	3040.516490
937.101108	3070.264338
937.403890	3124.590333
937.706632	3186.669622
938.009336	3264.242897
938.312002	3336.389371
938.614628	3400.782549
938.917216	3453.956640
939.219765	3489.398472
939.522275	3520.489788
939.824747	3519.978111
940.127179	3519.922659
940.429573	3513.540558
940.731929	3513.119622
941.034246	3498.749812
941.336524	3485.801609
941.638763	3470.161429
941.940964	3454.526290
942.243126	3410.625402
942.545250	3388.371228
942.847335	3353.146166
943.149381	3319.163748
943.451389	3284.989766
943.753359	3249.946185
944.055290	3226.575396
944.357182	3201.414997
944.659036	3186.170548
944.960851	3176.521779
945.262628	3162.169614
945.564367	3162.371260
945.866067	3159.442350
946.167729	3154.794406
946.469352	3152.977070
946.770937	3149.662512
947.072484	3132.474697
947.373992	3134.707929
947.675462	3123.594705
947.976893	3109.900411
948.278286	3103.417487
948.579641	3095.185283
948.880958	3087.744539
949.182236	3094.610591
949.483476	3086.333016
949.784678	3085.554158
950.085841	3084.558530
950.386967	3096.637135
950.688054	3116.242182
950.989103	3135.075933
951.290114	3156.210970
951.591087	3186.251206
951.892021	3214.143910
952.192917	3238.628795
952.493776	3266.249277
952.794596	3268.341355
953.095378	3276.238323
953.396122	3271.119031
953.696828	3264.789862
953.997496	3253.167482
954.298126	3232.166035
954.598718	3211.215000
954.899272	3181.885567
955.199788	3157.872031
955.500266	3125.727113
955.800706	3090.272678
956.101108	3050.346740
956.401472	3020.051926
956.701798	2987.760815
957.002087	2946.932510
957.302337	2920.695824
957.602550	2892.513254
957.902724	2863.781197
958.202861	2838.061231
958.502960	2818.456183
958.803022	2797.885755
959.103045	2773.824328
959.403031	2762.053233
959.702979	2744.194946
960.002889	2733.429562
960.302762	2720.597305
960.602596	2708.972404
960.902393	2697.914633
961.202153	2693.969930
961.501875	2685.503312
961.801559	2679.527024
962.101205	2671.231806
962.400814	2665.005981
962.700385	2660.123623
962.999918	2649.370842
963.299414	2648.370173
963.598873	2646.036119
963.898293	2639.593524
964.197677	2638.907927
964.497022	2636.036990
964.796331	2631.915847
965.095601	2632.477936
965.394835	2632.059520
965.694030	2625.964765
965.993189	2627.829992
966.292309	2624.901081
966.591393	2622.635083
966.890439	2623.000566
967.189447	2623.502161
967.488419	2623.678602
967.787353	2627.671195
968.086249	2624.855711
968.385108	2628.757564
968.683930	2628.883593
968.982714	2634.875004
969.281462	2638.802063
969.580172	2642.832466
969.878844	2649.771614
970.177480	2660.849549
970.476078	2667.297185
970.774639	2673.475119
971.073162	2680.394103
971.371649	2687.161852
971.670098	2691.318283
971.968510	2695.948583
972.266885	2701.934953
972.565223	2708.324616
972.863524	2708.440562
973.161788	2709.612631
973.460014	2711.747559
973.758204	2717.290308
974.056356	2718.885833
974.354471	2722.719631
974.652550	2717.617983
974.950591	2719.301728
975.248595	2717.471789
975.546563	2716.695452
975.844493	2711.487940
976.142386	2708.092723
976.440243	2699.679037
976.738062	2698.199458
977.035845	2691.189734
977.333590	2688.689322
977.631299	2682.024916
977.928971	2672.847496
978.226606	2666.878769
978.524204	2664.564880
978.821765	2659.246462
979.119290	2662.064467
979.416777	2662.066988
979.714228	2667.612257
980.011642	2666.291475
980.309020	2677.172806
980.606360	2692.155115
980.903664	2716.599670
981.200931	2749.430184
981.498162	2797.989099
981.795356	2874.637322
982.092513	2958.547328
982.389633	3064.184707
982.686717	3156.319355
982.983764	3233.756519
983.280775	3278.998355
983.577749	3287.543110
983.874686	3274.728497
984.171587	3241.570308
984.468451	3203.055892
984.765279	3159.732216
985.062070	3112.516769
985.358824	3068.545305
985.655543	3012.412057
985.952224	2963.449850
986.248869	2897.355282
986.545478	2837.073164
986.842050	2784.120884
987.138586	2738.518607
987.435086	2704.702547
987.731549	2672.630726
988.027975	2650.265647
988.324366	2629.412914
988.620719	2616.555451
988.917037	2606.878956
989.213318	2596.811772
989.509563	2586.220308
989.805772	2585.880030
990.101944	2581.310224
990.398080	2582.061356
990.694180	2575.638926
990.990244	2577.010120
991.286271	2578.461972
991.582262	2578.308217
991.878217	2579.611355
992.174136	2585.171748
992.470019	2585.885071
992.765865	2591.392532
993.061676	2593.514857
993.357450	2604.784357
993.653188	2608.151848
993.948890	2629.949797
994.244556	2646.333547
994.540186	2671.330108
994.835780	2700.263811
995.131337	2736.955849
995.426859	2778.469751
995.722345	2827.467246
996.017795	2877.402395
996.313208	2912.488826
996.608586	2941.205759
996.903928	2956.510702
997.199234	2952.500464
997.494504	2949.276646
997.789738	2935.771395
998.084936	2909.403640
998.380099	2879.149155
998.675225	2849.940710
998.970316	2821.548931
999.265371	2786.724640
999.560390	2748.361460
999.855373	2719.556307
1000.150320	2689.553879
1000.445232	2665.129489
1000.740108	2646.353712
1001.034948	2626.539456
1001.329752	2613.303907
1001.624521	2599.140785
1001.919254	2589.282809
1002.213951	2582.194947
1002.508613	2572.586507
1002.803239	2567.409242
1003.097829	2559.817265
1003.392384	2557.183262
1003.686903	2552.673950
1003.981386	2549.009031
1004.275834	2542.838658
1004.570246	2543.100798
1004.864623	2539.778678
1005.158964	2538.195756
1005.453270	2535.022349
1005.747540	2537.353883
1006.041775	2531.541433
1006.335974	2530.260980
1006.630138	2529.865249
1006.924266	2531.407842
1007.218359	2527.180835
1007.512416	2524.362830
1007.806438	2523.175638
1008.100425	2524.622449
1008.394376	2521.386028
1008.688292	2525.970958
1008.982172	2523.815864
1009.276017	2525.441637
1009.569827	2525.986081
1009.863602	2523.256296
1010.157341	2523.783097
1010.451045	2521.655730
1010.744714	2516.859072
1011.038347	2520.834022
1011.331945	2519.598939
1011.625508	2518.242869
1011.919036	2516.838907
1012.212528	2518.182375
1012.505986	2515.893691
1012.799408	2515.225738
1013.092795	2513.597446
1013.386147	2516.541479
1013.679464	2517.209432
1013.972745	2513.501664
1014.265992	2513.317662
1014.559204	2511.737260
1014.852380	2514.157014
1015.145521	2516.057529
1015.438628	2513.453773
1015.731699	2514.504853
1016.024736	2516.186078
1016.317737	2516.377642
1016.610703	2517.058198
1016.903635	2520.536594
1017.196531	2521.312932
1017.489393	2518.409227
1017.782219	2520.592047
1018.075011	2525.187058
1018.367768	2524.723272
1018.660490	2521.635565
1018.953177	2521.635565
1019.245829	2521.635565
