Dividing Wavelength (nm)	Counts (n)	Blue Motor Position (mm): 46.600000	Red Motor Position (mm): 0.000000	
326.493990	2046.847093
326.888308	2046.847093
327.282561	2046.847093
327.676750	2022.515964
328.070874	2023.378002
328.464933	2030.846471
328.858929	2038.650177
329.252859	2049.445808
329.646726	2062.399053
330.040528	2079.798595
330.434265	2096.086563
330.827938	2117.738319
331.221547	2139.813532
331.615091	2157.936480
332.008571	2179.512618
332.401986	2200.919878
332.795338	2218.891592
333.188625	2238.340363
333.581847	2256.491038
333.975006	2274.031733
334.368100	2292.469753
334.761129	2311.084213
335.154095	2325.900164
335.546996	2375.064017
335.939833	2484.235245
336.332606	2493.458036
336.725315	2509.917403
337.117960	2517.980729
337.510540	2531.412883
337.903056	2536.340611
338.295508	2544.628268
338.687896	2552.787376
339.080220	2556.157387
339.472480	2557.813406
339.864676	2565.443192
340.256807	2565.019735
340.648875	2566.985785
341.040879	2570.159192
341.432818	2571.837896
341.824694	2573.430901
342.216506	2572.987279
342.608253	2573.675397
342.999937	2571.358986
343.391557	2572.851168
343.783113	2570.978379
344.174605	2564.681978
344.566033	2566.887483
344.957397	2564.293809
345.348697	2561.851370
345.739934	2558.567058
346.131106	2560.074363
346.522215	2559.340876
346.913260	2554.670247
347.304241	2556.293498
347.695159	2553.001625
348.086012	2552.389124
348.476802	2549.666901
348.867528	2548.913249
349.258191	2544.056097
349.648789	2544.771941
350.039324	2540.623071
350.429796	2546.536345
350.820203	2543.337733
351.210548	2545.144986
351.600828	2538.997299
351.991045	2542.833617
352.381198	2539.244316
352.771288	2540.446631
353.161314	2538.009233
353.551276	2538.316743
353.941175	2540.355890
354.331010	2540.955788
354.720782	2544.754297
355.110490	2544.693803
355.500135	2542.939482
355.889717	2540.131559
356.279235	2542.029553
356.668689	2544.716488
357.058080	2541.570808
357.447408	2541.225489
357.836672	2542.571477
358.225873	2543.670449
358.615010	2544.066179
359.004084	2544.759338
359.393095	2548.643547
359.782043	2543.408309
360.170927	2546.455686
360.559748	2547.199257
360.948505	2547.947868
361.337199	2550.725544
361.725830	2549.714792
362.114398	2550.511295
362.502903	2549.624052
362.891344	2551.653116
363.279722	2547.652960
363.668037	2551.557334
364.056289	2551.869886
364.444478	2552.835267
364.832603	2551.895091
365.220665	2552.424412
365.608665	2552.812581
365.996601	2554.703014
366.384474	2552.747046
366.772284	2552.721841
367.160031	2555.015566
367.547715	2557.049671
367.935336	2555.040771
368.322893	2556.154866
368.710388	2551.582540
369.097820	2554.098076
369.485189	2554.042623
369.872495	2561.183417
370.259738	2560.281051
370.646918	2559.920608
371.034035	2561.851370
371.421090	2559.048489
371.808081	2561.581668
372.195010	2560.979251
372.581875	2562.000084
372.968678	2563.204920
373.355418	2563.608212
373.742096	2562.978068
374.128710	2567.013512
374.515262	2563.189797
374.901751	2564.732390
375.288177	2566.804304
375.674540	2566.552246
376.060841	2568.530899
376.447079	2567.983934
376.833254	2568.306568
377.219367	2571.031311
377.605417	2573.478792
377.991404	2573.337639
378.377329	2575.371745
378.763191	2579.540779
379.148991	2581.247210
379.534727	2584.960019
379.920402	2588.468663
380.306013	2588.377922
380.691563	2596.133737
381.077049	2596.242122
381.462474	2602.193204
381.847835	2610.201077
382.233134	2619.494444
382.618371	2620.288426
383.003545	2627.893006
383.388657	2636.422638
383.773706	2648.302117
384.158693	2655.175731
384.543618	2665.598316
384.928480	2670.158040
385.313280	2684.152283
385.698017	2692.636545
386.082692	2708.082640
386.467305	2717.065977
386.851856	2731.307236
387.236344	2746.246696
387.620770	2757.702718
388.005133	2770.083792
388.389435	2795.319808
388.773674	2802.924388
389.157851	2826.733758
389.541965	2847.289063
389.926018	2858.477904
390.310008	2882.070504
390.693936	2902.608164
391.077802	2925.878131
391.461606	2947.948302
391.845348	2967.026549
392.229027	2992.191989
392.612645	3022.706093
392.996200	3051.176009
393.379694	3083.116760
393.763125	3118.074642
394.146494	3145.163282
394.529801	3178.326512
394.913047	3216.089796
395.296230	3231.258628
395.679351	3256.144284
396.062410	3304.496511
396.445408	3304.461223
396.828343	3339.560256
397.211217	3376.688354
397.594028	3367.427755
397.976778	3414.534817
398.359466	3451.269705
398.742092	3468.490287
399.124656	3492.665140
399.507158	3549.496588
399.889598	3564.635173
400.271977	3624.753453
400.654294	3627.268989
401.036549	3685.953061
401.418742	3694.785162
401.800874	3759.407713
402.182944	3793.432981
402.564952	3871.908623
402.946898	3870.933160
403.328783	3878.789798
403.710606	3929.435750
404.092367	3996.306656
404.474067	4058.048188
404.855705	4053.753125
405.237282	4032.182027
405.618797	4124.357005
406.000250	4199.142522
406.381642	4275.097587
406.762972	4280.864667
407.144240	4251.015995
407.525447	4313.833813
407.906593	4336.254345
408.287677	4412.824431
408.668700	4438.020118
409.049661	4480.312878
409.430560	4513.594576
409.811399	4507.083925
410.192176	4546.999782
410.572891	4621.697079
410.953545	4718.855237
411.334138	4625.334271
411.714669	4730.649016
412.095139	4655.014064
412.475547	4754.992748
412.855894	4761.349643
413.236180	4856.932441
413.616405	4788.791164
413.996568	4881.624012
414.376670	4888.711874
414.756711	4883.645515
415.136691	4946.511224
415.516609	5033.904667
415.896466	5064.953133
416.276262	5146.516482
416.655997	5255.536475
417.035670	5336.653682
417.415283	5465.581191
417.794834	5516.854767
418.174324	5474.738447
418.553753	5479.005784
418.933121	5631.709896
419.312428	5640.090814
419.691674	5583.072843
420.070859	5790.206293
420.449983	5681.990364
420.829045	5859.141552
421.208047	5795.345750
421.586988	5943.898471
421.965867	6012.843812
422.344686	6083.525830
422.723444	6241.250931
423.102141	5887.119955
423.480777	6247.953145
423.859352	6085.244863
424.237866	6422.719866
424.616319	6415.208547
424.994712	6564.310754
425.373044	6489.742007
425.751314	6783.406862
426.129524	6528.198449
426.507673	6780.425020
426.885762	6819.128478
427.263789	6847.537901
427.641756	6936.342867
428.019662	7002.623958
428.397508	7039.631068
428.775292	7035.144441
429.153016	7179.041657
429.530679	7133.043649
429.908282	7173.314907
430.285824	7121.690971
430.663305	7366.267591
431.040726	7275.433560
431.418086	7276.020854
431.795385	7409.230824
432.172624	7588.204389
432.549802	7464.444062
432.926920	7595.032632
433.303977	7553.039820
433.680974	7596.892817
434.057910	7788.333155
434.434786	7827.991913
434.811601	7787.962630
435.188355	8124.162222
435.565050	8024.551542
435.941683	8029.252418
436.318257	8338.025612
436.694770	8285.826984
437.071222	8493.809868
437.447614	8271.472299
437.823946	8240.330571
438.200218	8386.501347
438.576429	8283.853373
438.952580	8433.719315
439.328670	8444.633413
439.704700	8529.102987
440.080670	8418.290863
440.456580	8668.710181
440.832429	8656.603850
441.208218	8400.160353
441.583947	8516.190071
441.959616	8617.068601
442.335224	8656.883634
442.710773	8737.320284
443.086261	8907.612982
443.461689	8646.876943
443.837057	8796.062330
444.212365	9000.077826
444.587612	8991.036516
444.962800	8886.054488
445.337927	9018.089868
445.712995	8581.616686
446.088002	9213.439621
446.462949	9279.219117
446.837837	9284.817318
447.212664	9346.163120
447.587431	10247.579401
447.962139	11204.662623
448.336786	11950.037548
448.711374	11544.990919
449.085901	10407.608309
449.460369	10385.969156
449.834776	10314.089864
450.209124	11226.334543
450.583412	11001.544452
450.957640	11203.107427
451.331808	10786.080496
451.705917	10317.805194
452.079965	10233.877544
452.453954	10431.463049
452.827883	10389.666842
453.201752	10346.088588
453.575562	10371.296878
453.949311	10717.041894
454.323001	10794.388317
454.696632	10720.807636
455.070202	11300.174844
455.443713	11361.989473
455.817164	11514.605364
456.190556	11815.534523
456.563888	11647.054120
456.937160	11861.305679
457.310373	11360.151972
457.683526	11399.112530
458.056619	11439.197264
458.429653	11513.508913
458.802628	11694.146058
459.175542	11753.551015
459.548398	12297.839355
459.921194	12879.293601
460.293930	13203.192777
460.666607	14028.328839
461.039224	14749.922121
461.411782	14996.711807
461.784280	14596.555097
462.156719	14501.526827
462.529099	14412.865533
462.901419	13833.785671
463.273680	13482.800375
463.645882	13721.040265
464.018024	13679.002083
464.390106	14083.927724
464.762130	15256.752167
465.134094	16948.933922
465.505999	19216.399552
465.877845	21208.550126
466.249631	22073.143299
466.621358	21403.690671
466.993026	20568.815100
467.364634	19850.493527
467.736184	19148.669129
468.107674	18611.700545
468.479105	18476.365729
468.850477	18201.864820
469.221790	17772.237524
469.593043	17167.329310
469.964238	16824.233420
470.335373	16930.279132
470.706449	17790.872150
471.077467	18940.721533
471.448425	21268.063468
471.819324	22760.610490
472.190164	22230.737330
472.560945	20562.871580
472.931667	19168.100257
473.302330	18919.558769
473.672934	18477.837746
474.043479	18915.235980
474.413965	18717.433706
474.784393	18571.273012
475.154761	19195.511531
475.525070	19332.416667
475.895321	19173.471606
476.265513	19698.744714
476.635645	20264.934346
477.005719	20330.040848
477.375734	20715.512677
477.745691	21325.628403
478.115588	21973.547743
478.485427	23252.710284
478.855207	25126.847447
479.224928	26834.923960
479.594591	28002.261107
479.964194	27452.170399
480.333739	27807.455799
480.703226	28093.503471
481.072653	28619.142062
481.442022	29117.873494
481.811333	29402.950744
482.180584	28887.999399
482.549777	28686.212093
482.918912	28493.597166
483.287988	28445.186966
483.657005	28267.486293
484.025964	27930.439788
484.394864	28115.467778
484.763706	28036.467856
485.132489	27563.136278
485.501213	27645.705336
485.869879	27820.691348
486.238487	27789.995762
486.607036	28063.876610
486.975527	27778.872456
487.343959	28113.133724
487.712333	28436.092724
488.080648	28402.380008
488.448905	28828.576798
488.817104	28761.368135
489.185244	29672.690283
489.553326	30825.289617
489.921350	32756.386776
490.289315	35133.779807
490.657222	35798.597094
491.025070	36196.815480
491.392861	35795.380838
491.760593	34966.489116
492.128267	33958.528049
492.495883	33019.953423
492.863440	32184.044416
493.230939	31294.651287
493.598380	30801.634002
493.965763	30699.422087
494.333088	30240.740102
494.700354	30068.781303
495.067563	30059.041794
495.434713	29980.553549
495.801805	30264.675500
496.168839	30124.894386
496.535815	30000.347639
496.902733	30149.981688
497.269593	29969.029471
497.636395	30125.171650
498.003139	30424.134758
498.369825	30198.575891
498.736453	30601.343919
499.103023	30451.132657
499.469535	30550.854242
499.835989	30693.534020
500.202385	30562.630378
500.568723	30639.916307
500.935003	30963.921347
501.301226	30871.330475
501.667390	31554.124516
502.033497	31758.384508
502.399546	31571.433318
502.765537	31162.391574
503.131470	31625.736627
503.497345	32054.920301
503.863163	31067.053273
504.228923	31820.962872
504.594625	32214.664384
504.960269	31711.990769
505.325856	32389.264747
505.691385	32091.108224
506.056856	32398.462333
506.422270	32900.402459
506.787625	32437.385082
507.152924	32908.095260
507.518164	33122.268681
507.883347	32678.919365
508.248472	32844.521269
508.613540	33524.787172
508.978550	33757.310393
509.343503	33627.586381
509.708398	33984.036287
510.073236	34583.391671
510.438016	34711.739448
510.802738	34409.131585
511.167403	34958.047704
511.532010	35211.859718
511.896561	35699.011620
512.261053	36450.569521
512.625488	36236.181850
512.989866	36174.591553
513.354186	36227.669862
513.718449	36195.905552
514.082655	37089.681964
514.446803	36806.220404
514.810894	37418.387880
515.174927	37437.466127
515.538904	37429.372554
515.902822	38086.479396
516.266684	37798.889131
516.630488	38159.198041
516.994235	38191.960499
517.357925	38772.247719
517.721558	39031.158860
518.085133	39400.844315
518.448651	39596.819171
518.812112	39496.386783
519.175516	39649.322788
519.538863	40098.746695
519.902152	40167.439978
520.265385	40706.039375
520.628560	40729.594167
520.991678	40693.870030
521.354739	40927.635895
521.717743	41294.649539
522.080690	41202.560262
522.443580	41893.805797
522.806413	41904.513208
523.169189	42045.693242
523.531908	42276.225208
523.894569	42142.213694
524.257174	42354.163967
524.619722	42687.016232
524.982213	42838.752442
525.344647	42861.848488
525.707025	42984.671161
526.069345	43448.001090
526.431608	43343.704658
526.793815	43740.967746
527.155964	43302.765448
527.518057	43563.362855
527.880093	43423.339765
528.242072	44054.053647
528.603995	43790.837360
528.965860	43719.762132
529.327669	43948.070949
529.689421	43994.726827
530.051117	43942.349239
530.412755	44230.718362
530.774337	44304.215865
531.135862	44239.648767
531.497331	44384.095468
531.858743	44380.891815
532.220098	44800.096525
532.581396	44523.901788
532.942638	44290.456036
533.303824	44539.436103
533.664953	44599.345176
534.026025	44297.995081
534.387040	44859.677922
534.747999	44932.477225
535.108902	45239.415438
535.469748	44587.569040
535.830537	44837.640518
536.191270	45083.094299
536.551947	44821.919680
536.912567	45098.588285
537.273131	45256.976298
537.633638	44866.738058
537.994089	45091.981853
538.354483	44831.384446
538.714821	45480.944681
539.075103	45761.817609
539.435328	45612.889321
539.795497	45379.887190
540.155609	45495.942114
540.515665	46073.494507
540.875665	45396.591054
541.235609	45682.192584
541.595496	45792.997145
541.955328	46361.513270
542.315102	45805.645400
542.674821	45696.998453
543.034483	45584.885712
543.394090	45600.646879
543.753640	45582.634836
544.113134	46643.049110
544.472571	45743.387150
544.831953	46856.569701
545.191278	46122.098792
545.550548	45831.350244
545.909761	46471.354971
546.268918	46628.633930
546.628019	47027.742080
546.987064	46464.020092
547.346053	45756.219407
547.704986	46669.931063
548.063863	46301.611760
548.422684	46503.041144
548.781449	46090.808350
549.140158	46638.789335
549.498811	46393.998466
549.857408	45799.487631
550.215949	46638.950652
550.574434	46472.824468
550.932864	46391.598876
551.291237	47117.154505
551.649555	46872.098976
552.007817	47044.153557
552.366022	46716.322281
552.724173	46780.254194
553.082267	47197.346660
553.440305	47542.033034
553.798288	46789.701316
554.156215	47175.576437
554.514086	47381.008498
554.871902	47012.076695
555.229661	47171.117537
555.587365	46843.409769
555.945014	46998.367277
556.302606	47010.403032
556.660143	47093.229189
557.017625	47315.160946
557.375050	47024.253602
557.732421	47424.778316
558.089735	47477.838981
558.446994	47358.739201
558.804197	47845.628963
559.161345	47698.223103
559.518437	47044.289668
559.875474	47300.221487
560.232455	47523.814304
560.589381	47593.588914
560.946251	47375.627066
561.303065	48058.670645
561.659825	47733.072600
562.016528	47536.787713
562.373177	47110.379195
562.729770	47743.588447
563.086307	47256.207173
563.442789	47807.197726
563.799216	47653.440013
564.155587	47543.568065
564.511904	47509.709155
564.868164	47560.788647
565.224370	47869.806336
565.580520	47603.129298
565.936615	47792.694327
566.292654	47447.753375
566.648638	47817.355651
567.004567	47770.064587
567.360441	47858.252012
567.716260	47572.123681
568.072023	47950.386660
568.427732	47871.774907
568.783385	47407.277950
569.138982	47821.630550
569.494525	47958.921333
569.850013	47539.230152
570.205445	47664.548196
570.560823	47451.453582
570.916145	47303.369687
571.271412	47550.129127
571.626625	47194.619396
571.981782	47281.082746
572.336884	46860.796709
572.691931	47191.728294
573.046923	46866.478089
573.401860	46695.146914
573.756743	46714.797332
574.111570	46864.050774
574.466342	46776.884182
574.821059	46921.255267
575.175722	46404.625218
575.530330	46529.164403
575.884882	46146.026628
576.239380	46056.664615
576.593823	46157.545665
576.948211	46088.880108
577.302544	45632.388504
577.656823	45629.348688
578.011047	45885.716567
578.365216	45701.900975
578.719330	45420.357573
579.073389	45403.716725
579.427394	45459.076156
579.781344	45399.577937
580.135239	45138.063040
580.489080	45207.477208
580.842866	44706.807452
581.196597	45192.111771
581.550273	45182.478126
581.903895	45145.506304
582.257463	45572.328197
582.610975	44990.949568
582.964434	45334.612588
583.317837	44846.696951
583.671186	44788.670750
584.024481	45062.692749
584.377721	44618.763700
584.730906	44821.972612
585.084037	44946.995748
585.437113	44648.728319
585.790135	44780.105829
586.143103	44336.322974
586.496016	44487.406355
586.848874	44611.842196
587.201679	44635.336494
587.554428	44131.274041
587.907124	44400.401080
588.259765	44186.071383
588.612352	44336.050752
588.964884	43789.622442
589.317362	44093.188124
589.669786	44095.040748
590.022155	43955.788955
590.374470	44408.522379
590.726731	43975.666225
591.078937	43314.009741
591.431090	43656.445240
591.783188	43187.499465
592.135232	42977.542969
592.487222	43236.277670
592.839157	43396.084767
593.191038	43036.355590
593.542866	42847.745860
593.894639	42245.028027
594.246358	42537.755228
594.598022	42533.349260
594.949633	42117.154119
595.301190	42088.840478
595.652692	42030.000130
596.004141	42506.432019
596.355535	41427.380600
596.706876	41433.699686
597.058162	41153.086378
597.409395	41646.995946
597.760573	41876.496996
598.111698	41476.133598
598.462768	41390.096226
598.813785	41420.141503
599.164748	41021.928158
599.515657	41297.054170
599.866511	40803.321042
600.217312	41497.480364
600.568060	40423.891036
600.918753	41261.766093
601.269392	41185.627026
601.619978	40892.559547
601.970510	41098.843562
602.320988	41240.968813
602.671412	41490.692451
603.021783	41381.974927
603.372100	40943.313884
603.722363	41051.577704
604.072572	41087.919382
604.422728	41075.278689
604.772830	40871.600950
605.122878	41017.935564
605.472872	40877.070602
605.822813	41129.443366
606.172701	40887.672148
606.522534	41220.693292
606.872314	41419.337439
607.222041	41257.985227
607.571714	41582.023035
607.921333	41074.867835
608.270899	41304.860397
608.620411	41693.031763
608.969870	41420.164188
609.319276	41440.757301
609.668627	41492.217400
610.017926	41872.670760
610.367171	42010.994980
610.716362	42052.040055
611.065500	41944.113992
611.414585	42177.776514
611.763616	42344.805065
612.112594	42249.645724
612.461518	42377.086093
612.810389	42751.588371
613.159207	42546.461301
613.507971	42521.621015
613.856682	43014.713917
614.205340	42838.644057
614.553945	43527.623594
614.902496	42863.675907
615.250994	43289.668530
615.599439	43355.901730
615.947830	43457.591885
616.296169	43461.014829
616.644454	43510.876881
616.992686	43679.352243
617.340864	44113.977842
617.688990	43651.570444
618.037063	44329.661089
618.385082	44151.980581
618.733048	44478.044932
619.080961	44339.362790
619.428821	44363.827509
619.776628	44389.222322
620.124382	44199.170822
620.472083	44294.982992
620.819731	44411.720991
621.167326	43948.834683
621.514868	43916.130198
621.862357	43421.013273
622.209793	43484.035258
622.557176	43061.142944
622.904506	42812.566168
623.251783	42440.924745
623.599007	42131.375214
623.946179	42054.346383
624.293297	41789.184211
624.640363	41245.566345
624.987376	41095.140835
625.334336	40887.568805
625.681243	40487.114667
626.028097	40403.413869
626.374899	40220.384696
626.721647	40179.314416
627.068343	39968.548814
627.414987	39688.023726
627.761577	39444.939288
628.108115	39768.994739
628.454600	39016.640337
628.801032	39257.978015
629.147412	39136.791197
629.493739	39063.059281
629.840014	38627.901840
630.186236	39034.871669
630.532405	38493.449226
630.878521	38724.455060
631.224585	38516.872947
631.570597	38149.178747
631.916556	38339.441976
632.262462	38208.374496
632.608316	38137.775657
632.954117	38004.406891
633.299866	37964.410377
633.645562	37870.382775
633.991206	37350.869186
634.336797	36920.974709
634.682336	36822.034503
635.027823	36574.271874
635.373257	36467.374207
635.718639	36132.868443
636.063968	36014.837388
636.409245	35381.333228
636.754470	35328.181822
637.099642	35118.845388
637.444762	34527.838156
637.789829	34692.961150
638.134845	34317.473326
638.479808	34224.161568
638.824719	34171.083260
639.169577	33661.830939
639.514383	33757.985908
639.859137	33389.774990
640.203839	33550.925555
640.548489	33253.341202
640.893086	33244.738473
641.237632	32975.679489
641.582125	33084.092023
641.926566	32875.852040
642.270955	32913.496857
642.615292	32839.369210
642.959576	32722.500140
643.303809	32731.813672
643.647990	32813.845848
643.992118	32779.523152
644.336195	32628.966572
644.680219	32716.349933
645.024192	32919.654626
645.368112	33456.499702
645.711981	33471.950838
646.055797	34208.284454
646.399562	34005.115872
646.743274	34890.823918
647.086935	35295.331143
647.430544	35246.497486
647.774101	35284.538033
648.117606	35557.884518
648.461059	35682.837078
648.804460	35279.562414
649.147810	34768.074342
649.491108	34407.629322
649.834354	34263.573309
650.177548	33442.308854
650.520690	32937.452420
650.863781	32919.072373
651.206820	32753.848555
651.549807	32338.727180
651.892742	31770.851282
652.235626	31674.451817
652.578458	31551.127550
652.921238	30866.357376
653.263967	31182.054595
653.606644	30883.046116
653.949269	30789.126899
654.291843	30411.904919
654.634365	30768.916914
654.976836	30300.946602
655.319255	30379.681863
655.661622	30261.925551
656.003938	30132.632557
656.346203	29939.453022
656.688416	30181.304898
657.030577	29947.234043
657.372687	29768.552865
657.714746	29933.350705
658.056753	30127.367072
658.398708	29521.490956
658.740612	29573.026672
659.082465	29785.896955
659.424266	29688.900114
659.766016	29679.919298
660.107715	29556.037983
660.449362	29663.041515
660.790958	29631.062956
661.132503	29567.231866
661.473996	29633.339037
661.815438	29711.217302
662.156829	29840.049029
662.498168	29640.371446
662.839456	29609.075963
663.180693	29759.667831
663.521879	29837.299080
663.863013	29789.478695
664.204097	29768.298287
664.545129	30190.200014
664.886110	30126.822628
665.227040	30245.269578
665.567918	30228.969007
665.908746	30303.726798
666.249522	30400.368238
666.590248	30410.571534
666.930922	30513.900064
667.271545	30510.545176
667.612118	30549.394828
667.952639	30367.555368
668.293109	30403.428219
668.633528	30263.062331
668.973896	30233.387579
669.314213	30200.171416
669.654480	30022.047286
669.994695	30007.528763
670.334859	29930.139490
670.674973	29763.678069
671.015035	29950.634301
671.355047	29880.668127
671.695008	29815.133127
672.034918	29726.010568
672.374777	29818.051955
672.714585	29693.568222
673.054342	29836.313534
673.394049	29683.044813
673.733705	29907.625697
674.073310	29627.647574
674.412864	29682.099597
674.752368	29372.698780
675.091820	29597.587173
675.431223	29188.759679
675.770574	28998.377983
676.109875	28827.021602
676.449125	28626.305541
676.788324	28526.687300
677.127473	28040.367189
677.466571	27949.094578
677.805619	27676.910079
678.144616	27604.052803
678.483562	27561.177789
678.822458	27252.238237
679.161303	27188.707096
679.500098	27112.595755
679.838842	27045.553450
680.177535	27132.500751
680.516179	27370.372637
680.854771	27518.862344
681.193314	28306.164546
681.531805	29332.505660
681.870247	30073.459494
682.208638	30811.093727
682.546978	31064.053786
682.885268	31198.327439
683.223508	30736.817367
683.561697	30473.759877
683.899836	30309.072942
684.237925	29899.567412
684.575963	29745.396325
684.913951	29400.248686
685.251889	29559.965042
685.589776	29594.257491
685.927614	29593.856720
686.265401	29793.617482
686.603137	29916.430072
686.940824	30424.527968
687.278460	30756.495511
687.616046	30935.360690
687.953582	31597.909458
688.291068	31510.241272
688.628504	31837.661694
688.965889	31803.822948
689.303224	31538.196991
689.640510	31237.353532
689.977745	30590.848236
690.314930	29850.895072
690.652065	29412.057588
690.989150	28735.469207
691.326185	27889.074600
691.663170	27253.793433
692.000105	26517.656422
692.336990	25911.903815
692.673825	25492.479815
693.010610	24995.593445
693.347345	24505.777293
693.684030	23880.959041
694.020665	23688.969218
694.357251	23022.763093
694.693786	23019.937526
695.030272	22794.915542
695.366707	22307.446047
695.703093	22034.281044
696.039429	22101.381322
696.375716	21872.938915
696.711952	21870.055375
697.048139	21736.283316
697.384276	21577.209707
697.720363	21690.141635
698.056400	21597.175197
698.392388	21442.111825
698.728326	21422.872261
699.064214	21269.565732
699.400053	21261.376377
699.735842	20887.169007
700.071581	20684.323058
700.407270	20432.827454
700.742910	20257.677605
701.078501	20009.282311
701.414042	19807.058945
701.749533	19502.366566
702.084974	19190.515748
702.420366	19424.085008
702.755709	19006.911883
703.091002	18707.852993
703.426246	18772.886398
703.761440	18710.045895
704.096584	18480.295308
704.431679	18401.292866
704.766725	18350.994753
705.101721	18297.114901
705.436668	18418.901616
705.771565	18151.496131
706.106413	18470.306262
706.441212	18538.031643
706.775961	18641.909660
707.110661	18732.731087
707.445311	19095.981510
707.779913	18976.909456
708.114465	19279.582854
708.448967	19592.086501
708.783421	20223.450691
709.117825	20595.820561
709.452180	20827.247331
709.786485	21281.934202
710.120742	22059.408675
710.454949	22163.707628
710.789107	22673.615298
711.123216	23392.766141
711.457275	23606.135498
711.791286	24165.401106
712.125247	24306.472755
712.459159	24026.310630
712.793023	24766.457879
713.126837	23730.510846
713.460602	23974.011179
713.794318	23629.942347
714.127985	23346.183359
714.461602	22452.626237
714.795171	22414.023601
715.128691	21436.548912
715.462162	20920.175961
715.795584	20492.411372
716.128957	20222.785259
716.462281	19842.921714
716.795556	19566.953829
717.128782	19096.231047
717.461960	18491.290065
717.795088	18451.596020
718.128167	18116.001367
718.461198	17669.115681
718.794180	17538.388480
719.127113	17211.000826
719.459997	17016.497987
719.792833	16646.610885
720.125619	16693.836414
720.458357	16355.096082
720.791046	16223.564816
721.123686	16079.700367
721.456278	15867.722369
721.788821	15855.709299
722.121315	15586.040336
722.453761	15695.249372
722.786158	15583.562609
723.118506	15663.323745
723.450805	15551.027002
723.783056	15733.063067
724.115259	15630.836029
724.447412	15614.028822
724.779518	15847.162023
725.111574	15888.761624
725.443582	16162.551731
725.775542	16111.147085
726.107453	16636.016900
726.439315	16567.089204
726.771129	16980.920043
727.102895	17408.886279
727.434612	17679.656734
727.766281	17844.381477
728.097901	18163.773861
728.429473	18249.211337
728.760996	18251.053878
729.092471	18374.282364
729.423897	18267.150283
729.755276	18138.752094
730.086606	18250.912726
730.417887	18832.140121
730.749120	19390.001767
731.080305	19611.026116
731.411442	20008.412712
731.742530	20122.373036
732.073570	20287.848911
732.404562	20598.280644
732.735506	20429.578431
733.066401	20216.267047
733.397249	19710.961950
733.728048	19089.332228
734.058798	18211.644658
734.389501	17458.720605
734.720156	16952.371989
735.050762	16379.049124
735.381320	15998.363871
735.711831	15727.074177
736.042293	15367.516399
736.372707	15403.240536
736.703073	15199.731676
737.033391	15397.740637
737.363661	15402.900258
737.693883	15529.745771
738.024056	15734.570372
738.354182	15962.768283
738.684260	16324.818912
739.014290	16608.446830
739.344272	16831.835480
739.674207	17186.888987
740.004093	17354.134307
740.333931	17404.213129
740.663722	17475.381618
740.993464	17510.543667
741.323159	17349.703132
741.652806	17048.400929
741.982405	16873.422479
742.311956	16512.344793
742.641460	16400.012762
742.970915	16067.755353
743.300323	15719.431787
743.629683	15507.486556
743.958996	15186.508729
744.288260	14873.432911
744.617477	14562.418924
744.946647	14535.108473
745.275768	14224.154980
745.604842	14022.768446
745.933869	13848.551210
746.262847	13818.450481
746.591778	13739.551382
746.920662	13621.406900
747.249498	13635.494405
747.578286	13792.002067
747.907027	13962.834168
748.235720	14240.531169
748.564365	14316.569413
748.892963	14229.856525
749.221514	14344.225183
749.550017	14207.158730
749.878473	14172.573894
750.206881	13959.358292
750.535242	13881.129667
750.863555	13793.216985
751.191821	13690.576572
751.520039	13710.836969
751.848210	13644.535714
752.176334	13690.339638
752.504411	13613.255354
752.832440	13437.664404
753.160421	13551.748236
753.488356	13447.043471
753.816243	13349.081249
754.144082	13185.445395
754.471875	13139.457469
754.799620	13092.846961
755.127318	13081.078387
755.454969	13064.051890
755.782572	13036.408723
756.110129	13052.769787
756.437638	12951.563583
756.765100	12960.703195
757.092515	12986.466012
757.419882	13033.837734
757.747203	13042.052294
758.074477	13138.502170
758.401703	13117.498203
758.728882	13310.957523
759.056014	13350.263399
759.383099	13531.258467
759.710138	13663.689578
760.037129	13778.322896
760.364073	13837.710209
760.690970	13863.833468
761.017820	13880.998597
761.344623	14111.850676
761.671379	14488.397142
761.998088	15189.694738
762.324751	16976.549363
762.651366	20414.898591
762.977935	24914.599746
763.304456	27892.580722
763.630931	28933.586553
763.957359	27681.799998
764.283740	25396.836523
764.610074	23118.179532
764.936362	20459.522885
765.262602	18579.974043
765.588796	16653.706309
765.914943	15371.314908
766.241044	14274.690027
766.567097	13488.113751
766.893104	12772.910132
767.219064	12306.237917
767.544978	11833.619662
767.870845	11442.602564
768.196665	11229.969215
768.522438	10999.331386
768.848165	10783.577563
769.173846	10582.170864
769.499479	10454.453231
769.825066	10277.944791
770.150607	10054.541017
770.476101	9975.140323
770.801548	9853.525007
771.126949	9694.567344
771.452303	9577.854550
771.777611	9384.715344
772.102872	9370.862253
772.428087	9234.902334
772.753256	9076.673117
773.078378	8985.403027
773.403453	8806.041294
773.728482	8681.940689
774.053465	8614.779917
774.378401	8519.053446
774.703291	8390.861945
775.028135	8279.296169
775.352932	8241.961384
775.677683	8133.274107
776.002388	8026.494907
776.327046	8038.553347
776.651658	7944.283770
776.976224	7840.652770
777.300743	7839.954571
777.625216	7752.856035
777.949643	7707.102523
778.274024	7727.715801
778.598359	7636.034856
778.922647	7655.397928
779.246889	7602.198632
779.571086	7606.629806
779.895236	7624.046993
780.219339	7636.564178
780.543397	7637.983262
780.867409	7719.297074
781.191374	7724.960810
781.515294	7692.140378
781.839167	7790.515975
782.162995	7759.858198
782.486776	7703.820732
782.810511	7661.434710
783.134201	7564.899134
783.457844	7562.549957
783.781441	7506.512491
784.104993	7439.205525
784.428498	7412.852893
784.751958	7404.976090
785.075372	7376.120526
785.398739	7315.442678
785.722061	7361.538988
786.045337	7370.955864
786.368568	7523.803648
786.691752	7552.777680
787.014891	7898.222747
787.337983	8257.893951
787.661030	8853.765897
787.984031	9497.637190
788.306987	9897.866997
788.629897	10100.496175
788.952760	10038.794973
789.275579	9821.642230
789.598351	9414.001927
789.921078	9053.198984
790.243759	8641.432497
790.566395	8351.934155
790.888984	8100.052903
791.211529	7889.161273
791.534027	7665.306316
791.856480	7471.456307
792.178888	7389.046044
792.501249	7298.708567
792.823566	7132.983155
793.145836	7140.791902
793.468062	7114.257789
793.790241	7071.813794
794.112375	7141.719475
794.434464	7294.572301
794.756507	7335.627458
795.078505	7499.964032
795.400457	7811.822412
795.722364	8169.328439
796.044226	8453.606667
796.366042	8731.679233
796.687812	8679.026902
797.009538	8754.462728
797.331218	8650.887181
797.652852	8562.447699
797.974442	8409.052949
798.295986	8316.058784
798.617484	8120.560317
798.938938	7979.733164
799.260346	7880.823205
799.581709	7670.972573
799.903026	7595.572035
800.224299	7495.013619
800.545526	7318.394273
800.866708	7220.686629
801.187845	7158.004922
801.508936	7046.169445
801.829983	7010.500761
802.150984	6857.743717
802.471940	6814.442726
802.792851	6796.937319
803.113717	6767.504543
803.434538	6739.072435
803.755314	6672.352764
804.076045	6685.064033
804.396731	6628.041021
804.717372	6667.528379
805.037967	6661.431104
805.358518	6710.300049
805.679024	6788.175794
805.999485	6800.370345
806.319901	6849.105700
806.640272	6867.904163
806.960598	6952.189734
807.280879	6950.879034
807.601115	7031.335850
807.921306	6974.587581
808.241453	6989.627863
808.561554	7009.414392
808.881611	6975.005997
809.201623	6979.169990
809.521590	6919.921308
809.841513	6902.816673
810.161390	6938.878568
810.481223	6813.023641
810.801011	6790.451875
811.120755	6769.919255
811.440453	6689.041503
811.760107	6652.286451
812.079716	6628.779550
812.399281	6558.533592
812.718801	6543.949534
813.038276	6499.736094
813.357707	6438.594460
813.677093	6480.844370
813.996434	6387.333487
814.315731	6432.373676
814.634983	6423.355052
814.954191	6429.780002
815.273354	6541.086159
815.592473	6606.797599
815.911547	6736.297280
816.230577	6818.374826
816.549562	6964.205324
816.868502	7065.298103
817.187399	7158.506517
817.506250	7311.366905
817.825058	7345.729930
818.143821	7613.211032
818.462539	7886.648258
818.781213	8259.544929
819.099843	8810.422056
819.418429	9820.220624
819.736970	10799.903339
820.055466	11982.948721
820.373919	13519.719265
820.692327	15863.407141
821.010691	20011.228197
821.329011	29026.530307
821.647286	42050.739437
821.965517	55503.250040
822.283704	60887.136812
822.601847	62864.136198
822.919945	60142.911270
823.237999	55926.873321
823.556010	49729.445140
823.873976	42985.833147
824.191897	36459.187373
824.509775	31596.613881
824.827609	27081.459069
825.145398	24494.767413
825.463144	23128.476089
825.780845	23447.132465
826.098502	25243.237607
826.416116	29057.062055
826.733685	32757.614297
827.051210	33966.460304
827.368692	32180.742460
827.686129	28186.832873
828.003522	24024.359703
828.320872	20287.049888
828.638177	17427.394875
828.955439	15265.803558
829.272656	13448.770066
829.589830	11961.130607
829.906960	10679.598723
830.224046	9743.985775
830.541088	8992.274120
830.858086	8529.828913
831.175041	8161.703694
831.491952	8037.517390
831.808819	8094.699198
832.125642	8493.172163
832.442421	9382.053614
832.759157	11189.428256
833.075849	14132.779026
833.392497	17391.474133
833.709101	19602.753583
834.025662	19433.819476
834.342179	17720.805152
834.658653	15492.032899
834.975083	13557.540522
835.291469	11923.626943
835.607811	10596.432288
835.924110	9685.871354
836.240366	8818.414806
836.556578	8000.613623
836.872746	7363.003443
837.188871	6855.535692
837.504952	6436.439367
837.820990	6129.957377
838.136984	5909.779942
838.452935	5818.608154
838.768842	5847.287278
839.084706	6268.677328
839.400526	7485.216136
839.716303	9078.417357
840.032037	10188.678559
840.347727	10108.859450
840.663373	9125.569789
840.978977	8071.663645
841.294537	7258.603668
841.610054	6659.724673
841.925527	6223.251491
842.240957	5862.985431
842.556344	5529.621489
842.871687	5243.951904
843.186987	4965.226508
843.502244	4738.293926
843.817458	4574.393412
844.132629	4438.725879
844.447756	4347.012167
844.762840	4264.685084
845.077881	4193.302345
845.392879	4128.546204
845.707833	4079.581476
846.022745	4033.268396
846.337613	4012.443389
846.652438	3966.780618
846.967221	3952.209163
847.281960	3916.351435
847.596656	3897.525246
847.911309	3880.360117
848.225919	3860.442519
848.540485	3836.640711
848.855009	3824.841890
849.169490	3806.257677
849.483928	3793.627066
849.798323	3785.225983
850.112675	3765.933487
850.426984	3771.501441
850.741251	3757.033330
851.055474	3754.477465
851.369654	3758.202878
851.683792	3753.723812
851.997887	3759.833691
852.311938	3765.613374
852.625947	3767.266872
852.939914	3756.181375
853.253837	3762.641613
853.567718	3766.356944
853.881555	3757.189606
854.195350	3768.138992
854.509103	3763.039865
854.822812	3763.012138
855.136479	3756.872013
855.450103	3765.406686
855.763685	3751.409923
856.077224	3757.769338
856.390720	3769.837861
856.704173	3791.499699
857.017584	3803.419507
857.330953	3818.059018
857.644278	3836.996112
857.957561	3843.509283
858.270802	3845.891228
858.584000	3847.738811
858.897155	3838.281606
859.210268	3821.910459
859.523339	3802.993529
859.836367	3800.236018
860.149352	3790.657826
860.462295	3782.375210
860.775195	3772.250053
861.088054	3770.619239
861.400869	3765.696553
861.713642	3770.339455
862.026373	3780.850261
862.339062	3785.092392
862.651708	3800.498158
862.964312	3840.381247
863.276873	3853.800798
863.589392	3910.758275
863.901869	3954.273515
864.214303	4001.312522
864.526696	4036.925753
864.839045	4081.572732
865.151353	4105.853450
865.463619	4115.320737
865.775842	4121.440697
866.088023	4142.956342
866.400162	4133.181545
866.712258	4139.150271
867.024313	4139.611536
867.336325	4135.712204
867.648296	4146.275942
867.960224	4144.014984
868.272110	4154.185512
868.583954	4155.791120
868.895755	4169.818130
869.207515	4168.210002
869.519233	4206.714335
869.830909	4221.063980
870.142542	4249.181015
870.454134	4263.576030
870.765684	4291.435967
871.077191	4325.005010
871.388657	4351.919731
871.700081	4390.028333
872.011463	4430.909570
872.322803	4467.188234
872.634101	4501.974716
872.945357	4541.106673
873.256571	4589.547120
873.567744	4624.361328
873.878874	4643.787415
874.189963	4677.520296
874.501010	4688.220145
874.812015	4690.609652
875.122979	4735.128081
875.433900	4731.942072
875.744780	4742.089915
876.055618	4770.988329
876.366415	4769.700314
876.677169	4790.207728
876.987882	4833.836394
877.298554	4889.679776
877.609183	4969.818999
877.919771	5075.705915
878.230317	5221.755703
878.540822	5437.290236
878.851285	5755.818062
879.161707	6225.172171
879.472087	6982.247614
879.782425	8223.052016
880.092722	10405.843905
880.402977	13725.345410
880.713191	17503.231473
881.023363	21235.608519
881.333494	23468.156597
881.643583	24693.482136
881.953631	24663.242774
882.263637	23821.468385
882.573602	22342.368640
882.883526	20750.692369
883.193408	19075.060722
883.503248	17361.814505
883.813048	15815.964842
884.122806	14384.514084
884.432522	12908.781831
884.742197	11643.764767
885.051831	10550.882942
885.361424	9548.172237
885.670975	8725.229077
885.980485	8039.496043
886.289954	7468.514793
886.599382	6993.383523
886.908768	6619.082891
887.218113	6254.005050
887.527417	5965.358663
887.836680	5696.660122
888.145901	5479.512420
888.455082	5315.576618
888.764221	5170.900543
889.073319	5032.601529
889.382376	4955.973470
889.691392	4902.219646
890.000366	4876.247622
890.309300	4860.408316
890.618193	4860.793964
890.927044	4845.799052
891.235855	4866.533318
891.544625	4899.008431
891.853353	4962.809274
892.162041	5081.155402
892.470687	5267.123567
892.779293	5521.217886
893.087858	5888.496190
893.396381	6467.213090
893.704864	7269.986593
894.013306	8436.144110
894.321707	9629.055029
894.630068	10462.519077
894.938387	10680.057468
895.246665	10433.134191
895.554903	9813.500766
895.863100	9114.040670
896.171256	8551.281543
896.479371	8031.215947
896.787446	7535.489043
897.095480	7103.918383
897.403473	6781.564321
897.711425	6462.204704
898.019336	6197.544127
898.327207	5922.546664
898.635038	5693.766500
898.942827	5441.466832
899.250576	5242.638683
899.558284	5053.756731
899.865952	4925.766876
900.173579	4776.450419
900.481165	4669.769522
900.788711	4578.184359
901.096216	4505.506044
901.403681	4439.850057
901.711105	4414.346859
902.018489	4401.622987
902.325832	4473.560252
902.633135	4596.355198
902.940397	4942.377478
903.247619	5738.194188
903.554800	7186.573141
903.861941	9114.247358
904.169041	10644.799638
904.476101	11266.694021
904.783121	10909.883672
905.090100	10163.984467
905.397039	9321.975663
905.703938	8564.713697
906.010796	7867.817028
906.317614	7309.743653
906.624391	6777.670029
906.931129	6349.976016
907.237826	5953.600172
907.544483	5573.449281
907.851099	5198.057239
908.157675	4841.914843
908.464211	4515.658928
908.770707	4285.086633
909.077163	4081.751693
909.383578	3941.025363
909.689954	3824.647806
909.996289	3756.385542
910.302584	3690.706869
910.608839	3659.058505
910.915054	3624.922332
911.221229	3611.984210
911.527363	3622.908391
911.833458	3636.365751
912.139513	3662.799041
912.445527	3693.119061
912.751502	3776.991258
913.057436	3876.697719
913.363331	4017.668545
913.669186	4216.668093
913.975000	4472.806600
914.280775	4897.995159
914.586510	5478.917564
914.892205	6279.533453
915.197859	7322.976682
915.503475	8551.513436
915.809050	9628.127457
916.114585	10284.016861
916.420081	10551.523169
916.725536	10513.588486
917.030952	10061.311287
917.336328	9648.186208
917.641665	9229.097445
917.946961	8747.435360
918.252218	8320.338723
918.557435	7808.701937
918.862612	7377.118674
919.167750	6997.613051
919.472848	6574.660243
919.777906	6197.571853
920.082925	5839.148335
920.387904	5465.455162
920.692843	5199.519174
920.997743	4953.957008
921.302603	4718.736770
921.607423	4555.471441
921.912204	4391.021440
922.216946	4271.593985
922.521647	4149.466992
922.826310	4046.440931
923.130932	3951.359728
923.435516	3854.130994
923.740059	3783.630457
924.044564	3705.875701
924.349028	3647.909993
924.653454	3583.388265
924.957840	3512.466792
925.262186	3466.756130
925.566493	3403.842530
925.870761	3348.467975
926.174989	3311.702840
926.479178	3273.213631
926.783328	3230.263000
927.087438	3204.621171
927.391509	3170.674041
927.695541	3140.820328
927.999533	3113.726646
928.303486	3093.917432
928.607400	3080.371852
928.911275	3066.627146
929.215110	3043.868857
929.518906	3037.272507
929.822663	3037.537168
930.126381	3037.905172
930.430060	3043.904145
930.733699	3045.769372
931.037299	3059.579613
931.340861	3053.278171
931.644383	3063.277299
931.947866	3063.821744
932.251309	3053.179868
932.554714	3055.589540
932.858080	3050.747511
933.161407	3041.779299
933.464694	3033.544574
933.767943	3027.079294
934.071153	3021.710465
934.374323	3011.986079
934.677455	3005.755213
934.980548	3000.116683
935.283602	2994.727689
935.586617	2990.956906
935.889593	3000.328411
936.192530	3004.409225
936.495428	3019.144518
936.798287	3041.660832
937.101108	3074.244329
937.403890	3127.057978
937.706632	3190.392514
938.009336	3273.122890
938.312002	3349.266998
938.614628	3408.886204
938.917216	3461.283957
939.219765	3493.292763
939.522275	3526.420706
939.824747	3530.630069
940.127179	3529.493289
940.429573	3519.421064
940.731929	3517.767565
941.034246	3500.241994
941.336524	3493.096158
941.638763	3473.518837
941.940964	3459.610294
942.243126	3416.135383
942.545250	3392.903226
942.847335	3355.087010
943.149381	3318.946978
943.451389	3287.291053
943.753359	3252.713778
944.055290	3226.779562
944.357182	3200.701674
944.659036	3188.776824
944.960851	3179.727953
945.262628	3162.497289
945.564367	3165.970644
945.866067	3160.264058
946.167729	3156.034530
946.469352	3157.052843
946.770937	3152.863644
947.072484	3136.336221
947.373992	3140.459885
947.675462	3130.619553
947.976893	3114.520628
948.278286	3103.815738
948.579641	3100.405397
948.880958	3095.099583
949.182236	3096.657299
949.483476	3088.200764
949.784678	3088.150352
950.085841	3091.870724
950.386967	3100.085284
950.688054	3118.735033
950.989103	3138.327477
951.290114	3157.476300
951.591087	3188.355888
951.892021	3215.149621
952.192917	3243.806060
952.493776	3272.454937
952.794596	3277.178498
953.095378	3285.703089
953.396122	3279.804939
953.696828	3271.126593
953.997496	3260.267947
954.298126	3233.549832
954.598718	3216.021740
954.899272	3189.961495
955.199788	3159.107113
955.500266	3126.253914
955.800706	3089.481217
956.101108	3052.771535
956.401472	3021.201309
956.701798	2988.327944
957.002087	2946.587191
957.302337	2922.906370
957.602550	2890.655589
957.902724	2860.791793
958.202861	2837.526868
958.502960	2818.226811
958.803022	2795.849129
959.103045	2771.628905
959.403031	2755.598036
959.702979	2744.303331
960.002889	2731.332442
960.302762	2715.984649
960.602596	2707.913762
960.902393	2700.674665
961.202153	2691.381298
961.501875	2680.560461
961.801559	2676.656087
962.101205	2668.837258
962.400814	2663.599499
962.700385	2657.547594
962.999918	2654.490134
963.299414	2645.857158
963.598873	2644.551499
963.898293	2638.098822
964.197677	2640.490850
964.497022	2633.639922
964.796331	2632.140178
965.095601	2631.101701
965.394835	2624.538118
965.694030	2626.179014
965.993189	2625.889147
966.292309	2622.514095
966.591393	2620.938734
966.890439	2621.268930
967.189447	2622.486369
967.488419	2622.783797
967.787353	2622.193982
968.086249	2620.885802
968.385108	2626.297481
968.683930	2628.603809
968.982714	2633.410549
969.281462	2636.430200
969.580172	2643.349184
969.878844	2648.140801
970.177480	2657.177069
970.476078	2667.035045
970.774639	2671.229285
971.073162	2681.845955
971.371649	2688.200330
971.670098	2691.121678
971.968510	2696.056968
972.266885	2699.958821
972.565223	2706.232537
972.863524	2705.630119
973.161788	2707.707074
973.460014	2712.269319
973.758204	2717.653271
974.056356	2718.144783
974.354471	2719.694938
974.652550	2720.249465
974.950591	2715.498178
975.248595	2716.609752
975.546563	2716.367777
975.844493	2710.698999
976.142386	2704.291693
976.440243	2698.635518
976.738062	2695.507482
977.035845	2689.579085
977.333590	2683.764114
977.631299	2679.133814
977.928971	2669.893379
978.226606	2661.976247
978.524204	2662.722338
978.821765	2657.003149
979.119290	2660.587409
979.416777	2661.220074
979.714228	2663.070178
980.011642	2665.764674
980.309020	2673.893535
980.606360	2688.606142
980.903664	2711.656818
981.200931	2749.067221
981.498162	2795.022380
981.795356	2871.405943
982.092513	2959.268213
982.389633	3064.582958
982.686717	3161.189110
982.983764	3235.853639
983.280775	3286.043367
983.577749	3295.450160
983.874686	3280.319137
984.171587	3244.597521
984.468451	3207.575287
984.765279	3163.016528
985.062070	3117.341154
985.358824	3072.008578
985.655543	3013.342150
985.952224	2963.769963
986.248869	2896.518451
986.545478	2839.318998
986.842050	2783.528549
987.138586	2738.337125
987.435086	2698.597709
987.731549	2670.682320
988.027975	2642.640902
988.324366	2624.132305
988.620719	2613.122425
988.917037	2601.613471
989.213318	2593.207347
989.509563	2586.910946
989.805772	2580.034812
990.101944	2577.189081
990.398080	2575.296128
990.694180	2571.026270
990.990244	2573.642629
991.286271	2572.248750
991.582262	2571.832855
991.878217	2575.621282
992.174136	2579.157651
992.470019	2581.950451
992.765865	2585.000349
993.061676	2589.557552
993.357450	2599.702874
993.653188	2606.442897
993.948890	2621.432767
994.244556	2643.046715
994.540186	2664.471618
994.835780	2694.655527
995.131337	2734.200858
995.426859	2772.622012
995.722345	2824.283757
996.017795	2877.563712
996.313208	2913.819691
996.608586	2940.255501
996.903928	2955.638582
997.199234	2957.584468
997.494504	2950.811678
997.789738	2934.614450
998.084936	2908.806263
998.380099	2881.072355
998.675225	2853.381297
998.970316	2821.942141
999.265371	2782.144752
999.560390	2749.092427
999.855373	2718.374156
1000.150320	2688.580937
1000.445232	2661.971206
1000.740108	2642.159472
1001.034948	2621.702469
1001.329752	2607.113370
1001.624521	2595.433017
1001.919254	2582.772159
1002.213951	2576.483319
1002.508613	2564.684499
1002.803239	2560.971689
1003.097829	2555.134033
1003.392384	2549.435008
1003.686903	2543.390665
1003.981386	2543.388144
1004.275834	2541.752290
1004.570246	2536.360776
1004.864623	2533.996475
1005.158964	2530.341638
1005.453270	2529.237625
1005.747540	2529.898017
1006.041775	2524.612367
1006.335974	2526.059178
1006.630138	2523.959537
1006.924266	2523.405010
1007.218359	2520.211439
1007.512416	2520.745802
1007.806438	2517.849659
1008.100425	2517.617766
1008.394376	2514.898063
1008.688292	2520.123219
1008.982172	2518.089114
1009.276017	2517.998373
1009.569827	2514.698938
1009.863602	2518.505009
1010.157341	2518.492406
1010.451045	2513.433608
1010.744714	2510.615603
1011.038347	2512.624503
1011.331945	2508.705006
1011.625508	2510.875222
1011.919036	2511.250788
1012.212528	2509.476302
1012.505986	2508.868843
1012.799408	2509.302383
1013.092795	2509.269615
1013.386147	2508.082423
1013.679464	2506.053359
1013.972745	2505.980262
1014.265992	2506.184429
1014.559204	2508.536127
1014.852380	2505.740807
1015.145521	2507.006137
1015.438628	2505.440859
1015.731699	2504.838441
1016.024736	2507.600993
1016.317737	2510.502177
1016.610703	2511.674245
1016.903635	2512.052332
1017.196531	2513.862106
1017.489393	2514.714061
1017.782219	2515.535769
1018.075011	2520.110616
1018.367768	2515.467714
1018.660490	2520.037520
1018.953177	2520.037520
1019.245829	2520.037520
