Dividing Wavelength (nm)	Counts (n)	Blue Motor Position (mm): 49.200000	Red Motor Position (mm): 0.000000	
326.493990	2282.992383
326.888308	2282.992383
327.282561	2282.992383
327.676750	2242.574933
328.070874	2239.887998
328.464933	2242.542165
328.858929	2245.019892
329.252859	2249.337640
329.646726	2260.082860
330.040528	2272.741197
330.434265	2285.008845
330.827938	2302.620116
331.221547	2320.876655
331.615091	2336.378203
332.008571	2357.646831
332.401986	2375.384131
332.795338	2396.582183
333.188625	2418.526325
333.581847	2433.927050
333.975006	2457.476800
334.368100	2472.179326
334.761129	2493.405104
335.154095	2507.086795
335.546996	2535.536547
335.939833	2575.026426
336.332606	2591.488314
336.725315	2603.912237
337.117960	2616.636110
337.510540	2625.684981
337.903056	2639.631333
338.295508	2647.621562
338.687896	2654.827891
339.080220	2660.620177
339.472480	2668.287772
339.864676	2675.539472
340.256807	2680.920903
340.648875	2682.990297
341.040879	2685.369722
341.432818	2687.668488
341.824694	2690.244517
342.216506	2688.321317
342.608253	2692.195444
342.999937	2692.364323
343.391557	2692.381967
343.783113	2692.142512
344.174605	2691.245187
344.566033	2691.804755
344.957397	2690.899867
345.348697	2685.525997
345.739934	2685.210925
346.131106	2686.050277
346.522215	2683.373425
346.913260	2681.619103
347.304241	2681.304031
347.695159	2677.848320
348.086012	2678.085254
348.476802	2673.754903
348.867528	2669.336332
349.258191	2670.992351
349.648789	2668.469253
350.039324	2664.806855
350.429796	2665.883142
350.820203	2667.231650
351.210548	2666.840961
351.600828	2664.075888
351.991045	2662.392142
352.381198	2664.010353
352.771288	2661.577996
353.161314	2661.590599
353.551276	2661.247801
353.941175	2661.893068
354.331010	2660.947852
354.720782	2662.198058
355.110490	2658.447440
355.500135	2662.820641
355.889717	2663.087822
356.279235	2660.252173
356.668689	2662.727379
357.058080	2661.172183
357.447408	2664.292657
357.836672	2663.226453
358.225873	2662.407266
358.615010	2665.260559
359.004084	2662.694612
359.393095	2663.208809
359.782043	2663.304591
360.170927	2667.231650
360.559748	2665.021104
360.948505	2667.327432
361.337199	2667.413132
361.725830	2666.946825
362.114398	2668.176867
362.502903	2668.895231
362.891344	2669.434634
363.279722	2668.406239
363.668037	2671.430931
364.056289	2673.467557
364.444478	2672.363545
364.832603	2671.085612
365.220665	2674.924451
365.608665	2677.180367
365.996601	2674.087619
366.384474	2675.980573
366.772284	2675.884791
367.160031	2676.575429
367.547715	2678.332271
367.935336	2678.652384
368.322893	2675.794050
368.710388	2674.967301
369.097820	2676.537620
369.485189	2677.195491
369.872495	2685.347037
370.259738	2687.061029
370.646918	2691.066226
371.034035	2695.389015
371.421090	2700.967052
371.808081	2705.826724
372.195010	2710.270501
372.581875	2720.867007
372.968678	2731.644993
373.355418	2740.298134
373.742096	2754.713313
374.128710	2768.896600
374.515262	2782.174999
374.901751	2799.556897
375.288177	2813.110040
375.674540	2839.160202
376.060841	2856.975640
376.447079	2882.546893
376.833254	2908.649987
377.219367	2925.878131
377.605417	2960.994808
377.991404	2983.657315
378.377329	3022.650640
378.763191	3040.614792
379.148991	3083.131884
379.534727	3125.631331
379.920402	3161.103410
380.306013	3184.149045
380.691563	3247.657501
381.077049	3268.837909
381.462474	3308.985658
381.847835	3366.812734
382.233134	3406.191707
382.618371	3434.490224
383.003545	3498.762415
383.388657	3523.219573
383.773706	3583.017740
384.158693	3614.169550
384.543618	3641.845485
384.928480	3699.632232
385.313280	3760.027775
385.698017	3781.298924
386.082692	3869.370402
386.467305	3873.400805
386.851856	3910.828851
387.236344	3986.635202
387.620770	4013.809542
388.005133	4066.693767
388.389435	4111.171867
388.773674	4122.980770
389.157851	4194.905432
389.541965	4262.149383
389.926018	4229.586050
390.310008	4331.271164
390.693936	4385.362745
391.077802	4418.198301
391.461606	4416.476747
391.845348	4478.029235
392.229027	4543.239081
392.612645	4543.072723
392.996200	4641.942353
393.379694	4700.833112
393.763125	4807.135923
394.146494	4835.681457
394.529801	4890.088109
394.913047	4977.572293
395.296230	4921.862502
395.679351	5030.695973
396.062410	5084.646401
396.445408	5053.507194
396.828343	5115.445330
397.211217	5170.887940
397.594028	5052.380496
397.976778	5167.167569
398.359466	5220.185384
398.742092	5240.861676
399.124656	5165.375439
399.507158	5280.490187
399.889598	5343.209702
400.271977	5467.237210
400.654294	5463.204287
401.036549	5509.086349
401.418742	5430.058701
401.800874	5635.558817
402.182944	5697.590215
402.564952	5798.115864
402.946898	5868.840732
403.328783	5688.337177
403.710606	5716.393719
404.092367	6045.558380
404.474067	6068.218366
404.855705	5959.349608
405.237282	5897.093878
405.618797	6160.640360
406.000250	6127.227592
406.381642	6344.337486
406.762972	6369.548296
407.144240	6417.920688
407.525447	6400.165744
407.906593	6409.612866
408.287677	6578.783907
408.668700	6499.410940
409.049661	6605.658298
409.430560	6632.744418
409.811399	6498.359859
410.192176	6755.592296
410.572891	6785.428365
410.953545	6967.351004
411.334138	6702.619851
411.714669	6868.267126
412.095139	6665.171640
412.475547	6914.335710
412.855894	6980.289126
413.236180	7173.241810
413.616405	6820.406411
413.996568	7038.950512
414.376670	7106.391069
414.756711	6994.225396
415.136691	7096.172650
415.516609	7300.674617
415.896466	7270.273939
416.276262	7483.716393
416.655997	7475.592573
417.035670	7641.370918
417.415283	7985.545614
417.794834	8060.936070
418.174324	7916.973319
418.553753	7843.833738
418.933121	8129.957028
419.312428	8237.555416
419.691674	8007.363728
420.070859	8488.695618
420.449983	8171.617123
420.829045	8544.097899
421.208047	8304.501939
421.586988	8625.588151
421.965867	8647.078589
422.344686	8726.743944
422.723444	8822.704828
423.102141	8139.220148
423.480777	8916.732429
423.859352	8440.083771
424.237866	9054.305518
424.616319	8913.591790
424.994712	9359.678453
425.373044	8887.909632
425.751314	9382.910611
426.129524	9262.681612
426.507673	9333.774484
426.885762	9492.870779
427.263789	9415.738604
427.641756	9360.328762
428.019662	9435.865411
428.397508	9723.347292
428.775292	9358.962609
429.153016	9759.041181
429.530679	9592.458773
429.908282	9592.110933
430.285824	9324.415582
430.663305	10016.913845
431.040726	9465.414134
431.418086	9438.484291
431.795385	9778.217731
432.172624	9880.149861
432.549802	9783.503380
432.926920	9851.604328
433.303977	9716.549296
433.680974	9923.685266
434.057910	10029.710814
434.434786	10100.995250
434.811601	9914.114635
435.188355	10480.526079
435.565050	10235.203368
435.941683	10148.072065
436.318257	10621.509508
436.694770	10810.570421
437.071222	10852.863181
437.447614	10673.294761
437.823946	10618.504980
438.200218	10684.796153
438.576429	10538.544718
438.952580	10795.706579
439.328670	10799.439553
439.704700	10613.950297
440.080670	10599.169634
440.456580	11101.351737
440.832429	10904.552652
441.208218	10513.691830
441.583947	10786.319950
441.959616	10987.106587
442.335224	10806.522374
442.710773	10897.116950
443.086261	11130.366098
443.461689	10392.752028
443.837057	11095.173802
444.212365	11312.296299
444.587612	10949.444127
444.962800	11147.080043
445.337927	10878.076512
445.712995	10589.122615
446.088002	11604.557193
446.462949	11325.647795
446.837837	11276.632656
447.212664	11178.557008
447.587431	11806.878861
447.962139	12578.737488
448.336786	14885.526639
448.711374	15339.951370
449.085901	13143.865958
449.460369	12808.982108
449.834776	12254.737490
450.209124	13209.078324
450.583412	13636.779899
450.957640	14551.378797
451.331808	13559.131006
451.705917	12663.108760
452.079965	11874.231197
452.453954	12800.759986
452.827883	12464.124335
453.201752	12743.696645
453.575562	12325.974035
453.949311	12728.116959
454.323001	12723.592524
454.696632	12959.463071
455.070202	13233.969021
455.443713	13406.956216
455.817164	13916.208536
456.190556	13877.081620
456.563888	14237.677876
456.937160	14370.766858
457.310373	13741.686310
457.683526	13862.928581
458.056619	13369.228220
458.429653	13599.132562
458.802628	12940.178137
459.175542	13361.565666
459.548398	14311.634123
459.921194	14685.256720
460.293930	14763.061888
460.666607	15592.747591
461.039224	16663.070252
461.411782	17392.850368
461.784280	17137.841080
462.156719	17268.701872
462.529099	16929.530521
462.901419	15897.074487
463.273680	15640.691485
463.645882	15562.430092
464.018024	15272.543581
464.390106	15511.769016
464.762130	16213.464864
465.134094	17027.664143
465.505999	19123.692733
465.877845	22394.090879
466.249631	25180.465159
466.621358	24765.535348
466.993026	23352.265511
467.364634	22746.517944
467.736184	21272.731576
468.107674	20495.463791
468.479105	20627.347937
468.850477	20070.204655
469.221790	19682.048412
469.593043	18994.089708
469.964238	18406.029030
470.335373	18043.446560
470.706449	18574.557324
471.077467	18178.025203
471.448425	20058.176462
471.819324	24236.335182
472.190164	25982.406872
472.560945	22264.825612
472.931667	20012.493526
473.302330	19407.703779
473.672934	19083.255117
474.043479	19274.544220
474.413965	19076.593232
474.784393	18659.185694
475.154761	19467.839703
475.525070	19341.326906
475.895321	19097.982848
476.265513	19712.222238
476.635645	20293.074067
477.005719	20047.559792
477.375734	20222.709642
477.745691	20704.079340
478.115588	21275.504211
478.485427	21844.509328
478.855207	22950.898924
479.224928	24763.546612
479.594591	26971.879507
479.964194	26822.898288
480.333739	27087.808402
480.703226	26675.835227
481.072653	26414.355618
481.442022	27043.814252
481.811333	27991.236103
482.180584	27845.403084
482.549777	26903.627326
482.918912	26582.752842
483.287988	26724.338689
483.657005	26323.234242
484.025964	26122.261082
484.394864	25985.386194
484.763706	25625.946883
485.132489	25117.302022
485.501213	25291.000019
485.869879	25207.528593
486.238487	25066.487191
486.607036	25186.753998
486.975527	24952.005108
487.343959	25220.799431
487.712333	25124.583969
488.080648	24783.063440
488.448905	25301.357069
488.817104	25091.443423
489.185244	25795.128006
489.553326	25722.230401
489.921350	26807.532851
490.289315	29190.569453
490.657222	30856.481756
491.025070	31380.119009
491.392861	31114.911467
491.760593	30251.848284
492.128267	29316.444544
492.495883	28238.895389
492.863440	27383.063742
493.230939	26515.960074
493.598380	26344.160072
493.965763	25980.153476
494.333088	25458.517561
494.700354	25457.524454
495.067563	25289.747292
495.434713	25032.250195
495.801805	25228.789660
496.168839	24969.145031
496.535815	24879.692277
496.902733	25088.391005
497.269593	24802.686131
497.636395	24959.471057
498.003139	24872.165834
498.369825	24611.792758
498.736453	24836.108981
499.103023	24698.566139
499.469535	24687.258831
499.835989	24917.563945
500.202385	24938.298211
500.568723	24497.429142
500.935003	24651.448995
501.301226	24369.303176
501.667390	25209.955909
502.033497	25402.049076
502.399546	25134.618385
502.765537	24653.185673
503.131470	25047.512288
503.497345	25195.931419
503.863163	24455.355672
504.228923	24969.969260
504.594625	25238.146041
504.960269	24812.637369
505.325856	25280.882423
505.691385	24665.208824
506.056856	25276.773883
506.422270	25277.716578
506.787625	24773.969198
507.152924	25227.872170
507.518164	25270.054025
507.883347	25073.388531
508.248472	24754.974130
508.613540	25516.062332
508.978550	25320.916746
509.343503	25348.343144
509.708398	25531.442893
510.073236	25705.834048
510.438016	25913.096048
510.802738	25560.096811
511.167403	25837.786250
511.532010	25589.816934
511.896561	26329.265983
512.261053	26309.721429
512.625488	26124.433820
512.989866	26015.938107
513.354186	25842.688772
513.718449	25977.721119
514.082655	26350.007810
514.446803	26054.578551
514.810894	26558.882979
515.174927	26054.772635
515.538904	26090.214467
515.902822	26596.734482
516.266684	26332.434348
516.630488	26244.761121
516.994235	26173.411150
517.357925	26535.696192
517.721558	26687.818050
518.085133	26814.613152
518.448651	26682.355960
518.812112	26474.078168
519.175516	26690.943565
519.538863	26845.006268
519.902152	26644.388510
520.265385	26888.105613
520.628560	26695.644441
520.991678	26662.909709
521.354739	26716.966002
521.717743	26827.170666
522.080690	26603.371161
522.443580	26923.265140
522.806413	26885.811888
523.169189	27007.447368
523.531908	27051.083596
523.894569	26690.315942
524.257174	26786.821270
524.619722	26900.917705
524.982213	26626.676416
525.344647	26632.851829
525.707025	26819.311507
526.069345	26756.370181
526.431608	26730.004946
526.793815	26893.461839
527.155964	26415.777224
527.518057	26578.104898
527.880093	26491.752453
528.242072	26709.048869
528.603995	26446.727388
528.965860	26219.756998
529.327669	26271.557374
529.689421	26254.755208
530.051117	26109.443949
530.412755	26275.557530
530.774337	26039.760079
531.135862	25960.709746
531.497331	26124.277544
531.858743	25744.542548
532.220098	26164.289182
532.581396	25880.643620
532.942638	25758.425886
533.303824	25875.680604
533.664953	25864.708532
534.026025	25530.106987
534.387040	25780.667457
534.747999	25810.248947
535.108902	25990.150084
535.469748	25493.246070
535.830537	25622.420596
536.191270	25780.034792
536.551947	25580.669760
536.912567	25203.868716
537.273131	25677.797671
537.633638	25325.405894
537.994089	25558.743261
538.354483	25026.871284
538.714821	25550.221191
539.075103	25593.181904
539.435328	25362.332346
539.795497	24982.282278
540.155609	25298.428159
540.515665	25620.535205
540.875665	24827.813762
541.235609	25197.847058
541.595496	25103.554795
541.955328	25469.124149
542.315102	25386.406376
542.674821	24877.690938
543.034483	24776.840135
543.394090	24947.495796
543.753640	24762.339256
544.113134	25390.663630
544.472571	24982.562062
544.831953	25285.379132
545.191278	24949.368584
545.550548	24816.340096
545.909761	25023.196282
546.268918	25256.253866
546.628019	25234.614713
546.987064	24907.895012
547.346053	24646.354909
547.704986	24742.277984
548.063863	24906.690176
548.422684	24937.463900
548.781449	24420.072636
549.140158	24834.770555
549.498811	24416.637090
549.857408	24189.255846
550.215949	24551.024169
550.574434	24278.892602
550.932864	24450.022131
551.291237	24667.381562
551.649555	24479.570855
552.007817	24552.952411
552.366022	24391.270004
552.724173	24397.858792
553.082267	24386.609457
553.440305	24875.014086
553.798288	24101.159162
554.156215	24577.097017
554.514086	24730.458999
554.871902	24131.196877
555.229661	24392.701692
555.587365	24227.520724
555.945014	24161.388347
556.302606	24343.865514
556.660143	24351.802810
557.017625	24572.214659
557.375050	24088.251287
557.732421	24478.071111
558.089735	24304.330265
558.446994	24352.185938
558.804197	24397.694954
559.161345	24264.744604
559.518437	24087.747172
559.875474	24248.318004
560.232455	24415.802779
560.589381	24219.210382
560.946251	24247.576955
561.303065	24534.106057
561.659825	24620.856753
562.016528	24236.574636
562.373177	23963.528100
562.729770	24336.490306
563.086307	24165.033102
563.442789	24341.344937
563.799216	24199.151631
564.155587	24175.601881
564.511904	24153.430886
564.868164	24132.121929
565.224370	24078.589916
565.580520	24041.723958
565.936615	24141.150635
566.292654	23846.790100
566.648638	24068.842845
567.004567	23907.135232
567.360441	23847.581562
567.716260	23573.209202
568.072023	23863.551937
568.427732	23661.779754
568.783385	23409.913626
569.138982	23679.874976
569.494525	23700.412637
569.850013	23473.853101
570.205445	23589.787036
570.560823	23401.157142
570.916145	23170.350433
571.271412	23371.825188
571.626625	23113.607206
571.981782	23210.876269
572.336884	23010.780270
572.691931	23158.397858
573.046923	22900.641141
573.401860	22773.528447
573.756743	22822.180622
574.111570	22698.140511
574.466342	22617.240074
574.821059	22698.667312
575.175722	22406.633270
575.530330	22363.942258
575.884882	22353.975897
576.239380	22279.702057
576.593823	22170.477897
576.948211	22147.999392
577.302544	22004.286178
577.656823	21859.791586
578.011047	21968.090694
578.365216	21831.440136
578.719330	21714.109801
579.073389	21592.181934
579.427394	21751.406778
579.781344	21492.843477
580.135239	21386.119729
580.489080	21325.346099
580.842866	21112.455651
581.196597	21331.919763
581.550273	21276.494797
581.903895	21158.491468
582.257463	21470.372533
582.610975	21012.179540
582.964434	21350.559430
583.317837	21000.287458
583.671186	21084.401630
584.024481	21091.209708
584.377721	20845.040084
584.730906	20950.344747
585.084037	20908.702295
585.437113	20843.764672
585.790135	21060.690563
586.143103	20500.951087
586.496016	20541.126563
586.848874	20768.505286
587.201679	20661.990747
587.554428	20376.248064
587.907124	20712.251050
588.259765	20456.576330
588.612352	20529.269769
588.964884	20104.451734
589.317362	20273.063207
589.669786	20337.995789
590.022155	20313.473096
590.374470	20575.991183
590.726731	20317.715227
591.078937	20134.865015
591.431090	20193.685198
591.783188	19979.809205
592.135232	19938.847310
592.487222	20031.012205
592.839157	20039.204080
593.191038	19916.308311
593.542866	19804.102308
593.894639	19499.543519
594.246358	19717.190296
594.598022	19606.675600
594.949633	19367.135093
595.301190	19373.126504
595.652692	19522.513537
596.004141	19728.351410
596.355535	19058.780315
596.706876	19090.952959
597.058162	18989.527464
597.409395	19235.346729
597.760573	19260.620553
598.111698	19037.257109
598.462768	18995.975100
598.813785	18964.094843
599.164748	18766.017826
599.515657	18836.011727
599.866511	18629.011868
600.217312	18963.958732
600.568060	18478.354464
600.918753	18776.427809
601.269392	18681.570938
601.619978	18491.713522
601.970510	18660.156116
602.320988	18625.067165
602.671412	18803.279515
603.021783	18756.288399
603.372100	18450.199620
603.722363	18609.079145
604.072572	18561.563750
604.422728	18718.356237
604.772830	18449.819013
605.122878	18416.328107
605.472872	18400.289676
605.822813	18374.325213
606.172701	18377.150780
606.522534	18536.494092
606.872314	18571.409123
607.222041	18426.609541
607.571714	18623.481722
607.921333	18448.939332
608.270899	18521.968007
608.620411	18674.563734
608.969870	18481.144743
609.319276	18464.541703
609.668627	18500.704420
610.017926	18625.977093
610.367171	18748.693901
610.716362	18805.961409
611.065500	18613.225494
611.414585	18754.070292
611.763616	18746.584178
612.112594	18685.427420
612.461518	18648.690012
612.810389	18849.358182
613.159207	18703.714206
613.507971	18615.814127
613.856682	18849.048151
614.205340	18769.392879
614.553945	18937.139793
614.902496	18681.029013
615.250994	18867.312251
615.599439	18835.227827
615.947830	18820.033790
616.296169	18909.418488
616.644454	18866.682107
616.992686	18834.842179
617.340864	19063.637467
617.688990	18796.335325
618.037063	18967.071644
618.385082	18837.128342
618.733048	19104.029712
619.080961	18996.058279
619.428821	19025.685140
619.776628	18892.870901
620.124382	18823.935643
620.472083	18886.612308
620.819731	18888.621208
621.167326	18572.127487
621.514868	18619.116083
621.862357	18423.665507
622.209793	18406.323937
622.557176	18239.915449
622.904506	18076.372857
623.251783	18014.386829
623.599007	17750.522754
623.946179	17689.275256
624.293297	17615.437475
624.640363	17346.935539
624.987376	17377.547946
625.334336	17176.473963
625.681243	17028.165737
626.028097	17051.405457
626.374899	16959.432125
626.721647	16833.829257
627.068343	16665.946231
627.414987	16601.936180
627.761577	16556.275929
628.108115	16581.758961
628.454600	16315.155020
628.801032	16417.538334
629.147412	16362.645209
629.493739	16360.006165
629.840014	16178.852302
630.186236	16267.758091
630.532405	16032.343768
630.878521	16224.799899
631.224585	16136.257072
631.570597	15962.543952
631.916556	15987.971532
632.262462	15962.765763
632.608316	15881.028494
632.954117	15821.303424
633.299866	15808.783719
633.645562	15728.818416
633.991206	15503.887172
634.336797	15370.997316
634.682336	15338.943139
635.027823	15190.440829
635.373257	15064.840481
635.718639	14984.597915
636.063968	14924.053657
636.409245	14670.236602
636.754470	14709.406367
637.099642	14565.839347
637.444762	14343.511859
637.789829	14383.856214
638.134845	14214.579309
638.479808	14241.766251
638.824719	14148.429288
639.169577	14021.606460
639.514383	14045.486406
639.859137	13890.213826
640.203839	13982.945851
640.548489	13834.834231
640.893086	13823.403414
641.237632	13702.332543
641.582125	13862.794990
641.926566	13670.941278
642.270955	13696.595710
642.615292	13650.292712
642.959576	13650.408658
643.303809	13669.912882
643.647990	13608.526752
643.992118	13675.861444
644.336195	13438.279425
644.680219	13678.152648
645.024192	13582.700921
645.368112	13825.215709
645.711981	13859.016646
646.055797	14044.548751
646.399562	14023.885062
646.743274	14288.860711
647.086935	14556.062029
647.430544	14527.161094
647.774101	14568.279265
648.117606	14698.605695
648.461059	14683.978787
648.804460	14650.119877
649.147810	14383.125246
649.491108	14303.061641
649.834354	14311.074555
650.177548	13991.861132
650.520690	13801.050938
650.863781	13729.264907
651.206820	13776.379531
651.549807	13605.731432
651.892742	13382.259603
652.235626	13329.125841
652.578458	13327.026201
652.921238	13037.908466
653.263967	13237.134866
653.606644	13068.568764
653.949269	13044.608159
654.291843	12837.293228
654.634365	13007.031399
654.976836	12854.198738
655.319255	12842.367149
655.661622	12804.702168
656.003938	12735.202301
656.346203	12649.331286
656.688416	12740.780338
657.030577	12687.089529
657.372687	12585.419538
657.714746	12584.378540
658.056753	12776.943055
658.398708	12579.246645
658.740612	12584.572624
659.082465	12697.169316
659.424266	12668.104543
659.766016	12693.491794
660.107715	12609.231428
660.449362	12689.073223
660.790958	12635.793268
661.132503	12573.840008
661.473996	12661.241012
661.815438	12663.144048
662.156829	12690.963655
662.498168	12652.923108
662.839456	12674.350533
663.180693	12674.219463
663.521879	12777.232921
663.863013	12744.974578
664.204097	12718.700084
664.545129	12853.661855
664.886110	12832.428515
665.227040	12926.688009
665.567918	12920.563007
665.908746	12929.790839
666.249522	12932.775202
666.590248	12997.785922
666.930922	13098.906427
667.271545	13066.716140
667.612118	13153.338286
667.952639	13049.180486
668.293109	13093.482146
668.633528	13028.597455
668.973896	13003.600893
669.314213	13062.161457
669.654480	12805.102940
669.994695	12900.549627
670.334859	12923.970827
670.674973	12862.562012
671.015035	12883.092111
671.355047	12846.722706
671.695008	12824.153461
672.034918	12827.800735
672.374777	12871.457128
672.714585	12784.270372
673.054342	12819.886124
673.394049	12779.519084
673.733705	12871.883105
674.073310	12770.203032
674.412864	12775.644958
674.752368	12627.709778
675.091820	12680.999815
675.431223	12648.476811
675.770574	12510.119823
676.109875	12431.462699
676.449125	12384.731203
676.788324	12346.869617
677.127473	12170.409068
677.466571	12163.865650
677.805619	12045.093545
678.144616	11990.419711
678.483562	11970.391207
678.822458	11832.140083
679.161303	11807.718213
679.500098	11790.169957
679.838842	11746.879048
680.177535	11787.626695
680.516179	11858.159999
680.854771	11795.148096
681.193314	12011.448884
681.531805	12189.779702
681.870247	12637.056077
682.208638	13039.791337
682.546978	13327.616016
682.885268	13346.480013
683.223508	13051.275085
683.561697	12906.125143
683.899836	12811.132160
684.237925	12604.369235
684.575963	12519.062830
684.913951	12438.091817
685.251889	12398.901887
685.589776	12496.818738
685.927614	12407.585274
686.265401	12386.099877
686.603137	12448.413579
686.940824	12599.451590
687.278460	12736.903690
687.616046	12760.907144
687.953582	12906.956933
688.291068	12858.975231
688.628504	13087.757916
688.965889	13093.330911
689.303224	13037.522818
689.640510	12917.424889
689.977745	12597.956888
690.314930	12385.174825
690.652065	12295.752317
690.989150	11993.625885
691.326185	11763.378745
691.663170	11562.665204
692.000105	11328.654843
692.336990	11207.306708
692.673825	10939.591192
693.010610	10832.822074
693.347345	10628.867072
693.684030	10432.504047
694.020665	10374.588751
694.357251	10171.349593
694.693786	10093.151214
695.030272	9954.668197
695.366707	9838.961114
695.703093	9781.260067
696.039429	9766.572665
696.375716	9666.198251
696.711952	9549.190550
697.048139	9603.138457
697.384276	9556.278412
697.720363	9574.761803
698.056400	9503.081636
698.392388	9452.266805
698.728326	9414.012009
699.064214	9358.929842
699.400053	9390.588288
699.735842	9206.530720
700.071581	9176.188015
700.407270	9103.093805
700.742910	9023.118419
701.078501	8924.064787
701.414042	8786.985732
701.749533	8737.153926
702.084974	8598.461702
702.420366	8716.948982
702.755709	8585.735309
703.091002	8455.799568
703.426246	8487.538673
703.761440	8442.135521
704.096584	8402.287720
704.431679	8331.696443
704.766725	8317.135070
705.101721	8279.598639
705.436668	8331.449427
705.771565	8214.290491
706.106413	8295.856360
706.441212	8330.904982
706.775961	8300.320302
707.110661	8352.292077
707.445311	8474.613155
707.779913	8370.546095
708.114465	8490.543201
708.448967	8528.533336
708.783421	8702.218730
709.117825	8868.009677
709.452180	8896.033452
709.786485	8986.602822
710.120742	9274.692161
710.454949	9284.194736
710.789107	9391.415037
711.123216	9622.587229
711.457275	9798.470566
711.791286	9933.306308
712.125247	9945.228637
712.459159	9936.656155
712.793023	10141.511003
713.126837	9726.487930
713.460602	9887.230162
713.794318	9712.801198
714.127985	9741.503007
714.461602	9389.300273
714.795171	9345.588428
715.128691	9097.667003
715.462162	8859.149849
715.795584	8791.802555
716.128957	8621.739230
716.462281	8460.064385
716.795556	8504.900407
717.128782	8296.854508
717.461960	8043.516363
717.795088	8111.899615
718.128167	8019.444853
718.461198	7861.376954
718.794180	7805.876371
719.127113	7800.956204
719.459997	7619.227649
719.792833	7407.625217
720.125619	7479.277657
720.458357	7335.861871
720.791046	7320.569531
721.123686	7305.846841
721.456278	7144.986142
721.788821	7165.400295
722.121315	7072.708599
722.453761	7147.509240
722.786158	7071.758342
723.118506	7086.067657
723.450805	7047.984260
723.783056	7106.113805
724.115259	7031.139245
724.447412	7028.026332
724.779518	7088.575631
725.111574	7083.544559
725.443582	7157.556260
725.775542	7130.291179
726.107453	7330.573701
726.439315	7235.064000
726.771129	7318.129613
727.102895	7495.333732
727.434612	7596.245029
727.766281	7646.838049
728.097901	7712.264664
728.429473	7727.831747
728.760996	7724.688588
729.092471	7695.817900
729.423897	7624.830892
729.755276	7614.922504
730.086606	7537.762603
730.417887	7638.865464
730.749120	7864.943570
731.080305	8049.311169
731.411442	8151.621387
731.742530	8136.674365
732.073570	8237.406702
732.404562	8320.850401
732.735506	8185.283691
733.066401	8320.454670
733.397249	8229.363541
733.728048	7988.514854
734.058798	7657.951273
734.389501	7413.349447
734.720156	7250.704180
735.050762	7032.449945
735.381320	6952.628315
735.711831	6887.095835
736.042293	6774.675584
736.372707	6791.112266
736.703073	6665.902607
737.033391	6706.110850
737.363661	6715.895730
737.693883	6749.777325
738.024056	6837.664801
738.354182	6867.500870
738.684260	6899.408853
739.014290	7036.944133
739.344272	7139.236707
739.674207	7171.341295
740.004093	7247.195537
740.333931	7256.156188
740.663722	7259.720283
740.993464	7341.354208
741.323159	7308.317007
741.652806	7069.948567
741.982405	7118.716690
742.311956	7145.830536
742.641460	6961.117618
742.970915	6768.409430
743.300323	6765.732577
743.629683	6723.737245
743.958996	6581.783394
744.288260	6493.384240
744.617477	6438.715447
744.946647	6426.795639
745.275768	6279.452795
745.604842	6229.154682
745.933869	6209.305139
746.262847	6169.664026
746.591778	6158.462582
746.920662	6109.134891
747.249498	6116.976406
747.578286	6164.862327
747.907027	6241.404686
748.235720	6300.691176
748.564365	6270.257730
748.892963	6319.915616
749.221514	6442.508916
749.550017	6249.457929
749.878473	6152.569473
750.206881	6214.076591
750.535242	6170.941958
750.863555	6096.481595
751.191821	6102.979642
751.520039	6093.449341
751.848210	6003.570609
752.176334	6043.776332
752.504411	6081.703453
752.832440	5998.554661
753.160421	5937.017296
753.488356	5985.929091
753.816243	6007.457339
754.144082	5865.440473
754.471875	5844.207133
754.799620	5881.269696
755.127318	5893.688579
755.454969	5850.440520
755.782572	5819.608823
756.110129	5859.610379
756.437638	5831.878992
756.765100	5779.975272
757.092515	5795.844824
757.419882	5849.858267
757.747203	5819.150078
758.074477	5873.478593
758.401703	5853.959245
758.728882	5821.292568
759.056014	5894.704371
759.383099	5999.008365
759.710138	6017.287589
760.037129	6000.924003
760.364073	6005.680332
760.690970	6087.296613
761.017820	6056.684206
761.344623	6030.825608
761.671379	6140.538759
761.998088	6270.109016
762.324751	6536.952413
762.651366	7195.412804
762.977935	8581.760359
763.304456	10252.431511
763.630931	11087.377658
763.957359	10596.454973
764.283740	9630.484197
764.610074	8746.742201
764.936362	7740.227945
765.262602	7153.719942
765.588796	6628.514890
765.914943	6308.278112
766.241044	6126.945288
766.567097	5903.952368
766.893104	5653.865767
767.219064	5482.191793
767.544978	5417.438172
767.870845	5333.200491
768.196665	5229.148555
768.522438	5159.822608
768.848165	5121.517400
769.173846	5053.476947
769.499479	5007.781408
769.825066	4960.840704
770.150607	4895.504829
770.476101	4877.691912
770.801548	4864.610118
771.126949	4777.181387
771.452303	4725.749015
771.777611	4694.637534
772.102872	4713.332653
772.428087	4676.446530
772.753256	4629.407523
773.078378	4578.572528
773.403453	4511.810007
773.728482	4500.452287
774.053465	4453.945123
774.378401	4443.333494
774.703291	4436.535498
775.028135	4355.201522
775.352932	4310.047907
775.677683	4302.022390
776.002388	4315.651149
776.327046	4325.635154
776.651658	4250.418618
776.976224	4192.999876
777.300743	4195.991801
777.625216	4216.695820
777.949643	4203.450188
778.274024	4164.696318
778.598359	4134.207419
778.922647	4160.686080
779.246889	4141.738903
779.571086	4133.146257
779.895236	4115.822331
780.219339	4110.511476
780.543397	4107.852267
780.867409	4161.580885
781.191374	4170.400383
781.515294	4104.696505
781.839167	4098.392542
782.162995	4128.808344
782.486776	4111.784367
782.810511	4125.665184
783.134201	4109.379737
783.457844	4058.506933
783.781441	4010.084129
784.104993	4017.643340
784.428498	4031.929970
784.751958	4026.064587
785.075372	4003.523068
785.398739	3971.804128
785.722061	3986.357939
786.045337	4028.854866
786.368568	4052.583577
786.691752	3966.669712
787.014891	4028.857386
787.337983	4161.495185
787.661030	4331.654292
787.984031	4485.306141
788.306987	4653.287469
788.629897	4736.784100
788.952760	4690.276936
789.275579	4621.918889
789.598351	4548.784350
789.921078	4393.501688
790.243759	4199.755022
790.566395	4192.992314
790.888984	4182.118546
791.211529	4072.221392
791.534027	4012.768544
791.856480	3996.067201
792.178888	3937.589817
792.501249	3898.122623
792.823566	3906.674941
793.145836	3926.262344
793.468062	3876.516238
793.790241	3836.582737
794.112375	3864.777911
794.434464	3934.885237
794.756507	3957.194864
795.078505	3925.327210
795.400457	3976.041217
795.722364	4126.630565
796.044226	4223.536666
796.366042	4295.962923
796.687812	4266.893109
797.009538	4265.665588
797.331218	4235.640476
797.652852	4209.078636
797.974442	4183.948484
798.295986	4181.846323
798.617484	4093.646296
798.938938	4018.482692
799.260346	4061.473652
799.581709	4048.379255
799.903026	3967.612408
800.224299	3935.326338
800.545526	3929.786110
800.866708	3892.199267
801.187845	3835.519054
801.508936	3867.974002
801.829983	3853.515973
802.150984	3783.683390
802.471940	3779.887401
802.792851	3779.037966
803.113717	3784.041312
803.434538	3778.601907
803.755314	3719.113771
804.076045	3705.328735
804.396731	3728.729772
804.717372	3748.745673
805.037967	3728.805389
805.358518	3720.396744
805.679024	3749.564860
805.999485	3771.277110
806.319901	3771.272069
806.640272	3779.824386
806.960598	3792.772590
807.280879	3770.352058
807.601115	3787.060963
807.921306	3801.450936
808.241453	3839.783870
808.561554	3807.707008
808.881611	3744.959766
809.201623	3791.988691
809.521590	3799.036224
809.841513	3769.668982
810.161390	3798.494300
810.481223	3768.932973
810.801011	3724.338927
811.120755	3719.403637
811.440453	3754.409409
811.760107	3749.721136
812.079716	3703.332438
812.399281	3679.578522
812.718801	3703.057696
813.038276	3676.029549
813.357707	3674.154240
813.677093	3688.675284
813.996434	3630.205461
814.315731	3646.944612
814.634983	3651.713544
814.954191	3668.702232
815.273354	3691.702497
815.592473	3682.635981
815.911547	3701.875545
816.230577	3748.102926
816.549562	3797.299546
816.868502	3840.494673
817.187399	3857.518649
817.506250	3855.093854
817.825058	3838.001822
818.143821	3935.921195
818.462539	4035.604971
818.781213	4077.068461
819.099843	4145.431548
819.418429	4420.174433
819.736970	4663.205939
820.055466	4922.318727
820.373919	5294.844872
820.692327	5712.837185
821.010691	6223.682510
821.329011	7761.761233
821.647286	10719.141534
821.965517	15528.067067
822.283704	19531.136431
822.601847	21445.335643
822.919945	19472.013778
823.237999	16773.980678
823.556010	14239.654008
823.873976	12053.532437
824.191897	9932.799672
824.509775	8606.436807
824.827609	7478.282029
825.145398	6960.394212
825.463144	6839.633372
825.780845	6944.638086
826.098502	7192.279727
826.416116	8179.377980
826.733685	9559.466942
827.051210	10643.120934
827.368692	10542.136540
827.686129	9186.562709
828.003522	7680.298708
828.320872	6650.655638
828.638177	5926.723260
828.955439	5353.203790
829.272656	4848.470864
829.589830	4585.831790
829.906960	4404.970313
830.224046	4210.580900
830.541088	4089.608331
830.858086	4035.438613
831.175041	3959.017241
831.491952	3952.909883
831.808819	3961.772232
832.125642	4048.167526
832.442421	4207.750292
832.759157	4509.435624
833.075849	5106.111634
833.392497	6017.113669
833.709101	6809.870399
834.025662	7098.811694
834.342179	6655.255690
834.658653	5972.643130
834.975083	5308.481193
835.291469	4717.912541
835.607811	4324.954599
835.924110	4178.312474
836.240366	3972.981237
836.556578	3771.503962
836.872746	3662.420954
837.188871	3615.200466
837.504952	3545.884601
837.820990	3463.509627
838.136984	3423.407248
838.452935	3448.277780
838.768842	3441.005916
839.084706	3468.734783
839.400526	3646.347235
839.716303	4020.211807
840.032037	4581.191408
840.347727	4797.315755
840.663373	4471.241322
840.978977	4078.674069
841.294537	3769.611009
841.610054	3546.303017
841.925527	3442.326698
842.240957	3368.975389
842.556344	3313.684014
842.871687	3250.735126
843.186987	3201.046993
843.502244	3163.074501
843.817458	3128.640900
844.132629	3102.719287
844.447756	3108.060389
844.762840	3089.594643
845.077881	3057.321176
845.392879	3042.885832
845.707833	3039.513300
846.022745	3038.094215
846.337613	3036.087836
846.652438	3020.677029
846.967221	3023.164838
847.281960	3005.104904
847.596656	3003.022908
847.911309	3003.584997
848.225919	2995.473780
848.540485	2993.787514
848.855009	2989.915908
849.169490	2981.948364
849.483928	2969.723566
849.798323	2973.340594
850.112675	2972.660038
850.426984	2981.953405
850.741251	2976.763538
851.055474	2966.678709
851.369654	2961.219140
851.683792	2967.649131
851.997887	2974.389154
852.311938	2978.175061
852.625947	2964.896661
852.939914	2969.723566
853.253837	2970.320943
853.567718	2958.862400
853.881555	2960.379788
854.195350	2972.531489
854.509103	2968.377578
854.822812	2958.910291
855.136479	2956.044395
855.450103	2961.803913
855.763685	2955.318469
856.077224	2951.686318
856.390720	2964.684933
856.704173	2971.361941
857.017584	2963.117134
857.330953	2965.413380
857.644278	2974.870584
857.957561	2983.942141
858.270802	2983.737974
858.584000	2982.185298
858.897155	2966.817341
859.210268	2968.445634
859.523339	2966.608133
859.836367	2967.124851
860.149352	2960.594037
860.462295	2957.554221
860.775195	2962.345838
861.088054	2960.258800
861.400869	2947.413940
861.713642	2947.066100
862.026373	2959.048923
862.339062	2962.650827
862.651708	2967.921354
862.964312	2970.199955
863.276873	2962.623101
863.589392	2976.340081
863.901869	2989.658809
864.214303	3012.394413
864.526696	3025.776156
864.839045	3021.304652
865.151353	3021.929755
865.463619	3021.980167
865.775842	3024.319262
866.088023	3041.678476
866.400162	3042.744680
866.712258	3013.390041
867.024313	3005.054493
867.336325	3019.872965
867.648296	3040.385420
867.960224	3029.882176
868.272110	3014.330216
868.583954	3018.249713
868.895755	3032.254038
869.207515	3019.719209
869.519233	3029.249511
869.830909	3038.752086
870.142542	3046.714588
870.454134	3047.019578
870.765684	3050.573592
871.077191	3049.399003
871.388657	3062.165725
871.700081	3076.971594
872.011463	3084.825711
872.322803	3084.676997
872.634101	3083.477203
872.945357	3101.965634
873.256571	3128.822382
873.567744	3117.772172
873.878874	3116.597583
874.189963	3138.501397
874.501010	3139.217241
874.812015	3128.101497
875.122979	3126.344654
875.433900	3125.797689
875.744780	3133.235912
876.055618	3138.496356
876.366415	3137.775471
876.677169	3146.320227
876.987882	3142.403250
877.298554	3141.082468
877.609183	3166.928463
877.919771	3191.214222
878.230317	3215.915876
878.540822	3268.716921
878.851285	3309.237716
879.161707	3361.045654
879.472087	3481.947647
879.782425	3738.499528
880.092722	4207.210889
880.402977	4756.217748
880.713191	5433.191778
881.023363	6690.972265
881.333494	8017.950151
881.643583	8520.986729
881.953631	8171.854057
882.263637	7472.951009
882.573602	6833.084913
882.883526	6243.527012
883.193408	5672.044168
883.503248	5220.470209
883.813048	4896.835694
884.122806	4555.872212
884.432522	4230.470773
884.742197	3987.509842
885.051831	3794.993218
885.361424	3670.824558
885.670975	3594.221705
885.980485	3496.645131
886.289954	3417.821649
886.599382	3371.707694
886.908768	3335.552539
887.218113	3290.998821
887.527417	3227.903740
887.836680	3182.843386
888.145901	3178.901204
888.455082	3159.686846
888.764221	3106.991665
889.073319	3077.453024
889.382376	3077.818508
889.691392	3082.262285
890.000366	3080.916297
890.309300	3067.612692
890.618193	3081.246492
890.927044	3094.290478
891.235855	3093.980447
891.544625	3084.382090
891.853353	3097.050509
892.162041	3114.255968
892.470687	3160.962258
892.779293	3207.880277
893.087858	3257.268461
893.396381	3337.488342
893.704864	3476.241061
894.013306	3738.945670
894.321707	4051.656005
894.630068	4240.530395
894.938387	4225.255699
895.246665	4184.792878
895.554903	4052.460069
895.863100	3844.262935
896.171256	3672.253725
896.479371	3521.525746
896.787446	3393.372053
897.095480	3289.567134
897.403473	3226.144377
897.711425	3193.933925
898.019336	3180.607634
898.327207	3146.461379
898.635038	3106.951336
898.942827	3097.562187
899.250576	3085.377718
899.558284	3053.971329
899.865952	3034.809903
900.173579	3009.331912
900.481165	3002.677589
900.788711	2988.713593
901.096216	2963.787608
901.403681	2953.536421
901.711105	2963.527988
902.018489	2960.044551
902.325832	2958.547328
902.633135	2967.840695
902.940397	3008.399298
903.247619	3103.979575
903.554800	3318.248778
903.861941	3698.581151
904.169041	4155.534021
904.476101	4445.173515
904.783121	4362.821226
905.090100	4091.261830
905.397039	3800.598981
905.703938	3545.007440
906.010796	3357.786548
906.317614	3244.186667
906.624391	3144.308806
906.931129	3071.887590
907.237826	3008.308558
907.544483	2961.052782
907.851099	2930.747885
908.157675	2908.206366
908.464211	2886.302552
908.770707	2871.388299
909.077163	2856.186699
909.383578	2844.569360
909.689954	2831.464881
909.996289	2833.733400
910.302584	2833.055365
910.608839	2833.498986
910.915054	2825.430620
911.221229	2817.500885
911.527363	2823.209991
911.833458	2831.553101
912.139513	2834.844974
912.445527	2838.832527
912.751502	2847.548682
913.057436	2856.736185
913.363331	2870.793443
913.669186	2896.783111
913.975000	2935.421035
914.280775	3000.993843
914.586510	3072.404308
914.892205	3155.832884
915.197859	3297.388484
915.503475	3514.253881
915.809050	3742.356010
916.114585	3889.393865
916.420081	3890.820512
916.725536	3824.325172
917.030952	3696.647868
917.336328	3560.962692
917.641665	3426.411775
917.946961	3322.621979
918.252218	3248.776637
918.557435	3163.119872
918.862612	3101.602671
919.167750	3052.146432
919.472848	3010.098167
919.777906	2981.587922
920.082925	2956.500620
920.387904	2918.881009
920.692843	2906.449524
920.997743	2891.880589
921.302603	2878.123280
921.607423	2868.363606
921.912204	2856.559745
922.216946	2841.388392
922.521647	2830.900272
922.826310	2826.143943
923.130932	2816.716985
923.435516	2808.220120
923.740059	2799.269552
924.044564	2789.033489
924.349028	2785.948303
924.653454	2782.704320
924.957840	2772.969852
925.262186	2768.059768
925.566493	2763.222781
925.870761	2758.262286
926.174989	2751.928076
926.479178	2752.580905
926.783328	2744.953640
927.087438	2744.552868
927.391509	2742.619585
927.695541	2737.258318
927.999533	2734.155488
928.303486	2732.068450
928.607400	2734.687330
928.911275	2731.806310
929.215110	2729.454612
929.518906	2727.387739
929.822663	2730.419993
930.126381	2729.835219
930.430060	2730.551063
930.733699	2730.336814
931.037299	2732.537278
931.340861	2735.188925
931.644383	2731.511403
931.947866	2732.232288
932.251309	2731.692884
932.554714	2729.550394
932.858080	2727.601988
933.161407	2726.296329
933.464694	2722.863303
933.767943	2721.310628
934.071153	2722.787686
934.374323	2724.781462
934.677455	2725.335989
934.980548	2720.902295
935.283602	2720.892212
935.586617	2720.856924
935.889593	2722.870865
936.192530	2721.401369
936.495428	2724.662995
936.798287	2723.390104
937.101108	2726.737430
937.403890	2731.158522
937.706632	2736.116497
938.009336	2745.044380
938.312002	2752.701893
938.614628	2762.474170
938.917216	2766.391146
939.219765	2770.492125
939.522275	2768.871394
939.824747	2764.248656
940.127179	2760.109869
940.429573	2758.458891
940.731929	2755.580392
941.034246	2751.827253
941.336524	2748.883219
941.638763	2746.758373
941.940964	2746.231572
942.243126	2743.867271
942.545250	2742.828793
942.847335	2736.267732
943.149381	2733.606002
943.451389	2730.183059
943.753359	2730.689695
944.055290	2728.597616
944.357182	2727.977554
944.659036	2724.322717
944.960851	2722.190309
945.262628	2722.633931
945.564367	2725.114179
945.866067	2725.872872
946.167729	2725.514950
946.469352	2725.131823
946.770937	2725.961092
947.072484	2723.102758
947.373992	2720.173848
947.675462	2719.163097
947.976893	2716.982797
948.278286	2715.311655
948.579641	2715.543548
948.880958	2713.093547
949.182236	2716.317365
949.483476	2715.586398
949.784678	2713.474154
950.085841	2713.892570
950.386967	2712.733105
950.688054	2716.569423
950.989103	2718.096892
951.290114	2717.943137
951.591087	2719.274002
951.892021	2722.389435
952.192917	2725.948490
952.493776	2725.320866
952.794596	2726.989488
953.095378	2727.589385
953.396122	2725.159549
953.696828	2725.467059
953.997496	2725.023438
954.298126	2716.811398
954.598718	2718.003631
954.899272	2714.245451
955.199788	2712.080275
955.500266	2710.288145
955.800706	2707.303782
956.101108	2706.986189
956.401472	2705.801518
956.701798	2703.071733
957.002087	2699.129551
957.302337	2697.173583
957.602550	2699.663913
957.902724	2696.621577
958.202861	2695.865404
958.502960	2693.329704
958.803022	2693.170907
959.103045	2695.346165
959.403031	2691.726617
959.702979	2692.190403
960.002889	2689.505988
960.302762	2689.833663
960.602596	2688.759898
960.902393	2686.693025
961.202153	2691.918181
961.501875	2687.822243
961.801559	2687.411389
962.101205	2687.330731
962.400814	2688.371729
962.700385	2687.013138
962.999918	2684.167407
963.299414	2684.467355
963.598873	2684.437108
963.898293	2683.202026
964.197677	2686.274609
964.497022	2684.608507
964.796331	2686.135977
965.095601	2686.463652
965.394835	2683.353260
965.694030	2684.288394
965.993189	2685.140349
966.292309	2684.442149
966.591393	2686.675381
966.890439	2682.773527
967.189447	2685.319310
967.488419	2684.676563
967.787353	2684.512726
968.086249	2684.323682
968.385108	2684.648837
968.683930	2685.765452
968.982714	2685.261337
969.281462	2684.172448
969.580172	2686.085566
969.878844	2684.986594
970.177480	2684.726975
970.476078	2686.871986
970.774639	2686.801409
971.073162	2685.195802
971.371649	2685.306707
971.670098	2684.139680
971.968510	2684.394258
972.266885	2686.574557
972.565223	2687.078673
972.863524	2686.047757
973.161788	2686.236800
973.460014	2687.708817
973.758204	2685.417613
974.056356	2686.922397
974.354471	2685.523477
974.652550	2685.445339
974.950591	2686.877027
975.248595	2686.337623
975.546563	2685.644465
975.844493	2684.936182
976.142386	2685.828467
976.440243	2683.696059
976.738062	2686.219156
977.035845	2683.900225
977.333590	2687.393745
977.631299	2680.068948
977.928971	2679.769000
978.226606	2679.590039
978.524204	2683.310410
978.821765	2679.481654
979.119290	2683.617921
979.416777	2681.203208
979.714228	2681.344360
980.011642	2683.819567
980.309020	2683.738908
980.606360	2683.204546
980.903664	2685.742767
981.200931	2680.757066
981.498162	2685.861234
981.795356	2685.168076
982.092513	2689.498427
982.389633	2690.872141
982.686717	2693.186031
982.983764	2695.855322
983.280775	2700.503266
983.577749	2700.916640
983.874686	2699.994109
984.171587	2699.245498
984.468451	2696.394725
984.765279	2690.922553
985.062070	2690.574713
985.358824	2688.931297
985.655543	2688.064218
985.952224	2685.997345
986.248869	2686.115812
986.545478	2684.056501
986.842050	2682.060204
987.138586	2683.517098
987.435086	2679.960564
987.731549	2681.553568
988.027975	2679.151458
988.324366	2678.627178
988.620719	2680.557940
988.917037	2680.376459
989.213318	2681.629186
989.509563	2679.882426
989.805772	2679.300172
990.101944	2682.435770
990.398080	2676.973680
990.694180	2677.722291
990.990244	2680.346212
991.286271	2680.494926
991.582262	2678.879236
991.878217	2680.792354
992.174136	2680.215142
992.470019	2682.347550
992.765865	2679.521983
993.061676	2675.471416
993.357450	2677.629030
993.653188	2674.072496
993.948890	2679.335461
994.244556	2678.634740
994.540186	2681.001562
994.835780	2682.914680
995.131337	2681.034329
995.426859	2679.826973
995.722345	2681.861079
996.017795	2682.670184
996.313208	2684.669001
996.608586	2684.863086
996.903928	2686.002387
997.199234	2683.915349
997.494504	2684.205215
997.789738	2683.433919
998.084936	2683.141532
998.380099	2683.640606
998.675225	2681.770338
998.970316	2681.944258
999.265371	2681.223373
999.560390	2680.346212
999.855373	2683.108764
1000.150320	2679.877385
1000.445232	2679.269926
1000.740108	2678.009637
1001.034948	2680.031140
1001.329752	2677.084585
1001.624521	2679.867302
1001.919254	2677.991993
1002.213951	2679.312775
1002.508613	2679.078362
1002.803239	2676.880419
1003.097829	2678.407888
1003.392384	2678.702796
1003.686903	2677.313958
1003.981386	2676.905624
1004.275834	2676.245233
1004.570246	2677.883608
1004.864623	2676.721622
1005.158964	2676.041067
1005.453270	2678.866633
1005.747540	2676.653567
1006.041775	2675.181550
1006.335974	2677.508042
1006.630138	2677.286232
1006.924266	2679.128773
1007.218359	2678.327230
1007.512416	2674.067455
1007.806438	2674.344718
1008.100425	2674.006961
1008.394376	2670.962104
1008.688292	2677.795388
1008.982172	2674.768175
1009.276017	2673.906138
1009.569827	2676.159534
1009.863602	2676.522497
1010.157341	2675.219358
1010.451045	2676.726663
1010.744714	2676.517456
1011.038347	2678.939730
1011.331945	2675.942764
1011.625508	2679.159020
1011.919036	2677.538289
1012.212528	2675.912517
1012.505986	2680.494926
1012.799408	2676.028464
1013.092795	2678.801098
1013.386147	2676.489729
1013.679464	2677.903773
1013.972745	2676.255316
1014.265992	2676.313289
1014.559204	2675.980573
1014.852380	2676.071313
1015.145521	2675.872188
1015.438628	2675.990655
1015.731699	2678.007117
1016.024736	2676.456962
1016.317737	2675.965449
1016.610703	2675.962929
1016.903635	2677.339164
1017.196531	2674.579132
1017.489393	2676.484688
1017.782219	2673.931344
1018.075011	2674.982424
1018.367768	2674.296827
1018.660490	2674.402692
1018.953177	2674.402692
1019.245829	2674.402692
