Dividing Wavelength (nm)	Counts (n)	Blue Motor Position (mm): 5.500000	Red Motor Position (mm): 0.000000	
326.493990	2103.103850
326.888308	2103.103850
327.282561	2103.103850
327.676750	2079.924624
328.070874	2084.234811
328.464933	2087.135995
328.858929	2098.506317
329.252859	2109.475868
329.646726	2125.080760
330.040528	2138.671711
330.434265	2159.161480
330.827938	2179.189985
331.221547	2200.020032
331.615091	2220.678681
332.008571	2243.356311
332.401986	2262.981523
332.795338	2281.200253
333.188625	2301.871505
333.581847	2320.337251
333.975006	2341.207628
334.368100	2358.319825
334.761129	2372.747607
335.154095	2388.516336
335.546996	2408.781775
335.939833	2419.547159
336.332606	2434.327822
336.725315	2450.217539
337.117960	2456.491255
337.510540	2459.286575
337.903056	2470.422483
338.295508	2480.192240
338.687896	2483.617704
339.080220	2491.751605
339.472480	2495.877790
339.864676	2501.201248
340.256807	2505.105622
340.648875	2504.609068
341.040879	2506.403719
341.432818	2508.989831
341.824694	2507.951353
342.216506	2506.217196
342.608253	2508.636950
342.999937	2505.904645
343.391557	2509.196518
343.783113	2503.646208
344.174605	2503.946157
344.566033	2499.946001
344.957397	2499.925836
345.348697	2498.272338
345.739934	2493.745382
346.131106	2494.544405
346.522215	2495.245125
346.913260	2488.633652
347.304241	2488.265647
347.695159	2487.038127
348.086012	2485.150214
348.476802	2482.848928
348.867528	2482.738022
349.258191	2481.754997
349.648789	2482.546458
350.039324	2477.694348
350.429796	2480.650985
350.820203	2481.558392
351.210548	2480.030923
351.600828	2478.090078
351.991045	2477.943885
352.381198	2479.007568
352.771288	2479.398258
353.161314	2474.737711
353.551276	2475.604790
353.941175	2475.269553
354.331010	2476.451703
354.720782	2474.135293
355.110490	2478.208546
355.500135	2478.064873
355.889717	2477.154944
356.279235	2477.258288
356.668689	2480.640902
357.058080	2478.379945
357.447408	2476.975983
357.836672	2475.617393
358.225873	2476.925572
358.615010	2474.720067
359.004084	2478.528659
359.393095	2478.861375
359.782043	2484.066366
360.170927	2481.573516
360.559748	2482.743063
360.948505	2480.262816
361.337199	2482.861531
361.725830	2481.956643
362.114398	2484.381438
362.502903	2483.963023
362.891344	2485.687097
363.279722	2486.778507
363.668037	2486.977633
364.056289	2487.007880
364.444478	2488.570637
364.832603	2487.005359
365.220665	2486.428147
365.608665	2486.181130
365.996601	2487.128867
366.384474	2487.645586
366.772284	2491.567603
367.160031	2490.453508
367.547715	2491.517192
367.935336	2487.668271
368.322893	2490.314877
368.710388	2489.830926
369.097820	2492.285968
369.485189	2487.978302
369.872495	2488.825216
370.259738	2490.466111
370.646918	2490.254383
371.034035	2492.525423
371.421090	2489.936790
371.808081	2492.384270
372.195010	2494.327635
372.581875	2493.087511
372.968678	2493.478201
373.355418	2491.527274
373.742096	2494.579693
374.128710	2493.304281
374.515262	2494.163798
374.901751	2492.172542
375.288177	2494.325114
375.674540	2493.074908
376.060841	2494.504075
376.447079	2492.495176
376.833254	2493.483242
377.219367	2491.370998
377.605417	2495.527430
377.991404	2492.348982
378.377329	2492.328817
378.763191	2492.512820
379.148991	2496.659169
379.534727	2494.539363
379.920402	2496.933912
380.306013	2496.139930
380.691563	2496.054230
381.077049	2498.350476
381.462474	2498.506752
381.847835	2499.174704
382.233134	2500.155209
382.618371	2496.759992
383.003545	2498.567245
383.388657	2498.494149
383.773706	2501.806187
384.158693	2497.927019
384.543618	2499.154540
384.928480	2499.958604
385.313280	2499.827534
385.698017	2500.848368
386.082692	2499.900631
386.467305	2500.795435
386.851856	2499.953563
387.236344	2501.148316
387.620770	2500.467760
388.005133	2500.848368
388.389435	2501.753255
388.773674	2501.113028
389.157851	2500.692092
389.541965	2499.787205
389.926018	2503.242916
390.310008	2503.371465
390.693936	2503.442041
391.077802	2501.922133
391.461606	2501.221413
391.845348	2501.216372
392.229027	2501.879283
392.612645	2503.416835
392.996200	2504.863647
393.379694	2501.649911
393.763125	2506.018071
394.146494	2505.171157
394.529801	2505.077896
394.913047	2504.863647
395.296230	2507.623678
395.679351	2505.037566
396.062410	2505.876918
396.445408	2503.908348
396.828343	2504.440190
397.211217	2500.104797
397.594028	2503.991527
397.976778	2502.227123
398.359466	2503.011022
398.742092	2500.500528
399.124656	2506.058400
399.507158	2506.310458
399.889598	2507.038904
400.271977	2507.306086
400.654294	2509.030160
401.036549	2505.334994
401.418742	2507.729543
401.800874	2509.050325
402.182944	2507.575787
402.564952	2505.362721
402.946898	2507.016219
403.328783	2507.389265
403.710606	2508.561333
404.092367	2506.663338
404.474067	2508.785664
404.855705	2508.100067
405.237282	2507.669049
405.618797	2508.231137
406.000250	2510.260202
406.381642	2508.997393
406.762972	2512.755573
407.144240	2510.855058
407.525447	2510.514780
407.906593	2509.105778
408.287677	2511.674245
408.668700	2510.446724
409.049661	2511.883453
409.430560	2510.666015
409.811399	2513.862106
410.192176	2512.475789
410.572891	2513.355470
410.953545	2510.592918
411.334138	2512.196005
411.714669	2510.943278
412.095139	2513.733557
412.475547	2508.659635
412.855894	2510.660973
413.236180	2512.538803
413.616405	2511.838083
413.996568	2511.845645
414.376670	2513.506705
414.756711	2513.148783
415.136691	2513.078207
415.516609	2513.872188
415.896466	2513.110974
416.276262	2513.383197
416.655997	2508.984790
417.035670	2508.253823
417.415283	2512.344719
417.794834	2513.085768
418.174324	2513.778927
418.553753	2514.131808
418.933121	2514.328413
419.312428	2512.785820
419.691674	2513.970491
420.070859	2516.032323
420.449983	2514.250275
420.829045	2514.020903
421.208047	2517.582478
421.586988	2515.888650
421.965867	2516.596932
422.344686	2515.974350
422.723444	2518.827643
423.102141	2517.189268
423.480777	2517.232117
423.859352	2516.491068
424.237866	2516.722961
424.616319	2519.929135
424.994712	2518.023579
425.373044	2514.071314
425.751314	2515.843280
426.129524	2515.966788
426.507673	2515.228259
426.885762	2516.153311
427.263789	2516.969978
427.641756	2518.540297
428.019662	2516.816222
428.397508	2514.275481
428.775292	2516.163393
429.153016	2520.188754
429.530679	2516.193640
429.908282	2517.153980
430.285824	2518.797396
430.663305	2516.579288
431.040726	2518.152128
431.418086	2515.503002
431.795385	2519.178003
432.172624	2519.203209
432.549802	2523.175638
432.926920	2521.625483
433.303977	2521.570030
433.680974	2519.024248
434.057910	2519.626666
434.434786	2518.878054
434.811601	2519.682118
435.188355	2518.033661
435.565050	2519.866120
435.941683	2519.508198
436.318257	2518.668846
436.694770	2513.743639
437.071222	2517.882426
437.447614	2516.861593
437.823946	2517.307735
438.200218	2521.169259
438.576429	2521.383508
438.952580	2519.072139
439.328670	2522.023734
439.704700	2521.517098
440.080670	2521.875020
440.456580	2521.113806
440.832429	2520.440812
441.208218	2521.466687
441.583947	2523.024403
441.959616	2520.897036
442.335224	2520.902078
442.710773	2522.109434
443.086261	2522.021214
443.461689	2516.760770
443.837057	2520.319824
444.212365	2519.999711
444.587612	2524.287212
444.962800	2522.313601
445.337927	2521.663292
445.712995	2523.246214
446.088002	2524.176307
446.462949	2520.455935
446.837837	2523.112623
447.212664	2522.679084
447.587431	2523.266379
447.962139	2522.515247
448.336786	2520.783610
448.711374	2523.987264
449.085901	2524.244363
449.460369	2520.723117
449.834776	2523.359640
450.209124	2524.158663
450.583412	2521.585154
450.957640	2523.069774
451.331808	2523.717562
451.705917	2522.147242
452.079965	2523.757891
452.453954	2521.691018
452.827883	2524.725793
453.201752	2523.170597
453.575562	2524.483817
453.949311	2524.698066
454.323001	2524.309897
454.696632	2523.498272
455.070202	2524.904754
455.443713	2524.110772
455.817164	2520.312263
456.190556	2520.559279
456.563888	2522.744619
456.937160	2519.472910
457.310373	2524.171266
457.683526	2524.791328
458.056619	2525.560104
458.429653	2525.849970
458.802628	2527.306863
459.175542	2525.081194
459.548398	2525.030783
459.921194	2525.126564
460.293930	2527.057326
460.666607	2521.444002
461.039224	2527.117820
461.411782	2525.555063
461.784280	2526.303674
462.156719	2525.292922
462.529099	2527.352234
462.901419	2527.243849
463.273680	2526.757378
463.645882	2524.728313
464.018024	2527.508510
464.390106	2525.129085
464.762130	2527.049765
465.134094	2525.791997
465.505999	2524.728313
465.877845	2525.975999
466.249631	2526.613705
466.621358	2526.127233
466.993026	2528.431041
467.364634	2528.773839
467.736184	2528.413397
468.107674	2526.044054
468.479105	2525.345855
468.850477	2526.553211
469.221790	2525.350896
469.593043	2526.893489
469.964238	2525.653365
470.335373	2526.641431
470.706449	2525.786956
471.077467	2528.357944
471.448425	2526.785104
471.819324	2527.632018
472.190164	2529.497245
472.560945	2526.051616
472.931667	2528.544467
473.302330	2526.407018
473.672934	2528.161339
474.043479	2528.572193
474.413965	2527.362316
474.784393	2523.846111
475.154761	2527.876514
475.525070	2523.674712
475.895321	2526.477594
476.265513	2524.289733
476.635645	2530.190403
477.005719	2526.137316
477.375734	2529.910619
477.745691	2529.091432
478.115588	2529.895496
478.485427	2529.514889
478.855207	2528.020187
479.224928	2528.115969
479.594591	2528.095804
479.964194	2528.385670
480.333739	2529.817358
480.703226	2529.149405
481.072653	2525.970958
481.442022	2529.288037
481.811333	2528.867101
482.180584	2530.782739
482.549777	2528.751154
482.918912	2527.352234
483.287988	2529.071267
483.657005	2530.676875
484.025964	2528.451205
484.394864	2529.492204
484.763706	2530.197965
485.132489	2530.959179
485.501213	2530.654190
485.869879	2530.623943
486.238487	2528.423479
486.607036	2526.306194
486.975527	2529.320804
487.343959	2528.516740
487.712333	2532.653007
488.080648	2530.807945
488.448905	2531.034797
488.817104	2529.262831
489.185244	2531.576721
489.553326	2527.558921
489.921350	2530.785260
490.289315	2530.384488
490.657222	2528.887265
491.025070	2530.686957
491.392861	2530.671834
491.760593	2530.387008
492.128267	2530.427338
492.495883	2529.572862
492.863440	2531.158305
493.230939	2531.730476
493.598380	2527.642100
493.965763	2523.841070
494.333088	2530.094622
494.700354	2526.548170
495.067563	2528.942718
495.434713	2526.326359
495.801805	2532.544622
496.168839	2531.364992
496.535815	2530.414735
496.902733	2531.317101
497.269593	2531.029756
497.636395	2530.757533
498.003139	2528.743592
498.369825	2529.814837
498.736453	2530.394570
499.103023	2532.612678
499.469535	2530.755013
499.835989	2529.451874
500.202385	2531.317101
500.568723	2531.738038
500.935003	2530.044210
501.301226	2532.874818
501.667390	2532.181659
502.033497	2533.802390
502.399546	2529.703932
502.765537	2530.250897
503.131470	2532.781557
503.497345	2530.066895
503.863163	2532.083357
504.228923	2533.232740
504.594625	2531.657379
504.960269	2532.602596
505.325856	2532.461443
505.691385	2531.491021
506.056856	2533.031094
506.422270	2532.211906
506.787625	2531.128058
507.152924	2530.686957
507.518164	2530.147554
507.883347	2530.896165
508.248472	2531.395239
508.613540	2531.894313
508.978550	2531.266690
509.343503	2533.704088
509.708398	2531.460774
510.073236	2530.999509
510.438016	2535.483615
510.802738	2528.970444
511.167403	2532.839530
511.532010	2529.565300
511.896561	2531.962369
512.261053	2532.274921
512.625488	2528.967924
512.989866	2529.565300
513.354186	2529.661082
513.718449	2530.719725
514.082655	2531.052441
514.446803	2533.268028
514.810894	2533.109232
515.174927	2534.218285
515.538904	2534.866074
515.902822	2533.109232
516.266684	2532.421114
516.630488	2529.371216
516.994235	2534.513193
517.357925	2533.562935
517.721558	2536.411187
518.085133	2533.830117
518.448651	2533.270548
518.812112	2536.159130
519.175516	2534.404808
519.538863	2531.939684
519.902152	2534.729963
520.265385	2532.080836
520.628560	2533.565456
520.991678	2532.511855
521.354739	2531.720394
521.717743	2531.281813
522.080690	2534.556043
522.443580	2533.535209
522.806413	2536.638039
523.169189	2533.648635
523.531908	2535.629808
523.894569	2533.890610
524.257174	2535.864222
524.619722	2535.160981
524.982213	2534.926567
525.344647	2537.179963
525.707025	2536.983358
526.069345	2535.259284
526.431608	2534.440096
526.793815	2535.029911
527.155964	2534.792977
527.518057	2536.375899
527.880093	2536.907741
528.242072	2538.498225
528.603995	2535.592000
528.965860	2536.779192
529.327669	2538.586445
529.689421	2535.453368
530.051117	2539.725746
530.412755	2535.181146
530.774337	2538.667104
531.135862	2537.258101
531.497331	2537.633667
531.858743	2533.280631
532.220098	2537.089223
532.581396	2533.497400
532.942638	2532.668131
533.303824	2538.684748
533.664953	2540.623071
534.026025	2537.817669
534.387040	2538.470499
534.747999	2541.323792
535.108902	2538.455375
535.469748	2540.131559
535.830537	2539.418236
536.191270	2537.001002
536.551947	2541.056611
536.912567	2540.612989
537.273131	2538.687268
537.633638	2542.276570
537.994089	2544.842517
538.354483	2540.476878
538.714821	2539.851775
539.075103	2544.091385
539.435328	2544.177085
539.795497	2545.150027
540.155609	2545.830583
540.515665	2542.644574
540.875665	2546.440563
541.235609	2543.955274
541.595496	2542.518545
541.955328	2543.587270
542.315102	2547.408464
542.674821	2543.020140
543.034483	2546.390151
543.394090	2544.746735
543.753640	2548.252858
544.113134	2547.655481
544.472571	2544.424101
544.831953	2545.974256
545.191278	2546.248999
545.550548	2546.710265
545.909761	2548.036088
546.268918	2547.017775
546.628019	2547.652960
546.987064	2548.388969
547.346053	2548.686397
547.704986	2548.600697
548.063863	2548.005841
548.422684	2549.356870
548.781449	2547.113557
549.140158	2549.654298
549.498811	2548.615821
549.857408	2548.363763
550.215949	2544.053577
550.574434	2544.882846
550.932864	2548.837632
551.291237	2547.048022
551.649555	2548.837632
552.007817	2552.169834
552.366022	2549.971891
552.724173	2551.005328
553.082267	2549.049360
553.440305	2550.438198
553.798288	2550.798640
554.156215	2550.367622
554.514086	2550.798640
554.871902	2552.084135
555.229661	2551.030533
555.587365	2551.806871
555.945014	2553.142777
556.302606	2554.211502
556.660143	2551.862324
557.017625	2555.764177
557.375050	2553.576316
557.732421	2555.300391
558.089735	2554.776111
558.446994	2555.207129
558.804197	2550.717982
559.161345	2556.500185
559.518437	2555.418858
559.875474	2555.582695
560.232455	2556.353992
560.589381	2556.364074
560.946251	2556.333827
561.303065	2559.265258
561.659825	2555.169321
562.016528	2554.360216
562.373177	2558.015052
562.729770	2558.834240
563.086307	2556.714434
563.442789	2559.025803
563.799216	2557.377346
564.155587	2557.110165
564.511904	2558.516647
564.868164	2557.599157
565.224370	2560.588561
565.580520	2558.027655
565.936615	2559.045968
566.292654	2559.834909
566.648638	2558.062943
567.004567	2559.867676
567.360441	2558.919939
567.716260	2558.849363
568.072023	2559.151832
568.427732	2555.030689
568.783385	2556.570762
569.138982	2553.961964
569.494525	2556.752243
569.850013	2551.900132
570.205445	2559.081256
570.560823	2559.565207
570.916145	2562.514282
571.271412	2557.848694
571.626625	2564.218192
571.981782	2557.526060
572.336884	2557.372305
572.691931	2558.839281
573.046923	2559.761812
573.401860	2558.667882
573.756743	2558.930022
574.111570	2559.814744
574.466342	2558.451112
574.821059	2559.368602
575.175722	2558.766184
575.530330	2555.300391
575.884882	2557.140412
576.239380	2558.468756
576.593823	2558.188972
576.948211	2554.566903
577.302544	2555.151677
577.656823	2554.440874
578.011047	2557.379867
578.365216	2554.987839
578.719330	2556.462377
579.073389	2557.163097
579.427394	2552.189999
579.781344	2553.644372
580.135239	2552.121943
580.489080	2550.954916
580.842866	2554.788714
581.196597	2551.978270
581.550273	2551.247303
581.903895	2550.952396
582.257463	2553.092365
582.610975	2547.627755
582.964434	2551.539690
583.317837	2551.317879
583.671186	2548.061294
584.024481	2549.654298
584.377721	2550.213867
584.730906	2550.463404
585.084037	2551.433826
585.437113	2546.919472
585.790135	2550.833928
586.143103	2547.080789
586.496016	2551.862324
586.848874	2543.302445
587.201679	2543.514173
587.554428	2542.460572
587.907124	2544.592980
588.259765	2542.541230
588.612352	2545.192877
588.964884	2548.194884
589.317362	2547.431150
589.669786	2545.223124
590.022155	2545.737322
590.374470	2546.700182
590.726731	2545.548279
591.078937	2543.040305
591.431090	2544.033412
591.783188	2545.197918
592.135232	2543.660367
592.487222	2542.105171
592.839157	2542.016950
593.191038	2543.859492
593.542866	2544.459389
593.894639	2544.282949
594.246358	2541.722043
594.598022	2542.793288
594.949633	2544.071221
595.301190	2541.845551
595.652692	2542.642053
596.004141	2542.858823
596.355535	2542.546272
596.706876	2543.244471
597.058162	2541.976621
597.409395	2539.990407
597.760573	2543.637681
598.111698	2544.552651
598.462768	2541.918648
598.813785	2540.141641
599.164748	2539.733308
599.515657	2542.982331
599.866511	2543.483926
600.217312	2543.355377
600.568060	2545.303783
600.918753	2542.659698
601.269392	2542.400078
601.619978	2541.192722
601.970510	2543.352856
602.320988	2543.955274
602.671412	2542.752959
603.021783	2542.019471
603.372100	2541.124666
603.722363	2540.774306
604.072572	2541.033925
604.422728	2541.696837
604.772830	2537.631147
605.122878	2539.824048
605.472872	2538.886394
605.822813	2536.905220
606.172701	2541.878319
606.522534	2541.313709
606.872314	2541.472506
607.222041	2541.497712
607.571714	2542.082485
607.921333	2540.118956
608.270899	2538.057124
608.620411	2541.631302
608.969870	2541.717002
609.319276	2540.860006
609.668627	2541.475026
610.017926	2540.980993
610.367171	2542.059800
610.716362	2541.933771
611.065500	2539.549306
611.414585	2543.652805
611.763616	2541.616179
612.112594	2543.899821
612.461518	2541.505273
612.810389	2540.983514
613.159207	2539.604758
613.507971	2541.815304
613.856682	2539.629964
614.205340	2543.128525
614.553945	2544.093906
614.902496	2541.505273
615.250994	2541.616179
615.599439	2540.980993
615.947830	2542.447969
616.296169	2539.413194
616.644454	2545.303783
616.992686	2541.149872
617.340864	2540.817156
617.688990	2542.132897
618.037063	2542.490819
618.385082	2542.037115
618.733048	2542.223638
619.080961	2542.415202
619.428821	2541.311189
619.776628	2542.687424
620.124382	2543.085675
620.472083	2542.972249
620.819731	2544.305634
621.167326	2543.183977
621.514868	2544.761859
621.862357	2542.374872
622.209793	2541.679193
622.557176	2544.507280
622.904506	2538.815818
623.251783	2538.631816
623.599007	2541.134748
623.946179	2540.776827
624.293297	2540.139121
624.640363	2541.142310
624.987376	2541.343956
625.334336	2542.057280
625.681243	2543.100798
626.028097	2543.569626
626.374899	2543.594832
626.721647	2542.843700
627.068343	2543.045346
627.414987	2543.332692
627.761577	2547.269833
628.108115	2542.659697
628.454600	2544.466951
628.801032	2544.978628
629.147412	2544.774462
629.493739	2544.542568
629.840014	2545.356715
630.186236	2543.360418
630.532405	2544.779503
630.878521	2543.657846
631.224585	2544.708927
631.570597	2545.631458
631.916556	2546.619524
632.262462	2548.875440
632.608316	2545.255892
632.954117	2545.669266
633.299866	2547.247147
633.645562	2547.831921
633.991206	2548.187323
634.336797	2548.071376
634.682336	2548.005841
635.027823	2544.557692
635.373257	2548.222611
635.718639	2545.255892
636.063968	2545.772610
636.409245	2546.914431
636.754470	2546.349822
637.099642	2547.310162
637.444762	2550.672612
637.789829	2548.315872
638.134845	2547.380738
638.479808	2547.658002
638.824719	2547.075748
639.169577	2550.481048
639.514383	2549.828218
639.859137	2549.450132
640.203839	2550.261758
640.548489	2550.589432
640.893086	2549.160265
641.237632	2546.115408
641.582125	2546.254040
641.926566	2547.176571
642.270955	2548.235214
642.615292	2549.901315
642.959576	2552.431974
643.303809	2551.058260
643.647990	2555.512119
643.992118	2553.079762
644.336195	2553.541028
644.680219	2553.974567
645.024192	2553.064639
645.368112	2557.820968
645.711981	2554.140925
646.055797	2558.632593
646.399562	2557.649568
646.743274	2559.590413
647.086935	2562.869683
647.430544	2561.198541
647.774101	2565.012174
648.117606	2564.636608
648.461059	2566.736248
648.804460	2566.559808
649.147810	2566.421176
649.491108	2566.126269
649.834354	2567.497462
650.177548	2566.852195
650.520690	2563.968655
650.863781	2567.298337
651.206820	2570.348235
651.549807	2569.024932
651.892742	2570.996023
652.235626	2570.670869
652.578458	2570.459140
652.921238	2571.689182
653.263967	2573.650191
653.606644	2571.394274
653.949269	2573.705643
654.291843	2574.920562
654.634365	2576.208576
654.976836	2572.863771
655.319255	2578.356108
655.661622	2579.152610
656.003938	2579.187898
656.346203	2579.185378
656.688416	2581.690831
657.030577	2581.595049
657.372687	2579.140007
657.714746	2582.449525
658.056753	2583.435070
658.398708	2578.446849
658.740612	2584.581933
659.082465	2585.486820
659.424266	2585.474217
659.766016	2584.387848
660.107715	2590.737182
660.449362	2593.908067
660.790958	2592.095773
661.132503	2595.420414
661.473996	2598.936618
661.815438	2598.407297
662.156829	2600.731269
662.498168	2599.455857
662.839456	2603.370313
663.180693	2604.260077
663.521879	2606.868874
663.863013	2608.603031
664.204097	2608.426591
664.545129	2611.683176
664.886110	2614.972529
665.227040	2617.485544
665.567918	2619.751543
665.908746	2621.251286
666.249522	2623.290433
666.590248	2623.265227
666.930922	2625.851339
667.271545	2627.073819
667.612118	2631.867956
667.952639	2633.322329
668.293109	2635.268214
668.633528	2634.774181
668.973896	2636.883904
669.314213	2638.650828
669.654480	2638.330715
669.994695	2640.500932
670.334859	2640.291724
670.674973	2640.768113
671.015035	2645.237096
671.355047	2646.026037
671.695008	2649.466624
672.034918	2650.134577
672.374777	2654.164979
672.714585	2656.516678
673.054342	2658.268479
673.394049	2660.778973
673.733705	2662.074550
674.073310	2665.142092
674.412864	2668.310457
674.752368	2668.617967
675.091820	2670.306754
675.431223	2667.239212
675.770574	2669.560663
676.109875	2668.204593
676.449125	2669.565704
676.788324	2669.583348
677.127473	2670.861281
677.466571	2668.320539
677.805619	2673.548216
678.144616	2672.111487
678.483562	2675.085768
678.822458	2674.621982
679.161303	2679.527024
679.500098	2676.714061
679.838842	2682.828980
680.177535	2685.732685
680.516179	2686.856862
680.854771	2691.991277
681.193314	2701.077957
681.531805	2710.978783
681.870247	2719.425237
682.208638	2726.850856
682.546978	2731.949983
682.885268	2734.218502
683.223508	2731.534088
683.561697	2734.236147
683.899836	2735.312433
684.237925	2734.843606
684.575963	2737.951477
684.913951	2740.603124
685.251889	2745.384658
685.589776	2747.015472
685.927614	2749.208373
686.265401	2759.290681
686.603137	2762.204468
686.940824	2769.312495
687.278460	2778.522683
687.616046	2785.887809
687.953582	2793.540280
688.291068	2798.382309
688.628504	2804.565284
688.965889	2806.425470
689.303224	2804.393885
689.640510	2803.771302
689.977745	2794.503141
690.314930	2793.850311
690.652065	2792.048099
690.989150	2783.712551
691.326185	2778.341202
691.663170	2772.531272
692.000105	2766.439037
692.336990	2759.494848
692.673825	2759.784714
693.010610	2757.813623
693.347345	2748.623600
693.684030	2746.050091
694.020665	2744.101685
694.357251	2739.816704
694.693786	2743.819380
695.030272	2744.661253
695.366707	2742.569174
695.703093	2741.402147
696.039429	2744.424318
696.375716	2746.158475
696.711952	2745.092271
697.048139	2750.198960
697.384276	2749.425143
697.720363	2752.154928
698.056400	2752.684249
698.392388	2755.487131
698.728326	2755.325814
699.064214	2754.201636
699.400053	2754.010072
699.735842	2756.817995
700.071581	2749.513363
700.407270	2748.825246
700.742910	2751.045874
701.078501	2747.612848
701.414042	2744.424318
701.749533	2745.866088
702.084974	2740.479616
702.420366	2745.024216
702.755709	2742.095305
703.091002	2739.552043
703.426246	2740.668659
703.761440	2740.451889
704.096584	2742.826273
704.431679	2740.862743
704.766725	2745.361973
705.101721	2745.044380
705.436668	2746.526480
705.771565	2743.942888
706.106413	2751.486975
706.441212	2751.502098
706.775961	2755.746750
707.110661	2761.518871
707.445311	2768.248812
707.779913	2769.819131
708.114465	2774.262908
708.448967	2781.290277
708.783421	2794.467853
709.117825	2800.176959
709.452180	2809.026705
709.786485	2819.245124
710.120742	2832.851198
710.454949	2840.009637
710.789107	2851.579085
711.123216	2864.595344
711.457275	2872.517517
711.791286	2883.209804
712.125247	2887.971174
712.459159	2887.774569
712.793023	2903.555901
713.126837	2887.535114
713.460602	2894.993502
713.794318	2886.564692
714.127985	2884.107130
714.461602	2870.211189
714.795171	2871.703371
715.128691	2853.330886
715.462162	2846.230420
715.795584	2838.643484
716.128957	2834.986127
716.462281	2827.943635
716.795556	2828.782987
717.128782	2823.580516
717.461960	2814.130873
717.795088	2813.830925
718.128167	2809.924030
718.461198	2802.987403
718.794180	2803.710808
719.127113	2800.076136
719.459997	2796.882565
719.792833	2793.825106
720.125619	2795.274437
720.458357	2790.760084
720.791046	2788.065587
721.123686	2787.155659
721.456278	2787.148097
721.788821	2791.060033
722.121315	2787.138015
722.453761	2790.666823
722.786158	2790.787810
723.118506	2791.624642
723.450805	2792.582461
723.783056	2797.984057
724.115259	2797.971455
724.447412	2799.047741
724.779518	2807.474030
725.111574	2809.787919
725.443582	2817.107675
725.775542	2816.918631
726.107453	2832.279027
726.439315	2831.956393
726.771129	2847.263857
727.102895	2854.447501
727.434612	2866.367309
727.766281	2868.348483
728.097901	2874.670090
728.429473	2877.331819
728.760996	2878.980276
729.092471	2880.459855
729.423897	2884.722151
729.755276	2883.066132
730.086606	2887.129302
730.417887	2902.177146
730.749120	2920.773962
731.080305	2925.651279
731.411442	2936.799790
731.742530	2940.472271
732.073570	2944.308589
732.404562	2956.233438
732.735506	2953.891823
733.066401	2948.664146
733.397249	2936.767023
733.728048	2922.359405
734.058798	2903.253432
734.389501	2886.380690
734.720156	2875.862323
735.050762	2865.898482
735.381320	2857.061339
735.711831	2853.393900
736.042293	2847.773013
736.372707	2849.998683
736.703073	2849.824763
737.033391	2857.399097
737.363661	2860.144005
737.693883	2865.207844
738.024056	2872.938453
738.354182	2880.669063
738.684260	2894.262534
739.014290	2902.744276
739.344272	2906.084040
739.674207	2925.663882
740.004093	2928.774273
740.333931	2929.989192
740.663722	2935.824327
740.993464	2938.493618
741.323159	2936.008329
741.652806	2925.270672
741.982405	2924.648089
742.311956	2916.272212
742.641460	2916.680545
742.970915	2907.137641
743.300323	2898.408883
743.629683	2893.758419
743.958996	2887.209960
744.288260	2877.548589
744.617477	2870.264121
744.946647	2867.632639
745.275768	2863.992926
745.604842	2855.977491
745.933869	2853.446832
746.262847	2853.436750
746.591778	2856.763911
746.920662	2853.136801
747.249498	2859.697863
747.578286	2866.561394
747.907027	2872.290665
748.235720	2880.021275
748.564365	2884.916235
748.892963	2883.774414
749.221514	2887.721637
749.550017	2883.660988
749.878473	2887.109137
750.206881	2881.616800
750.535242	2880.230483
750.863555	2879.754093
751.191821	2879.900287
751.520039	2881.049670
751.848210	2877.830893
752.176334	2881.642006
752.504411	2880.480020
752.832440	2879.285266
753.160421	2880.142262
753.488356	2878.428270
753.816243	2878.206459
754.144082	2877.840976
754.471875	2876.285780
754.799620	2874.937271
755.127318	2872.915768
755.454969	2875.108670
755.782572	2875.937940
756.110129	2879.159237
756.437638	2877.563712
756.765100	2879.431460
757.092515	2881.889022
757.419882	2885.259033
757.747203	2887.363715
758.074477	2890.794220
758.401703	2890.005280
758.728882	2896.931825
759.056014	2905.753844
759.383099	2908.687796
759.710138	2913.958322
760.037129	2923.261772
760.364073	2924.753953
760.690970	2922.407296
761.017820	2927.297215
761.344623	2937.119904
761.671379	2953.440639
761.998088	2980.574650
762.324751	3053.023592
762.651366	3177.391378
762.977935	3324.835046
763.304456	3416.180754
763.630931	3438.702108
763.957359	3392.862897
764.283740	3313.099240
764.610074	3234.976479
764.936362	3152.770383
765.262602	3091.626228
765.588796	3031.157587
765.914943	2987.523880
766.241044	2956.019189
766.567097	2926.041968
766.893104	2904.221334
767.219064	2891.005949
767.544978	2875.348125
767.870845	2863.582072
768.196665	2857.308356
768.522438	2848.730833
768.848165	2843.528362
769.173846	2837.713391
769.499479	2832.999912
769.825066	2828.846001
770.150607	2822.471462
770.476101	2815.708754
770.801548	2816.585915
771.126949	2811.015440
771.452303	2804.494708
771.777611	2799.657721
772.102872	2800.176959
772.428087	2794.241001
772.753256	2790.530712
773.078378	2787.422840
773.403453	2781.184412
773.728482	2777.330450
774.053465	2774.220058
774.378401	2771.563370
774.703291	2767.638832
775.028135	2764.480549
775.352932	2762.060795
775.677683	2759.033582
776.002388	2757.591812
776.327046	2756.376894
776.651658	2754.080649
776.976224	2752.326327
777.300743	2749.387334
777.625216	2746.733167
777.949643	2747.343147
778.274024	2749.054618
778.598359	2741.795357
778.922647	2742.201170
779.246889	2744.378948
779.571086	2742.397775
779.895236	2745.798033
780.219339	2746.783578
780.543397	2749.636872
780.867409	2753.536204
781.191374	2754.138622
781.515294	2750.415730
781.839167	2758.032913
782.162995	2752.858169
782.486776	2755.383787
782.810511	2753.841194
783.134201	2750.163672
783.457844	2749.518404
783.781441	2747.249885
784.104993	2746.045049
784.428498	2747.340626
784.751958	2744.784761
785.075372	2744.431880
785.398739	2741.903742
785.722061	2747.113774
786.045337	2747.161665
786.368568	2752.921183
786.691752	2756.767584
787.014891	2773.836931
787.337983	2789.588016
787.661030	2820.500371
787.984031	2844.965091
788.306987	2858.258613
788.629897	2865.933770
788.952760	2861.248018
789.275579	2852.506657
789.598351	2839.865964
789.921078	2823.099086
790.243759	2807.773978
790.566395	2795.644962
790.888984	2785.093827
791.211529	2776.395316
791.534027	2767.059099
791.856480	2760.429982
792.178888	2758.005187
792.501249	2753.586616
792.823566	2748.457242
793.145836	2749.770462
793.468062	2747.567478
793.790241	2746.168558
794.112375	2748.192581
794.434464	2755.915629
794.756507	2762.146495
795.078505	2767.888369
795.400457	2781.058383
795.722364	2794.929118
796.044226	2809.324133
796.366042	2819.230000
796.687812	2816.694300
797.009538	2822.040444
797.331218	2821.894250
797.652852	2816.220432
797.974442	2810.629792
798.295986	2807.562250
798.617484	2797.237967
798.938938	2792.988274
799.260346	2788.262192
799.581709	2777.597631
799.903026	2778.678959
800.224299	2773.690737
800.545526	2766.857453
800.866708	2762.592637
801.187845	2758.761360
801.508936	2754.940165
801.829983	2753.541245
802.150984	2743.431211
802.471940	2743.947929
802.792851	2743.083372
803.113717	2739.794019
803.434538	2740.582959
803.755314	2739.375603
804.076045	2739.138669
804.396731	2736.431569
804.717372	2739.378123
805.037967	2740.146899
805.358518	2737.603637
805.679024	2743.912641
805.999485	2745.535893
806.319901	2749.377252
806.640272	2749.339443
806.960598	2753.722727
807.280879	2753.263982
807.601115	2756.550814
807.921306	2755.716503
808.241453	2755.592995
808.561554	2757.077615
808.881611	2753.016965
809.201623	2755.666092
809.521590	2756.233221
809.841513	2752.200298
810.161390	2753.546286
810.481223	2747.219638
810.801011	2749.523446
811.120755	2750.609814
811.440453	2747.859865
811.760107	2745.858527
812.079716	2741.671848
812.399281	2736.643297
812.718801	2737.560787
813.038276	2734.664645
813.357707	2737.898545
813.677093	2738.034656
813.996434	2733.853019
814.315731	2736.504666
814.634983	2738.931981
814.954191	2736.925602
815.273354	2745.346850
815.592473	2750.380442
815.911547	2756.112234
816.230577	2761.864190
816.549562	2769.057917
816.868502	2771.727208
817.187399	2778.842796
817.506250	2785.973508
817.825058	2792.985753
818.143821	2811.494350
818.462539	2824.094714
818.781213	2844.153465
819.099843	2876.840307
819.418429	2928.340734
819.736970	2981.111533
820.055466	3040.516490
820.373919	3129.573513
820.692327	3256.298039
821.010691	3467.744196
821.329011	3868.694887
821.647286	4393.516812
821.965517	4935.433288
822.283704	5243.435185
822.601847	5391.100664
822.919945	5203.862128
823.237999	4955.900373
823.556010	4665.683667
823.873976	4377.221282
824.191897	4102.884210
824.509775	3899.062798
824.827609	3711.690672
825.145398	3611.825414
825.463144	3561.333217
825.780845	3595.648351
826.098502	3693.479503
826.416116	3867.603478
826.733685	4025.114330
827.051210	4067.691915
827.368692	3971.602482
827.686129	3789.878968
828.003522	3602.963065
828.320872	3423.898760
828.638177	3290.552679
828.955439	3184.696010
829.272656	3098.149481
829.589830	3024.077287
829.906960	2966.343473
830.224046	2917.519898
830.541088	2884.805330
830.858086	2863.972761
831.175041	2847.911645
831.491952	2841.035511
831.808819	2850.654033
832.125642	2875.519524
832.442421	2935.012701
832.759157	3040.592107
833.075849	3195.998277
833.392497	3345.985207
833.709101	3440.970628
834.025662	3423.470262
834.342179	3336.865760
834.658653	3221.342678
834.975083	3124.335755
835.291469	3047.662325
835.607811	2975.868733
835.924110	2925.762184
836.240366	2879.834752
836.556578	2836.632063
836.872746	2804.519913
837.188871	2776.465892
837.504952	2757.092738
837.820990	2738.768144
838.136984	2727.954869
838.452935	2724.448746
838.768842	2731.075343
839.084706	2762.181783
839.400526	2831.384222
839.716303	2913.779361
840.032037	2972.060141
840.347727	2955.449539
840.663373	2900.175808
840.978977	2845.020543
841.294537	2801.858184
841.610054	2769.604882
841.925527	2745.419946
842.240957	2723.823643
842.556344	2705.622557
842.871687	2688.717048
843.186987	2675.705830
843.502244	2664.259890
843.817458	2650.661377
844.132629	2642.502270
844.447756	2641.725932
844.762840	2632.581279
845.077881	2630.463995
845.392879	2622.531739
845.707833	2623.653396
846.022745	2619.345730
846.337613	2622.042747
846.652438	2618.473610
846.967221	2617.851028
847.281960	2615.262395
847.596656	2615.968157
847.911309	2612.701489
848.225919	2613.684514
848.540485	2611.710902
848.855009	2609.268463
849.169490	2607.211673
849.483928	2609.165120
849.798323	2608.262753
850.112675	2608.862650
850.426984	2605.318719
850.741251	2608.625716
851.055474	2606.127824
851.369654	2609.397013
851.683792	2606.163112
851.997887	2607.456168
852.311938	2608.895418
852.625947	2606.916765
852.939914	2607.418360
853.253837	2607.496498
853.567718	2607.473812
853.881555	2607.584718
854.195350	2609.220572
854.509103	2610.495984
854.822812	2608.124121
855.136479	2607.834255
855.450103	2609.964142
855.763685	2606.654625
856.077224	2607.814090
856.390720	2608.802157
856.704173	2610.987497
857.017584	2611.466406
857.330953	2612.305758
857.644278	2613.465224
857.957561	2617.223404
858.270802	2613.707199
858.584000	2613.366921
858.897155	2615.075872
859.210268	2612.373814
859.523339	2610.332147
859.836367	2611.415995
860.149352	2610.750562
860.462295	2610.185953
860.775195	2608.595469
861.088054	2604.154213
861.400869	2607.141096
861.713642	2604.870057
862.026373	2609.160078
862.339062	2610.392641
862.651708	2613.881119
862.964312	2614.675101
863.276873	2615.711058
863.589392	2620.454784
863.901869	2620.953858
864.214303	2624.717079
864.526696	2629.957359
864.839045	2631.270579
865.151353	2630.332925
865.463619	2632.498100
865.775842	2633.014818
866.088023	2634.887607
866.400162	2634.108749
866.712258	2632.974489
867.024313	2633.186218
867.336325	2634.542288
867.648296	2637.246867
867.960224	2634.983389
868.272110	2636.165540
868.583954	2634.900210
868.895755	2637.803915
869.207515	2636.347021
869.519233	2640.568987
869.830909	2640.601755
870.142542	2644.034781
870.454134	2641.690644
870.765684	2644.233906
871.077191	2645.418577
871.388657	2647.982004
871.700081	2653.197078
872.011463	2654.853097
872.322803	2660.131185
872.634101	2658.850732
872.945357	2661.141936
873.256571	2664.338028
873.567744	2667.324912
873.878874	2668.522186
874.189963	2668.257525
874.501010	2672.449244
874.812015	2670.135355
875.122979	2674.337157
875.433900	2672.187104
875.744780	2676.280521
876.055618	2674.937054
876.366415	2678.004596
876.677169	2679.721109
876.987882	2679.726150
877.298554	2682.929803
877.609183	2690.778880
877.919771	2695.885569
878.230317	2706.918134
878.540822	2727.052502
878.851285	2749.462952
879.161707	2781.617952
879.472087	2834.991168
879.782425	2915.574012
880.092722	3047.072510
880.402977	3213.644836
880.713191	3372.254660
881.023363	3517.976773
881.333494	3598.645317
881.643583	3660.336437
881.953631	3673.246832
882.263637	3646.024602
882.573602	3586.241558
882.883526	3521.866023
883.193408	3440.637912
883.503248	3355.570961
883.813048	3276.623971
884.122806	3199.358206
884.432522	3121.414406
884.742197	3057.124571
885.051831	2998.213647
885.361424	2945.125256
885.670975	2903.452558
885.980485	2865.129706
886.289954	2836.231292
886.599382	2808.189873
886.908768	2786.979219
887.218113	2765.317381
887.527417	2748.852972
887.836680	2733.837895
888.145901	2722.286091
888.455082	2706.217413
888.764221	2701.324974
889.073319	2692.099662
889.382376	2690.826771
889.691392	2684.701769
890.000366	2685.997345
890.309300	2682.345029
890.618193	2685.462983
890.927044	2682.155986
891.235855	2683.854855
891.544625	2689.896678
891.853353	2688.258303
892.162041	2699.280786
892.470687	2712.828887
892.779293	2731.188769
893.087858	2750.690473
893.396381	2786.603653
893.704864	2839.800429
894.013306	2905.489184
894.321707	2978.648929
894.630068	3023.414375
894.938387	3031.961652
895.246665	3015.545134
895.554903	2981.451811
895.863100	2937.797939
896.171256	2904.808628
896.479371	2873.586242
896.787446	2845.476768
897.095480	2818.254537
897.403473	2796.907771
897.711425	2777.040584
898.019336	2760.588778
898.327207	2744.043711
898.635038	2731.213975
898.942827	2717.539845
899.250576	2706.101467
899.558284	2693.115455
899.865952	2686.587160
900.173579	2674.057372
900.481165	2668.529747
900.788711	2662.883655
901.096216	2660.763850
901.403681	2656.148673
901.711105	2654.454846
902.018489	2656.804023
902.325832	2663.337359
902.633135	2669.215344
902.940397	2695.326001
903.247619	2749.450349
903.554800	2840.642301
903.861941	2951.003241
904.169041	3029.846888
904.476101	3052.632903
904.783121	3031.381919
905.090100	2990.268789
905.397039	2941.878753
905.703938	2895.338821
906.010796	2856.123685
906.317614	2822.070691
906.624391	2791.765794
906.931129	2766.376023
907.237826	2739.811663
907.544483	2715.392313
907.851099	2694.864735
908.157675	2675.461334
908.464211	2656.153715
908.770707	2635.230406
909.077163	2627.867800
909.383578	2615.552262
909.689954	2612.605707
909.996289	2606.538678
910.302584	2605.825355
910.608839	2604.275200
910.915054	2602.175560
911.221229	2598.992071
911.527363	2600.093563
911.833458	2604.093719
912.139513	2606.326950
912.445527	2607.675459
912.751502	2613.137549
913.057436	2618.556789
913.363331	2628.772687
913.669186	2645.043012
913.975000	2663.506237
914.280775	2693.493541
914.586510	2731.420662
914.892205	2779.152827
915.197859	2842.021057
915.503475	2911.047056
915.809050	2969.209368
916.114585	3003.514420
916.420081	3015.976153
916.725536	3014.105885
917.030952	2985.499857
917.336328	2965.047896
917.641665	2938.818773
917.946961	2911.223496
918.252218	2881.147973
918.557435	2851.858869
918.862612	2823.767039
919.167750	2802.160653
919.472848	2777.368259
919.777906	2752.590988
920.082925	2730.853532
920.387904	2709.095912
920.692843	2695.467153
920.997743	2680.953671
921.302603	2667.115704
921.607423	2658.419713
921.912204	2648.410502
922.216946	2641.836838
922.521647	2632.858543
922.826310	2624.969137
923.130932	2618.892026
923.435516	2616.454628
923.740059	2610.574122
924.044564	2605.049017
924.349028	2599.478543
924.653454	2592.478900
924.957840	2588.945052
925.262186	2584.705441
925.566493	2582.620924
925.870761	2575.477609
926.174989	2578.144379
926.479178	2577.466344
926.783328	2573.483833
927.087438	2569.894531
927.391509	2569.650035
927.695541	2564.008984
927.999533	2561.932029
928.303486	2561.284240
928.607400	2562.274827
928.911275	2560.233160
929.215110	2560.409600
929.518906	2557.931873
929.822663	2559.189641
930.126381	2557.064795
930.430060	2557.006821
930.733699	2561.304405
931.037299	2558.892213
931.340861	2559.789538
931.644383	2565.601989
931.947866	2560.833057
932.251309	2561.090156
932.554714	2558.851884
932.858080	2565.904458
933.161407	2557.394990
933.464694	2559.492110
933.767943	2556.865669
934.071153	2554.793755
934.374323	2559.023283
934.677455	2559.219888
934.980548	2556.921122
935.283602	2555.885165
935.586617	2555.537325
935.889593	2557.263920
936.192530	2555.333158
936.495428	2557.074877
936.798287	2558.922460
937.101108	2562.214333
937.403890	2567.280693
937.706632	2571.364028
938.009336	2576.145562
938.312002	2581.249730
938.614628	2585.658219
938.917216	2588.259455
939.219765	2589.368508
939.522275	2591.390011
939.824747	2594.737337
940.127179	2591.203488
940.429573	2585.648137
940.731929	2588.461101
941.034246	2585.244845
941.336524	2587.684763
941.638763	2589.192068
941.940964	2589.708786
942.243126	2584.113106
942.545250	2582.930955
942.847335	2580.826273
943.149381	2577.647826
943.451389	2576.100192
943.753359	2574.688668
944.055290	2571.797567
944.357182	2568.442679
944.659036	2568.021742
944.960851	2569.713050
945.262628	2569.524006
945.564367	2569.854202
945.866067	2567.668862
946.167729	2567.076526
946.469352	2566.461505
946.770937	2566.189283
947.072484	2562.731052
947.373992	2563.663665
947.675462	2564.066957
947.976893	2564.777760
948.278286	2561.324570
948.579641	2561.271638
948.880958	2563.393963
949.182236	2563.794735
949.483476	2561.415310
949.784678	2561.291802
950.085841	2563.335990
950.386967	2567.699109
950.688054	2564.417317
950.989103	2563.900599
951.290114	2567.578121
951.591087	2568.863615
951.892021	2573.501477
952.192917	2572.664645
952.493776	2575.790161
952.794596	2574.701271
953.095378	2572.994841
953.396122	2576.022054
953.696828	2573.256981
953.997496	2574.093812
954.298126	2571.628688
954.598718	2568.513255
954.899272	2568.543502
955.199788	2568.203224
955.500266	2560.676781
955.800706	2559.610577
956.101108	2550.342416
956.401472	2553.682180
956.701798	2550.289484
957.002087	2547.962991
957.302337	2549.145142
957.602550	2546.453166
957.902724	2544.809750
958.202861	2541.018802
958.502960	2542.372352
958.803022	2541.845551
959.103045	2540.877650
959.403031	2539.849254
959.702979	2535.818852
960.002889	2536.169212
960.302762	2538.223482
960.602596	2535.120652
960.902393	2537.139634
961.202153	2531.969931
961.501875	2533.683923
961.801559	2535.123172
962.101205	2533.520086
962.400814	2533.507483
962.700385	2533.830117
962.999918	2534.235929
963.299414	2532.499252
963.598873	2534.167874
963.898293	2529.141843
964.197677	2529.691329
964.497022	2531.196114
964.796331	2530.825589
965.095601	2531.554036
965.394835	2531.853984
965.694030	2530.941535
965.993189	2529.472039
966.292309	2527.067409
966.591393	2529.071267
966.890439	2528.090763
967.189447	2532.461443
967.488419	2528.166380
967.787353	2529.330887
968.086249	2529.343490
968.385108	2530.865918
968.683930	2528.710825
968.982714	2529.454395
969.281462	2531.861546
969.580172	2531.203675
969.878844	2527.387522
970.177480	2531.576721
970.476078	2531.070085
970.774639	2531.319622
971.073162	2535.274407
971.371649	2532.801721
971.670098	2531.755682
971.968510	2534.649304
972.266885	2529.877852
972.565223	2531.319622
972.863524	2534.377082
973.161788	2536.310364
973.460014	2535.110570
973.758204	2537.232895
974.056356	2535.304654
974.354471	2532.645445
974.652550	2537.573173
974.950591	2536.726259
975.248595	2534.873635
975.546563	2535.130734
975.844493	2534.961856
976.142386	2534.684592
976.440243	2534.742565
976.738062	2532.043027
977.035845	2535.536547
977.333590	2533.441948
977.631299	2533.474715
977.928971	2531.095291
978.226606	2534.049407
978.524204	2531.637215
978.821765	2534.344314
979.119290	2533.671320
979.416777	2533.431865
979.714228	2531.485980
980.011642	2531.980013
980.309020	2533.217616
980.606360	2532.627801
980.903664	2536.017977
981.200931	2537.215251
981.498162	2537.923533
981.795356	2548.872920
982.092513	2551.864844
982.389633	2558.587223
982.686717	2562.627708
982.983764	2568.714901
983.280775	2571.341342
983.577749	2567.131979
983.874686	2570.479305
984.171587	2569.476115
984.468451	2566.718604
984.765279	2562.728531
985.062070	2559.623180
985.358824	2554.904660
985.655543	2553.576316
985.952224	2546.710265
986.248869	2544.023330
986.545478	2538.208359
986.842050	2534.729963
987.138586	2530.722245
987.435086	2529.555218
987.731549	2528.552028
988.027975	2530.636546
988.324366	2525.900382
988.620719	2530.336597
988.917037	2529.797193
989.213318	2528.115969
989.509563	2525.907943
989.805772	2527.004394
990.101944	2525.479445
990.398080	2527.795855
990.694180	2525.663447
990.990244	2527.054806
991.286271	2523.563807
991.582262	2527.778211
991.878217	2526.286030
992.174136	2527.959693
992.470019	2525.812161
992.765865	2525.570186
993.061676	2526.613705
993.357450	2526.679240
993.653188	2530.001360
993.948890	2528.302491
994.244556	2527.934487
994.540186	2531.980013
994.835780	2536.249870
995.131337	2536.315405
995.426859	2542.110212
995.722345	2543.340253
996.017795	2543.133566
996.313208	2550.420554
996.608586	2546.891746
996.903928	2550.165976
997.199234	2550.617159
997.494504	2552.500030
997.789738	2548.139432
998.084936	2547.574823
998.380099	2544.782023
998.675225	2541.729605
998.970316	2538.271373
999.265371	2538.805735
999.560390	2536.738862
999.855373	2535.912113
1000.150320	2534.132586
1000.445232	2531.163346
1000.740108	2530.628984
1001.034948	2527.208561
1001.329752	2529.643438
1001.624521	2529.260311
1001.919254	2522.505164
1002.213951	2524.022552
1002.508613	2521.940555
1002.803239	2524.118334
1003.097829	2518.593229
1003.392384	2524.302336
1003.686903	2523.520957
1003.981386	2527.102697
1004.275834	2520.647499
1004.570246	2525.040865
1004.864623	2524.680422
1005.158964	2522.454753
1005.453270	2523.074815
1005.747540	2523.997346
1006.041775	2521.454084
1006.335974	2523.596574
1006.630138	2520.511388
1006.924266	2522.099352
1007.218359	2524.509023
1007.512416	2524.481297
1007.806438	2525.413910
1008.100425	2523.165556
1008.394376	2523.218488
1008.688292	2522.411903
1008.982172	2522.089269
1009.276017	2523.888961
1009.569827	2520.617252
1009.863602	2525.696215
1010.157341	2521.436440
1010.451045	2523.001718
1010.744714	2525.330731
1011.038347	2524.647655
1011.331945	2521.562469
1011.625508	2522.122037
1011.919036	2520.390400
1012.212528	2522.243024
1012.505986	2522.782428
1012.799408	2522.106913
1013.092795	2520.982736
1013.386147	2522.885772
1013.679464	2522.341327
1013.972745	2523.316790
1014.265992	2520.266892
1014.559204	2520.675226
1014.852380	2523.029444
1015.145521	2522.026255
1015.438628	2518.205060
1015.731699	2521.040709
1016.024736	2523.037006
1016.317737	2521.648168
1016.610703	2525.454239
1016.903635	2517.718589
1017.196531	2520.881913
1017.489393	2521.464166
1017.782219	2518.910822
1018.075011	2521.280164
1018.367768	2522.863086
1018.660490	2523.278982
1018.953177	2523.278982
1019.245829	2523.278982
