Dividing Wavelength (nm)	Counts (n)	Blue Motor Position (mm): 35.700000	Red Motor Position (mm): 0.000000	
326.493990	2231.421380
326.888308	2231.421380
327.282561	2231.421380
327.676750	2191.006449
328.070874	2185.614935
328.464933	2185.746005
328.858929	2190.807324
329.252859	2196.821420
329.646726	2204.040353
330.040528	2217.729606
330.434265	2230.208982
330.827938	2248.881416
331.221547	2265.484456
331.615091	2284.187137
332.008571	2301.712708
332.401986	2318.411530
332.795338	2337.691423
333.188625	2356.479804
333.581847	2377.125849
333.975006	2397.575290
334.368100	2418.057498
334.761129	2434.794129
335.154095	2452.191151
335.546996	2477.364152
335.939833	2516.498630
336.332606	2531.117976
336.725315	2544.804708
337.117960	2556.033879
337.510540	2569.135838
337.903056	2579.452559
338.295508	2589.973447
338.687896	2596.907554
339.080220	2600.615323
339.472480	2611.247116
339.864676	2615.486727
340.256807	2621.543673
340.648875	2626.420989
341.040879	2629.284365
341.432818	2632.281331
341.824694	2633.428193
342.216506	2635.651342
342.608253	2636.583955
342.999937	2635.520272
343.391557	2636.208389
343.783113	2636.291568
344.174605	2635.421969
344.566033	2631.701598
344.957397	2632.916516
345.348697	2632.036835
345.739934	2631.232771
346.131106	2629.276803
346.522215	2626.481483
346.913260	2624.003756
347.304241	2621.480658
347.695159	2620.285905
348.086012	2621.752881
348.476802	2619.224742
348.867528	2612.761983
349.258191	2613.203084
349.648789	2611.030347
350.039324	2606.170674
350.429796	2610.853906
350.820203	2608.161930
351.210548	2609.434821
351.600828	2605.621188
351.991045	2606.188318
352.381198	2605.918617
352.771288	2606.465582
353.161314	2606.185798
353.551276	2604.872577
353.941175	2603.571959
354.331010	2603.045159
354.720782	2603.186311
355.110490	2604.582711
355.500135	2603.342587
355.889717	2605.296034
356.279235	2602.692278
356.668689	2601.268152
357.058080	2603.793770
357.447408	2601.767226
357.836672	2601.210179
358.225873	2603.345107
358.615010	2602.896445
359.004084	2604.638163
359.393095	2603.992896
359.782043	2603.501383
360.170927	2605.969028
360.559748	2605.059100
360.948505	2604.917948
361.337199	2606.561364
361.725830	2609.122270
362.114398	2607.549430
362.502903	2606.785695
362.891344	2611.216869
363.279722	2608.502208
363.668037	2609.107146
364.056289	2609.926334
364.444478	2611.728546
364.832603	2612.396499
365.220665	2612.419184
365.608665	2610.984976
365.996601	2611.148814
366.384474	2613.911366
366.772284	2614.972529
367.160031	2613.641664
367.547715	2618.118209
367.935336	2616.678959
368.322893	2615.033023
368.710388	2611.358022
369.097820	2614.596963
369.485189	2613.278701
369.872495	2618.539145
370.259738	2618.355143
370.646918	2619.680967
371.034035	2619.028137
371.421090	2619.229783
371.808081	2618.224073
372.195010	2620.636265
372.581875	2618.067797
372.968678	2621.193313
373.355418	2619.421347
373.742096	2621.089969
374.128710	2623.529887
374.515262	2623.534929
374.901751	2619.277674
375.288177	2623.078704
375.674540	2622.279681
376.060841	2621.831019
376.447079	2623.711369
376.833254	2625.145577
377.219367	2622.756070
377.605417	2624.081894
377.991404	2622.166255
378.377329	2625.102727
378.763191	2625.959724
379.148991	2625.826133
379.534727	2626.884775
379.920402	2629.503655
380.306013	2628.024076
380.691563	2629.682616
381.077049	2627.835033
381.462474	2628.563480
381.847835	2631.618419
382.233134	2629.140692
382.618371	2630.824437
383.003545	2629.470887
383.388657	2633.329891
383.773706	2634.539767
384.158693	2631.280662
384.543618	2633.919706
384.928480	2636.813328
385.313280	2633.808800
385.698017	2633.491207
386.082692	2635.316105
386.467305	2633.246712
386.851856	2640.568987
387.236344	2640.599234
387.620770	2635.248050
388.005133	2636.556229
388.389435	2636.921713
388.773674	2635.827782
389.157851	2640.153092
389.541965	2640.717702
389.926018	2639.911117
390.310008	2642.734163
390.693936	2642.129225
391.077802	2644.853968
391.461606	2645.400933
391.845348	2644.659884
392.229027	2646.847745
392.612645	2646.046201
392.996200	2645.869761
393.379694	2645.083341
393.763125	2648.967550
394.146494	2648.707930
394.529801	2648.859165
394.913047	2649.723723
395.296230	2650.537869
395.679351	2652.912253
396.062410	2653.643220
396.445408	2653.002993
396.828343	2653.912922
397.211217	2656.425937
397.594028	2655.137922
397.976778	2655.236225
398.359466	2658.316370
398.742092	2655.836122
399.124656	2657.973571
399.507158	2660.269817
399.889598	2662.394663
400.271977	2665.610919
400.654294	2666.087308
401.036549	2675.118535
401.418742	2677.830676
401.800874	2686.456090
402.182944	2693.072605
402.564952	2703.500232
402.946898	2718.689228
403.328783	2732.012998
403.710606	2746.783578
404.092367	2775.306427
404.474067	2797.258131
404.855705	2825.501196
405.237282	2855.901874
405.618797	2903.502969
406.000250	2948.512911
406.381642	3014.199146
406.762972	3069.069585
407.144240	3127.463791
407.525447	3189.916125
407.906593	3255.625045
408.287677	3351.328830
408.668700	3409.065165
409.049661	3503.259125
409.430560	3583.882298
409.811399	3618.822535
410.192176	3769.701749
410.572891	3855.124101
410.953545	4010.051362
411.334138	4009.693440
411.714669	4148.877177
412.095139	4160.701203
412.475547	4335.538501
412.855894	4453.902273
413.236180	4621.795381
413.616405	4575.550356
413.996568	4767.693935
414.376670	4864.549624
414.756711	4902.431375
415.136691	5041.899937
415.516609	5237.955451
415.896466	5328.875181
416.276262	5530.884298
416.655997	5604.303663
417.035670	5822.109235
417.415283	6128.487881
417.794834	6248.490028
418.174324	6250.854329
418.553753	6284.229288
418.933121	6607.059739
419.312428	6753.144816
419.691674	6678.966757
420.070859	7120.287009
420.449983	6962.826569
420.829045	7319.634397
421.208047	7219.113789
421.586988	7533.570884
421.965867	7614.362936
422.344686	7786.793083
422.723444	7871.260136
423.102141	7378.714199
423.480777	8097.975948
423.859352	7719.022331
424.237866	8337.501332
424.616319	8259.222295
424.994712	8672.334770
425.373044	8332.122421
425.751314	8787.719220
426.129524	8694.858646
426.507673	8868.231488
426.885762	9038.002426
427.263789	8978.302562
427.641756	8925.907329
428.019662	9052.848624
428.397508	9300.139906
428.775292	9024.708903
429.153016	9409.805166
429.530679	9258.920911
429.908282	9330.777518
430.285824	9057.937669
430.663305	9739.151309
431.040726	9207.876708
431.418086	9199.032003
431.795385	9527.531232
432.172624	9613.994582
432.549802	9545.858347
432.926920	9634.335638
433.303977	9518.449593
433.680974	9728.680832
434.057910	9810.728132
434.434786	9877.430159
434.811601	9734.722655
435.188355	10297.328027
435.565050	10021.249237
435.941683	9962.197161
436.318257	10457.702255
436.694770	10569.958668
437.071222	10644.754268
437.447614	10497.887812
437.823946	10391.489219
438.200218	10539.898268
438.576429	10348.415080
438.952580	10581.235730
439.328670	10642.594134
439.704700	10429.741495
440.080670	10415.006202
440.456580	10990.600107
440.832429	10733.009748
441.208218	10335.547535
441.583947	10671.648824
441.959616	10806.736623
442.335224	10610.653383
442.710773	10766.936714
443.086261	10960.847217
443.461689	10252.262633
443.837057	10891.785930
444.212365	11176.936277
444.587612	10824.163892
444.962800	11056.571167
445.337927	10828.776548
445.712995	10407.832640
446.088002	11493.273722
446.462949	11148.642801
446.837837	11122.184305
447.212664	11121.372679
447.587431	11614.352155
447.962139	12334.904439
448.336786	14595.262041
448.711374	15151.671835
449.085901	13011.588602
449.460369	12618.476904
449.834776	12071.826784
450.209124	12932.162702
450.583412	13344.423223
450.957640	14290.567141
451.331808	13443.776803
451.705917	12431.727360
452.079965	11747.108421
452.453954	12642.175368
452.827883	12272.222732
453.201752	12551.253118
453.575562	12075.153946
453.949311	12498.545334
454.323001	12444.655399
454.696632	12679.984022
455.070202	12961.608082
455.443713	13209.637892
455.817164	13656.246314
456.190556	13658.824865
456.563888	14022.392880
456.937160	14199.365106
457.310373	13530.628322
457.683526	13611.768214
458.056619	13166.962004
458.429653	13308.799909
458.802628	12749.168818
459.175542	13111.847069
459.548398	14066.248398
459.921194	14399.743410
460.293930	14469.371827
460.666607	15346.827504
461.039224	16384.392747
461.411782	17079.323367
461.784280	16968.087786
462.156719	17010.526740
462.529099	16700.115171
462.901419	15620.073166
463.273680	15411.082051
463.645882	15277.380568
464.018024	15017.735939
464.390106	15233.474639
464.762130	15964.139477
465.134094	16724.128708
465.505999	18713.373057
465.877845	21975.541519
466.249631	24805.693179
466.621358	24490.789943
466.993026	23038.246997
467.364634	22482.023725
467.736184	21025.286540
468.107674	20217.618076
468.479105	20357.164776
468.850477	19814.713937
469.221790	19388.784328
469.593043	18720.223985
469.964238	18163.035332
470.335373	17817.925502
470.706449	18253.582017
471.077467	17813.229667
471.448425	19646.311672
471.819324	23688.719680
472.190164	25690.778642
472.560945	22141.551756
472.931667	19771.740621
473.302330	19136.787130
473.672934	18651.412235
474.043479	18995.145830
474.413965	18798.371952
474.784393	18435.330737
475.154761	19125.225243
475.525070	19108.513818
475.895321	18783.472821
476.265513	19361.864567
476.635645	19946.467014
477.005719	19730.446010
477.375734	19915.136243
477.745691	20407.838455
478.115588	20912.399982
478.485427	21438.227616
478.855207	22493.464624
479.224928	24266.113277
479.594591	26495.109862
479.964194	26523.423502
480.333739	26719.143780
480.703226	26291.119572
481.072653	25970.328267
481.442022	26541.974949
481.811333	27450.032950
482.180584	27379.146765
482.549777	26415.013489
482.918912	26075.658136
483.287988	26203.123711
483.657005	25879.640430
484.025964	25601.202380
484.394864	25531.959611
484.763706	25217.608381
485.132489	24646.566638
485.501213	24826.855943
485.869879	24735.545523
486.238487	24563.213679
486.607036	24694.906262
486.975527	24396.850561
487.343959	24731.487395
487.712333	24665.433156
488.080648	24327.998482
488.448905	24811.858510
488.817104	24572.761625
489.185244	25230.511214
489.553326	25207.253851
489.921350	26209.833486
490.289315	28499.651592
490.657222	30272.990883
491.025070	30782.202875
491.392861	30549.490610
491.760593	29696.774396
492.128267	28790.732856
492.495883	27761.054498
492.863440	26873.753448
493.230939	26007.859658
493.598380	25856.393149
493.965763	25454.613188
494.333088	24993.781150
494.700354	24934.971049
495.067563	24810.457070
495.434713	24548.564086
495.801805	24717.586413
496.168839	24521.588872
496.535815	24359.984603
496.902733	24572.721295
497.269593	24250.410083
497.636395	24438.790441
498.003139	24402.998248
498.369825	24140.409586
498.736453	24345.095555
499.103023	24216.062181
499.469535	24232.569440
499.835989	24443.554331
500.202385	24478.217305
500.568723	23976.869514
500.935003	24218.660896
501.301226	23841.965716
501.667390	24682.389077
502.033497	24916.618728
502.399546	24630.709688
502.765537	24205.745460
503.131470	24594.158802
503.497345	24729.604524
503.863163	23947.955976
504.228923	24544.823550
504.594625	24742.346040
504.960269	24278.199444
505.325856	24771.413333
505.691385	24174.407127
506.056856	24786.942607
506.422270	24746.971299
506.787625	24310.258662
507.152924	24728.160233
507.518164	24765.038794
507.883347	24578.700104
508.248472	24258.228913
508.613540	25045.473141
508.978550	24823.218751
509.343503	24821.172042
509.708398	25065.221862
510.073236	25228.348559
510.438016	25443.656240
510.802738	25120.455264
511.167403	25369.291659
511.532010	25078.991773
511.896561	25843.041653
512.261053	25816.361346
512.625488	25646.565203
512.989866	25546.049636
513.354186	25372.696958
513.718449	25500.013819
514.082655	25862.167791
514.446803	25620.638548
514.810894	26083.789517
515.174927	25556.212602
515.538904	25594.704332
515.902822	26080.762304
516.266684	25840.243813
516.630488	25746.211170
516.994235	25720.725617
517.357925	26020.286102
517.721558	26198.838730
518.085133	26295.003781
518.448651	26218.368160
518.812112	25950.077952
519.175516	26149.001883
519.538863	26296.269110
519.902152	26090.615239
520.265385	26362.890479
520.628560	26155.492368
520.991678	26175.457858
521.354739	26237.645532
521.717743	26314.913818
522.080690	26096.916681
522.443580	26431.850943
522.806413	26418.882575
523.169189	26509.595617
523.531908	26560.279378
523.894569	26179.228641
524.257174	26260.476918
524.619722	26433.527127
524.982213	26124.562369
525.344647	26174.162282
525.707025	26315.914487
526.069345	26298.575438
526.431608	26245.850010
526.793815	26429.302640
527.155964	25914.711737
527.518057	26078.100575
527.880093	25995.607133
528.242072	26228.274027
528.603995	25933.502638
528.965860	25734.868574
529.327669	25780.251561
529.689421	25770.020540
530.051117	25600.753717
530.412755	25783.419927
530.774337	25575.895787
531.135862	25455.119823
531.497331	25649.063094
531.858743	25210.001279
532.220098	25697.876587
532.581396	25373.087648
532.942638	25299.575022
533.303824	25407.228862
533.664953	25406.888584
534.026025	25065.204218
534.387040	25321.249463
534.747999	25370.582194
535.108902	25538.077051
535.469748	25029.984196
535.830537	25199.906369
536.191270	25338.137328
536.551947	25197.075761
536.912567	24828.872405
537.273131	25216.022938
537.633638	24903.549537
537.994089	25117.906960
538.354483	24647.983202
538.714821	25153.936087
539.075103	25175.184550
539.435328	24974.203829
539.795497	24549.322780
540.155609	24929.120790
540.515665	25231.264866
540.875665	24458.350118
541.235609	24778.929693
541.595496	24716.318563
541.955328	25079.263996
542.315102	24994.925492
542.674821	24526.705643
543.034483	24408.966974
543.394090	24582.619601
543.753640	24381.689291
544.113134	25011.339489
544.472571	24607.260761
544.831953	24907.423664
545.191278	24531.275449
545.550548	24446.011893
545.909761	24637.454752
546.268918	24873.106009
546.628019	24849.180693
546.987064	24536.344329
547.346053	24292.042452
547.704986	24406.612756
548.063863	24552.113058
548.422684	24575.199022
548.781449	24104.987918
549.140158	24510.765515
549.498811	24080.712242
549.857408	23838.179810
550.215949	24254.183387
550.574434	23948.460091
550.932864	24155.525485
551.291237	24309.079032
551.649555	24161.592514
552.007817	24219.291040
552.366022	24078.884823
552.724173	24130.705364
553.082267	24075.850049
553.440305	24548.551483
553.798288	23808.663854
554.156215	24316.671009
554.514086	24420.087760
554.871902	23800.608090
555.229661	24082.660648
555.587365	23937.344347
555.945014	23804.131857
556.302606	24056.497059
556.660143	24007.852445
557.017625	24248.166770
557.375050	23781.728969
557.732421	24172.554503
558.089735	23980.549556
558.446994	24050.309043
558.804197	24076.772580
559.161345	24007.524770
559.518437	23774.532722
559.875474	23959.293531
560.232455	24144.666840
560.589381	23956.747748
560.946251	23942.582106
561.303065	24274.922694
561.659825	24358.842782
562.016528	23959.308654
562.373177	23691.457027
562.729770	24053.260638
563.086307	23914.568414
563.442789	24080.918929
563.799216	23918.157715
564.155587	23926.168109
564.511904	23909.272682
564.868164	23842.878165
565.224370	23821.644825
565.580520	23742.934769
565.936615	23863.246947
566.292654	23561.785947
566.648638	23839.687115
567.004567	23666.442822
567.360441	23614.529019
567.716260	23350.065047
568.072023	23670.397607
568.427732	23430.448766
568.783385	23214.064799
569.138982	23449.716056
569.494525	23485.861129
569.850013	23240.505651
570.205445	23323.334329
570.560823	23140.506802
570.916145	22897.041757
571.271412	23073.106576
571.626625	22824.197084
571.981782	22945.245270
572.336884	22743.825968
572.691931	22888.325602
573.046923	22623.710395
573.401860	22501.548114
573.756743	22506.838805
574.111570	22412.312129
574.466342	22337.506447
574.821059	22436.781890
575.175722	22143.432107
575.530330	22119.952933
575.884882	22149.683137
576.239380	22045.517776
576.593823	21943.331067
576.948211	21928.857914
577.302544	21764.783480
577.656823	21623.545472
578.011047	21734.355075
578.365216	21603.229622
578.719330	21478.839151
579.073389	21363.769773
579.427394	21518.379441
579.781344	21284.356477
580.135239	21170.807007
580.489080	21129.275461
580.842866	20908.422511
581.196597	21109.695620
581.550273	21089.921694
581.903895	20968.974331
582.257463	21285.397475
582.610975	20809.439455
582.964434	21126.381839
583.317837	20815.456073
583.671186	20900.709546
584.024481	20881.331350
584.377721	20655.296094
584.730906	20721.756146
585.084037	20723.480221
585.437113	20643.318313
585.790135	20834.529278
586.143103	20312.931172
586.496016	20330.550005
586.848874	20573.715102
587.201679	20494.884058
587.554428	20176.290697
587.907124	20512.699496
588.259765	20272.957343
588.612352	20352.151349
588.964884	19923.887686
589.317362	20094.495455
589.669786	20146.474793
590.022155	20176.207518
590.374470	20392.503265
590.726731	20157.242697
591.078937	19934.431259
591.431090	20028.121103
591.783188	19795.537388
592.135232	19762.359034
592.487222	19853.740030
592.839157	19869.604541
593.191038	19750.303115
593.542866	19635.009406
593.894639	19351.953658
594.246358	19566.195135
594.598022	19470.650146
594.949633	19228.556294
595.301190	19194.430203
595.652692	19365.363128
596.004141	19595.963148
596.355535	18918.588347
596.706876	18941.228169
597.058162	18827.081323
597.409395	19055.790911
597.760573	19131.728332
598.111698	18897.450789
598.462768	18843.142439
598.813785	18815.095979
599.164748	18620.557852
599.515657	18662.132248
599.866511	18472.292477
600.217312	18806.727664
600.568060	18338.611159
600.918753	18647.986771
601.269392	18553.346669
601.619978	18333.517073
601.970510	18535.758083
602.320988	18488.953490
602.671412	18689.765333
603.021783	18599.689996
603.372100	18325.383171
603.722363	18469.096385
604.072572	18407.112878
604.422728	18556.106701
604.772830	18305.921797
605.122878	18261.163913
605.472872	18260.692565
605.822813	18243.477024
606.172701	18213.494762
606.522534	18406.737312
606.872314	18430.909645
607.222041	18267.692207
607.571714	18478.203230
607.921333	18317.299681
608.270899	18386.691164
608.620411	18553.150064
608.969870	18330.252926
609.319276	18331.805601
609.668627	18356.955918
610.017926	18490.359972
610.367171	18611.551831
610.716362	18665.834976
611.065500	18476.151480
611.414585	18616.983674
611.763616	18594.467361
612.112594	18526.205097
612.461518	18501.379934
612.810389	18695.242547
613.159207	18559.464109
613.507971	18464.077917
613.856682	18738.790554
614.205340	18661.698709
614.553945	18805.628692
614.902496	18557.888748
615.250994	18779.525598
615.599439	18730.530624
615.947830	18706.786789
616.296169	18773.115771
616.644454	18732.400892
616.992686	18704.528352
617.340864	18931.269370
617.688990	18676.895267
618.037063	18846.971195
618.385082	18698.589873
618.733048	18977.441298
619.080961	18861.348566
619.428821	18892.933915
619.776628	18778.202295
620.124382	18704.233445
620.472083	18741.308611
620.819731	18761.684954
621.167326	18453.801524
621.514868	18495.658225
621.862357	18270.018699
622.209793	18271.861241
622.557176	18107.754039
622.904506	17928.823325
623.251783	17847.993464
623.599007	17600.117409
623.946179	17551.863484
624.293297	17489.159092
624.640363	17230.875575
624.987376	17259.179133
625.334336	17049.346145
625.681243	16895.114564
626.028097	16912.073005
626.374899	16832.914287
626.721647	16697.758432
627.068343	16529.875406
627.414987	16472.491952
627.761577	16431.582988
628.108115	16475.688043
628.454600	16195.072214
628.801032	16294.448480
629.147412	16228.018675
629.493739	16243.875625
629.840014	16057.894857
630.186236	16152.797098
630.532405	15911.565284
630.878521	16118.935668
631.224585	16012.945408
631.570597	15834.135681
631.916556	15862.953437
632.262462	15839.595251
632.608316	15766.652275
632.954117	15699.098293
633.299866	15694.331882
633.645562	15613.020591
633.991206	15370.266348
634.336797	15245.230610
634.682336	15214.522421
635.027823	15096.037662
635.373257	14968.831706
635.718639	14879.449528
636.063968	14821.209077
636.409245	14575.997272
636.754470	14602.899389
637.099642	14451.657212
637.444762	14222.151122
637.789829	14263.251649
638.134845	14102.186784
638.479808	14127.150578
638.824719	14071.715529
639.169577	13924.047530
639.514383	13969.811125
639.859137	13796.307212
640.203839	13878.566240
640.548489	13718.096231
640.893086	13707.524931
641.237632	13577.226228
641.582125	13731.883787
641.926566	13564.116707
642.270955	13573.518459
642.615292	13532.644784
642.959576	13537.824569
643.303809	13576.102051
643.647990	13497.452489
643.992118	13568.227768
644.336195	13334.676152
644.680219	13552.154049
645.024192	13460.548722
645.368112	13711.676322
645.711981	13762.176080
646.055797	13943.755921
646.399562	13920.427982
646.743274	14187.097458
647.086935	14465.117093
647.430544	14421.334672
647.774101	14454.334065
648.117606	14598.954687
648.461059	14584.907511
648.804460	14560.495724
649.147810	14289.710145
649.491108	14191.637017
649.834354	14194.147512
650.177548	13895.912851
650.520690	13701.924209
650.863781	13628.590544
651.206820	13666.628571
651.549807	13509.132842
651.892742	13292.267445
652.235626	13233.260739
652.578458	13234.636974
652.921238	12928.681786
653.263967	13123.603040
653.606644	12956.882000
653.949269	12931.116663
654.291843	12731.693658
654.634365	12895.301785
654.976836	12742.320410
655.319255	12747.893406
655.661622	12704.846993
656.003938	12632.952577
656.346203	12553.783777
656.688416	12626.562915
657.030577	12590.236360
657.372687	12498.444511
657.714746	12484.500679
658.056753	12674.675687
658.398708	12484.195689
658.740612	12479.681336
659.082465	12598.561826
659.424266	12561.927761
659.766016	12570.414543
660.107715	12492.654745
660.449362	12570.623751
660.790958	12526.165816
661.132503	12464.900673
661.473996	12536.679142
661.815438	12554.726473
662.156829	12575.211201
662.498168	12550.824620
662.839456	12552.510886
663.180693	12568.786251
663.521879	12655.206751
663.863013	12639.039771
664.204097	12603.676077
664.545129	12738.347981
664.886110	12709.840256
665.227040	12796.880818
665.567918	12799.726550
665.908746	12825.801918
666.249522	12817.708345
666.590248	12870.436294
666.930922	12973.502684
667.271545	12953.232205
667.612118	13043.670505
667.952639	12942.481944
668.293109	12959.861322
668.633528	12915.479004
668.973896	12890.202658
669.314213	12959.468112
669.654480	12699.488247
669.994695	12783.609981
670.334859	12806.625369
670.674973	12751.218047
671.015035	12777.495061
671.355047	12718.324518
671.695008	12689.098428
672.034918	12705.313300
672.374777	12744.745205
672.714585	12660.230261
673.054342	12694.913399
673.394049	12646.924135
673.733705	12743.479876
674.073310	12648.111327
674.412864	12664.084223
674.752368	12525.581042
675.091820	12553.924929
675.431223	12535.300386
675.770574	12399.171588
676.109875	12311.097590
676.449125	12280.732199
676.788324	12229.088099
677.127473	12057.575442
677.466571	12050.502703
677.805619	11944.232660
678.144616	11871.088038
678.483562	11836.725013
678.822458	11709.173738
679.161303	11690.050121
679.500098	11675.163594
679.838842	11628.142231
680.177535	11656.894452
680.516179	11725.612941
680.854771	11665.867706
681.193314	11884.424410
681.531805	12043.382073
681.870247	12467.196918
682.208638	12878.857542
682.546978	13194.819421
682.885268	13227.692785
683.223508	12928.500304
683.561697	12768.889812
683.899836	12676.087210
684.237925	12472.903505
684.575963	12382.039227
684.913951	12310.043988
685.251889	12262.178233
685.589776	12363.792771
685.927614	12276.371601
686.265401	12245.280285
686.603137	12302.875468
686.940824	12444.342848
687.278460	12572.380593
687.616046	12619.696863
687.953582	12780.728961
688.291068	12718.284189
688.628504	12948.140639
688.965889	12963.311992
689.303224	12920.005960
689.640510	12811.603508
689.977745	12499.699758
690.314930	12275.171807
690.652065	12186.215606
690.989150	11889.059751
691.326185	11666.956595
691.663170	11459.855913
692.000105	11221.001002
692.336990	11101.739905
692.673825	10847.045690
693.010610	10728.061856
693.347345	10519.655515
693.684030	10322.765690
694.020665	10263.643037
694.357251	10066.251617
694.693786	9999.350465
695.030272	9840.866670
695.366707	9724.975584
695.703093	9659.811109
696.039429	9660.179113
696.375716	9572.427748
696.711952	9448.276732
697.048139	9497.032251
697.384276	9446.716495
697.720363	9456.604718
698.056400	9394.061643
698.392388	9353.114871
698.728326	9306.806832
699.064214	9247.069158
699.400053	9283.345302
699.735842	9105.344680
700.071581	9061.738699
700.407270	8993.080704
700.742910	8910.791429
701.078501	8816.176533
701.414042	8688.869755
701.749533	8627.977657
702.084974	8483.858631
702.420366	8609.403526
702.755709	8491.768201
703.091002	8351.757715
703.426246	8381.888691
703.761440	8331.215013
704.096584	8288.370246
704.431679	8219.545893
704.766725	8202.642905
705.101721	8157.287643
705.436668	8206.005354
705.771565	8098.127182
706.106413	8180.718927
706.441212	8219.618990
706.775961	8180.562651
707.110661	8219.649237
707.445311	8359.460598
707.779913	8261.498376
708.114465	8384.250472
708.448967	8421.234897
708.783421	8567.312412
709.117825	8754.079600
709.452180	8781.710165
709.786485	8877.514773
710.120742	9160.147063
710.454949	9162.929780
710.789107	9265.759236
711.123216	9480.517431
711.457275	9650.532865
711.791286	9804.351072
712.125247	9805.192945
712.459159	9792.993352
712.793023	10035.319097
713.126837	9609.681875
713.460602	9761.584443
713.794318	9589.088762
714.127985	9617.737639
714.461602	9290.284450
714.795171	9239.376358
715.128691	8985.035023
715.462162	8739.114935
715.795584	8683.760545
716.128957	8536.636991
716.462281	8369.000982
716.795556	8416.259278
717.128782	8210.703710
717.461960	7938.065507
717.795088	8020.165738
718.128167	7921.764936
718.461198	7754.423834
718.794180	7700.546502
719.127113	7691.989143
719.459997	7525.449585
719.792833	7299.174874
720.125619	7370.214814
720.458357	7222.940025
720.791046	7213.061884
721.123686	7204.194494
721.456278	7044.624331
721.788821	7064.574697
722.121315	6964.260777
722.453761	7033.919441
722.786158	6973.352498
723.118506	6982.466904
723.450805	6953.724766
723.783056	7022.395363
724.115259	6930.495129
724.447412	6921.688233
724.779518	6968.303782
725.111574	6977.012376
725.443582	7057.781743
725.775542	7040.951851
726.107453	7232.195583
726.439315	7135.849051
726.771129	7206.858744
727.102895	7378.822584
727.434612	7486.216805
727.766281	7522.440016
728.097901	7597.618743
728.429473	7593.318639
728.760996	7573.824497
729.092471	7547.817185
729.423897	7493.297106
729.755276	7496.016808
730.086606	7425.380161
730.417887	7528.078547
730.749120	7733.699650
731.080305	7925.139988
731.411442	8039.639716
731.742530	8031.959518
732.073570	8141.972618
732.404562	8226.878252
732.735506	8079.212773
733.066401	8216.606901
733.397249	8144.094944
733.728048	7902.638798
734.058798	7569.269815
734.389501	7338.911769
734.720156	7163.507342
735.050762	6929.191990
735.381320	6840.664288
735.711831	6781.397963
736.042293	6677.446850
736.372707	6692.504776
736.703073	6556.575104
737.033391	6599.669408
737.363661	6609.429081
737.693883	6643.421582
738.024056	6726.610703
738.354182	6766.518997
738.684260	6806.732281
739.014290	6925.784170
739.344272	7030.577156
739.674207	7061.426497
740.004093	7138.901470
740.333931	7144.166955
740.663722	7150.470918
740.993464	7236.795636
741.323159	7215.179169
741.652806	6961.132741
741.982405	6987.661813
742.311956	7036.329112
742.641460	6868.995572
742.970915	6669.285222
743.300323	6666.295817
743.629683	6617.744465
743.958996	6479.422765
744.288260	6392.120062
744.617477	6343.901426
744.946647	6344.324883
745.275768	6176.593092
745.604842	6129.884281
745.933869	6111.685715
746.262847	6071.008645
746.591778	6057.982303
746.920662	6019.107445
747.249498	6011.780128
747.578286	6059.419032
747.907027	6130.832017
748.235720	6195.366348
748.564365	6169.769890
748.892963	6206.499737
749.221514	6346.444688
749.550017	6174.374984
749.878473	6056.538013
750.206881	6112.678823
750.535242	6055.169339
750.863555	5986.092929
751.191821	6005.594633
751.520039	6002.670763
751.848210	5908.431433
752.176334	5936.155259
752.504411	5986.302137
752.832440	5902.969343
753.160421	5840.040620
753.488356	5886.220109
753.816243	5914.422845
754.144082	5764.476244
754.471875	5740.069498
754.799620	5783.282268
755.127318	5791.012878
755.454969	5751.757413
755.782572	5716.144182
756.110129	5757.859730
756.437638	5742.620322
756.765100	5683.575807
757.092515	5685.703174
757.419882	5736.321400
757.747203	5714.094952
758.074477	5775.871772
758.401703	5762.583291
758.728882	5716.975972
759.056014	5776.070898
759.383099	5898.520525
759.710138	5908.620477
760.037129	5902.497995
760.364073	5911.206588
760.690970	5981.848277
761.017820	5965.267922
761.344623	5925.788126
761.671379	6023.354618
761.998088	6151.195758
762.324751	6401.015178
762.651366	7022.360075
762.977935	8362.417235
763.304456	10011.865129
763.630931	10894.157793
763.957359	10471.547784
764.283740	9518.699131
764.610074	8661.713059
764.936362	7657.628639
765.262602	7066.414719
765.588796	6527.349014
765.914943	6194.184198
766.241044	6026.001223
766.567097	5822.283155
766.893104	5559.379420
767.219064	5382.404673
767.544978	5320.345549
767.870845	5245.738993
768.196665	5138.153208
768.522438	5066.478083
768.848165	5030.680849
769.173846	4961.624603
769.499479	4920.042646
769.825066	4867.208833
770.150607	4805.913443
770.476101	4784.410401
770.801548	4778.514772
771.126949	4700.414696
771.452303	4648.009381
771.777611	4608.239718
772.102872	4626.259323
772.428087	4589.103498
772.753256	4548.693609
773.078378	4498.566896
773.403453	4433.377215
773.728482	4417.336263
774.053465	4368.323645
774.378401	4359.456256
774.703291	4356.091285
775.028135	4285.757107
775.352932	4236.200044
775.677683	4225.227973
776.002388	4241.452926
776.327046	4248.465171
776.651658	4178.698123
776.976224	4117.642188
777.300743	4121.677632
777.625216	4141.922905
777.949643	4134.179693
778.274024	4089.915842
778.598359	4050.156261
778.922647	4077.401177
779.246889	4066.265268
779.571086	4060.619176
779.895236	4043.680899
780.219339	4034.052295
780.543397	4026.092313
780.867409	4076.806321
781.191374	4086.823094
781.515294	4024.859751
781.839167	4019.876571
782.162995	4042.392884
782.486776	4029.686656
782.810511	4037.792832
783.134201	4035.647821
783.457844	3987.658557
783.781441	3933.894651
784.104993	3938.315743
784.428498	3959.778455
784.751958	3957.663691
785.075372	3932.687294
785.398739	3895.922159
785.722061	3910.027308
786.045337	3949.481898
786.368568	3982.196466
786.691752	3893.225142
787.014891	3949.517187
787.337983	4077.224737
787.661030	4238.879417
787.984031	4400.191299
788.306987	4573.743103
788.629897	4655.003982
788.952760	4607.675109
789.275579	4539.037279
789.598351	4473.209892
789.921078	4328.985001
790.243759	4128.967140
790.566395	4113.445427
790.888984	4103.781535
791.211529	3999.089373
791.534027	3938.247687
791.856480	3923.782096
792.178888	3861.884289
792.501249	3817.812001
792.823566	3828.874813
793.145836	3854.867002
793.468062	3800.838436
793.790241	3758.195316
794.112375	3789.974750
794.434464	3851.565047
794.756507	3879.094788
795.078505	3857.092672
795.400457	3893.993918
795.722364	4032.693704
796.044226	4141.388543
796.366042	4211.316909
796.687812	4188.800595
797.009538	4192.163045
797.331218	4152.572343
797.652852	4123.792396
797.974442	4105.903861
798.295986	4106.380250
798.617484	4019.006972
798.938938	3938.436730
799.260346	3978.029953
799.581709	3970.213644
799.903026	3898.770411
800.224299	3862.784135
800.545526	3859.784648
800.866708	3816.634892
801.187845	3754.568206
801.508936	3793.364926
801.829983	3785.747742
802.150984	3709.830486
802.471940	3702.840926
802.792851	3710.813511
803.113717	3709.769992
803.434538	3711.047924
803.755314	3654.455931
804.076045	3631.576655
804.396731	3650.082730
804.717372	3676.001823
805.037967	3659.590347
805.358518	3647.904952
805.679024	3679.497863
805.999485	3691.974719
806.319901	3698.702139
806.640272	3708.605485
806.960598	3724.406982
807.280879	3697.898075
807.601115	3712.439283
807.921306	3729.032241
808.241453	3766.051954
808.561554	3740.876432
808.881611	3673.957635
809.201623	3712.454406
809.521590	3723.456725
809.841513	3695.863969
810.161390	3728.850759
810.481223	3703.776060
810.801011	3649.732370
811.120755	3643.710712
811.440453	3675.724559
811.760107	3679.311340
812.079716	3634.984475
812.399281	3608.210907
812.718801	3627.092548
813.038276	3602.670678
813.357707	3600.651696
813.677093	3615.747432
813.996434	3563.952096
814.315731	3574.014239
814.634983	3577.084302
814.954191	3594.567024
815.273354	3621.028040
815.592473	3613.574694
815.911547	3622.663895
816.230577	3663.598064
816.549562	3718.549161
816.868502	3762.276130
817.187399	3783.499388
817.506250	3779.368162
817.825058	3755.568875
818.143821	3849.425077
818.462539	3952.499029
818.781213	3998.141636
819.099843	4055.164648
819.418429	4309.442968
819.736970	4555.612593
820.055466	4809.895955
820.373919	5178.714332
820.692327	5589.049131
821.010691	6054.801335
821.329011	7485.654717
821.647286	10319.254526
821.965517	14985.671680
822.283704	19043.629127
822.601847	21151.413688
822.919945	19267.947871
823.237999	16620.303624
823.556010	14103.900776
823.873976	11958.022736
824.191897	9845.607875
824.509775	8492.794076
824.827609	7360.162753
825.145398	6826.601989
825.463144	6709.395162
825.780845	6821.515465
826.098502	7027.035745
826.416116	7940.059283
826.733685	9291.562382
827.051210	10417.181460
827.368692	10407.704091
827.686129	9106.446172
828.003522	7582.679284
828.320872	6561.951494
828.638177	5853.470253
828.955439	5279.098828
829.272656	4777.062920
829.589830	4500.963965
829.906960	4322.081141
830.224046	4136.798573
830.541088	4011.251157
830.858086	3960.053198
831.175041	3884.657701
831.491952	3867.956358
831.808819	3881.138976
832.125642	3961.116882
832.442421	4110.677834
832.759157	4396.758273
833.075849	4960.528152
833.392497	5852.439338
833.709101	6632.270549
834.025662	6958.203831
834.342179	6572.878195
834.658653	5893.683538
834.975083	5236.233897
835.291469	4650.744207
835.607811	4246.299996
835.924110	4107.481742
836.240366	3902.647059
836.556578	3695.911860
836.872746	3588.580653
837.188871	3544.896535
837.504952	3481.738439
837.820990	3396.464801
838.136984	3353.751104
838.452935	3375.622150
838.768842	3372.647870
839.084706	3391.602608
839.400526	3558.605953
839.716303	3911.829520
840.032037	4448.987148
840.347727	4704.387125
840.663373	4409.237650
840.978977	4018.462527
841.294537	3711.153789
841.610054	3483.959067
841.925527	3378.372100
842.240957	3303.082467
842.556344	3250.566247
842.871687	3190.740354
843.186987	3140.422077
843.502244	3105.002930
843.817458	3069.548495
844.132629	3036.377702
844.447756	3050.593756
844.762840	3027.013759
845.077881	2999.904954
845.392879	2983.274188
845.707833	2976.229175
846.022745	2975.674648
846.337613	2976.967704
846.652438	2964.964717
846.967221	2961.115796
847.281960	2947.802109
847.596656	2943.849844
847.911309	2942.748352
848.225919	2938.322219
848.540485	2933.109666
848.855009	2931.798966
849.169490	2920.779003
849.483928	2913.234917
849.798323	2912.899680
850.112675	2908.879360
850.426984	2920.562234
850.741251	2916.783889
851.055474	2905.640418
851.369654	2900.130437
851.683792	2908.092940
851.997887	2915.828590
852.311938	2918.505443
852.625947	2904.223854
852.939914	2909.292734
853.253837	2913.308013
853.567718	2899.719583
853.881555	2899.107083
854.195350	2914.359094
854.509103	2907.760224
854.822812	2901.201683
855.136479	2896.543656
855.450103	2900.369892
855.763685	2894.212123
856.077224	2889.029817
856.390720	2904.216293
856.704173	2909.592683
857.017584	2904.911972
857.330953	2901.635222
857.644278	2910.275759
857.957561	2921.240269
858.270802	2924.055753
858.584000	2923.123140
858.897155	2909.945564
859.210268	2909.748959
859.523339	2909.176788
859.836367	2905.713515
860.149352	2899.701939
860.462295	2897.425858
860.775195	2905.980696
861.088054	2905.466499
861.400869	2885.551420
861.713642	2883.497150
862.026373	2900.558935
862.339062	2903.865932
862.651708	2906.036149
862.964312	2914.107036
863.276873	2903.417270
863.589392	2914.250709
863.901869	2926.921649
864.214303	2949.352263
864.526696	2965.340283
864.839045	2960.457925
865.151353	2962.618060
865.463619	2957.874334
865.775842	2960.334417
866.088023	2978.863178
866.400162	2984.194198
866.712258	2952.550876
867.024313	2944.598455
867.336325	2957.665126
867.648296	2977.683548
867.960224	2969.468988
868.272110	2955.071453
868.583954	2960.775518
868.895755	2974.701706
869.207515	2959.923563
869.519233	2965.730972
869.830909	2978.664053
870.142542	2987.468428
870.454134	2984.133704
870.765684	2987.090341
871.077191	2988.930362
871.388657	2997.603668
871.700081	3007.988444
872.011463	3022.789272
872.322803	3020.861031
872.634101	3019.265506
872.945357	3041.154196
873.256571	3062.218657
873.567744	3055.957544
873.878874	3051.496123
874.189963	3075.343301
874.501010	3074.788774
874.812015	3065.467681
875.122979	3064.146898
875.433900	3061.533060
875.744780	3069.896334
876.055618	3074.824062
876.366415	3070.889442
876.677169	3083.048705
876.987882	3081.662387
877.298554	3075.645770
877.609183	3101.264914
877.919771	3121.764766
878.230317	3149.692758
878.540822	3202.420707
878.851285	3239.553846
879.161707	3284.485651
879.472087	3392.968761
879.782425	3633.063795
880.092722	4082.840582
880.402977	4619.045432
880.713191	5276.109424
881.023363	6475.349512
881.333494	7786.306611
881.643583	8325.669744
881.953631	8006.642843
882.263637	7351.910384
882.573602	6748.156594
882.883526	6152.546788
883.193408	5571.553807
883.503248	5110.096666
883.813048	4794.815343
884.122806	4481.810101
884.432522	4160.103827
884.742197	3920.031478
885.051831	3720.868092
885.361424	3590.571909
885.670975	3516.555168
885.980485	3428.213988
886.289954	3350.156762
886.599382	3303.979793
886.908768	3262.864142
887.218113	3222.736557
887.527417	3161.789007
887.836680	3110.404526
888.145901	3105.068465
888.455082	3092.702514
888.764221	3042.606048
889.073319	3014.463807
889.382376	3010.914834
889.691392	3014.156296
890.000366	3014.738549
890.309300	3000.260356
890.618193	3013.810977
890.927044	3028.420241
891.235855	3035.346786
891.544625	3016.765093
891.853353	3028.347144
892.162041	3047.516132
892.470687	3089.272009
892.779293	3139.933085
893.087858	3189.782534
893.396381	3262.654934
893.704864	3392.540263
894.013306	3639.133344
894.321707	3953.857620
894.630068	4154.273732
894.938387	4148.519255
895.246665	4104.157101
895.554903	3978.428204
895.863100	3768.544805
896.171256	3598.632714
896.479371	3456.948565
896.787446	3330.395439
897.095480	3225.045406
897.403473	3159.379336
897.711425	3123.977833
898.019336	3115.044908
898.327207	3083.971236
898.635038	3049.542676
898.942827	3035.687064
899.250576	3022.262472
899.558284	2989.394148
899.865952	2969.627784
900.173579	2949.259002
900.481165	2943.323043
900.788711	2925.439550
901.096216	2900.195972
901.403681	2890.234652
901.711105	2901.030283
902.018489	2894.900240
902.325832	2895.457288
902.633135	2907.316602
902.940397	2943.537293
903.247619	3030.053575
903.554800	3229.688308
903.861941	3590.816405
904.169041	4026.132643
904.476101	4331.371988
904.783121	4275.379892
905.090100	4016.708206
905.397039	3735.190010
905.703938	3482.837410
906.010796	3294.893113
906.317614	3180.496729
906.624391	3084.248499
906.931129	3014.425998
907.237826	2946.806481
907.544483	2902.280489
907.851099	2871.806714
908.157675	2847.415092
908.464211	2826.217040
908.770707	2813.828404
909.077163	2798.278965
909.383578	2786.628858
909.689954	2776.501180
909.996289	2772.944646
910.302584	2773.526900
910.608839	2776.163423
910.915054	2766.905344
911.221229	2759.663727
911.527363	2762.995929
911.833458	2771.155037
912.139513	2776.970008
912.445527	2780.148455
912.751502	2788.970474
913.057436	2795.944911
913.363331	2810.544092
913.669186	2835.409584
913.975000	2867.400746
914.280775	2931.357865
914.586510	3004.951149
914.892205	3087.968871
915.197859	3221.173799
915.503475	3422.439346
915.809050	3641.215341
916.114585	3789.989873
916.420081	3807.046617
916.725536	3744.833737
917.030952	3618.363790
917.336328	3488.513750
917.641665	3352.841176
917.946961	3252.275198
918.252218	3179.027233
918.557435	3099.331632
918.862612	3037.421221
919.167750	2987.808706
919.472848	2948.298662
919.777906	2919.841349
920.082925	2892.919067
920.387904	2863.249356
920.692843	2845.688496
920.997743	2832.692402
921.302603	2820.865855
921.607423	2806.922023
921.912204	2798.092442
922.216946	2782.424536
922.521647	2776.309617
922.826310	2768.175715
923.130932	2760.498037
923.435516	2752.054105
923.740059	2745.644278
924.044564	2736.295458
924.349028	2728.330435
924.653454	2720.746019
924.957840	2718.749722
925.262186	2714.142107
925.566493	2708.445603
925.870761	2702.796991
926.174989	2700.863708
926.479178	2694.678212
926.783328	2691.391380
927.087438	2688.719568
927.391509	2687.557582
927.695541	2686.597243
927.999533	2680.227745
928.303486	2678.541479
928.607400	2677.465192
928.911275	2678.428053
929.215110	2676.285562
929.518906	2674.082578
929.822663	2672.091322
930.126381	2671.012516
930.430060	2675.010151
930.733699	2672.829852
931.037299	2677.800429
931.340861	2679.237158
931.644383	2678.105419
931.947866	2677.026612
932.251309	2676.383865
932.554714	2674.843792
932.858080	2672.446724
933.161407	2672.396312
933.464694	2673.533092
933.767943	2667.178718
934.071153	2668.330622
934.374323	2669.023780
934.677455	2668.779284
934.980548	2665.951197
935.283602	2666.586382
935.586617	2664.582524
935.889593	2665.663851
936.192530	2667.803821
936.495428	2668.474295
936.798287	2669.104439
937.101108	2672.532423
937.403890	2678.196160
937.706632	2680.741942
938.009336	2689.327027
938.312002	2695.835157
938.614628	2705.287321
938.917216	2710.850234
939.219765	2711.319061
939.522275	2713.620348
939.824747	2708.042311
940.127179	2706.822352
940.429573	2703.812783
940.731929	2700.145344
941.034246	2695.930939
941.336524	2695.260466
941.638763	2692.833150
941.940964	2689.609332
942.243126	2689.770649
942.545250	2688.911132
942.847335	2682.319824
943.149381	2679.206911
943.451389	2676.593073
943.753359	2675.204235
944.055290	2671.884635
944.357182	2672.035870
944.659036	2671.839265
944.960851	2668.559994
945.262628	2667.834068
945.564367	2668.426404
945.866067	2670.281548
946.167729	2669.754748
946.469352	2670.929337
946.770937	2669.578307
947.072484	2666.974551
947.373992	2666.263749
947.675462	2663.748213
947.976893	2659.876607
948.278286	2658.475166
948.579641	2662.041782
948.880958	2656.854435
949.182236	2659.959786
949.483476	2661.204951
949.784678	2658.949034
950.085841	2661.545229
950.386967	2658.021462
950.688054	2661.061278
950.989103	2663.649910
951.290114	2661.822492
951.591087	2667.796259
951.892021	2667.312309
952.192917	2667.995385
952.493776	2670.347083
952.794596	2674.201045
953.095378	2671.567042
953.396122	2670.548729
953.696828	2668.421362
953.997496	2669.721980
954.298126	2663.193686
954.598718	2666.246105
954.899272	2660.983140
955.199788	2657.013231
955.500266	2654.487613
955.800706	2655.768066
956.101108	2653.370998
956.401472	2649.975781
956.701798	2646.114257
957.002087	2645.947899
957.302337	2645.254740
957.602550	2643.886067
957.902724	2640.662249
958.202861	2640.430356
958.502960	2641.516724
958.803022	2638.577732
959.103045	2638.877680
959.403031	2638.371044
959.702979	2633.284520
960.002889	2638.166878
960.302762	2637.892135
960.602596	2636.039511
960.902393	2633.644963
961.202153	2636.097484
961.501875	2635.875673
961.801559	2632.687143
962.101205	2632.180507
962.400814	2632.689664
962.700385	2633.460961
962.999918	2631.522637
963.299414	2628.215640
963.598873	2629.715383
963.898293	2629.266721
964.197677	2631.547843
964.497022	2631.273100
964.796331	2632.460292
965.095601	2630.106073
965.394835	2631.812503
965.694030	2633.120683
965.993189	2631.411732
966.292309	2630.927781
966.591393	2630.716052
966.890439	2633.261835
967.189447	2633.118162
967.488419	2628.326545
967.787353	2630.101032
968.086249	2629.387708
968.385108	2629.743110
968.683930	2632.576238
968.982714	2630.605147
969.281462	2630.995836
969.580172	2630.814355
969.878844	2630.390898
970.177480	2632.409880
970.476078	2629.342338
970.774639	2630.746299
971.073162	2629.939715
971.371649	2632.235960
971.670098	2632.062040
971.968510	2632.505662
972.266885	2627.978706
972.565223	2632.767802
972.863524	2631.323511
973.161788	2632.253604
973.460014	2630.791670
973.758204	2632.261166
974.056356	2632.213275
974.354471	2631.799900
974.652550	2631.351238
974.950591	2632.026752
975.248595	2631.588172
975.546563	2629.070116
975.844493	2635.255611
976.142386	2632.241001
976.440243	2628.374436
976.738062	2629.155815
977.035845	2631.542802
977.333590	2632.210754
977.631299	2631.270579
977.928971	2625.206071
978.226606	2628.855867
978.524204	2629.072636
978.821765	2624.810341
979.119290	2629.228912
979.416777	2629.070116
979.714228	2627.318315
980.011642	2628.361833
980.309020	2630.353089
980.606360	2628.361833
980.903664	2629.027266
981.200931	2630.824437
981.498162	2627.615743
981.795356	2632.838378
982.092513	2631.999026
982.389633	2635.880714
982.686717	2639.964049
982.983764	2642.028402
983.280775	2649.963178
983.577749	2649.940492
983.874686	2645.471510
984.171587	2642.867754
984.468451	2639.785088
984.765279	2643.482774
985.062070	2639.981693
985.358824	2632.649335
985.655543	2634.935498
985.952224	2631.646145
986.248869	2632.361989
986.545478	2630.327883
986.842050	2627.961062
987.138586	2627.797224
987.435086	2626.395783
987.731549	2625.707666
988.027975	2626.300002
988.324366	2627.076339
988.620719	2626.118520
988.917037	2626.035341
989.213318	2624.951493
989.509563	2623.469394
989.805772	2626.110958
990.101944	2624.732203
990.398080	2626.980557
990.694180	2626.720938
990.990244	2624.538118
991.286271	2626.171452
991.582262	2624.593571
991.878217	2624.250772
992.174136	2624.502830
992.470019	2624.336472
992.765865	2621.067284
993.061676	2623.557614
993.357450	2625.811010
993.653188	2621.095010
993.948890	2625.730351
994.244556	2624.071812
994.540186	2626.113479
994.835780	2626.915022
995.131337	2626.065588
995.426859	2626.806637
995.722345	2627.648510
996.017795	2626.902419
996.313208	2630.015332
996.608586	2629.483490
996.903928	2629.791001
997.199234	2628.019035
997.494504	2630.365692
997.789738	2627.799745
998.084936	2630.645476
998.380099	2628.860908
998.675225	2628.840743
998.970316	2627.156998
999.265371	2625.465691
999.560390	2627.547687
999.855373	2625.914353
1000.150320	2624.699435
1000.445232	2626.874693
1000.740108	2622.352778
1001.034948	2626.720938
1001.329752	2625.422841
1001.624521	2624.724641
1001.919254	2624.704476
1002.213951	2624.845629
1002.508613	2621.647017
1002.803239	2625.163221
1003.097829	2620.895885
1003.392384	2623.744137
1003.686903	2625.039713
1003.981386	2622.030144
1004.275834	2622.060391
1004.570246	2624.187758
1004.864623	2623.025772
1005.158964	2622.032665
1005.453270	2622.589712
1005.747540	2624.709517
1006.041775	2623.923097
1006.335974	2623.706328
1006.630138	2621.793210
1006.924266	2624.467542
1007.218359	2620.671553
1007.512416	2619.323045
1007.806438	2619.484362
1008.100425	2623.388735
1008.394376	2619.479320
1008.688292	2621.241204
1008.982172	2620.202726
1009.276017	2621.465535
1009.569827	2623.071142
1009.863602	2623.401338
1010.157341	2622.768673
1010.451045	2621.904115
1010.744714	2622.307408
1011.038347	2623.240021
1011.331945	2622.859414
1011.625508	2620.515277
1011.919036	2622.367902
1012.212528	2623.108951
1012.505986	2623.713890
1012.799408	2623.534929
1013.092795	2622.773714
1013.386147	2623.058540
1013.679464	2622.751029
1013.972745	2622.009980
1014.265992	2621.407562
1014.559204	2620.306070
1014.852380	2622.130967
1015.145521	2617.697272
1015.438628	2620.537963
1015.731699	2622.902264
1016.024736	2620.840432
1016.317737	2620.293467
1016.610703	2623.146760
1016.903635	2623.565176
1017.196531	2625.558952
1017.489393	2619.749022
1017.782219	2621.699949
1018.075011	2622.929990
1018.367768	2623.124075
1018.660490	2620.374125
1018.953177	2620.374125
1019.245829	2620.374125
