Dividing Wavelength (nm)	Counts (n)	Blue Motor Position (mm): 6.300000	Red Motor Position (mm): 0.000000	
326.493990	2160.381440
326.888308	2160.381440
327.282561	2160.381440
327.676750	2119.031375
328.070874	2114.519543
328.464933	2116.997270
328.858929	2117.405603
329.252859	2122.817282
329.646726	2130.734414
330.040528	2145.371404
330.434265	2157.197951
330.827938	2174.247133
331.221547	2191.646676
331.615091	2209.973791
332.008571	2228.444578
332.401986	2245.266909
332.795338	2264.599734
333.188625	2281.815274
333.581847	2300.487708
333.975006	2319.061839
334.368100	2338.934068
334.761129	2354.627180
335.154095	2374.564943
335.546996	2389.887530
335.939833	2406.689696
336.332606	2423.259969
336.725315	2432.855805
337.117960	2446.953392
337.510540	2461.028293
337.903056	2470.125055
338.295508	2479.667960
338.687896	2486.939824
339.080220	2496.500372
339.472480	2501.080261
339.864676	2510.114008
340.256807	2512.687517
340.648875	2518.767149
341.040879	2516.082734
341.432818	2524.458612
341.824694	2526.006246
342.216506	2528.083201
342.608253	2527.445495
342.999937	2528.625125
343.391557	2526.608664
343.783113	2528.894827
344.174605	2525.494569
344.566033	2525.897861
344.957397	2523.871317
345.348697	2522.570699
345.739934	2520.229083
346.131106	2519.417458
346.522215	2516.181037
346.913260	2514.288084
347.304241	2512.138032
347.695159	2512.833711
348.086012	2513.264729
348.476802	2509.193998
348.867528	2503.472288
349.258191	2503.731908
349.648789	2499.172184
350.039324	2496.586072
350.429796	2499.388953
350.820203	2502.017915
351.210548	2499.603203
351.600828	2497.440548
351.991045	2497.213696
352.381198	2497.722852
352.771288	2494.796462
353.161314	2494.882162
353.551276	2494.148674
353.941175	2494.584734
354.331010	2495.882831
354.720782	2490.992912
355.110490	2491.789414
355.500135	2489.596512
355.889717	2491.262613
356.279235	2491.423930
356.668689	2492.507778
357.058080	2492.235556
357.447408	2494.287306
357.836672	2492.527943
358.225873	2495.487100
358.615010	2491.343272
359.004084	2493.871411
359.393095	2493.422748
359.782043	2496.064313
360.170927	2495.207316
360.559748	2495.613129
360.948505	2497.145640
361.337199	2497.248984
361.725830	2498.121103
362.114398	2497.488438
362.502903	2500.684530
362.891344	2497.949704
363.279722	2499.666217
363.668037	2499.890548
364.056289	2501.390292
364.444478	2502.370796
364.832603	2499.315857
365.220665	2503.147134
365.608665	2502.958090
365.996601	2504.525889
366.384474	2504.041938
366.772284	2502.731238
367.160031	2501.264263
367.547715	2505.516476
367.935336	2502.995899
368.322893	2501.685199
368.710388	2502.075888
369.097820	2502.824500
369.485189	2501.024808
369.872495	2504.782988
370.259738	2505.163595
370.646918	2506.416322
371.034035	2506.358349
371.421090	2505.161075
371.808081	2507.595952
372.195010	2511.258350
372.581875	2506.363390
372.968678	2510.784482
373.355418	2508.508401
373.742096	2507.855571
374.128710	2508.803308
374.515262	2507.553102
374.901751	2509.398164
375.288177	2507.616117
375.674540	2509.723319
376.060841	2507.679131
376.447079	2509.438494
376.833254	2511.560819
377.219367	2509.877074
377.605417	2513.181550
377.991404	2511.754904
378.377329	2510.988648
378.763191	2511.195336
379.148991	2512.478309
379.534727	2512.311951
379.920402	2510.315654
380.306013	2513.645337
380.691563	2510.091323
381.077049	2512.196005
381.462474	2510.613082
381.847835	2512.669873
382.233134	2512.062414
382.618371	2512.455624
383.003545	2514.646006
383.388657	2513.383197
383.773706	2514.998886
384.158693	2512.750532
384.543618	2516.493588
384.928480	2512.185922
385.313280	2515.205574
385.698017	2515.666839
386.082692	2514.444359
386.467305	2515.376973
386.851856	2515.795389
387.236344	2517.098527
387.620770	2513.778927
388.005133	2509.433453
388.389435	2514.681294
388.773674	2512.916890
389.157851	2515.069463
389.541965	2516.417971
389.926018	2518.618435
390.310008	2517.711027
390.693936	2519.062056
391.077802	2519.440143
391.461606	2518.928466
391.845348	2517.895029
392.229027	2519.919052
392.612645	2520.415606
392.996200	2520.919722
393.379694	2518.338651
393.763125	2519.936697
394.146494	2519.926614
394.529801	2521.317973
394.913047	2521.262520
395.296230	2521.965761
395.679351	2520.594567
396.062410	2519.064577
396.445408	2520.960051
396.828343	2522.197654
397.211217	2520.839063
397.594028	2519.977026
397.976778	2517.524504
398.359466	2520.153466
398.742092	2520.682787
399.124656	2522.116996
399.507158	2519.422499
399.889598	2524.995494
400.271977	2522.787469
400.654294	2520.723117
401.036549	2522.023734
401.418742	2523.369722
401.800874	2522.122037
402.182944	2523.142870
402.564952	2522.784948
402.946898	2522.870648
403.328783	2524.322500
403.710606	2521.602798
404.092367	2525.121523
404.474067	2523.818385
404.855705	2522.948786
405.237282	2525.134126
405.618797	2524.791328
406.000250	2523.863755
406.381642	2523.455422
406.762972	2526.560773
407.144240	2520.476100
407.525447	2522.905936
407.906593	2518.318486
408.287677	2525.902902
408.668700	2526.399456
409.049661	2526.268386
409.430560	2524.521626
409.811399	2526.724610
410.192176	2527.632018
410.572891	2527.851308
410.953545	2526.953983
411.334138	2530.323994
411.714669	2529.978675
412.095139	2529.124199
412.475547	2527.425331
412.855894	2526.217974
413.236180	2528.320135
413.616405	2526.018849
413.996568	2527.841226
414.376670	2525.938190
414.756711	2529.005732
415.136691	2528.622605
415.516609	2529.156967
415.896466	2528.037831
416.276262	2526.641431
416.655997	2528.811648
417.035670	2527.120341
417.415283	2528.970444
417.794834	2529.252749
418.174324	2531.100332
418.553753	2529.522451
418.933121	2531.412883
419.312428	2532.370702
419.691674	2529.348531
420.070859	2532.927750
420.449983	2530.898686
420.829045	2529.177132
421.208047	2529.963552
421.586988	2528.922553
421.965867	2530.291227
422.344686	2530.820548
422.723444	2531.720394
423.102141	2529.356093
423.480777	2529.948428
423.859352	2529.351051
424.237866	2532.484128
424.616319	2530.402132
424.994712	2532.002698
425.373044	2531.612009
425.751314	2529.066226
426.129524	2527.984899
426.507673	2528.635207
426.885762	2528.927594
427.263789	2531.180990
427.641756	2529.167049
428.019662	2533.686444
428.397508	2532.743748
428.775292	2533.517565
429.153016	2532.257277
429.530679	2531.768285
429.908282	2533.189890
430.285824	2534.218285
430.663305	2531.838861
431.040726	2533.567977
431.418086	2533.530168
431.795385	2535.534027
432.172624	2535.014788
432.549802	2534.659386
432.926920	2533.804911
433.303977	2534.031763
433.680974	2534.137627
434.057910	2533.976310
434.434786	2535.004705
434.811601	2536.287679
435.188355	2533.041176
435.565050	2532.479087
435.941683	2536.448996
436.318257	2537.278266
436.694770	2537.293389
437.071222	2536.350693
437.447614	2539.377906
437.823946	2536.635519
438.200218	2534.455220
438.576429	2535.216434
438.952580	2535.367668
439.328670	2535.952442
439.704700	2536.227185
440.080670	2537.590817
440.456580	2533.976310
440.832429	2535.433203
441.208218	2537.006043
441.583947	2536.668286
441.959616	2533.696526
442.335224	2533.462112
442.710773	2537.570653
443.086261	2537.426980
443.461689	2536.534696
443.837057	2538.851106
444.212365	2537.510159
444.587612	2535.637370
444.962800	2530.996988
445.337927	2536.413708
445.712995	2533.545291
446.088002	2537.739531
446.462949	2536.320447
446.837837	2539.282124
447.212664	2534.961856
447.587431	2536.219623
447.962139	2540.633154
448.336786	2537.510159
448.711374	2540.509645
449.085901	2536.610313
449.460369	2537.807587
449.834776	2537.147196
450.209124	2536.075951
450.583412	2540.555016
450.957640	2537.953780
451.331808	2539.753472
451.705917	2537.593338
452.079965	2542.460572
452.453954	2539.251877
452.827883	2539.375386
453.201752	2540.791950
453.575562	2539.463606
453.949311	2535.695343
454.323001	2537.921013
454.696632	2539.337577
455.070202	2539.239275
455.443713	2541.412012
455.817164	2537.142155
456.190556	2540.302958
456.563888	2540.708771
456.937160	2539.350180
457.310373	2540.403781
457.683526	2538.231044
458.056619	2542.546272
458.429653	2540.302958
458.802628	2541.724563
459.175542	2540.126518
459.548398	2538.944367
459.921194	2542.251364
460.293930	2538.387320
460.666607	2540.910417
461.039224	2539.735828
461.411782	2541.618699
461.784280	2540.297917
462.156719	2541.492670
462.529099	2541.343956
462.901419	2540.812115
463.273680	2536.769109
463.645882	2536.721218
464.018024	2536.983358
464.390106	2537.777340
464.762130	2541.928730
465.134094	2541.301107
465.505999	2539.733308
465.877845	2541.086857
466.249631	2542.763041
466.621358	2542.546272
466.993026	2543.594832
467.364634	2545.031560
467.736184	2539.932433
468.107674	2540.547454
468.479105	2540.686086
468.850477	2541.154913
469.221790	2542.788247
469.593043	2542.052238
469.964238	2542.221117
470.335373	2540.335726
470.706449	2543.693134
471.077467	2539.007382
471.448425	2544.305634
471.819324	2542.395037
472.190164	2544.156920
472.560945	2542.097609
472.931667	2542.475695
473.302330	2541.238092
473.672934	2543.539379
474.043479	2542.581560
474.413965	2540.721374
474.784393	2544.103988
475.154761	2545.432332
475.525070	2541.326312
475.895321	2543.940151
476.265513	2543.960315
476.635645	2545.102137
477.005719	2545.916283
477.375734	2541.601055
477.745691	2542.349667
478.115588	2544.802188
478.485427	2542.619368
478.855207	2545.205480
479.224928	2543.204142
479.594591	2544.565254
479.964194	2544.272867
480.333739	2544.832435
480.703226	2542.541230
481.072653	2546.226314
481.442022	2544.517363
481.811333	2539.108205
482.180584	2542.142979
482.549777	2541.056611
482.918912	2539.536703
483.287988	2544.494678
483.657005	2542.410160
484.025964	2542.432846
484.394864	2542.813453
484.763706	2545.591128
485.132489	2545.303783
485.501213	2545.061807
485.869879	2545.661705
486.238487	2546.322096
486.607036	2541.840510
486.975527	2544.202291
487.343959	2542.294214
487.712333	2547.799154
488.080648	2544.411498
488.448905	2549.099772
488.817104	2544.560212
489.185244	2545.402085
489.553326	2545.296221
489.921350	2546.952240
490.289315	2545.344112
490.657222	2544.620706
491.025070	2546.070038
491.392861	2547.539534
491.760593	2544.353525
492.128267	2541.969059
492.495883	2544.766900
492.863440	2544.391334
493.230939	2547.136242
493.598380	2548.600697
493.965763	2545.853268
494.333088	2545.676828
494.700354	2543.620037
495.067563	2544.822352
495.434713	2545.394523
495.801805	2546.594318
496.168839	2545.704554
496.535815	2546.044832
496.902733	2545.245809
497.269593	2545.291180
497.636395	2548.840152
498.003139	2547.615152
498.369825	2548.940975
498.736453	2545.071890
499.103023	2544.638350
499.469535	2547.347971
499.835989	2546.982487
500.202385	2544.151879
500.568723	2540.842362
500.935003	2542.236241
501.301226	2539.652649
501.667390	2544.716488
502.033497	2546.488454
502.399546	2548.709082
502.765537	2543.221786
503.131470	2547.504246
503.497345	2547.390820
503.863163	2547.194215
504.228923	2546.191026
504.594625	2544.945861
504.960269	2548.658671
505.325856	2547.864689
505.691385	2547.302600
506.056856	2545.933927
506.422270	2545.313865
506.787625	2546.425439
507.152924	2547.670604
507.518164	2548.751932
507.883347	2548.141952
508.248472	2545.518032
508.613540	2547.554658
508.978550	2550.145811
509.343503	2550.292004
509.708398	2547.408464
510.073236	2546.692621
510.438016	2547.831921
510.802738	2546.410316
511.167403	2546.833773
511.532010	2546.803526
511.896561	2549.119936
512.261053	2546.727909
512.625488	2546.760676
512.989866	2546.072559
513.354186	2547.476520
513.718449	2551.960626
514.082655	2547.292518
514.446803	2547.214380
514.810894	2548.061294
515.174927	2551.093548
515.538904	2549.402241
515.902822	2544.605583
516.266684	2547.728578
516.630488	2548.835111
516.994235	2547.000131
517.357925	2546.644730
517.721558	2550.667570
518.085133	2546.528783
518.448651	2546.422919
518.812112	2544.335881
519.175516	2545.802857
519.538863	2540.701209
519.902152	2550.110523
520.265385	2547.441232
520.628560	2550.861655
520.991678	2547.605069
521.354739	2550.957437
521.717743	2548.174720
522.080690	2546.755635
522.443580	2548.686397
522.806413	2549.026675
523.169189	2548.681356
523.531908	2548.222611
523.894569	2549.097251
524.257174	2547.433670
524.619722	2546.763197
524.982213	2548.993907
525.344647	2551.232180
525.707025	2547.811757
526.069345	2547.594987
526.431608	2548.762014
526.793815	2549.891233
527.155964	2549.472817
527.518057	2548.792261
527.880093	2548.865358
528.242072	2544.955943
528.603995	2549.298897
528.965860	2547.970553
529.327669	2548.714123
529.689421	2549.739998
530.051117	2549.908877
530.412755	2550.246634
530.774337	2549.311500
531.135862	2548.514998
531.497331	2547.950388
531.858743	2546.871582
532.220098	2551.083466
532.581396	2549.001469
532.942638	2547.842004
533.303824	2548.401572
533.664953	2549.770245
534.026025	2549.440049
534.387040	2547.889895
534.747999	2551.879968
535.108902	2546.753114
535.469748	2549.382076
535.830537	2550.685214
536.191270	2551.186809
536.551947	2546.611962
536.912567	2543.788916
537.273131	2545.744884
537.633638	2541.288504
537.994089	2547.731098
538.354483	2547.390820
538.714821	2550.234031
539.075103	2548.341078
539.435328	2548.744370
539.795497	2548.303269
540.155609	2552.288301
540.515665	2551.159083
540.875665	2552.021120
541.235609	2549.014072
541.595496	2548.154555
541.955328	2547.819318
542.315102	2550.836449
542.674821	2551.325441
543.034483	2549.639175
543.394090	2550.208825
543.753640	2553.848538
544.113134	2547.368135
544.472571	2550.080276
544.831953	2550.581871
545.191278	2552.358878
545.550548	2550.339895
545.909761	2550.279402
546.268918	2550.977601
546.628019	2550.660009
546.987064	2553.510781
547.346053	2551.723692
547.704986	2552.351316
548.063863	2551.912735
548.422684	2554.503888
548.781449	2552.242931
549.140158	2553.760318
549.498811	2555.381049
549.857408	2550.241593
550.215949	2552.484906
550.574434	2552.119423
550.932864	2553.465411
551.291237	2553.871224
551.649555	2554.254351
552.007817	2554.884496
552.366022	2552.918446
552.724173	2556.923642
553.082267	2555.078580
553.440305	2555.595298
553.798288	2553.460370
554.156215	2551.176727
554.514086	2553.215874
554.871902	2551.650595
555.229661	2551.867365
555.587365	2550.312169
555.945014	2555.174362
556.302606	2556.013714
556.660143	2557.238714
557.017625	2554.133364
557.375050	2558.012532
557.732421	2556.459856
558.089735	2555.199568
558.446994	2555.038251
558.804197	2555.131512
559.161345	2555.260062
559.518437	2556.265772
559.875474	2555.872562
560.232455	2556.747202
560.589381	2558.897254
560.946251	2558.388097
561.303065	2556.480021
561.659825	2557.125288
562.016528	2557.014383
562.373177	2556.848025
562.729770	2556.147305
563.086307	2559.076215
563.442789	2553.903991
563.799216	2557.140412
564.155587	2555.413817
564.511904	2555.219732
564.868164	2555.534804
565.224370	2556.895916
565.580520	2554.768549
565.936615	2557.828529
566.292654	2556.984136
566.648638	2556.558159
567.004567	2556.490103
567.360441	2556.492624
567.716260	2557.533622
568.072023	2556.817778
568.427732	2555.693601
568.783385	2556.464897
569.138982	2554.972716
569.494525	2557.072356
569.850013	2559.693756
570.205445	2556.429609
570.560823	2555.320555
570.916145	2555.617983
571.271412	2557.432799
571.626625	2557.654610
571.981782	2559.184600
572.336884	2554.569423
572.691931	2553.745195
573.046923	2555.451625
573.401860	2549.999617
573.756743	2555.970864
574.111570	2555.444064
574.466342	2554.191337
574.821059	2556.724517
575.175722	2558.125958
575.530330	2559.053530
575.884882	2559.207285
576.239380	2558.756102
576.593823	2558.622511
576.948211	2556.853066
577.302544	2557.092521
577.656823	2555.610422
578.011047	2557.589075
578.365216	2555.509599
578.719330	2557.672254
579.073389	2557.992367
579.427394	2556.787531
579.781344	2556.210319
580.135239	2555.865000
580.489080	2556.094372
580.842866	2555.328117
581.196597	2557.238714
581.550273	2557.515978
581.903895	2557.329455
582.257463	2555.615463
582.610975	2555.035730
582.964434	2556.631255
583.317837	2554.929866
583.671186	2554.002294
584.024481	2558.546894
584.377721	2555.323076
584.730906	2553.399876
585.084037	2556.621173
585.437113	2555.570093
585.790135	2553.808209
586.143103	2555.118909
586.496016	2555.517160
586.848874	2553.510781
587.201679	2556.588406
587.554428	2555.512119
587.907124	2556.454815
588.259765	2553.906512
588.612352	2554.050185
588.964884	2552.812581
589.317362	2558.834240
589.669786	2556.283416
590.022155	2553.213353
590.374470	2551.690925
590.726731	2553.412479
591.078937	2549.775286
591.431090	2555.809547
591.783188	2554.549259
592.135232	2552.603373
592.487222	2555.005483
592.839157	2554.771070
593.191038	2553.777962
593.542866	2554.256872
593.894639	2556.096893
594.246358	2556.759805
594.598022	2553.808209
594.949633	2553.775442
595.301190	2552.184958
595.652692	2551.206974
596.004141	2554.750905
596.355535	2551.973229
596.706876	2557.193344
597.058162	2552.484906
597.409395	2553.445246
597.760573	2554.203940
598.111698	2554.453477
598.462768	2554.158569
598.813785	2553.909032
599.164748	2553.979608
599.515657	2552.505071
599.866511	2552.391645
600.217312	2551.758980
600.568060	2552.870555
600.918753	2556.238045
601.269392	2554.496327
601.619978	2551.418702
601.970510	2553.835936
602.320988	2552.724361
602.671412	2552.903322
603.021783	2550.690256
603.372100	2553.788045
603.722363	2552.409289
604.072572	2553.636810
604.422728	2553.634289
604.772830	2554.294681
605.122878	2551.927859
605.472872	2551.942982
605.822813	2554.254351
606.172701	2551.728733
606.522534	2552.394166
606.872314	2554.448436
607.222041	2554.322407
607.571714	2553.480534
607.921333	2551.189330
608.270899	2552.958775
608.620411	2552.008517
608.969870	2553.450287
609.319276	2554.090514
609.668627	2560.399518
610.017926	2566.242215
610.367171	2565.763306
610.716362	2565.352452
611.065500	2564.596278
611.414585	2563.860270
611.763616	2559.955896
612.112594	2558.423386
612.461518	2558.017573
612.810389	2555.260062
613.159207	2555.040771
613.507971	2558.617470
613.856682	2556.890875
614.205340	2555.645710
614.553945	2556.452294
614.902496	2554.087993
615.250994	2553.266285
615.599439	2555.217212
615.947830	2557.667213
616.296169	2557.059753
616.644454	2551.396017
616.992686	2552.978939
617.340864	2551.779145
617.688990	2553.392314
618.037063	2555.121430
618.385082	2555.887685
618.733048	2555.050854
619.080961	2552.434495
619.428821	2553.679660
619.776628	2552.343754
620.124382	2553.636810
620.472083	2556.386759
620.819731	2557.770556
621.167326	2555.295350
621.514868	2555.686039
621.862357	2555.345761
622.209793	2552.792417
622.557176	2552.537838
622.904506	2556.767367
623.251783	2554.085473
623.599007	2555.370967
623.946179	2556.069167
624.293297	2556.807696
624.640363	2556.868190
624.987376	2554.425751
625.334336	2548.656150
625.681243	2553.974567
626.028097	2548.666232
626.374899	2552.331151
626.721647	2554.468600
627.068343	2556.414486
627.414987	2553.656975
627.761577	2553.876265
628.108115	2557.997408
628.454600	2554.647561
628.801032	2553.319217
629.147412	2556.348951
629.493739	2555.814588
629.840014	2554.758467
630.186236	2554.894578
630.532405	2556.202757
630.878521	2553.079762
631.224585	2552.109340
631.570597	2553.856100
631.916556	2553.616645
632.262462	2553.651933
632.608316	2553.551110
632.954117	2552.784855
633.299866	2553.969526
633.645562	2554.526574
633.991206	2551.912735
634.336797	2556.283416
634.682336	2554.201419
635.027823	2557.321893
635.373257	2554.329969
635.718639	2552.729402
636.063968	2555.030689
636.409245	2554.798796
636.754470	2554.609753
637.099642	2554.859290
637.444762	2553.387273
637.789829	2552.126984
638.134845	2554.463559
638.479808	2555.355843
638.824719	2551.607746
639.169577	2555.504557
639.514383	2552.691594
639.859137	2552.971378
640.203839	2552.928528
640.548489	2553.384752
640.893086	2553.712427
641.237632	2552.157231
641.582125	2553.525905
641.926566	2556.086811
642.270955	2552.253013
642.615292	2549.981973
642.959576	2553.059598
643.303809	2548.746891
643.647990	2554.889537
643.992118	2554.398024
644.336195	2552.956254
644.680219	2549.941644
645.024192	2554.584547
645.368112	2552.953734
645.711981	2553.004145
646.055797	2554.763508
646.399562	2555.340720
646.743274	2553.619166
647.086935	2553.649413
647.430544	2554.365257
647.774101	2555.537325
648.117606	2553.629248
648.461059	2559.766853
648.804460	2556.963972
649.147810	2554.271995
649.491108	2553.823333
649.834354	2555.718807
650.177548	2555.784342
650.520690	2553.745195
650.863781	2555.544887
651.206820	2555.786862
651.549807	2554.612273
651.892742	2555.491955
652.235626	2554.501368
652.578458	2553.813250
652.921238	2554.728220
653.263967	2558.130999
653.606644	2557.773077
653.949269	2554.617314
654.291843	2553.909032
654.634365	2553.409958
654.976836	2554.909701
655.319255	2555.776780
655.661622	2554.917263
656.003938	2555.217212
656.346203	2556.621173
656.688416	2556.079249
657.030577	2554.266954
657.372687	2556.520350
657.714746	2556.374157
658.056753	2554.198899
658.398708	2558.771225
658.740612	2558.771225
659.082465	2553.888868
659.424266	2553.679660
659.766016	2552.920966
660.107715	2554.319886
660.449362	2551.854762
660.790958	2553.525905
661.132503	2554.390462
661.473996	2556.122099
661.815438	2553.951882
662.156829	2557.052192
662.498168	2554.145967
662.839456	2556.437171
663.180693	2556.817778
663.521879	2557.311811
663.863013	2557.374826
664.204097	2559.028324
664.545129	2558.781308
664.886110	2557.543704
665.227040	2560.540670
665.567918	2556.371636
665.908746	2559.708880
666.249522	2558.660320
666.590248	2558.781307
666.930922	2560.008828
667.271545	2557.042109
667.612118	2560.288612
667.952639	2558.698128
668.293109	2559.237532
668.633528	2559.434137
668.973896	2559.703839
669.314213	2559.098900
669.654480	2560.185269
669.994695	2558.683005
670.334859	2561.727862
670.674973	2562.451268
671.015035	2559.277861
671.355047	2556.938766
671.695008	2561.196020
672.034918	2561.019580
672.374777	2561.483366
672.714585	2560.724672
673.054342	2562.191648
673.394049	2560.656617
673.733705	2560.391956
674.073310	2562.967986
674.412864	2562.536967
674.752368	2561.506051
675.091820	2560.941442
675.431223	2564.394632
675.770574	2561.659806
676.109875	2561.609395
676.449125	2558.519168
676.788324	2560.454971
677.127473	2560.936401
677.466571	2557.994887
677.805619	2563.192317
678.144616	2562.431103
678.483562	2564.041752
678.822458	2563.099056
679.161303	2562.877245
679.500098	2564.094684
679.838842	2565.546536
680.177535	2563.963614
680.516179	2565.612071
680.854771	2565.609550
681.193314	2566.607699
681.531805	2566.935374
681.870247	2569.017370
682.208638	2568.987123
682.546978	2570.862433
682.885268	2572.422670
683.223508	2570.491908
683.561697	2570.265056
683.899836	2569.251784
684.237925	2568.951835
684.575963	2572.765468
684.913951	2570.938050
685.251889	2572.465520
685.589776	2572.805798
685.927614	2575.875860
686.265401	2572.624316
686.603137	2574.207238
686.940824	2575.941395
687.278460	2577.786457
687.616046	2577.887281
687.953582	2579.084555
688.291068	2581.925245
688.628504	2585.131419
688.965889	2583.346850
689.303224	2584.019844
689.640510	2584.518918
689.977745	2583.702252
690.314930	2583.548496
690.652065	2583.810636
690.989150	2582.454566
691.326185	2582.699062
691.663170	2580.765779
692.000105	2581.010275
692.336990	2580.851479
692.673825	2580.238979
693.010610	2580.591860
693.347345	2578.739236
693.684030	2574.459296
694.020665	2576.039698
694.357251	2573.025088
694.693786	2579.477765
695.030272	2578.424163
695.366707	2578.981211
695.703093	2578.227558
696.039429	2577.632702
696.375716	2579.858372
696.711952	2577.640264
697.048139	2579.591191
697.384276	2579.329051
697.720363	2579.515573
698.056400	2581.905080
698.392388	2582.182344
698.728326	2582.651171
699.064214	2581.927765
699.400053	2585.262489
699.735842	2582.106726
700.071581	2581.390882
700.407270	2582.961202
700.742910	2581.660584
701.078501	2583.412385
701.414042	2580.707806
701.749533	2581.138825
702.084974	2579.011458
702.420366	2584.196285
702.755709	2583.165369
703.091002	2581.887436
703.426246	2583.203177
703.761440	2584.080338
704.096584	2584.511357
704.431679	2581.995821
704.766725	2584.281984
705.101721	2586.207705
705.436668	2583.606470
705.771565	2585.844742
706.106413	2586.429516
706.441212	2588.246852
706.775961	2586.963878
707.110661	2589.464290
707.445311	2591.634507
707.779913	2590.263313
708.114465	2591.231215
708.448967	2593.093921
708.783421	2594.031576
709.117825	2597.814962
709.452180	2601.341249
709.786485	2598.593820
710.120742	2600.675817
710.454949	2602.568770
710.789107	2603.856785
711.123216	2607.020109
711.457275	2621.306739
711.791286	2622.128447
712.125247	2621.016872
712.459159	2627.497276
712.793023	2630.527009
713.126837	2623.330762
713.460602	2629.284365
713.794318	2621.805813
714.127985	2623.870165
714.461602	2622.529218
714.795171	2622.957717
715.128691	2621.271451
715.462162	2615.136366
715.795584	2614.481016
716.128957	2615.121243
716.462281	2609.069338
716.795556	2613.979422
717.128782	2613.187960
717.461960	2606.213524
717.795088	2607.539347
718.128167	2611.751232
718.461198	2607.594800
718.794180	2610.107815
719.127113	2610.609410
719.459997	2608.638319
719.792833	2604.617999
720.125619	2606.810901
720.458357	2602.193204
720.791046	2604.746548
721.123686	2606.518514
721.456278	2605.122114
721.788821	2604.648246
722.121315	2601.842844
722.453761	2608.587907
722.786158	2607.988010
723.118506	2608.300562
723.450805	2610.193515
723.783056	2612.847682
724.115259	2609.409616
724.447412	2608.527414
724.779518	2610.150665
725.111574	2614.244082
725.443582	2616.444546
725.775542	2615.406068
726.107453	2620.933693
726.439315	2620.616101
726.771129	2623.824795
727.102895	2623.214815
727.434612	2629.372585
727.766281	2623.756739
728.097901	2633.138327
728.429473	2627.908130
728.760996	2633.493728
729.092471	2633.208903
729.423897	2630.970631
729.755276	2633.682771
730.086606	2633.188738
730.417887	2633.609675
730.749120	2636.581435
731.080305	2646.802374
731.411442	2651.964516
731.742530	2647.999648
732.073570	2653.476862
732.404562	2655.332007
732.735506	2645.650471
733.066401	2659.750578
733.397249	2659.667399
733.728048	2650.540390
734.058798	2644.266674
734.389501	2644.203659
734.720156	2640.838689
735.050762	2633.224026
735.381320	2631.076495
735.711831	2635.376599
736.042293	2628.928963
736.372707	2631.079015
736.703073	2629.322173
737.033391	2630.572379
737.363661	2633.221506
737.693883	2632.508182
738.024056	2634.128913
738.354182	2637.967752
738.684260	2639.558236
739.014290	2643.026550
739.344272	2651.258754
739.674207	2645.315234
740.004093	2650.603404
740.333931	2650.621048
740.663722	2650.225318
740.993464	2656.793941
741.323159	2666.520847
741.652806	2652.536687
741.982405	2650.893271
742.311956	2660.002636
742.641460	2654.061636
742.970915	2644.647281
743.300323	2645.703403
743.629683	2645.282466
743.958996	2643.051756
744.288260	2635.318626
744.617477	2642.910603
744.946647	2646.530152
745.275768	2637.166209
745.604842	2640.145531
745.933869	2636.052114
746.262847	2639.159985
746.591778	2641.113432
746.920662	2637.395581
747.249498	2637.985396
747.578286	2639.953967
747.907027	2644.932106
748.235720	2646.298259
748.564365	2644.070069
748.892963	2647.535862
749.221514	2656.811585
749.550017	2652.277067
749.878473	2643.795326
750.206881	2650.482417
750.535242	2647.596356
750.863555	2645.549647
751.191821	2648.050060
751.520039	2648.924700
751.848210	2644.294400
752.176334	2645.547127
752.504411	2653.323107
752.832440	2649.340595
753.160421	2648.680204
753.488356	2650.071562
753.816243	2660.257214
754.144082	2649.033085
754.471875	2647.558547
754.799620	2650.089207
755.127318	2654.268323
755.454969	2650.931079
755.782572	2651.064670
756.110129	2651.820843
756.437638	2658.359219
756.765100	2652.403096
757.092515	2655.861328
757.419882	2655.702531
757.747203	2654.820329
758.074477	2663.770898
758.401703	2664.973213
758.728882	2655.586585
759.056014	2660.136226
759.383099	2671.935047
759.710138	2668.950684
760.037129	2662.072029
760.364073	2664.776608
760.690970	2666.775426
761.017820	2676.149451
761.344623	2671.307423
761.671379	2677.893691
761.998088	2681.011644
762.324751	2688.147397
762.651366	2714.570605
762.977935	2758.884868
763.304456	2813.767910
763.630931	2859.410517
763.957359	2848.314938
764.283740	2815.980977
764.610074	2796.837195
764.936362	2758.809251
765.262602	2735.214130
765.588796	2706.913093
765.914943	2688.074301
766.241044	2691.401462
766.567097	2684.666481
766.893104	2671.826662
767.219064	2659.062460
767.544978	2660.872235
767.870845	2660.148829
768.196665	2653.963333
768.522438	2656.771256
768.848165	2652.682880
769.173846	2647.949237
769.499479	2647.424957
769.825066	2646.381438
770.150607	2637.892135
770.476101	2639.114615
770.801548	2640.710140
771.126949	2638.973462
771.452303	2638.086219
771.777611	2638.607979
772.102872	2640.914307
772.428087	2636.742752
772.753256	2636.715025
773.078378	2632.785446
773.403453	2635.903400
773.728482	2633.644963
774.053465	2630.504324
774.378401	2630.821917
774.703291	2635.459778
775.028135	2631.182359
775.352932	2629.760754
775.677683	2623.726492
776.002388	2626.531895
776.327046	2629.032307
776.651658	2622.498972
776.976224	2616.499998
777.300743	2622.130967
777.625216	2624.013838
777.949643	2626.950310
778.274024	2621.513426
778.598359	2616.444546
778.922647	2622.100720
779.246889	2621.369753
779.571086	2623.928139
779.895236	2620.918570
780.219339	2619.144084
780.543397	2620.076697
780.867409	2622.226749
781.191374	2624.215484
781.515294	2622.090638
781.839167	2621.909157
782.162995	2623.217336
782.486776	2625.989971
782.810511	2624.865793
783.134201	2629.110445
783.457844	2622.884620
783.781441	2619.108796
784.104993	2621.808333
784.428498	2621.541152
784.751958	2619.980915
785.075372	2623.340844
785.398739	2615.932869
785.722061	2618.725668
786.045337	2621.702469
786.368568	2627.900568
786.691752	2617.616614
787.014891	2619.113837
787.337983	2630.718573
787.661030	2637.370375
787.984031	2644.667446
788.306987	2653.058446
788.629897	2661.257883
788.952760	2659.687563
789.275579	2655.468118
789.598351	2657.058602
789.921078	2652.990391
790.243759	2634.507000
790.566395	2635.994140
790.888984	2640.596714
791.211529	2630.501803
791.534027	2627.129271
791.856480	2630.232102
792.178888	2622.221708
792.501249	2616.008486
792.823566	2619.721296
793.145836	2620.759773
793.468062	2619.287757
793.790241	2617.311624
794.112375	2621.639455
794.434464	2622.035185
794.756507	2626.272275
795.078505	2625.715228
795.400457	2624.165073
795.722364	2631.615898
796.044226	2637.897176
796.366042	2641.166364
796.687812	2645.955460
797.009538	2644.390182
797.331218	2643.313896
797.652852	2641.330202
797.974442	2642.988741
798.295986	2646.164668
798.617484	2637.796353
798.938938	2633.609675
799.260346	2637.655201
799.581709	2640.687455
799.903026	2634.431383
800.224299	2631.235291
800.545526	2633.133286
800.866708	2630.317801
801.187845	2623.600464
801.508936	2627.676237
801.829983	2628.147584
802.150984	2623.277830
802.471940	2622.486369
802.792851	2621.052160
803.113717	2620.364043
803.434538	2627.260341
803.755314	2621.881430
804.076045	2612.895573
804.396731	2618.002262
804.717372	2620.883282
805.037967	2618.032509
805.358518	2618.942437
805.679024	2619.191975
805.999485	2623.363529
806.319901	2619.716255
806.640272	2625.017028
806.960598	2624.102058
807.280879	2622.430916
807.601115	2623.973509
807.921306	2624.122223
808.241453	2626.025259
808.561554	2628.737399
808.881611	2620.172479
809.201623	2624.389404
809.521590	2627.149436
809.841513	2626.826802
810.161390	2632.339304
810.481223	2631.668830
810.801011	2624.880917
811.120755	2622.375463
811.440453	2628.535753
811.760107	2629.405352
812.079716	2624.918725
812.399281	2622.617439
812.718801	2625.359826
813.038276	2622.264558
813.357707	2622.294805
813.677093	2627.396452
813.996434	2620.177520
814.315731	2620.348919
814.634983	2623.280350
814.954191	2624.767491
815.273354	2626.965434
815.592473	2629.218830
815.911547	2626.413427
816.230577	2630.758902
816.549562	2635.222844
816.868502	2637.662762
817.187399	2644.165851
817.506250	2644.178454
817.825058	2641.262146
818.143821	2646.149545
818.462539	2660.657986
818.781213	2666.969510
819.099843	2667.398008
819.418429	2687.277798
819.736970	2709.204297
820.055466	2721.812223
820.373919	2755.202305
820.692327	2795.954993
821.010691	2828.006649
821.329011	2921.162131
821.647286	3085.965012
821.965517	3295.722383
822.283704	3470.756285
822.601847	3604.394753
822.919945	3589.596446
823.237999	3494.933659
823.556010	3388.426681
823.873976	3305.734114
824.191897	3150.380876
824.509775	3040.498846
824.827609	2949.725309
825.145398	2897.360323
825.463144	2900.916857
825.780845	2902.976169
826.098502	2910.454720
826.416116	2968.622074
826.733685	3043.762993
827.051210	3118.145218
827.368692	3153.050167
827.686129	3102.550408
828.003522	2978.830411
828.320872	2899.827968
828.638177	2846.001048
828.955439	2800.958338
829.272656	2754.977974
829.589830	2725.068808
829.906960	2713.396017
830.224046	2688.865762
830.541088	2681.702282
830.858086	2675.622651
831.175041	2671.514110
831.491952	2667.695436
831.808819	2674.092661
832.125642	2679.090965
832.442421	2693.017152
832.759157	2712.929710
833.075849	2759.217584
833.392497	2826.103614
833.709101	2871.282434
834.025662	2903.457599
834.342179	2897.592216
834.658653	2855.967409
834.975083	2807.466468
835.291469	2760.193048
835.607811	2711.051880
835.924110	2701.932433
836.240366	2680.867971
836.556578	2658.029024
836.872746	2644.869092
837.188871	2640.604276
837.504952	2636.848616
837.820990	2629.959879
838.136984	2623.124075
838.452935	2627.497276
838.768842	2627.598099
839.084706	2631.754530
839.400526	2644.836324
839.716303	2667.702998
840.032037	2706.381251
840.347727	2733.273286
840.663373	2723.564024
840.978977	2691.282995
841.294537	2667.355158
841.610054	2640.112763
841.925527	2629.851494
842.240957	2621.024434
842.556344	2616.956223
842.871687	2607.781323
843.186987	2606.631940
843.502244	2599.360075
843.817458	2597.759509
844.132629	2590.064188
844.447756	2593.121647
844.762840	2588.957654
845.077881	2589.663416
845.392879	2582.472210
845.707833	2586.542942
846.022745	2582.749473
846.337613	2586.230390
846.652438	2583.336768
846.967221	2585.393559
847.281960	2581.806778
847.596656	2583.056984
847.911309	2585.073445
848.225919	2583.319124
848.540485	2580.244020
848.855009	2580.097827
849.169490	2580.942220
849.483928	2581.063207
849.798323	2579.790316
850.112675	2578.000707
850.426984	2579.994483
850.741251	2582.341140
851.055474	2579.863413
851.369654	2579.626479
851.683792	2578.071283
851.997887	2581.526994
852.311938	2579.999524
852.625947	2579.245872
852.939914	2578.058680
853.253837	2580.644792
853.567718	2576.367373
853.881555	2573.808987
854.195350	2579.944071
854.509103	2578.018351
854.822812	2579.238310
855.136479	2576.982393
855.450103	2578.363670
855.763685	2579.155131
856.077224	2575.613720
856.390720	2576.616910
856.704173	2577.849472
857.017584	2580.690162
857.330953	2578.681262
857.644278	2580.874164
857.957561	2586.936152
858.270802	2581.705955
858.584000	2579.699575
858.897155	2581.035481
859.210268	2580.864082
859.523339	2581.106057
859.836367	2580.299473
860.149352	2579.054308
860.462295	2578.852662
860.775195	2581.534555
861.088054	2581.312745
861.400869	2580.221335
861.713642	2577.451221
862.026373	2580.160841
862.339062	2581.179154
862.651708	2582.142014
862.964312	2581.335430
863.276873	2580.029771
863.589392	2583.072107
863.901869	2581.121181
864.214303	2587.218456
864.526696	2586.449680
864.839045	2586.046388
865.151353	2587.135277
865.463619	2587.301635
865.775842	2587.374732
866.088023	2590.134764
866.400162	2592.443612
866.712258	2585.638055
867.024313	2587.347006
867.336325	2588.183837
867.648296	2594.248345
867.960224	2590.795155
868.272110	2590.021338
868.583954	2589.726430
868.895755	2596.282451
869.207515	2591.016966
869.519233	2591.357244
869.830909	2596.340424
870.142542	2593.219950
870.454134	2592.123499
870.765684	2597.603233
871.077191	2594.107193
871.388657	2592.095773
871.700081	2595.206165
872.011463	2597.114241
872.322803	2594.833119
872.634101	2601.429469
872.945357	2600.297730
873.256571	2604.764192
873.567744	2601.293358
873.878874	2599.929726
874.189963	2607.496498
874.501010	2603.710591
874.812015	2605.424583
875.122979	2606.652104
875.433900	2607.350304
875.744780	2608.814759
876.055618	2608.134204
876.366415	2611.315172
876.677169	2610.710233
876.987882	2613.818105
877.298554	2612.144442
877.609183	2615.146449
877.919771	2618.390431
878.230317	2622.456122
878.540822	2635.885756
878.851285	2641.909934
879.161707	2646.560399
879.472087	2660.007677
879.782425	2685.163034
880.092722	2749.914135
880.402977	2800.411373
880.713191	2833.662824
881.023363	2895.366547
881.333494	2975.246150
881.643583	2993.739623
881.953631	2986.145125
882.263637	2978.414515
882.573602	2968.964873
882.883526	2945.657098
883.193408	2891.754560
883.503248	2847.863754
883.813048	2823.648572
884.122806	2795.614715
884.432522	2758.030393
884.742197	2734.568863
885.051831	2707.273535
885.361424	2683.718744
885.670975	2674.117866
885.980485	2658.712100
886.289954	2652.720689
886.599382	2643.278608
886.908768	2638.474388
887.218113	2629.851494
887.527417	2619.668364
887.836680	2614.942282
888.145901	2616.981429
888.455082	2615.305245
888.764221	2608.492126
889.073319	2602.951897
889.382376	2603.022474
889.691392	2604.675972
890.000366	2607.010026
890.309300	2597.865373
890.618193	2604.605396
890.927044	2606.417691
891.235855	2606.629419
891.544625	2600.572473
891.853353	2607.188987
892.162041	2606.669748
892.470687	2611.879781
892.779293	2618.803806
893.087858	2625.085083
893.396381	2638.300468
893.704864	2648.836480
894.013306	2676.577949
894.321707	2710.399051
894.630068	2731.513923
894.938387	2732.360837
895.246665	2738.589183
895.554903	2734.278996
895.863100	2710.910728
896.171256	2689.100176
896.479371	2672.739111
896.787446	2656.022645
897.095480	2641.337763
897.403473	2631.557925
897.711425	2619.023096
898.019336	2620.913529
898.327207	2616.878085
898.635038	2608.479523
898.942827	2607.047835
899.250576	2606.856271
899.558284	2598.871083
899.865952	2594.878490
900.173579	2591.465628
900.481165	2593.343458
900.788711	2592.279775
901.096216	2586.051429
901.403681	2584.586974
901.711105	2586.230390
902.018489	2590.170052
902.325832	2584.546645
902.633135	2583.112437
902.940397	2590.502768
903.247619	2597.512492
903.554800	2626.516771
903.861941	2663.596978
904.169041	2705.612475
904.476101	2735.846795
904.783121	2741.755027
905.090100	2727.062585
905.397039	2703.956456
905.703938	2674.012002
906.010796	2647.911428
906.317614	2631.986423
906.624391	2620.301028
906.931129	2608.726539
907.237826	2598.067019
907.544483	2590.606112
907.851099	2580.496078
908.157675	2579.255954
908.464211	2574.713874
908.770707	2576.059862
909.077163	2572.793195
909.383578	2570.567525
909.689954	2566.557287
909.996289	2563.139385
910.302584	2567.459654
910.608839	2567.200034
910.915054	2569.952504
911.221229	2565.617112
911.527363	2567.242884
911.833458	2567.999057
912.139513	2566.607699
912.445527	2567.762123
912.751502	2568.029304
913.057436	2572.871333
913.363331	2573.914851
913.669186	2575.167578
913.975000	2579.863413
914.280775	2588.196440
914.586510	2599.465940
914.892205	2610.538834
915.197859	2626.620115
915.503475	2645.395892
915.809050	2667.899603
916.114585	2680.636078
916.420081	2684.192612
916.725536	2682.529032
917.030952	2679.668177
917.336328	2665.008501
917.641665	2647.394710
917.946961	2630.451392
918.252218	2625.702625
918.557435	2612.661160
918.862612	2608.482043
919.167750	2600.927874
919.472848	2594.550815
919.777906	2590.041502
920.082925	2586.326172
920.387904	2581.695872
920.692843	2576.735377
920.997743	2575.419636
921.302603	2575.384348
921.607423	2572.994841
921.912204	2569.763461
922.216946	2570.030642
922.521647	2566.902606
922.826310	2564.646690
923.130932	2565.402863
923.435516	2563.083932
923.740059	2563.814900
924.044564	2563.378840
924.349028	2560.394477
924.653454	2558.748540
924.957840	2556.762325
925.262186	2554.977757
925.566493	2556.359033
925.870761	2555.590257
926.174989	2553.135215
926.479178	2553.188147
926.783328	2552.878116
927.087438	2551.166645
927.391509	2551.900133
927.695541	2549.440049
927.999533	2552.845349
928.303486	2551.892571
928.607400	2549.956768
928.911275	2546.594318
929.215110	2550.760832
929.518906	2548.787220
929.822663	2552.048847
930.126381	2551.426264
930.430060	2550.299566
930.733699	2547.605069
931.037299	2550.024823
931.340861	2549.876109
931.644383	2550.231511
931.947866	2549.440049
932.251309	2552.033723
932.554714	2549.762683
932.858080	2548.663712
933.161407	2548.762014
933.464694	2547.466438
933.767943	2543.274718
934.071153	2549.198074
934.374323	2550.027344
934.677455	2551.272509
934.980548	2546.974925
935.283602	2546.934596
935.586617	2546.246478
935.889593	2551.123795
936.192530	2545.334030
936.495428	2548.857796
936.798287	2549.780327
937.101108	2548.867878
937.403890	2550.901984
937.706632	2552.462221
938.009336	2551.806871
938.312002	2552.401727
938.614628	2552.694114
938.917216	2554.584547
939.219765	2556.318704
939.522275	2554.685370
939.824747	2554.589588
940.127179	2556.447253
940.429573	2557.614280
940.731929	2555.776780
941.034246	2556.248128
941.336524	2550.826367
941.638763	2554.050185
941.940964	2553.200750
942.243126	2551.640513
942.545250	2555.623025
942.847335	2553.135215
943.149381	2553.364588
943.451389	2550.226469
943.753359	2551.464073
944.055290	2550.574309
944.357182	2548.857796
944.659036	2548.903167
944.960851	2549.742519
945.262628	2548.545245
945.564367	2548.434339
945.866067	2548.323434
946.167729	2549.492982
946.469352	2548.056253
946.770937	2549.238403
947.072484	2549.487940
947.373992	2550.856614
947.675462	2547.993238
947.976893	2547.610111
948.278286	2543.718340
948.579641	2546.934596
948.880958	2544.504760
949.182236	2547.647919
949.483476	2549.104813
949.784678	2549.931562
950.085841	2548.376366
950.386967	2544.822353
950.688054	2546.128011
950.989103	2548.482230
951.290114	2546.750594
951.591087	2548.363763
951.892021	2550.294525
952.192917	2548.504915
952.493776	2548.240255
952.794596	2552.880637
953.095378	2549.089689
953.396122	2550.115564
953.696828	2549.745039
953.997496	2550.009700
954.298126	2550.526418
954.598718	2547.544576
954.899272	2546.916952
955.199788	2545.913762
955.500266	2544.361087
955.800706	2543.995603
956.101108	2547.458876
956.401472	2544.056097
956.701798	2544.903011
957.002087	2544.701365
957.302337	2541.807742
957.602550	2545.087013
957.902724	2540.996117
958.202861	2546.390151
958.502960	2541.006199
958.803022	2546.251520
959.103045	2542.513504
959.403031	2541.533000
959.702979	2540.993596
960.002889	2544.834955
960.302762	2542.279090
960.602596	2543.315048
960.902393	2541.792619
961.202153	2541.827907
961.501875	2542.074924
961.801559	2540.781868
962.101205	2540.996117
962.400814	2540.920499
962.700385	2543.330171
962.999918	2538.435211
963.299414	2539.229192
963.598873	2537.495035
963.898293	2533.724252
964.197677	2541.908566
964.497022	2540.136600
964.796331	2540.726415
965.095601	2540.492001
965.394835	2541.303627
965.694030	2541.134748
965.993189	2540.436549
966.292309	2541.003678
966.591393	2543.597352
966.890439	2541.628782
967.189447	2538.742721
967.488419	2541.167516
967.787353	2541.883360
968.086249	2540.943185
968.385108	2541.217928
968.683930	2542.626930
968.982714	2541.321271
969.281462	2541.802701
969.580172	2539.254398
969.878844	2538.142824
970.177480	2539.115766
970.476078	2540.658359
970.774639	2539.917310
971.073162	2541.366642
971.371649	2543.181457
971.670098	2542.032074
971.968510	2538.052083
972.266885	2540.731456
972.565223	2544.759338
972.863524	2542.301776
973.161788	2540.058462
973.460014	2540.980993
973.758204	2541.817825
974.056356	2542.309337
974.354471	2539.463606
974.652550	2540.955788
974.950591	2541.633823
975.248595	2540.280273
975.546563	2542.455531
975.844493	2541.180119
976.142386	2539.909748
976.440243	2539.206507
976.738062	2539.067875
977.035845	2542.573998
977.333590	2541.033925
977.631299	2541.550644
977.928971	2537.623585
978.226606	2536.927906
978.524204	2538.561239
978.821765	2536.199459
979.119290	2543.010058
979.416777	2538.326826
979.714228	2541.238092
980.011642	2540.103833
980.309020	2539.713143
980.606360	2539.599717
980.903664	2541.094419
981.200931	2539.022505
981.498162	2542.899152
981.795356	2538.916641
982.092513	2541.737166
982.389633	2541.507794
982.686717	2541.268339
982.983764	2545.689431
983.280775	2542.354708
983.577749	2544.025850
983.874686	2544.086344
984.171587	2541.772454
984.468451	2543.050387
984.765279	2544.686241
985.062070	2540.519728
985.358824	2541.338915
985.655543	2541.641384
985.952224	2539.045190
986.248869	2539.191384
986.545478	2539.907228
986.842050	2542.122815
987.138586	2540.529810
987.435086	2541.530479
987.731549	2540.469316
988.027975	2539.534182
988.324366	2537.545447
988.620719	2537.053934
988.917037	2539.632485
989.213318	2541.338915
989.509563	2541.033925
989.805772	2541.906045
990.101944	2539.380427
990.398080	2541.724563
990.694180	2537.946219
990.990244	2539.871939
991.286271	2537.978986
991.582262	2537.376568
991.878217	2540.885211
992.174136	2539.894625
992.470019	2540.043339
992.765865	2538.009233
993.061676	2537.903369
993.357450	2537.789943
993.653188	2536.635519
993.948890	2540.761703
994.244556	2537.293389
994.540186	2540.123997
994.835780	2538.334387
995.131337	2540.764224
995.426859	2540.930582
995.722345	2540.209697
996.017795	2541.303627
996.313208	2539.798843
996.608586	2539.317413
996.903928	2540.348328
997.199234	2541.071734
997.494504	2541.792619
997.789738	2541.109543
998.084936	2541.159954
998.380099	2540.560057
998.675225	2539.813966
998.970316	2540.282793
999.265371	2541.429656
999.560390	2538.059645
999.855373	2539.834131
1000.150320	2537.568132
1000.445232	2539.017464
1000.740108	2535.939839
1001.034948	2538.336908
1001.329752	2539.745911
1001.624521	2536.514531
1001.919254	2538.599048
1002.213951	2541.583411
1002.508613	2540.484440
1002.803239	2541.676672
1003.097829	2539.662732
1003.392384	2539.317412
1003.686903	2539.277083
1003.981386	2540.287835
1004.275834	2537.676517
1004.570246	2537.139634
1004.864623	2540.103832
1005.158964	2539.385468
1005.453270	2538.977135
1005.747540	2537.941177
1006.041775	2538.084850
1006.335974	2538.286497
1006.630138	2541.003678
1006.924266	2539.183822
1007.218359	2538.651980
1007.512416	2534.790456
1007.806438	2535.733152
1008.100425	2539.309851
1008.394376	2531.622091
1008.688292	2537.608461
1008.982172	2537.789943
1009.276017	2540.371014
1009.569827	2537.006043
1009.863602	2539.251877
1010.157341	2539.511497
1010.451045	2541.669111
1010.744714	2540.446631
1011.038347	2542.410160
1011.331945	2542.271529
1011.625508	2538.321785
1011.919036	2540.875129
1012.212528	2537.595858
1012.505986	2540.403781
1012.799408	2539.098122
1013.092795	2538.838503
1013.386147	2538.523431
1013.679464	2543.274718
1013.972745	2537.200128
1014.265992	2538.591486
1014.559204	2535.793646
1014.852380	2537.608461
1015.145521	2538.352032
1015.438628	2541.238092
1015.731699	2538.530992
1016.024736	2539.393030
1016.317737	2538.866229
1016.610703	2538.485622
1016.903635	2540.272711
1017.196531	2537.263142
1017.489393	2537.479912
1017.782219	2541.258257
1018.075011	2538.893956
1018.367768	2538.283976
1018.660490	2535.496218
1018.953177	2535.496218
1019.245829	2535.496218
