Dividing Wavelength (nm)	Counts (n)	Blue Motor Position (mm): 6.300000	Red Motor Position (mm): 0.000000	
326.493990	2076.955385
326.888308	2076.955385
327.282561	2076.955385
327.676750	2107.202308
328.070874	2089.558269
328.464933	2056.790769
328.858929	2099.640577
329.252859	2074.434808
329.646726	2187.860769
330.040528	2102.161154
330.434265	2157.613846
330.827938	2102.161154
331.221547	2180.299038
331.615091	2112.243462
332.008571	2150.052115
332.401986	2197.943077
332.795338	2230.710577
333.188625	2283.642692
333.581847	2240.792885
333.975006	2268.519231
334.368100	2354.218846
334.761129	2313.889615
335.154095	2286.163269
335.546996	2399.589231
335.939833	2364.301154
336.332606	2386.986346
336.725315	2361.780577
337.117960	2331.533654
337.510540	2384.465769
337.903056	2392.027500
338.295508	2397.068654
338.687896	2359.260000
339.080220	2439.918462
339.472480	2472.685962
339.864676	2450.000769
340.256807	2482.768269
340.648875	2429.836154
341.040879	2485.288846
341.432818	2409.671538
341.824694	2450.000769
342.216506	2586.111923
342.608253	2495.371154
342.999937	2477.727115
343.391557	2480.247692
343.783113	2470.165385
344.174605	2502.932885
344.566033	2467.644808
344.957397	2497.891731
345.348697	2465.124231
345.739934	2460.083077
346.131106	2434.877308
346.522215	2447.480192
346.913260	2432.356731
347.304241	2472.685962
347.695159	2424.795000
348.086012	2452.521346
348.476802	2477.727115
348.867528	2424.795000
349.258191	2495.371154
349.648789	2543.262115
350.039324	2434.877308
350.429796	2386.986346
350.820203	2417.233269
351.210548	2482.768269
351.600828	2450.000769
351.991045	2513.015192
352.381198	2513.015192
352.771288	2533.179808
353.161314	2429.836154
353.551276	2419.753846
353.941175	2510.494615
354.331010	2470.165385
354.720782	2384.465769
355.110490	2495.371154
355.500135	2434.877308
355.889717	2470.165385
356.279235	2374.383462
356.668689	2386.986346
357.058080	2492.850577
357.447408	2457.562500
357.836672	2480.247692
358.225873	2513.015192
358.615010	2407.150962
359.004084	2434.877308
359.393095	2392.027500
359.782043	2429.836154
360.170927	2490.330000
360.559748	2442.439038
360.948505	2457.562500
361.337199	2434.877308
361.725830	2394.548077
362.114398	2404.630385
362.502903	2485.288846
362.891344	2397.068654
363.279722	2442.439038
363.668037	2442.439038
364.056289	2442.439038
364.444478	2381.945192
364.832603	2447.480192
365.220665	2465.124231
365.608665	2424.795000
365.996601	2404.630385
366.384474	2409.671538
366.772284	2447.480192
367.160031	2487.809423
367.547715	2432.356731
367.935336	2457.562500
368.322893	2409.671538
368.710388	2392.027500
369.097820	2477.727115
369.485189	2429.836154
369.872495	2402.109808
370.259738	2429.836154
370.646918	2485.288846
371.034035	2538.220962
371.421090	2485.288846
371.808081	2510.494615
372.195010	2470.165385
372.581875	2563.426731
372.968678	2477.727115
373.355418	2412.192115
373.742096	2490.330000
374.128710	2369.342308
374.515262	2424.795000
374.901751	2482.768269
375.288177	2424.795000
375.674540	2495.371154
376.060841	2354.218846
376.447079	2538.220962
376.833254	2490.330000
377.219367	2497.891731
377.605417	2427.315577
377.991404	2497.891731
378.377329	2447.480192
378.763191	2349.177692
379.148991	2442.439038
379.534727	2442.439038
379.920402	2432.356731
380.306013	2412.192115
380.691563	2530.659231
381.077049	2450.000769
381.462474	2460.083077
381.847835	2465.124231
382.233134	2465.124231
382.618371	2510.494615
383.003545	2419.753846
383.388657	2505.453462
383.773706	2462.603654
384.158693	2477.727115
384.543618	2399.589231
384.928480	2495.371154
385.313280	2361.780577
385.698017	2455.041923
386.082692	2397.068654
386.467305	2470.165385
386.851856	2417.233269
387.236344	2419.753846
387.620770	2543.262115
388.005133	2502.932885
388.389435	2485.288846
388.773674	2437.397885
389.157851	2455.041923
389.541965	2475.206538
389.926018	2444.959615
390.310008	2462.603654
390.693936	2452.521346
391.077802	2497.891731
391.461606	2452.521346
391.845348	2447.480192
392.229027	2495.371154
392.612645	2510.494615
392.996200	2412.192115
393.379694	2510.494615
393.763125	2422.274423
394.146494	2392.027500
394.529801	2545.782692
394.913047	2465.124231
395.296230	2475.206538
395.679351	2439.918462
396.062410	2515.535769
396.445408	2442.439038
396.828343	2422.274423
397.211217	2502.932885
397.594028	2490.330000
397.976778	2427.315577
398.359466	2485.288846
398.742092	2540.741538
399.124656	2500.412308
399.507158	2434.877308
399.889598	2437.397885
400.271977	2442.439038
400.654294	2475.206538
401.036549	2525.618077
401.418742	2502.932885
401.800874	2412.192115
402.182944	2525.618077
402.564952	2397.068654
402.946898	2502.932885
403.328783	2450.000769
403.710606	2460.083077
404.092367	2492.850577
404.474067	2447.480192
404.855705	2379.424615
405.237282	2505.453462
405.618797	2490.330000
406.000250	2495.371154
406.381642	2392.027500
406.762972	2480.247692
407.144240	2457.562500
407.525447	2510.494615
407.906593	2507.974038
408.287677	2470.165385
408.668700	2455.041923
409.049661	2447.480192
409.430560	2434.877308
409.811399	2447.480192
410.192176	2510.494615
410.572891	2467.644808
410.953545	2432.356731
411.334138	2427.315577
411.714669	2563.426731
412.095139	2460.083077
412.475547	2467.644808
412.855894	2500.412308
413.236180	2477.727115
413.616405	2450.000769
413.996568	2460.083077
414.376670	2452.521346
414.756711	2500.412308
415.136691	2507.974038
415.516609	2394.548077
415.896466	2515.535769
416.276262	2510.494615
416.655997	2490.330000
417.035670	2513.015192
417.415283	2397.068654
417.794834	2523.097500
418.174324	2485.288846
418.553753	2530.659231
418.933121	2565.947308
419.312428	2472.685962
419.691674	2409.671538
420.070859	2432.356731
420.449983	2465.124231
420.829045	2507.974038
421.208047	2515.535769
421.586988	2460.083077
421.965867	2500.412308
422.344686	2447.480192
422.723444	2533.179808
423.102141	2507.974038
423.480777	2500.412308
423.859352	2460.083077
424.237866	2482.768269
424.616319	2490.330000
424.994712	2492.850577
425.373044	2409.671538
425.751314	2490.330000
426.129524	2555.865000
426.507673	2500.412308
426.885762	2450.000769
427.263789	2520.576923
427.641756	2570.988462
428.019662	2507.974038
428.397508	2510.494615
428.775292	2520.576923
429.153016	2399.589231
429.530679	2560.906154
429.908282	2442.439038
430.285824	2460.083077
430.663305	2465.124231
431.040726	2465.124231
431.418086	2429.836154
431.795385	2530.659231
432.172624	2475.206538
432.549802	2432.356731
432.926920	2487.809423
433.303977	2485.288846
433.680974	2404.630385
434.057910	2507.974038
434.434786	2490.330000
434.811601	2497.891731
435.188355	2437.397885
435.565050	2533.179808
435.941683	2437.397885
436.318257	2490.330000
436.694770	2447.480192
437.071222	2578.550192
437.447614	2470.165385
437.823946	2427.315577
438.200218	2424.795000
438.576429	2386.986346
438.952580	2462.603654
439.328670	2460.083077
439.704700	2497.891731
440.080670	2412.192115
440.456580	2487.809423
440.832429	2444.959615
441.208218	2550.823846
441.583947	2437.397885
441.959616	2460.083077
442.335224	2407.150962
442.710773	2432.356731
443.086261	2495.371154
443.461689	2528.138654
443.837057	2485.288846
444.212365	2518.056346
444.587612	2470.165385
444.962800	2543.262115
445.337927	2457.562500
445.712995	2397.068654
446.088002	2518.056346
446.462949	2465.124231
446.837837	2450.000769
447.212664	2573.509038
447.587431	2573.509038
447.962139	2558.385577
448.336786	2427.315577
448.711374	2480.247692
449.085901	2475.206538
449.460369	2394.548077
449.834776	2487.809423
450.209124	2573.509038
450.583412	2490.330000
450.957640	2392.027500
451.331808	2492.850577
451.705917	2467.644808
452.079965	2470.165385
452.453954	2414.712692
452.827883	2439.918462
453.201752	2439.918462
453.575562	2568.467885
453.949311	2520.576923
454.323001	2543.262115
454.696632	2485.288846
455.070202	2490.330000
455.443713	2462.603654
455.817164	2500.412308
456.190556	2520.576923
456.563888	2502.932885
456.937160	2465.124231
457.310373	2424.795000
457.683526	2475.206538
458.056619	2500.412308
458.429653	2439.918462
458.802628	2523.097500
459.175542	2593.673654
459.548398	2618.879423
459.921194	2530.659231
460.293930	2434.877308
460.666607	2520.576923
461.039224	2480.247692
461.411782	2497.891731
461.784280	2495.371154
462.156719	2497.891731
462.529099	2515.535769
462.901419	2505.453462
463.273680	2497.891731
463.645882	2407.150962
464.018024	2553.344423
464.390106	2487.809423
464.762130	2507.974038
465.134094	2543.262115
465.505999	2452.521346
465.877845	2450.000769
466.249631	2513.015192
466.621358	2462.603654
466.993026	2439.918462
467.364634	2485.288846
467.736184	2490.330000
468.107674	2535.700385
468.479105	2490.330000
468.850477	2460.083077
469.221790	2477.727115
469.593043	2555.865000
469.964238	2563.426731
470.335373	2520.576923
470.706449	2525.618077
471.077467	2407.150962
471.448425	2447.480192
471.819324	2465.124231
472.190164	2520.576923
472.560945	2467.644808
472.931667	2477.727115
473.302330	2538.220962
473.672934	2533.179808
474.043479	2570.988462
474.413965	2558.385577
474.784393	2497.891731
475.154761	2528.138654
475.525070	2399.589231
475.895321	2455.041923
476.265513	2432.356731
476.635645	2553.344423
477.005719	2447.480192
477.375734	2565.947308
477.745691	2482.768269
478.115588	2515.535769
478.485427	2470.165385
478.855207	2457.562500
479.224928	2412.192115
479.594591	2470.165385
479.964194	2407.150962
480.333739	2379.424615
480.703226	2437.397885
481.072653	2545.782692
481.442022	2500.412308
481.811333	2462.603654
482.180584	2429.836154
482.549777	2558.385577
482.918912	2513.015192
483.287988	2510.494615
483.657005	2480.247692
484.025964	2505.453462
484.394864	2502.932885
484.763706	2485.288846
485.132489	2515.535769
485.501213	2520.576923
485.869879	2507.974038
486.238487	2465.124231
486.607036	2392.027500
486.975527	2472.685962
487.343959	2540.741538
487.712333	2548.303269
488.080648	2397.068654
488.448905	2444.959615
488.817104	2439.918462
489.185244	2525.618077
489.553326	2427.315577
489.921350	2462.603654
490.289315	2462.603654
490.657222	2439.918462
491.025070	2497.891731
491.392861	2507.974038
491.760593	2490.330000
492.128267	2540.741538
492.495883	2475.206538
492.863440	2452.521346
493.230939	2417.233269
493.598380	2535.700385
493.965763	2485.288846
494.333088	2477.727115
494.700354	2455.041923
495.067563	2432.356731
495.434713	2533.179808
495.801805	2502.932885
496.168839	2553.344423
496.535815	2492.850577
496.902733	2500.412308
497.269593	2485.288846
497.636395	2455.041923
498.003139	2465.124231
498.369825	2460.083077
498.736453	2490.330000
499.103023	2533.179808
499.469535	2492.850577
499.835989	2507.974038
500.202385	2550.823846
500.568723	2475.206538
500.935003	2475.206538
501.301226	2480.247692
501.667390	2558.385577
502.033497	2419.753846
502.399546	2548.303269
502.765537	2548.303269
503.131470	2439.918462
503.497345	2553.344423
503.863163	2550.823846
504.228923	2417.233269
504.594625	2497.891731
504.960269	2485.288846
505.325856	2591.153077
505.691385	2530.659231
506.056856	2482.768269
506.422270	2422.274423
506.787625	2533.179808
507.152924	2550.823846
507.518164	2475.206538
507.883347	2450.000769
508.248472	2465.124231
508.613540	2540.741538
508.978550	2535.700385
509.343503	2518.056346
509.708398	2535.700385
510.073236	2482.768269
510.438016	2570.988462
510.802738	2447.480192
511.167403	2487.809423
511.532010	2502.932885
511.896561	2540.741538
512.261053	2460.083077
512.625488	2432.356731
512.989866	2482.768269
513.354186	2510.494615
513.718449	2530.659231
514.082655	2490.330000
514.446803	2535.700385
514.810894	2475.206538
515.174927	2565.947308
515.538904	2500.412308
515.902822	2555.865000
516.266684	2422.274423
516.630488	2502.932885
516.994235	2462.603654
517.357925	2455.041923
517.721558	2452.521346
518.085133	2530.659231
518.448651	2500.412308
518.812112	2505.453462
519.175516	2492.850577
519.538863	2515.535769
519.902152	2530.659231
520.265385	2530.659231
520.628560	2507.974038
520.991678	2485.288846
521.354739	2417.233269
521.717743	2525.618077
522.080690	2505.453462
522.443580	2482.768269
522.806413	2553.344423
523.169189	2492.850577
523.531908	2502.932885
523.894569	2487.809423
524.257174	2399.589231
524.619722	2495.371154
524.982213	2470.165385
525.344647	2460.083077
525.707025	2497.891731
526.069345	2485.288846
526.431608	2452.521346
526.793815	2490.330000
527.155964	2505.453462
527.518057	2502.932885
527.880093	2482.768269
528.242072	2565.947308
528.603995	2495.371154
528.965860	2482.768269
529.327669	2520.576923
529.689421	2475.206538
530.051117	2507.974038
530.412755	2543.262115
530.774337	2570.988462
531.135862	2429.836154
531.497331	2558.385577
531.858743	2482.768269
532.220098	2394.548077
532.581396	2510.494615
532.942638	2439.918462
533.303824	2518.056346
533.664953	2475.206538
534.026025	2402.109808
534.387040	2596.194231
534.747999	2550.823846
535.108902	2518.056346
535.469748	2507.974038
535.830537	2535.700385
536.191270	2507.974038
536.551947	2560.906154
536.912567	2538.220962
537.273131	2543.262115
537.633638	2528.138654
537.994089	2482.768269
538.354483	2515.535769
538.714821	2502.932885
539.075103	2500.412308
539.435328	2492.850577
539.795497	2525.618077
540.155609	2442.439038
540.515665	2560.906154
540.875665	2455.041923
541.235609	2545.782692
541.595496	2502.932885
541.955328	2515.535769
542.315102	2495.371154
542.674821	2523.097500
543.034483	2573.509038
543.394090	2475.206538
543.753640	2502.932885
544.113134	2467.644808
544.472571	2540.741538
544.831953	2576.029615
545.191278	2573.509038
545.550548	2500.412308
545.909761	2543.262115
546.268918	2570.988462
546.628019	2533.179808
546.987064	2475.206538
547.346053	2500.412308
547.704986	2500.412308
548.063863	2545.782692
548.422684	2485.288846
548.781449	2548.303269
549.140158	2510.494615
549.498811	2465.124231
549.857408	2568.467885
550.215949	2507.974038
550.574434	2528.138654
550.932864	2550.823846
551.291237	2507.974038
551.649555	2487.809423
552.007817	2513.015192
552.366022	2563.426731
552.724173	2480.247692
553.082267	2482.768269
553.440305	2507.974038
553.798288	2520.576923
554.156215	2525.618077
554.514086	2444.959615
554.871902	2429.836154
555.229661	2477.727115
555.587365	2434.877308
555.945014	2497.891731
556.302606	2442.439038
556.660143	2480.247692
557.017625	2543.262115
557.375050	2427.315577
557.732421	2477.727115
558.089735	2480.247692
558.446994	2545.782692
558.804197	2490.330000
559.161345	2548.303269
559.518437	2528.138654
559.875474	2505.453462
560.232455	2543.262115
560.589381	2450.000769
560.946251	2457.562500
561.303065	2472.685962
561.659825	2518.056346
562.016528	2540.741538
562.373177	2465.124231
562.729770	2528.138654
563.086307	2565.947308
563.442789	2558.385577
563.799216	2450.000769
564.155587	2513.015192
564.511904	2462.603654
564.868164	2573.509038
565.224370	2543.262115
565.580520	2510.494615
565.936615	2475.206538
566.292654	2545.782692
566.648638	2510.494615
567.004567	2591.153077
567.360441	2505.453462
567.716260	2502.932885
568.072023	2482.768269
568.427732	2500.412308
568.783385	2576.029615
569.138982	2548.303269
569.494525	2510.494615
569.850013	2490.330000
570.205445	2460.083077
570.560823	2487.809423
570.916145	2422.274423
571.271412	2475.206538
571.626625	2450.000769
571.981782	2480.247692
572.336884	2472.685962
572.691931	2525.618077
573.046923	2538.220962
573.401860	2485.288846
573.756743	2480.247692
574.111570	2450.000769
574.466342	2558.385577
574.821059	2482.768269
575.175722	2528.138654
575.530330	2444.959615
575.884882	2434.877308
576.239380	2553.344423
576.593823	2520.576923
576.948211	2472.685962
577.302544	2558.385577
577.656823	2502.932885
578.011047	2500.412308
578.365216	2510.494615
578.719330	2465.124231
579.073389	2482.768269
579.427394	2490.330000
579.781344	2495.371154
580.135239	2480.247692
580.489080	2502.932885
580.842866	2500.412308
581.196597	2601.235385
581.550273	2573.509038
581.903895	2550.823846
582.257463	2465.124231
582.610975	2495.371154
582.964434	2429.836154
583.317837	2555.865000
583.671186	2470.165385
584.024481	2482.768269
584.377721	2482.768269
584.730906	2490.330000
585.084037	2462.603654
585.437113	2535.700385
585.790135	2475.206538
586.143103	2460.083077
586.496016	2530.659231
586.848874	2495.371154
587.201679	2507.974038
587.554428	2507.974038
587.907124	2455.041923
588.259765	2495.371154
588.612352	2432.356731
588.964884	2548.303269
589.317362	2558.385577
589.669786	2507.974038
590.022155	2573.509038
590.374470	2530.659231
590.726731	2538.220962
591.078937	2528.138654
591.431090	2543.262115
591.783188	2475.206538
592.135232	2530.659231
592.487222	2538.220962
592.839157	2528.138654
593.191038	2359.260000
593.542866	2563.426731
593.894639	2555.865000
594.246358	2442.439038
594.598022	2427.315577
594.949633	2540.741538
595.301190	2460.083077
595.652692	2407.150962
596.004141	2475.206538
596.355535	2482.768269
596.706876	2555.865000
597.058162	2465.124231
597.409395	2523.097500
597.760573	2502.932885
598.111698	2460.083077
598.462768	2487.809423
598.813785	2533.179808
599.164748	2485.288846
599.515657	2545.782692
599.866511	2470.165385
600.217312	2502.932885
600.568060	2545.782692
600.918753	2558.385577
601.269392	2502.932885
601.619978	2495.371154
601.970510	2475.206538
602.320988	2442.439038
602.671412	2513.015192
603.021783	2515.535769
603.372100	2447.480192
603.722363	2553.344423
604.072572	2455.041923
604.422728	2495.371154
604.772830	2467.644808
605.122878	2518.056346
605.472872	2510.494615
605.822813	2432.356731
606.172701	2513.015192
606.522534	2497.891731
606.872314	2482.768269
607.222041	2444.959615
607.571714	2565.947308
607.921333	2450.000769
608.270899	2518.056346
608.620411	2520.576923
608.969870	2467.644808
609.319276	2528.138654
609.668627	2485.288846
610.017926	2447.480192
610.367171	2570.988462
610.716362	2518.056346
611.065500	2553.344423
611.414585	2538.220962
611.763616	2538.220962
612.112594	2576.029615
612.461518	2472.685962
612.810389	2505.453462
613.159207	2442.439038
613.507971	2462.603654
613.856682	2462.603654
614.205340	2520.576923
614.553945	2417.233269
614.902496	2419.753846
615.250994	2515.535769
615.599439	2576.029615
615.947830	2505.453462
616.296169	2482.768269
616.644454	2450.000769
616.992686	2437.397885
617.340864	2482.768269
617.688990	2487.809423
618.037063	2550.823846
618.385082	2414.712692
618.733048	2533.179808
619.080961	2530.659231
619.428821	2437.397885
619.776628	2470.165385
620.124382	2472.685962
620.472083	2525.618077
620.819731	2490.330000
621.167326	2568.467885
621.514868	2530.659231
621.862357	2495.371154
622.209793	2482.768269
622.557176	2545.782692
622.904506	2432.356731
623.251783	2525.618077
623.599007	2502.932885
623.946179	2409.671538
624.293297	2472.685962
624.640363	2465.124231
624.987376	2538.220962
625.334336	2510.494615
625.681243	2480.247692
626.028097	2570.988462
626.374899	2462.603654
626.721647	2487.809423
627.068343	2495.371154
627.414987	2485.288846
627.761577	2495.371154
628.108115	2576.029615
628.454600	2558.385577
628.801032	2472.685962
629.147412	2502.932885
629.493739	2563.426731
629.840014	2422.274423
630.186236	2492.850577
630.532405	2460.083077
630.878521	2520.576923
631.224585	2480.247692
631.570597	2505.453462
631.916556	2510.494615
632.262462	2641.564615
632.608316	2500.412308
632.954117	2505.453462
633.299866	2513.015192
633.645562	2500.412308
633.991206	2495.371154
634.336797	2490.330000
634.682336	2513.015192
635.027823	2480.247692
635.373257	2535.700385
635.718639	2407.150962
636.063968	2495.371154
636.409245	2470.165385
636.754470	2530.659231
637.099642	2392.027500
637.444762	2568.467885
637.789829	2507.974038
638.134845	2495.371154
638.479808	2515.535769
638.824719	2444.959615
639.169577	2462.603654
639.514383	2548.303269
639.859137	2427.315577
640.203839	2492.850577
640.548489	2492.850577
640.893086	2495.371154
641.237632	2578.550192
641.582125	2578.550192
641.926566	2495.371154
642.270955	2465.124231
642.615292	2502.932885
642.959576	2543.262115
643.303809	2492.850577
643.647990	2502.932885
643.992118	2553.344423
644.336195	2520.576923
644.680219	2510.494615
645.024192	2500.412308
645.368112	2480.247692
645.711981	2510.494615
646.055797	2495.371154
646.399562	2515.535769
646.743274	2510.494615
647.086935	2525.618077
647.430544	2455.041923
647.774101	2548.303269
648.117606	2583.591346
648.461059	2444.959615
648.804460	2583.591346
649.147810	2513.015192
649.491108	2507.974038
649.834354	2485.288846
650.177548	2392.027500
650.520690	2510.494615
650.863781	2490.330000
651.206820	2417.233269
651.549807	2497.891731
651.892742	2414.712692
652.235626	2485.288846
652.578458	2455.041923
652.921238	2497.891731
653.263967	2487.809423
653.606644	2533.179808
653.949269	2482.768269
654.291843	2538.220962
654.634365	2528.138654
654.976836	2437.397885
655.319255	2530.659231
655.661622	2500.412308
656.003938	2507.974038
656.346203	2583.591346
656.688416	2578.550192
657.030577	2495.371154
657.372687	2470.165385
657.714746	2487.809423
658.056753	2581.070769
658.398708	2472.685962
658.740612	2492.850577
659.082465	2409.671538
659.424266	2472.685962
659.766016	2465.124231
660.107715	2485.288846
660.449362	2535.700385
660.790958	2444.959615
661.132503	2460.083077
661.473996	2513.015192
661.815438	2467.644808
662.156829	2523.097500
662.498168	2583.591346
662.839456	2490.330000
663.180693	2510.494615
663.521879	2457.562500
663.863013	2505.453462
664.204097	2450.000769
664.545129	2525.618077
664.886110	2535.700385
665.227040	2507.974038
665.567918	2513.015192
665.908746	2545.782692
666.249522	2523.097500
666.590248	2487.809423
666.930922	2477.727115
667.271545	2490.330000
667.612118	2472.685962
667.952639	2470.165385
668.293109	2588.632500
668.633528	2553.344423
668.973896	2581.070769
669.314213	2555.865000
669.654480	2576.029615
669.994695	2507.974038
670.334859	2470.165385
670.674973	2515.535769
671.015035	2543.262115
671.355047	2432.356731
671.695008	2497.891731
672.034918	2545.782692
672.374777	2487.809423
672.714585	2530.659231
673.054342	2429.836154
673.394049	2477.727115
673.733705	2452.521346
674.073310	2492.850577
674.412864	2535.700385
674.752368	2485.288846
675.091820	2492.850577
675.431223	2530.659231
675.770574	2439.918462
676.109875	2518.056346
676.449125	2467.644808
676.788324	2404.630385
677.127473	2450.000769
677.466571	2581.070769
677.805619	2543.262115
678.144616	2528.138654
678.483562	2502.932885
678.822458	2465.124231
679.161303	2414.712692
679.500098	2490.330000
679.838842	2553.344423
680.177535	2530.659231
680.516179	2553.344423
680.854771	2467.644808
681.193314	2455.041923
681.531805	2555.865000
681.870247	2525.618077
682.208638	2570.988462
682.546978	2477.727115
682.885268	2533.179808
683.223508	2513.015192
683.561697	2523.097500
683.899836	2379.424615
684.237925	2462.603654
684.575963	2470.165385
684.913951	2550.823846
685.251889	2530.659231
685.589776	2510.494615
685.927614	2485.288846
686.265401	2550.823846
686.603137	2495.371154
686.940824	2485.288846
687.278460	2500.412308
687.616046	2553.344423
687.953582	2495.371154
688.291068	2472.685962
688.628504	2563.426731
688.965889	2500.412308
689.303224	2525.618077
689.640510	2543.262115
689.977745	2495.371154
690.314930	2540.741538
690.652065	2576.029615
690.989150	2472.685962
691.326185	2525.618077
691.663170	2487.809423
692.000105	2555.865000
692.336990	2487.809423
692.673825	2495.371154
693.010610	2507.974038
693.347345	2452.521346
693.684030	2437.397885
694.020665	2523.097500
694.357251	2507.974038
694.693786	2477.727115
695.030272	2520.576923
695.366707	2457.562500
695.703093	2525.618077
696.039429	2487.809423
696.375716	2472.685962
696.711952	2500.412308
697.048139	2427.315577
697.384276	2472.685962
697.720363	2492.850577
698.056400	2530.659231
698.392388	2500.412308
698.728326	2502.932885
699.064214	2495.371154
699.400053	2520.576923
699.735842	2515.535769
700.071581	2525.618077
700.407270	2505.453462
700.742910	2452.521346
701.078501	2515.535769
701.414042	2462.603654
701.749533	2432.356731
702.084974	2487.809423
702.420366	2555.865000
702.755709	2457.562500
703.091002	2475.206538
703.426246	2439.918462
703.761440	2543.262115
704.096584	2492.850577
704.431679	2487.809423
704.766725	2528.138654
705.101721	2455.041923
705.436668	2460.083077
705.771565	2485.288846
706.106413	2386.986346
706.441212	2513.015192
706.775961	2528.138654
707.110661	2530.659231
707.445311	2518.056346
707.779913	2543.262115
708.114465	2470.165385
708.448967	2528.138654
708.783421	2490.330000
709.117825	2437.397885
709.452180	2626.441154
709.786485	2450.000769
710.120742	2513.015192
710.454949	2525.618077
710.789107	2513.015192
711.123216	2442.439038
711.457275	2490.330000
711.791286	2460.083077
712.125247	2482.768269
712.459159	2480.247692
712.793023	2460.083077
713.126837	2545.782692
713.460602	2505.453462
713.794318	2475.206538
714.127985	2535.700385
714.461602	2550.823846
714.795171	2502.932885
715.128691	2543.262115
715.462162	2497.891731
715.795584	2487.809423
716.128957	2576.029615
716.462281	2460.083077
716.795556	2555.865000
717.128782	2528.138654
717.461960	2472.685962
717.795088	2518.056346
718.128167	2485.288846
718.461198	2538.220962
718.794180	2513.015192
719.127113	2465.124231
719.459997	2507.974038
719.792833	2608.797115
720.125619	2467.644808
720.458357	2439.918462
720.791046	2513.015192
721.123686	2432.356731
721.456278	2407.150962
721.788821	2543.262115
722.121315	2520.576923
722.453761	2480.247692
722.786158	2490.330000
723.118506	2563.426731
723.450805	2409.671538
723.783056	2510.494615
724.115259	2495.371154
724.447412	2485.288846
724.779518	2505.453462
725.111574	2475.206538
725.443582	2424.795000
725.775542	2452.521346
726.107453	2492.850577
726.439315	2507.974038
726.771129	2487.809423
727.102895	2422.274423
727.434612	2485.288846
727.766281	2450.000769
728.097901	2452.521346
728.429473	2513.015192
728.760996	2550.823846
729.092471	2497.891731
729.423897	2424.795000
729.755276	2500.412308
730.086606	2515.535769
730.417887	2495.371154
730.749120	2518.056346
731.080305	2578.550192
731.411442	2470.165385
731.742530	2482.768269
732.073570	2482.768269
732.404562	2487.809423
732.735506	2437.397885
733.066401	2460.083077
733.397249	2560.906154
733.728048	2495.371154
734.058798	2523.097500
734.389501	2447.480192
734.720156	2505.453462
735.050762	2550.823846
735.381320	2578.550192
735.711831	2490.330000
736.042293	2487.809423
736.372707	2422.274423
736.703073	2470.165385
737.033391	2528.138654
737.363661	2485.288846
737.693883	2386.986346
738.024056	2470.165385
738.354182	2455.041923
738.684260	2502.932885
739.014290	2462.603654
739.344272	2452.521346
739.674207	2379.424615
740.004093	2523.097500
740.333931	2525.618077
740.663722	2520.576923
740.993464	2495.371154
741.323159	2444.959615
741.652806	2500.412308
741.982405	2487.809423
742.311956	2545.782692
742.641460	2457.562500
742.970915	2543.262115
743.300323	2560.906154
743.629683	2462.603654
743.958996	2518.056346
744.288260	2407.150962
744.617477	2500.412308
744.946647	2480.247692
745.275768	2530.659231
745.604842	2497.891731
745.933869	2523.097500
746.262847	2535.700385
746.591778	2581.070769
746.920662	2495.371154
747.249498	2558.385577
747.578286	2490.330000
747.907027	2417.233269
748.235720	2500.412308
748.564365	2467.644808
748.892963	2477.727115
749.221514	2455.041923
749.550017	2538.220962
749.878473	2500.412308
750.206881	2513.015192
750.535242	2452.521346
750.863555	2482.768269
751.191821	2492.850577
751.520039	2490.330000
751.848210	2495.371154
752.176334	2530.659231
752.504411	2500.412308
752.832440	2439.918462
753.160421	2414.712692
753.488356	2502.932885
753.816243	2480.247692
754.144082	2540.741538
754.471875	2576.029615
754.799620	2497.891731
755.127318	2475.206538
755.454969	2560.906154
755.782572	2581.070769
756.110129	2447.480192
756.437638	2472.685962
756.765100	2437.397885
757.092515	2540.741538
757.419882	2450.000769
757.747203	2553.344423
758.074477	2465.124231
758.401703	2467.644808
758.728882	2465.124231
759.056014	2500.412308
759.383099	2465.124231
759.710138	2518.056346
760.037129	2482.768269
760.364073	2543.262115
760.690970	2525.618077
761.017820	2457.562500
761.344623	2553.344423
761.671379	2490.330000
761.998088	2480.247692
762.324751	2492.850577
762.651366	2533.179808
762.977935	2450.000769
763.304456	2444.959615
763.630931	2455.041923
763.957359	2530.659231
764.283740	2510.494615
764.610074	2455.041923
764.936362	2513.015192
765.262602	2502.932885
765.588796	2530.659231
765.914943	2480.247692
766.241044	2482.768269
766.567097	2565.947308
766.893104	2495.371154
767.219064	2465.124231
767.544978	2581.070769
767.870845	2434.877308
768.196665	2502.932885
768.522438	2568.467885
768.848165	2442.439038
769.173846	2439.918462
769.499479	2518.056346
769.825066	2475.206538
770.150607	2487.809423
770.476101	2460.083077
770.801548	2500.412308
771.126949	2598.714808
771.452303	2583.591346
771.777611	2477.727115
772.102872	2495.371154
772.428087	2394.548077
772.753256	2543.262115
773.078378	2555.865000
773.403453	2487.809423
773.728482	2553.344423
774.053465	2593.673654
774.378401	2520.576923
774.703291	2442.439038
775.028135	2457.562500
775.352932	2520.576923
775.677683	2520.576923
776.002388	2530.659231
776.327046	2465.124231
776.651658	2417.233269
776.976224	2510.494615
777.300743	2510.494615
777.625216	2520.576923
777.949643	2523.097500
778.274024	2538.220962
778.598359	2455.041923
778.922647	2460.083077
779.246889	2636.523462
779.571086	2470.165385
779.895236	2472.685962
780.219339	2457.562500
780.543397	2465.124231
780.867409	2477.727115
781.191374	2480.247692
781.515294	2480.247692
781.839167	2538.220962
782.162995	2533.179808
782.486776	2507.974038
782.810511	2565.947308
783.134201	2470.165385
783.457844	2472.685962
783.781441	2450.000769
784.104993	2487.809423
784.428498	2452.521346
784.751958	2550.823846
785.075372	2545.782692
785.398739	2399.589231
785.722061	2442.439038
786.045337	2455.041923
786.368568	2485.288846
786.691752	2462.603654
787.014891	2495.371154
787.337983	2465.124231
787.661030	2482.768269
787.984031	2392.027500
788.306987	2550.823846
788.629897	2472.685962
788.952760	2427.315577
789.275579	2525.618077
789.598351	2439.918462
789.921078	2545.782692
790.243759	2475.206538
790.566395	2533.179808
790.888984	2442.439038
791.211529	2530.659231
791.534027	2447.480192
791.856480	2447.480192
792.178888	2414.712692
792.501249	2555.865000
792.823566	2485.288846
793.145836	2487.809423
793.468062	2513.015192
793.790241	2507.974038
794.112375	2477.727115
794.434464	2477.727115
794.756507	2467.644808
795.078505	2450.000769
795.400457	2523.097500
795.722364	2467.644808
796.044226	2513.015192
796.366042	2492.850577
796.687812	2535.700385
797.009538	2576.029615
797.331218	2477.727115
797.652852	2465.124231
797.974442	2480.247692
798.295986	2472.685962
798.617484	2502.932885
798.938938	2513.015192
799.260346	2502.932885
799.581709	2525.618077
799.903026	2515.535769
800.224299	2455.041923
800.545526	2510.494615
800.866708	2565.947308
801.187845	2528.138654
801.508936	2422.274423
801.829983	2407.150962
802.150984	2530.659231
802.471940	2533.179808
802.792851	2507.974038
803.113717	2475.206538
803.434538	2467.644808
803.755314	2444.959615
804.076045	2480.247692
804.396731	2502.932885
804.717372	2497.891731
805.037967	2502.932885
805.358518	2442.439038
805.679024	2510.494615
805.999485	2394.548077
806.319901	2548.303269
806.640272	2520.576923
806.960598	2470.165385
807.280879	2530.659231
807.601115	2513.015192
807.921306	2477.727115
808.241453	2444.959615
808.561554	2515.535769
808.881611	2515.535769
809.201623	2510.494615
809.521590	2538.220962
809.841513	2518.056346
810.161390	2472.685962
810.481223	2432.356731
810.801011	2495.371154
811.120755	2462.603654
811.440453	2523.097500
811.760107	2455.041923
812.079716	2485.288846
812.399281	2457.562500
812.718801	2500.412308
813.038276	2510.494615
813.357707	2492.850577
813.677093	2427.315577
813.996434	2523.097500
814.315731	2500.412308
814.634983	2465.124231
814.954191	2470.165385
815.273354	2472.685962
815.592473	2470.165385
815.911547	2465.124231
816.230577	2452.521346
816.549562	2455.041923
816.868502	2404.630385
817.187399	2545.782692
817.506250	2492.850577
817.825058	2465.124231
818.143821	2538.220962
818.462539	2427.315577
818.781213	2487.809423
819.099843	2510.494615
819.418429	2492.850577
819.736970	2452.521346
820.055466	2472.685962
820.373919	2543.262115
820.692327	2520.576923
821.010691	2515.535769
821.329011	2455.041923
821.647286	2495.371154
821.965517	2475.206538
822.283704	2485.288846
822.601847	2472.685962
822.919945	2472.685962
823.237999	2487.809423
823.556010	2533.179808
823.873976	2568.467885
824.191897	2560.906154
824.509775	2460.083077
824.827609	2507.974038
825.145398	2515.535769
825.463144	2553.344423
825.780845	2555.865000
826.098502	2439.918462
826.416116	2573.509038
826.733685	2502.932885
827.051210	2515.535769
827.368692	2447.480192
827.686129	2475.206538
828.003522	2490.330000
828.320872	2439.918462
828.638177	2523.097500
828.955439	2477.727115
829.272656	2447.480192
829.589830	2439.918462
829.906960	2460.083077
830.224046	2525.618077
830.541088	2447.480192
830.858086	2513.015192
831.175041	2510.494615
831.491952	2444.959615
831.808819	2487.809423
832.125642	2472.685962
832.442421	2505.453462
832.759157	2424.795000
833.075849	2482.768269
833.392497	2427.315577
833.709101	2450.000769
834.025662	2523.097500
834.342179	2492.850577
834.658653	2581.070769
834.975083	2452.521346
835.291469	2439.918462
835.607811	2540.741538
835.924110	2560.906154
836.240366	2419.753846
836.556578	2485.288846
836.872746	2409.671538
837.188871	2525.618077
837.504952	2399.589231
837.820990	2555.865000
838.136984	2482.768269
838.452935	2475.206538
838.768842	2412.192115
839.084706	2515.535769
839.400526	2467.644808
839.716303	2455.041923
840.032037	2477.727115
840.347727	2545.782692
840.663373	2492.850577
840.978977	2518.056346
841.294537	2442.439038
841.610054	2518.056346
841.925527	2477.727115
842.240957	2455.041923
842.556344	2497.891731
842.871687	2535.700385
843.186987	2467.644808
843.502244	2492.850577
843.817458	2457.562500
844.132629	2563.426731
844.447756	2513.015192
844.762840	2492.850577
845.077881	2500.412308
845.392879	2422.274423
845.707833	2510.494615
846.022745	2480.247692
846.337613	2586.111923
846.652438	2510.494615
846.967221	2515.535769
847.281960	2495.371154
847.596656	2480.247692
847.911309	2437.397885
848.225919	2450.000769
848.540485	2513.015192
848.855009	2417.233269
849.169490	2490.330000
849.483928	2497.891731
849.798323	2586.111923
850.112675	2475.206538
850.426984	2492.850577
850.741251	2555.865000
851.055474	2502.932885
851.369654	2477.727115
851.683792	2442.439038
851.997887	2535.700385
852.311938	2386.986346
852.625947	2485.288846
852.939914	2548.303269
853.253837	2450.000769
853.567718	2538.220962
853.881555	2472.685962
854.195350	2457.562500
854.509103	2437.397885
854.822812	2455.041923
855.136479	2452.521346
855.450103	2485.288846
855.763685	2467.644808
856.077224	2427.315577
856.390720	2452.521346
856.704173	2455.041923
857.017584	2513.015192
857.330953	2563.426731
857.644278	2528.138654
857.957561	2429.836154
858.270802	2482.768269
858.584000	2570.988462
858.897155	2480.247692
859.210268	2437.397885
859.523339	2399.589231
859.836367	2485.288846
860.149352	2560.906154
860.462295	2515.535769
860.775195	2462.603654
861.088054	2470.165385
861.400869	2507.974038
861.713642	2439.918462
862.026373	2472.685962
862.339062	2495.371154
862.651708	2505.453462
862.964312	2603.755962
863.276873	2530.659231
863.589392	2495.371154
863.901869	2543.262115
864.214303	2558.385577
864.526696	2515.535769
864.839045	2525.618077
865.151353	2407.150962
865.463619	2510.494615
865.775842	2477.727115
866.088023	2603.755962
866.400162	2477.727115
866.712258	2492.850577
867.024313	2450.000769
867.336325	2482.768269
867.648296	2470.165385
867.960224	2447.480192
868.272110	2555.865000
868.583954	2444.959615
868.895755	2434.877308
869.207515	2495.371154
869.519233	2502.932885
869.830909	2447.480192
870.142542	2502.932885
870.454134	2447.480192
870.765684	2518.056346
871.077191	2570.988462
871.388657	2457.562500
871.700081	2500.412308
872.011463	2427.315577
872.322803	2412.192115
872.634101	2515.535769
872.945357	2603.755962
873.256571	2510.494615
873.567744	2472.685962
873.878874	2485.288846
874.189963	2513.015192
874.501010	2495.371154
874.812015	2490.330000
875.122979	2460.083077
875.433900	2553.344423
875.744780	2475.206538
876.055618	2507.974038
876.366415	2450.000769
876.677169	2515.535769
876.987882	2450.000769
877.298554	2553.344423
877.609183	2457.562500
877.919771	2535.700385
878.230317	2437.397885
878.540822	2530.659231
878.851285	2470.165385
879.161707	2392.027500
879.472087	2513.015192
879.782425	2472.685962
880.092722	2475.206538
880.402977	2480.247692
880.713191	2510.494615
881.023363	2545.782692
881.333494	2550.823846
881.643583	2502.932885
881.953631	2565.947308
882.263637	2470.165385
882.573602	2513.015192
882.883526	2429.836154
883.193408	2505.453462
883.503248	2558.385577
883.813048	2470.165385
884.122806	2475.206538
884.432522	2455.041923
884.742197	2523.097500
885.051831	2482.768269
885.361424	2450.000769
885.670975	2502.932885
885.980485	2482.768269
886.289954	2535.700385
886.599382	2495.371154
886.908768	2470.165385
887.218113	2475.206538
887.527417	2515.535769
887.836680	2528.138654
888.145901	2386.986346
888.455082	2404.630385
888.764221	2447.480192
889.073319	2548.303269
889.382376	2497.891731
889.691392	2452.521346
890.000366	2462.603654
890.309300	2482.768269
890.618193	2518.056346
890.927044	2447.480192
891.235855	2444.959615
891.544625	2455.041923
891.853353	2500.412308
892.162041	2502.932885
892.470687	2538.220962
892.779293	2376.904038
893.087858	2482.768269
893.396381	2520.576923
893.704864	2444.959615
894.013306	2487.809423
894.321707	2467.644808
894.630068	2480.247692
894.938387	2485.288846
895.246665	2477.727115
895.554903	2568.467885
895.863100	2487.809423
896.171256	2586.111923
896.479371	2492.850577
896.787446	2452.521346
897.095480	2513.015192
897.403473	2442.439038
897.711425	2452.521346
898.019336	2560.906154
898.327207	2455.041923
898.635038	2439.918462
898.942827	2510.494615
899.250576	2515.535769
899.558284	2560.906154
899.865952	2457.562500
900.173579	2439.918462
900.481165	2515.535769
900.788711	2432.356731
901.096216	2450.000769
901.403681	2543.262115
901.711105	2434.877308
902.018489	2518.056346
902.325832	2460.083077
902.633135	2495.371154
902.940397	2455.041923
903.247619	2502.932885
903.554800	2513.015192
903.861941	2520.576923
904.169041	2437.397885
904.476101	2477.727115
904.783121	2465.124231
905.090100	2419.753846
905.397039	2515.535769
905.703938	2598.714808
906.010796	2518.056346
906.317614	2507.974038
906.624391	2500.412308
906.931129	2422.274423
907.237826	2381.945192
907.544483	2573.509038
907.851099	2528.138654
908.157675	2510.494615
908.464211	2399.589231
908.770707	2480.247692
909.077163	2505.453462
909.383578	2467.644808
909.689954	2505.453462
909.996289	2505.453462
910.302584	2510.494615
910.608839	2563.426731
910.915054	2442.439038
911.221229	2462.603654
911.527363	2402.109808
911.833458	2480.247692
912.139513	2495.371154
912.445527	2525.618077
912.751502	2450.000769
913.057436	2505.453462
913.363331	2581.070769
913.669186	2502.932885
913.975000	2502.932885
914.280775	2485.288846
914.586510	2523.097500
914.892205	2485.288846
915.197859	2444.959615
915.503475	2429.836154
915.809050	2513.015192
916.114585	2611.317692
916.420081	2563.426731
916.725536	2538.220962
917.030952	2510.494615
917.336328	2480.247692
917.641665	2429.836154
917.946961	2535.700385
918.252218	2518.056346
918.557435	2545.782692
918.862612	2460.083077
919.167750	2550.823846
919.472848	2497.891731
919.777906	2497.891731
920.082925	2492.850577
920.387904	2404.630385
920.692843	2460.083077
920.997743	2492.850577
921.302603	2507.974038
921.607423	2570.988462
921.912204	2477.727115
922.216946	2535.700385
922.521647	2490.330000
922.826310	2513.015192
923.130932	2485.288846
923.435516	2462.603654
923.740059	2487.809423
924.044564	2525.618077
924.349028	2480.247692
924.653454	2492.850577
924.957840	2470.165385
925.262186	2432.356731
925.566493	2482.768269
925.870761	2450.000769
926.174989	2434.877308
926.479178	2540.741538
926.783328	2475.206538
927.087438	2455.041923
927.391509	2470.165385
927.695541	2477.727115
927.999533	2565.947308
928.303486	2487.809423
928.607400	2533.179808
928.911275	2515.535769
929.215110	2487.809423
929.518906	2553.344423
929.822663	2447.480192
930.126381	2525.618077
930.430060	2583.591346
930.733699	2447.480192
931.037299	2525.618077
931.340861	2452.521346
931.644383	2462.603654
931.947866	2485.288846
932.251309	2507.974038
932.554714	2538.220962
932.858080	2439.918462
933.161407	2475.206538
933.464694	2462.603654
933.767943	2447.480192
934.071153	2497.891731
934.374323	2444.959615
934.677455	2477.727115
934.980548	2470.165385
935.283602	2462.603654
935.586617	2487.809423
935.889593	2457.562500
936.192530	2467.644808
936.495428	2555.865000
936.798287	2455.041923
937.101108	2568.467885
937.403890	2427.315577
937.706632	2447.480192
938.009336	2578.550192
938.312002	2472.685962
938.614628	2538.220962
938.917216	2442.439038
939.219765	2482.768269
939.522275	2523.097500
939.824747	2465.124231
940.127179	2361.780577
940.429573	2570.988462
940.731929	2485.288846
941.034246	2490.330000
941.336524	2447.480192
941.638763	2550.823846
941.940964	2520.576923
942.243126	2518.056346
942.545250	2450.000769
942.847335	2452.521346
943.149381	2404.630385
943.451389	2485.288846
943.753359	2447.480192
944.055290	2535.700385
944.357182	2475.206538
944.659036	2497.891731
944.960851	2553.344423
945.262628	2558.385577
945.564367	2472.685962
945.866067	2497.891731
946.167729	2422.274423
946.469352	2591.153077
946.770937	2528.138654
947.072484	2455.041923
947.373992	2518.056346
947.675462	2545.782692
947.976893	2550.823846
948.278286	2432.356731
948.579641	2497.891731
948.880958	2437.397885
949.182236	2417.233269
949.483476	2465.124231
949.784678	2515.535769
950.085841	2553.344423
950.386967	2523.097500
950.688054	2528.138654
950.989103	2447.480192
951.290114	2507.974038
951.591087	2429.836154
951.892021	2404.630385
952.192917	2543.262115
952.493776	2513.015192
952.794596	2502.932885
953.095378	2576.029615
953.396122	2487.809423
953.696828	2520.576923
953.997496	2419.753846
954.298126	2374.383462
954.598718	2422.274423
954.899272	2533.179808
955.199788	2525.618077
955.500266	2490.330000
955.800706	2462.603654
956.101108	2444.959615
956.401472	2505.453462
956.701798	2442.439038
957.002087	2480.247692
957.302337	2444.959615
957.602550	2462.603654
957.902724	2502.932885
958.202861	2500.412308
958.502960	2404.630385
958.803022	2472.685962
959.103045	2525.618077
959.403031	2470.165385
959.702979	2480.247692
960.002889	2482.768269
960.302762	2545.782692
960.602596	2432.356731
960.902393	2545.782692
961.202153	2424.795000
961.501875	2525.618077
961.801559	2477.727115
962.101205	2555.865000
962.400814	2477.727115
962.700385	2507.974038
962.999918	2472.685962
963.299414	2558.385577
963.598873	2553.344423
963.898293	2558.385577
964.197677	2538.220962
964.497022	2525.618077
964.796331	2513.015192
965.095601	2550.823846
965.394835	2397.068654
965.694030	2492.850577
965.993189	2472.685962
966.292309	2404.630385
966.591393	2530.659231
966.890439	2402.109808
967.189447	2495.371154
967.488419	2470.165385
967.787353	2497.891731
968.086249	2500.412308
968.385108	2485.288846
968.683930	2497.891731
968.982714	2495.371154
969.281462	2538.220962
969.580172	2560.906154
969.878844	2427.315577
970.177480	2603.755962
970.476078	2593.673654
970.774639	2477.727115
971.073162	2500.412308
971.371649	2452.521346
971.670098	2450.000769
971.968510	2475.206538
972.266885	2477.727115
972.565223	2475.206538
972.863524	2485.288846
973.161788	2535.700385
973.460014	2407.150962
973.758204	2467.644808
974.056356	2497.891731
974.354471	2523.097500
974.652550	2472.685962
974.950591	2502.932885
975.248595	2588.632500
975.546563	2492.850577
975.844493	2535.700385
976.142386	2550.823846
976.440243	2485.288846
976.738062	2492.850577
977.035845	2404.630385
977.333590	2366.821731
977.631299	2455.041923
977.928971	2518.056346
978.226606	2500.412308
978.524204	2472.685962
978.821765	2462.603654
979.119290	2412.192115
979.416777	2548.303269
979.714228	2565.947308
980.011642	2525.618077
980.309020	2485.288846
980.606360	2495.371154
980.903664	2472.685962
981.200931	2513.015192
981.498162	2442.439038
981.795356	2462.603654
982.092513	2417.233269
982.389633	2500.412308
982.686717	2490.330000
982.983764	2450.000769
983.280775	2500.412308
983.577749	2472.685962
983.874686	2485.288846
984.171587	2409.671538
984.468451	2404.630385
984.765279	2560.906154
985.062070	2540.741538
985.358824	2502.932885
985.655543	2404.630385
985.952224	2462.603654
986.248869	2490.330000
986.545478	2500.412308
986.842050	2505.453462
987.138586	2568.467885
987.435086	2520.576923
987.731549	2601.235385
988.027975	2470.165385
988.324366	2457.562500
988.620719	2452.521346
988.917037	2495.371154
989.213318	2495.371154
989.509563	2560.906154
989.805772	2447.480192
990.101944	2525.618077
990.398080	2502.932885
990.694180	2538.220962
990.990244	2570.988462
991.286271	2573.509038
991.582262	2497.891731
991.878217	2570.988462
992.174136	2543.262115
992.470019	2515.535769
992.765865	2515.535769
993.061676	2502.932885
993.357450	2450.000769
993.653188	2460.083077
993.948890	2457.562500
994.244556	2513.015192
994.540186	2510.494615
994.835780	2540.741538
995.131337	2455.041923
995.426859	2553.344423
995.722345	2495.371154
996.017795	2404.630385
996.313208	2465.124231
996.608586	2417.233269
996.903928	2455.041923
997.199234	2427.315577
997.494504	2472.685962
997.789738	2507.974038
998.084936	2528.138654
998.380099	2487.809423
998.675225	2548.303269
998.970316	2576.029615
999.265371	2553.344423
999.560390	2477.727115
999.855373	2563.426731
1000.150320	2452.521346
1000.445232	2502.932885
1000.740108	2515.535769
1001.034948	2518.056346
1001.329752	2439.918462
1001.624521	2450.000769
1001.919254	2455.041923
1002.213951	2502.932885
1002.508613	2437.397885
1002.803239	2500.412308
1003.097829	2374.383462
1003.392384	2507.974038
1003.686903	2515.535769
1003.981386	2422.274423
1004.275834	2525.618077
1004.570246	2528.138654
1004.864623	2452.521346
1005.158964	2538.220962
1005.453270	2465.124231
1005.747540	2492.850577
1006.041775	2497.891731
1006.335974	2550.823846
1006.630138	2417.233269
1006.924266	2482.768269
1007.218359	2470.165385
1007.512416	2482.768269
1007.806438	2475.206538
1008.100425	2381.945192
1008.394376	2465.124231
1008.688292	2485.288846
1008.982172	2389.506923
1009.276017	2533.179808
1009.569827	2439.918462
1009.863602	2538.220962
1010.157341	2533.179808
1010.451045	2470.165385
1010.744714	2555.865000
1011.038347	2444.959615
1011.331945	2497.891731
1011.625508	2485.288846
1011.919036	2606.276538
1012.212528	2487.809423
1012.505986	2608.797115
1012.799408	2432.356731
1013.092795	2492.850577
1013.386147	2573.509038
1013.679464	2407.150962
1013.972745	2392.027500
1014.265992	2530.659231
1014.559204	2475.206538
1014.852380	2490.330000
1015.145521	2386.986346
1015.438628	2525.618077
1015.731699	2470.165385
1016.024736	2513.015192
1016.317737	2520.576923
1016.610703	2437.397885
1016.903635	2558.385577
1017.196531	2455.041923
1017.489393	2490.330000
1017.782219	2530.659231
1018.075011	2447.480192
1018.367768	2457.562500
1018.660490	2528.138654
1018.953177	2528.138654
1019.245829	2528.138654
