Dividing Wavelength (nm)	Counts (n)	Blue Motor Position (mm): 19.100000	Red Motor Position (mm): 0.000000	
326.493990	2134.162398
326.888308	2134.162398
327.282561	2134.162398
327.676750	2099.388519
328.070874	2098.967583
328.464933	2101.180649
328.858929	2108.245827
329.252859	2120.357199
329.646726	2129.617798
330.040528	2142.550878
330.434265	2161.273724
330.827938	2178.421209
331.221547	2195.656914
331.615091	2214.856148
332.008571	2234.746021
332.401986	2254.933321
332.795338	2272.433687
333.188625	2293.326749
333.581847	2311.958853
333.975006	2330.487614
334.368100	2347.130984
334.761129	2367.953470
335.154095	2382.169524
335.546996	2400.655435
335.939833	2422.188723
336.332606	2438.149017
336.725315	2449.247117
337.117960	2460.070474
337.510540	2467.044910
337.903056	2480.812302
338.295508	2489.614156
338.687896	2496.248315
339.080220	2505.697958
339.472480	2508.604183
339.864676	2514.827487
340.256807	2518.928466
340.648875	2518.091634
341.040879	2523.427696
341.432818	2526.588499
341.824694	2528.287368
342.216506	2526.959024
342.608253	2528.128572
342.999937	2528.370547
343.391557	2527.566483
343.783113	2524.796369
344.174605	2527.793335
344.566033	2523.478107
344.957397	2522.379136
345.348697	2520.057684
345.739934	2519.450225
346.131106	2515.319000
346.522215	2516.153311
346.913260	2512.624503
347.304241	2511.578463
347.695159	2510.391272
348.086012	2507.006137
348.476802	2504.624192
348.867528	2507.895901
349.258191	2502.020436
349.648789	2501.783502
350.039324	2500.434993
350.429796	2500.868532
350.820203	2495.756802
351.210548	2496.855774
351.600828	2496.986844
351.991045	2493.306801
352.381198	2493.939466
352.771288	2494.375526
353.161314	2493.389980
353.551276	2496.568428
353.941175	2493.115237
354.331010	2492.154898
354.720782	2492.883344
355.110490	2495.580362
355.500135	2493.384939
355.889717	2493.803355
356.279235	2493.838643
356.668689	2495.716473
357.058080	2498.347955
357.447408	2492.850577
357.836672	2491.807058
358.225873	2492.399394
358.615010	2492.986688
359.004084	2497.445589
359.393095	2496.749909
359.782043	2498.320229
360.170927	2498.526916
360.559748	2497.095228
360.948505	2498.650424
361.337199	2500.508090
361.725830	2498.816782
362.114398	2502.416166
362.502903	2498.345435
362.891344	2501.415497
363.279722	2499.938439
363.668037	2500.876094
364.056289	2501.894407
364.444478	2503.782319
364.832603	2504.992196
365.220665	2504.341887
365.608665	2503.827689
365.996601	2505.942453
366.384474	2504.523369
366.772284	2507.222907
367.160031	2504.369613
367.547715	2506.519666
367.935336	2505.171157
368.322893	2505.977742
368.710388	2508.062259
369.097820	2510.628206
369.485189	2507.926147
369.872495	2508.578977
370.259738	2508.500839
370.646918	2506.779285
371.034035	2508.089985
371.421090	2508.273987
371.808081	2508.974708
372.195010	2510.116529
372.581875	2507.938750
372.968678	2509.388082
373.355418	2508.959584
373.742096	2513.531911
374.128710	2511.684328
374.515262	2509.423370
374.901751	2513.040398
375.288177	2512.448063
375.674540	2514.164575
376.060841	2511.885974
376.447079	2510.580315
376.833254	2511.553258
377.219367	2510.585356
377.605417	2510.713906
377.991404	2510.093844
378.377329	2509.962774
378.763191	2508.624347
379.148991	2514.167096
379.534727	2513.181550
379.920402	2517.113650
380.306013	2513.148783
380.691563	2514.361180
381.077049	2514.963598
381.462474	2516.589370
381.847835	2514.383866
382.233134	2516.516274
382.618371	2516.359998
383.003545	2511.936385
383.388657	2514.711541
383.773706	2516.722961
384.158693	2514.918228
384.543618	2515.681963
384.928480	2515.210615
385.313280	2515.888650
385.698017	2519.508198
386.082692	2519.485513
386.467305	2518.552900
386.851856	2517.579957
387.236344	2517.237159
387.620770	2517.320338
388.005133	2518.699093
388.389435	2518.943589
388.773674	2520.113137
389.157851	2516.538959
389.541965	2519.727489
389.926018	2518.809999
390.310008	2521.875020
390.693936	2520.471059
391.077802	2520.297139
391.461606	2519.122550
391.845348	2521.267561
392.229027	2521.978364
392.612645	2519.349402
392.996200	2521.723786
393.379694	2523.773015
393.763125	2522.419465
394.146494	2522.366533
394.529801	2527.004394
394.913047	2523.624301
395.296230	2522.419465
395.679351	2521.247397
396.062410	2522.696728
396.445408	2523.394928
396.828343	2526.598581
397.211217	2521.317973
397.594028	2521.118847
397.976778	2520.650020
398.359466	2521.234794
398.742092	2520.070287
399.124656	2521.058353
399.507158	2521.685977
399.889598	2526.651513
400.271977	2524.196472
400.654294	2525.570186
401.036549	2523.284023
401.418742	2526.981709
401.800874	2525.688653
402.182944	2524.519105
402.564952	2523.422654
402.946898	2523.289064
403.328783	2526.631349
403.710606	2525.645803
404.092367	2527.518592
404.474067	2528.138654
404.855705	2527.440454
405.237282	2526.623787
405.618797	2524.687984
406.000250	2527.581606
406.381642	2526.449867
406.762972	2529.955990
407.144240	2531.188552
407.525447	2528.819210
407.906593	2527.924405
408.287677	2526.719569
408.668700	2529.582944
409.049661	2529.628315
409.430560	2532.463964
409.811399	2527.505989
410.192176	2529.986237
410.572891	2529.696370
410.953545	2528.587317
411.334138	2529.857687
411.714669	2531.168387
412.095139	2529.716535
412.475547	2529.953469
412.855894	2532.045548
413.236180	2532.378264
413.616405	2532.879859
413.996568	2531.725435
414.376670	2530.739889
414.756711	2530.530681
415.136691	2531.889272
415.516609	2532.960518
415.896466	2533.860363
416.276262	2532.635363
416.655997	2528.322656
417.035670	2528.267203
417.415283	2529.373737
417.794834	2526.089425
418.174324	2529.943387
418.553753	2530.240815
418.933121	2531.667462
419.312428	2531.740558
419.691674	2532.355579
420.070859	2530.634025
420.449983	2534.636701
420.829045	2531.662420
421.208047	2533.391536
421.586988	2534.581248
421.965867	2531.750641
422.344686	2533.182328
422.723444	2533.008408
423.102141	2533.487318
423.480777	2532.164015
423.859352	2536.953111
424.237866	2533.782226
424.616319	2535.080323
424.994712	2533.941022
425.373044	2533.081505
425.751314	2535.493697
426.129524	2532.983203
426.507673	2536.338091
426.885762	2534.949253
427.263789	2536.786753
427.641756	2535.385313
428.019662	2536.433872
428.397508	2535.075282
428.775292	2536.156609
429.153016	2534.982020
429.530679	2536.169212
429.908282	2537.338760
430.285824	2536.227185
430.663305	2536.630477
431.040726	2537.374048
431.418086	2536.277597
431.795385	2538.276414
432.172624	2535.975127
432.549802	2536.902700
432.926920	2536.126362
433.303977	2538.546116
433.680974	2538.740200
434.057910	2538.644418
434.434786	2539.108205
434.811601	2539.410674
435.188355	2538.155427
435.565050	2538.778009
435.941683	2540.161806
436.318257	2535.536547
436.694770	2537.290869
437.071222	2535.130734
437.447614	2535.100487
437.823946	2535.786084
438.200218	2537.134593
438.576429	2537.555529
438.952580	2538.979655
439.328670	2541.159954
439.704700	2538.457896
440.080670	2537.926054
440.456580	2538.969573
440.832429	2540.131559
441.208218	2540.204656
441.583947	2540.786909
441.959616	2539.065355
442.335224	2542.447969
442.710773	2540.668442
443.086261	2539.869419
443.461689	2540.439069
443.837057	2539.710622
444.212365	2539.244316
444.587612	2541.570808
444.962800	2541.099460
445.337927	2543.791437
445.712995	2539.982845
446.088002	2540.920499
446.462949	2539.151054
446.837837	2540.383617
447.212664	2542.332022
447.587431	2542.508463
447.962139	2542.707588
448.336786	2542.652136
448.711374	2540.789429
449.085901	2540.474357
449.460369	2539.214069
449.834776	2541.061652
450.209124	2543.229348
450.583412	2543.277239
450.957640	2544.393854
451.331808	2544.076262
451.705917	2542.422763
452.079965	2542.349667
452.453954	2543.040305
452.827883	2543.183977
453.201752	2543.899821
453.575562	2542.934440
453.949311	2543.055428
454.323001	2547.322765
454.696632	2544.892929
455.070202	2544.393854
455.443713	2543.534338
455.817164	2539.577032
456.190556	2537.767258
456.563888	2542.301776
456.937160	2539.299768
457.310373	2544.925696
457.683526	2542.672300
458.056619	2544.698844
458.429653	2543.723381
458.802628	2545.843186
459.175542	2544.971067
459.548398	2545.102137
459.921194	2544.313196
460.293930	2546.818649
460.666607	2546.511139
461.039224	2544.653474
461.411782	2547.680687
461.784280	2545.959133
462.156719	2545.775131
462.529099	2550.607077
462.901419	2545.649102
463.273680	2543.919986
463.645882	2547.882333
464.018024	2546.460728
464.390106	2545.901159
464.762130	2549.162786
465.134094	2545.570964
465.505999	2548.131870
465.877845	2549.540872
466.249631	2547.133722
466.621358	2548.774617
466.993026	2552.154711
467.364634	2553.919115
467.736184	2549.344268
468.107674	2548.346119
468.479105	2546.521221
468.850477	2550.901984
469.221790	2548.709082
469.593043	2547.289997
469.964238	2546.874102
470.335373	2551.829556
470.706449	2548.058773
471.077467	2550.518856
471.448425	2550.551624
471.819324	2552.600853
472.190164	2549.760163
472.560945	2552.048847
472.931667	2547.980635
473.302330	2549.031716
473.672934	2548.653629
474.043479	2550.062632
474.413965	2551.146480
474.784393	2548.240255
475.154761	2545.397044
475.525070	2547.768907
475.895321	2548.162117
476.265513	2545.588608
476.635645	2553.135215
477.005719	2552.684032
477.375734	2551.106151
477.745691	2553.669577
478.115588	2553.687222
478.485427	2552.300904
478.855207	2553.876265
479.224928	2553.430123
479.594591	2553.725030
479.964194	2555.310473
480.333739	2553.518343
480.703226	2555.572613
481.072653	2557.808365
481.442022	2556.875751
481.811333	2557.344579
482.180584	2557.523540
482.549777	2556.230484
482.918912	2558.914898
483.287988	2559.930691
483.657005	2559.232491
484.025964	2556.916081
484.394864	2559.121585
484.763706	2559.164435
485.132489	2557.941955
485.501213	2558.317521
485.869879	2560.598643
486.238487	2557.659651
486.607036	2561.032183
486.975527	2559.025803
487.343959	2560.059240
487.712333	2562.789025
488.080648	2561.347255
488.448905	2565.233984
488.817104	2561.377502
489.185244	2562.229457
489.553326	2560.417162
489.921350	2567.880590
490.289315	2566.600137
490.657222	2567.126938
491.025070	2565.748182
491.392861	2571.837896
491.760593	2568.767833
492.128267	2572.846127
492.495883	2570.345714
492.863440	2571.585838
493.230939	2573.143555
493.598380	2573.728329
493.965763	2570.638101
494.333088	2573.272104
494.700354	2571.691702
495.067563	2576.311920
495.434713	2574.683627
495.801805	2581.214442
496.168839	2580.387693
496.535815	2587.525967
496.902733	2591.142995
497.269593	2591.213571
497.636395	2592.163828
498.003139	2599.047524
498.369825	2600.998450
498.736453	2605.288472
499.103023	2608.015737
499.469535	2614.075203
499.835989	2616.951182
500.202385	2620.275823
500.568723	2623.905453
500.935003	2629.430558
501.301226	2635.762247
501.667390	2642.345994
502.033497	2652.080462
502.399546	2652.703045
502.765537	2658.321411
503.131470	2667.398008
503.497345	2676.993845
503.863163	2677.508042
504.228923	2686.786286
504.594625	2698.849767
504.960269	2703.175077
505.325856	2716.513970
505.691385	2722.364229
506.056856	2733.268245
506.422270	2746.450862
506.787625	2752.447315
507.152924	2765.370313
507.518164	2773.552105
507.883347	2786.843107
508.248472	2795.597071
508.613540	2814.627427
508.978550	2824.218222
509.343503	2835.699450
509.708398	2855.974971
510.073236	2872.333515
510.438016	2888.150135
510.802738	2902.005747
511.167403	2919.773293
511.532010	2937.336673
511.896561	2959.177472
512.261053	2985.058756
512.625488	2993.530415
512.989866	3009.233609
513.354186	3032.737989
513.718449	3047.107798
514.082655	3080.485278
514.446803	3100.831375
514.810894	3128.517392
515.174927	3148.780310
515.538904	3168.738238
515.902822	3205.437838
516.266684	3221.015003
516.630488	3249.063983
516.994235	3277.344856
517.357925	3315.829025
517.721558	3350.426463
518.085133	3381.910990
518.448651	3411.038777
518.812112	3432.501489
519.175516	3465.437868
519.538863	3515.322606
519.902152	3532.412117
520.265385	3590.140891
520.628560	3608.447841
520.991678	3652.081548
521.354739	3686.706713
521.717743	3717.785427
522.080690	3746.323398
522.443580	3814.855364
522.806413	3846.213862
523.169189	3887.800861
523.531908	3936.251390
523.894569	3951.843679
524.257174	3995.593333
524.619722	4055.431829
524.982213	4078.691713
525.344647	4146.515397
525.707025	4174.821475
526.069345	4237.621649
526.431608	4277.315695
526.793815	4341.522351
527.155964	4353.908466
527.518057	4398.691556
527.880093	4437.732772
528.242072	4495.937934
528.603995	4534.018810
528.965860	4558.561668
529.327669	4624.348726
529.689421	4660.309797
530.051117	4699.774469
530.412755	4790.696720
530.774337	4802.172907
531.135862	4861.857648
531.497331	4904.478083
531.858743	4923.717647
532.220098	5022.892266
532.581396	5037.622518
532.942638	5081.415021
533.303824	5121.721567
533.664953	5193.023647
534.026025	5215.227409
534.387040	5302.731757
534.747999	5351.149520
535.108902	5428.478299
535.469748	5398.657353
535.830537	5491.505325
536.191270	5534.082910
536.551947	5604.233087
536.912567	5652.113966
537.273131	5678.968192
537.633638	5720.076282
537.994089	5778.720024
538.354483	5811.038862
538.714821	5919.463998
539.075103	5976.539942
539.435328	6020.803794
539.795497	5998.491647
540.155609	6130.088447
540.515665	6213.325459
540.875665	6163.576832
541.235609	6249.662096
541.595496	6298.415095
541.955328	6429.472492
542.315102	6427.130876
542.674821	6457.909641
543.034483	6512.167580
543.394090	6572.497588
543.753640	6594.207317
544.113134	6760.003306
544.472571	6739.924390
544.831953	6872.884823
545.191278	6828.931002
545.550548	6887.231946
545.909761	7015.080649
546.268918	7059.195786
546.628019	7153.210785
546.987064	7141.913559
547.346053	7141.401882
547.704986	7258.175170
548.063863	7305.272150
548.422684	7340.625762
548.781449	7359.698967
549.140158	7469.979249
549.498811	7451.500899
549.857408	7401.840493
550.215949	7608.038808
550.574434	7558.632980
550.932864	7684.739964
551.291237	7757.171263
551.649555	7796.729197
552.007817	7846.422371
552.366022	7860.494752
552.724173	7907.884119
553.082267	7940.906197
553.440305	8097.423942
553.798288	7996.268148
554.156215	8155.331676
554.514086	8187.421141
554.871902	8121.840770
555.229661	8200.187863
555.587365	8222.502530
555.945014	8192.525309
556.302606	8336.563677
556.660143	8290.469887
557.017625	8460.515568
557.375050	8419.513343
557.732421	8558.213129
558.089735	8543.422384
558.446994	8579.234741
558.804197	8655.545207
559.161345	8697.452319
559.518437	8613.141542
559.875474	8731.039007
560.232455	8790.406155
560.589381	8782.630175
560.946251	8831.524326
561.303065	8932.123072
561.659825	8929.413452
562.016528	8910.204135
562.373177	8846.063014
562.729770	8984.845979
563.086307	8946.722253
563.442789	9049.450887
563.799216	8996.944749
564.155587	9067.394874
564.511904	9061.269872
564.868164	9090.322041
565.224370	9127.344275
565.580520	9110.900031
565.936615	9129.816961
566.292654	9064.985202
566.648638	9193.564872
567.004567	9191.825674
567.360441	9204.824289
567.716260	9157.540787
568.072023	9260.035006
568.427732	9250.043439
568.783385	9181.352677
569.138982	9282.821022
569.494525	9321.844593
569.850013	9233.516016
570.205445	9330.175100
570.560823	9256.879244
570.916145	9216.630672
571.271412	9293.606570
571.626625	9268.730997
571.981782	9263.480635
572.336884	9268.199155
572.691931	9287.040467
573.046923	9264.723279
573.401860	9234.955266
573.756743	9205.966111
574.111570	9261.491900
574.466342	9263.533567
574.821059	9309.314806
575.175722	9223.882371
575.530330	9258.290767
575.884882	9257.995859
576.239380	9209.719250
576.593823	9208.315288
576.948211	9234.355368
577.302544	9133.703691
577.656823	9165.127723
578.011047	9182.766721
578.365216	9170.393208
578.719330	9111.474723
579.073389	9134.530440
579.427394	9096.358823
579.781344	9080.758973
580.135239	9047.847800
580.489080	9062.961179
580.842866	8981.281884
581.196597	8998.441971
581.550273	9044.528200
581.903895	9023.186475
582.257463	9093.908822
582.610975	8988.992328
582.964434	9026.057412
583.317837	8961.533163
583.671186	8946.999517
584.024481	8949.154610
584.377721	8879.248930
584.730906	8869.383392
585.084037	8899.113597
585.437113	8844.028908
585.790135	8879.374959
586.143103	8785.591853
586.496016	8770.473433
586.848874	8824.013007
587.201679	8820.350609
587.554428	8710.634937
587.907124	8764.429089
588.259765	8743.488136
588.612352	8750.994414
588.964884	8632.928071
589.317362	8651.862644
589.669786	8656.994539
590.022155	8706.786016
590.374470	8729.259479
590.726731	8669.763782
591.078937	8529.622225
591.431090	8647.156727
591.783188	8531.028707
592.135232	8521.619394
592.487222	8524.437399
592.839157	8574.148217
593.191038	8513.921552
593.542866	8462.625291
593.894639	8369.247998
594.246358	8423.848735
594.598022	8436.280221
594.949633	8342.807146
595.301190	8323.494486
595.652692	8350.754525
596.004141	8465.730642
596.355535	8244.948268
596.706876	8232.226916
597.058162	8166.969179
597.409395	8239.637412
597.760573	8306.294069
598.111698	8220.055050
598.462768	8201.291875
598.813785	8173.210128
599.164748	8147.238103
599.515657	8138.789129
599.866511	8049.711941
600.217312	8175.463524
600.568060	8031.528499
600.918753	8139.628482
601.269392	8109.913400
601.619978	8025.438785
601.970510	8090.061336
602.320988	8084.276612
602.671412	8147.175089
603.021783	8077.032474
603.372100	8056.003301
603.722363	8056.988847
604.072572	8032.786267
604.422728	8048.892753
604.772830	7974.311403
605.122878	7986.546283
605.472872	7980.194429
605.822813	8003.953387
606.172701	7954.323228
606.522534	8029.184362
606.872314	8029.920371
607.222041	8000.722008
607.571714	8057.417345
607.921333	8017.471242
608.270899	8026.338631
608.620411	8110.573791
608.969870	8016.100048
609.319276	8013.811364
609.668627	8025.842077
610.017926	8062.052686
610.367171	8108.829552
610.716362	8084.626972
611.065500	8078.254954
611.414585	8106.064479
611.763616	8096.385464
612.112594	8074.640447
612.461518	8088.876665
612.810389	8151.049216
613.159207	8093.292716
613.507971	8038.260960
613.856682	8160.171183
614.205340	8114.846169
614.553945	8195.338273
614.902496	8091.293898
615.250994	8146.860017
615.599439	8126.881924
615.947830	8147.752301
616.296169	8116.542517
616.644454	8130.166236
616.992686	8126.324877
617.340864	8183.582302
617.688990	8088.170904
618.037063	8179.304883
618.385082	8132.338973
618.733048	8215.976757
619.080961	8151.487796
619.428821	8173.477309
619.776628	8177.805140
620.124382	8129.967110
620.472083	8102.795291
620.819731	8137.007082
621.167326	8038.838172
621.514868	8040.320271
621.862357	7933.483098
622.209793	7948.160417
622.557176	7885.927373
622.904506	7855.148608
623.251783	7792.683671
623.599007	7745.861434
623.946179	7748.777742
624.293297	7700.959877
624.640363	7619.394008
624.987376	7605.041842
625.334336	7556.692136
625.681243	7504.969898
626.028097	7493.281982
626.374899	7472.610731
626.721647	7458.634132
627.068343	7398.031901
627.414987	7367.343877
627.761577	7323.022052
628.108115	7358.350458
628.454600	7253.922957
628.801032	7302.968342
629.147412	7265.764627
629.493739	7255.876404
629.840014	7191.939449
630.186236	7246.388952
630.532405	7128.771271
630.878521	7183.808068
631.224585	7137.550441
631.570597	7059.357103
631.916556	7098.413443
632.262462	7090.544202
632.608316	7057.259983
632.954117	7030.065479
633.299866	7015.738520
633.645562	7012.630648
633.991206	6934.303720
634.336797	6872.042950
634.682336	6838.499112
635.027823	6798.331198
635.373257	6790.787112
635.718639	6725.602472
636.063968	6737.880202
636.409245	6637.747763
636.754470	6632.202494
637.099642	6584.142654
637.444762	6533.232041
637.789829	6539.629265
638.134845	6487.276882
638.479808	6473.486806
638.824719	6474.187527
639.169577	6406.472227
639.514383	6425.023674
639.859137	6354.059351
640.203839	6360.665783
640.548489	6349.237487
640.893086	6324.530792
641.237632	6298.548685
641.582125	6316.475028
641.926566	6286.306243
642.270955	6296.123890
642.615292	6296.761596
642.959576	6311.118802
643.303809	6299.057842
643.647990	6309.445139
643.992118	6296.849817
644.336195	6247.070943
644.680219	6270.149345
645.024192	6261.750783
645.368112	6349.174473
645.711981	6372.578030
646.055797	6451.661131
646.399562	6409.199492
646.743274	6539.868720
647.086935	6586.159115
647.430544	6583.915802
647.774101	6606.086796
648.117606	6608.894719
648.461059	6600.546568
648.804460	6565.795374
649.147810	6474.429502
649.491108	6442.108144
649.834354	6418.281130
650.177548	6335.215518
650.520690	6248.484987
650.863781	6228.159054
651.206820	6246.090438
651.549807	6169.951371
651.892742	6113.540860
652.235626	6118.670234
652.578458	6105.807730
652.921238	6013.335324
653.263967	6052.956273
653.606644	5991.915462
653.949269	5992.979145
654.291843	5941.675322
654.634365	5987.388505
654.976836	5940.208347
655.319255	5937.634838
655.661622	5921.374596
656.003938	5913.858235
656.346203	5872.961875
656.688416	5907.004787
657.030577	5863.134145
657.372687	5825.517055
657.714746	5817.564635
658.056753	5859.582653
658.398708	5801.264064
658.740612	5789.409791
659.082465	5841.026165
659.424266	5829.925544
659.766016	5828.939999
660.107715	5805.443181
660.449362	5821.300130
660.790958	5814.958359
661.132503	5801.483354
661.473996	5838.296380
661.815438	5824.576880
662.156829	5821.831972
662.498168	5811.946269
662.839456	5790.528927
663.180693	5824.791129
663.521879	5827.029402
663.863013	5813.902237
664.204097	5837.018448
664.545129	5871.799889
664.886110	5869.821236
665.227040	5903.836422
665.567918	5869.266709
665.908746	5897.706378
666.249522	5895.846193
666.590248	5886.948556
666.930922	5917.898720
667.271545	5926.534217
667.612118	5933.067552
667.952639	5902.661833
668.293109	5923.524648
668.633528	5885.015274
668.973896	5884.057454
669.314213	5878.403800
669.654480	5858.644998
669.994695	5851.363051
670.334859	5841.946176
670.674973	5835.906873
671.015035	5841.704200
671.355047	5834.084496
671.695008	5828.423281
672.034918	5799.177027
672.374777	5805.450743
672.714585	5791.743845
673.054342	5798.246934
673.394049	5787.277383
673.733705	5824.266849
674.073310	5805.299508
674.412864	5770.581081
674.752368	5762.792499
675.091820	5765.217294
675.431223	5701.945772
675.770574	5700.849321
676.109875	5655.872146
676.449125	5660.184853
676.788324	5624.911900
677.127473	5567.162962
677.466571	5563.777827
677.805619	5550.874994
678.144616	5532.608373
678.483562	5515.864180
678.822458	5487.348894
679.161303	5479.807327
679.500098	5472.197706
679.838842	5452.809428
680.177535	5456.711281
680.516179	5476.167614
680.854771	5487.472402
681.193314	5565.753959
681.531805	5671.025855
681.870247	5825.905224
682.208638	5923.433907
682.546978	5934.779024
682.885268	5908.781793
683.223508	5826.487478
683.561697	5777.563079
683.899836	5744.631742
684.237925	5700.156162
684.575963	5666.362787
684.913951	5625.640347
685.251889	5688.117887
685.589776	5656.071272
685.927614	5631.057066
686.265401	5695.966963
686.603137	5680.281413
686.940824	5758.242857
687.278460	5779.025014
687.616046	5787.806704
687.953582	5854.113001
688.291068	5837.837635
688.628504	5901.363736
688.965889	5861.765472
689.303224	5807.142050
689.640510	5760.798722
689.977745	5686.381209
690.314930	5583.955045
690.652065	5529.878588
690.989150	5440.370381
691.326185	5362.930696
691.663170	5309.353313
692.000105	5233.259616
692.336990	5157.251619
692.673825	5133.180110
693.010610	5067.602260
693.347345	4996.874871
693.684030	4982.908355
694.020665	4942.944608
694.357251	4854.724415
694.693786	4864.607597
695.030272	4830.557124
695.366707	4796.841887
695.703093	4764.225621
696.039429	4787.941730
696.375716	4768.634110
696.711952	4738.805603
697.048139	4729.633224
697.384276	4709.166139
697.720363	4721.544692
698.056400	4728.531732
698.392388	4677.043907
698.728326	4663.389942
699.064214	4637.528822
699.400053	4634.095797
699.735842	4599.579016
700.071581	4575.300819
700.407270	4549.243095
700.742910	4533.648286
701.078501	4476.443792
701.414042	4477.890603
701.749533	4448.737611
702.084974	4381.856623
702.420366	4440.303760
702.755709	4379.008371
703.091002	4328.327131
703.426246	4374.448647
703.761440	4327.949044
704.096584	4292.207263
704.431679	4311.782064
704.766725	4300.172286
705.101721	4288.343219
705.436668	4315.638546
705.771565	4262.603087
706.106413	4290.939413
706.441212	4325.395700
706.775961	4334.094211
707.110661	4315.530162
707.445311	4344.007640
707.779913	4364.999004
708.114465	4375.003174
708.448967	4399.142739
708.783421	4460.448211
709.117825	4501.329448
709.452180	4503.615612
709.786485	4550.861305
710.120742	4636.066888
710.454949	4620.346049
710.789107	4684.524979
711.123216	4758.796299
711.457275	4749.835648
711.791286	4823.355835
712.125247	4837.828988
712.459159	4745.255759
712.793023	4816.061286
713.126837	4779.666676
713.460602	4768.230818
713.794318	4690.549158
714.127985	4695.222307
714.461602	4610.059575
714.795171	4581.849278
715.128691	4515.293444
715.462162	4462.295794
715.795584	4411.508690
716.128957	4392.816091
716.462281	4343.730376
716.795556	4319.840348
717.128782	4279.178401
717.461960	4215.511149
717.795088	4224.741501
718.128167	4185.057538
718.461198	4123.041264
718.794180	4121.604535
719.127113	4102.422944
719.459997	4080.045263
719.792833	4037.790311
720.125619	4026.808157
720.458357	3991.814988
720.791046	3993.574351
721.123686	3967.259527
721.456278	3929.397942
721.788821	3946.104325
722.121315	3921.485851
722.453761	3895.254207
722.786158	3908.378851
723.118506	3928.036830
723.450805	3885.431518
723.783056	3903.473808
724.115259	3919.678597
724.447412	3925.480965
724.779518	3915.864964
725.111574	3924.329061
725.443582	3953.885346
725.775542	3940.251546
726.107453	3988.928927
726.439315	3986.443638
726.771129	3997.594671
727.102895	4034.546328
727.434612	4087.178495
727.766281	4096.184517
728.097901	4094.394907
728.429473	4103.118624
728.760996	4101.394549
729.092471	4105.740024
729.423897	4088.789144
729.755276	4093.300977
730.086606	4094.402469
730.417887	4134.222543
730.749120	4194.650854
731.080305	4258.570164
731.411442	4285.666366
731.742530	4252.246037
732.073570	4257.007407
732.404562	4311.877846
732.735506	4299.642965
733.066401	4265.963016
733.397249	4201.723593
733.728048	4121.327271
734.058798	4045.021846
734.389501	3972.358655
734.720156	3910.501176
735.050762	3867.447202
735.381320	3861.317159
735.711831	3812.483502
736.042293	3783.943009
736.372707	3802.091163
736.703073	3776.129221
737.033391	3766.969444
737.363661	3787.504584
737.693883	3808.851350
738.024056	3821.373576
738.354182	3816.458451
738.684260	3877.390878
739.014290	3899.403076
739.344272	3893.908218
739.674207	3935.364147
740.004093	3941.779015
740.333931	3931.462294
740.663722	3938.421607
740.993464	3935.689302
741.323159	3909.185435
741.652806	3878.933471
741.982405	3854.309955
742.311956	3823.992456
742.641460	3815.266218
742.970915	3788.752270
743.300323	3747.697113
743.629683	3715.484140
743.958996	3706.520968
744.288260	3681.781506
744.617477	3647.524345
744.946647	3633.341058
745.275768	3607.671503
745.604842	3604.966924
745.933869	3554.567988
746.262847	3552.039850
746.591778	3590.715582
746.920662	3556.271898
747.249498	3526.075387
747.578286	3576.907862
747.907027	3592.182558
748.235720	3590.113164
748.564365	3613.630147
748.892963	3611.787605
749.221514	3594.821602
749.550017	3572.295206
749.878473	3572.028025
750.206881	3540.777912
750.535242	3541.539126
750.863555	3543.389230
751.191821	3535.310781
751.520039	3514.679859
751.848210	3491.684635
752.176334	3526.637476
752.504411	3535.189793
752.832440	3493.075994
753.160421	3475.920947
753.488356	3487.387052
753.816243	3498.001201
754.144082	3455.171558
754.471875	3439.828806
754.799620	3462.365285
755.127318	3452.784572
755.454969	3453.986887
755.782572	3458.783545
756.110129	3431.755398
756.437638	3426.003442
756.765100	3437.197324
757.092515	3446.344498
757.419882	3454.876651
757.747203	3425.912701
758.074477	3430.621139
758.401703	3446.185701
758.728882	3463.287816
759.056014	3473.806183
759.383099	3475.631081
759.710138	3475.787357
760.037129	3488.181033
760.364073	3523.133874
760.690970	3505.913292
761.017820	3483.724653
761.344623	3500.980523
761.671379	3546.275290
761.998088	3594.640120
762.324751	3726.574678
762.651366	3968.776915
762.977935	4439.328297
763.304456	4874.505903
763.630931	4958.998162
763.957359	4603.894244
764.283740	4264.110392
764.610074	4078.462340
764.936362	3881.393554
765.262602	3727.686253
765.588796	3616.266670
765.914943	3530.471273
766.241044	3439.843930
766.567097	3414.343253
766.893104	3370.628888
767.219064	3339.252746
767.544978	3309.719146
767.870845	3256.494644
768.196665	3238.981675
768.522438	3247.266812
768.848165	3244.282449
769.173846	3204.525389
769.499479	3192.666074
769.825066	3176.746111
770.150607	3161.219357
770.476101	3172.171263
770.801548	3169.396108
771.126949	3121.600929
771.452303	3106.522838
771.777611	3112.007613
772.102872	3115.445680
772.428087	3093.927515
772.753256	3082.521904
773.078378	3078.418405
773.403453	3040.125800
773.728482	3030.550128
774.053465	3051.675084
774.378401	3041.101263
774.703291	3006.065244
775.028135	3009.591531
775.352932	3005.155316
775.677683	2991.609736
776.002388	2987.269302
776.327046	2991.718120
776.651658	2980.441059
776.976224	2968.972434
777.300743	2970.446972
777.625216	2960.999849
777.949643	2953.420475
778.274024	2959.474900
778.598359	2946.783796
778.922647	2951.832511
779.246889	2948.596090
779.571086	2937.170315
779.895236	2928.779315
780.219339	2941.452775
780.543397	2952.898715
780.867409	2956.034313
781.191374	2950.320165
781.515294	2945.029474
781.839167	2945.873867
782.162995	2937.445058
782.486776	2946.990483
782.810511	2944.026284
783.134201	2928.078594
783.457844	2936.731735
783.781441	2929.104469
784.104993	2912.408168
784.428498	2912.382962
784.751958	2922.692121
785.075372	2917.734147
785.398739	2900.127917
785.722061	2919.019641
786.045337	2930.498348
786.368568	2914.810277
786.691752	2904.612023
787.014891	2954.191771
787.337983	2985.633448
787.661030	3010.118332
787.984031	3077.082499
788.306987	3123.403141
788.629897	3113.663632
788.952760	3095.124789
789.275579	3081.470823
789.598351	3022.690970
789.921078	2979.994917
790.243759	2971.397229
790.566395	2953.375104
790.888984	2930.750406
791.211529	2914.979156
791.534027	2904.672517
791.856480	2896.268913
792.178888	2881.914228
792.501249	2872.686396
792.823566	2869.180273
793.145836	2867.559542
793.468062	2864.648276
793.790241	2860.895137
794.112375	2867.917464
794.434464	2883.086296
794.756507	2884.306255
795.078505	2889.874210
795.400457	2905.176632
795.722364	2939.048145
796.044226	2962.539922
796.366042	2967.510500
796.687812	2956.540949
797.009538	2974.401757
797.331218	2961.158646
797.652852	2950.799075
797.974442	2932.693771
798.295986	2925.868048
798.617484	2921.731782
798.938938	2905.569842
799.260346	2891.182389
799.581709	2885.324568
799.903026	2876.802498
800.224299	2873.404760
800.545526	2867.103318
800.866708	2851.047243
801.187845	2840.019719
801.508936	2842.568022
801.829983	2850.328878
802.150984	2834.008143
802.471940	2823.575475
802.792851	2821.639672
803.113717	2823.946000
803.434538	2828.525888
803.755314	2820.394507
804.076045	2815.242448
804.396731	2812.449648
804.717372	2815.917962
805.037967	2808.222641
805.358518	2814.771100
805.679024	2826.902637
805.999485	2824.087152
806.319901	2828.004129
806.640272	2816.215390
806.960598	2826.552276
807.280879	2834.376147
807.601115	2839.392095
807.921306	2827.356340
808.241453	2824.077070
808.561554	2831.802638
808.881611	2835.192814
809.201623	2828.573779
809.521590	2825.554128
809.841513	2821.191009
810.161390	2825.818788
810.481223	2819.149342
810.801011	2809.082158
811.120755	2805.883546
811.440453	2807.882363
811.760107	2809.561067
812.079716	2806.927064
812.399281	2796.229736
812.718801	2788.967954
813.038276	2786.180196
813.357707	2792.370733
813.677093	2797.986578
813.996434	2791.100362
814.315731	2789.179682
814.634983	2784.322531
814.954191	2786.586009
815.273354	2798.772998
815.592473	2805.631488
815.911547	2808.726756
816.230577	2818.020123
816.549562	2827.474807
816.868502	2825.201247
817.187399	2834.633246
817.506250	2852.544466
817.825058	2845.736387
818.143821	2856.295084
818.462539	2869.404605
818.781213	2899.404511
819.099843	2935.166457
819.418429	2989.220229
819.736970	3049.535114
820.055466	3121.973974
820.373919	3224.954665
820.692327	3362.242928
821.010691	3527.975902
821.329011	3963.143425
821.647286	4843.684288
821.965517	6204.558892
822.283704	6914.764208
822.601847	6887.824282
822.919945	6264.631802
823.237999	5773.956134
823.556010	5203.726017
823.873976	4663.268954
824.191897	4266.164663
824.509775	3976.875528
824.827609	3710.952143
825.145398	3595.991150
825.463144	3585.865992
825.780845	3673.574507
826.098502	3778.100312
826.416116	4059.336202
826.733685	4366.208881
827.051210	4423.680556
827.368692	4310.821724
827.686129	4049.251374
828.003522	3733.012232
828.320872	3479.104436
828.638177	3289.063018
828.955439	3155.089314
829.272656	3073.657035
829.589830	3009.692354
829.906960	2961.388018
830.224046	2918.707089
830.541088	2883.862634
830.858086	2867.735983
831.175041	2852.005062
831.491952	2853.439270
831.808819	2863.735827
832.125642	2887.686349
832.442421	2932.335849
832.759157	3012.984228
833.075849	3186.571319
833.392497	3461.427630
833.709101	3664.424813
834.025662	3604.525823
834.342179	3454.301959
834.658653	3280.460289
834.975083	3134.100470
835.291469	3037.096067
835.607811	2957.919704
835.924110	2899.449882
836.240366	2849.484485
836.556578	2811.401088
836.872746	2787.420320
837.188871	2767.785025
837.504952	2749.599063
837.820990	2741.351735
838.136984	2729.948645
838.452935	2720.796430
838.768842	2718.974053
839.084706	2736.146744
839.400526	2816.878302
839.716303	2946.246913
840.032037	3020.835825
840.347727	3004.666324
840.663373	2945.614248
840.978977	2873.762682
841.294537	2802.909265
841.610054	2759.457039
841.925527	2736.025756
842.240957	2714.762169
842.556344	2693.753161
842.871687	2677.281190
843.186987	2667.052689
843.502244	2666.959428
843.817458	2659.732934
844.132629	2646.628454
844.447756	2638.038328
844.762840	2631.429376
845.077881	2634.655714
845.392879	2634.857360
845.707833	2630.559777
846.022745	2621.805813
846.337613	2626.423510
846.652438	2626.373098
846.967221	2624.918725
847.281960	2620.951337
847.596656	2623.534929
847.911309	2622.330093
848.225919	2619.454115
848.540485	2612.494802
848.855009	2614.360029
849.169490	2613.835749
849.483928	2616.931017
849.798323	2615.199381
850.112675	2612.966150
850.426984	2613.233331
850.741251	2612.109153
851.055474	2611.743670
851.369654	2615.698455
851.683792	2615.287601
851.997887	2610.611931
852.311938	2613.238372
852.625947	2613.482868
852.939914	2615.950513
853.253837	2615.506891
853.567718	2614.007148
853.881555	2610.180912
854.195350	2614.632251
854.509103	2612.164606
854.822812	2611.310131
855.136479	2610.647219
855.450103	2614.453290
855.763685	2613.949175
856.077224	2612.071345
856.390720	2609.018926
856.704173	2611.930192
857.017584	2614.526387
857.330953	2617.420009
857.644278	2622.256996
857.957561	2620.878241
858.270802	2614.155862
858.584000	2616.472272
858.897155	2619.330606
859.210268	2619.872530
859.523339	2612.547734
859.836367	2610.470778
860.149352	2610.359873
860.462295	2611.141252
860.775195	2609.656632
861.088054	2610.624534
861.400869	2608.240068
861.713642	2603.766044
862.026373	2607.756117
862.339062	2611.463886
862.651708	2614.425564
862.964312	2615.060749
863.276873	2613.223248
863.589392	2615.968157
863.901869	2622.191461
864.214303	2626.231946
864.526696	2627.028448
864.839045	2628.508027
865.151353	2632.775364
865.463619	2631.444499
865.775842	2632.188069
866.088023	2631.971300
866.400162	2635.991620
866.712258	2632.220837
867.024313	2628.447533
867.336325	2628.462657
867.648296	2627.235136
867.960224	2637.488843
868.272110	2635.462299
868.583954	2623.333282
868.895755	2628.099693
869.207515	2631.479787
869.519233	2638.789460
869.830909	2635.419449
870.142542	2631.568007
870.454134	2634.789305
870.765684	2636.677217
871.077191	2639.414563
871.388657	2640.435397
871.700081	2639.729635
872.011463	2637.622433
872.322803	2641.640233
872.634101	2645.728608
872.945357	2654.648930
873.256571	2659.324600
873.567744	2656.065494
873.878874	2652.105668
874.189963	2653.786893
874.501010	2660.509272
874.812015	2664.065806
875.122979	2663.949859
875.433900	2654.475010
875.744780	2657.497182
876.055618	2659.183448
876.366415	2664.113697
876.677169	2665.933553
876.987882	2659.851401
877.298554	2656.846873
877.609183	2667.372802
877.919771	2673.180212
878.230317	2684.530370
878.540822	2691.615711
878.851285	2704.107691
879.161707	2727.566700
879.472087	2762.053233
879.782425	2810.113074
880.092722	2916.342788
880.402977	3101.713577
880.713191	3353.317565
881.023363	3632.451295
881.333494	3816.715550
881.643583	3983.653360
881.953631	3981.558760
882.263637	3807.996875
882.573602	3594.892178
882.883526	3468.654124
883.193408	3363.140253
883.503248	3263.741302
883.813048	3154.081083
884.122806	3044.677962
884.432522	2963.959007
884.742197	2897.060375
885.051831	2863.982844
885.361424	2828.707370
885.670975	2794.982050
885.980485	2765.566918
886.289954	2746.670152
886.599382	2735.824110
886.908768	2721.577809
887.218113	2706.265304
887.527417	2691.053623
887.836680	2685.213446
888.145901	2682.735719
888.455082	2673.182732
888.764221	2660.244611
889.073319	2657.855104
889.382376	2652.435864
889.691392	2655.591626
890.000366	2655.679846
890.309300	2653.514671
890.618193	2656.914929
890.927044	2657.285454
891.235855	2656.935093
891.544625	2657.340906
891.853353	2657.373674
892.162041	2664.983296
892.470687	2683.058353
892.779293	2694.973120
893.087858	2704.148020
893.396381	2726.089642
893.704864	2764.049530
894.013306	2833.420848
894.321707	2923.108017
894.630068	2969.151395
894.938387	2990.919098
895.246665	2981.066162
895.554903	2940.142075
895.863100	2900.294275
896.171256	2843.576253
896.479371	2783.488220
896.787446	2744.436921
897.095480	2727.390260
897.403473	2722.079404
897.711425	2711.366952
898.019336	2692.119827
898.327207	2677.722291
898.635038	2676.804801
898.942827	2674.828669
899.250576	2666.505724
899.558284	2651.770431
899.865952	2650.915956
900.173579	2646.767086
900.481165	2644.833804
900.788711	2637.327526
901.096216	2632.167905
901.403681	2628.671864
901.711105	2631.429376
902.018489	2627.711525
902.325832	2629.503655
902.633135	2634.219654
902.940397	2647.520739
903.247619	2683.486851
903.554800	2749.762900
903.861941	2871.025336
904.169041	2989.502533
904.476101	3047.382541
904.783121	3045.671069
905.090100	2986.278715
905.397039	2916.337747
905.703938	2844.304700
906.010796	2783.841100
906.317614	2734.548698
906.624391	2701.677854
906.931129	2676.809842
907.237826	2655.362253
907.544483	2638.925571
907.851099	2625.064919
908.157675	2618.229114
908.464211	2611.771396
908.770707	2601.250508
909.077163	2593.648448
909.383578	2592.864549
909.689954	2593.650969
909.996289	2589.436564
910.302584	2589.691142
910.608839	2584.715523
910.915054	2589.814651
911.221229	2587.457911
911.527363	2589.923035
911.833458	2589.522264
912.139513	2593.351020
912.445527	2589.754157
912.751502	2593.875300
913.057436	2605.127155
913.363331	2609.949019
913.669186	2619.098713
913.975000	2630.121196
914.280775	2643.944040
914.586510	2663.491114
914.892205	2695.207533
915.197859	2762.479211
915.503475	2842.636078
915.809050	2903.392064
916.114585	2917.414033
916.420081	2925.343768
916.725536	2938.985131
917.030952	2914.802716
917.336328	2868.287989
917.641665	2821.745536
917.946961	2777.393465
918.252218	2741.772672
918.557435	2719.994887
918.862612	2699.089222
919.167750	2683.444001
919.472848	2667.922288
919.777906	2650.668939
920.082925	2637.330046
920.387904	2629.160856
920.692843	2626.274796
920.997743	2621.553755
921.302603	2613.223248
921.607423	2607.068000
921.912204	2603.491301
922.216946	2604.675972
922.521647	2600.272524
922.826310	2597.419231
923.130932	2590.031420
923.435516	2584.198805
923.740059	2584.004721
924.044564	2584.160997
924.349028	2580.654874
924.653454	2572.236147
924.957840	2570.260015
925.262186	2568.659448
925.566493	2572.868812
925.870761	2567.068964
926.174989	2564.860939
926.479178	2563.487225
926.783328	2562.491597
927.087438	2562.272307
927.391509	2565.024777
927.695541	2562.426062
927.999533	2558.781307
928.303486	2555.940617
928.607400	2557.326935
928.911275	2555.403734
929.215110	2558.793910
929.518906	2558.579661
929.822663	2560.134857
930.126381	2558.292316
930.430060	2555.673436
930.733699	2556.966492
931.037299	2558.012532
931.340861	2559.945814
931.644383	2558.297357
931.947866	2560.591082
932.251309	2557.541184
932.554714	2556.666543
932.858080	2558.922460
933.161407	2557.271482
933.464694	2555.481872
933.767943	2555.791903
934.071153	2558.007490
934.374323	2552.850390
934.677455	2555.403734
934.980548	2555.769218
935.283602	2554.546738
935.586617	2551.040616
935.889593	2552.361398
936.192530	2553.709907
936.495428	2555.217212
936.798287	2553.457849
937.101108	2555.106306
937.403890	2559.431616
937.706632	2562.380691
938.009336	2565.667524
938.312002	2565.801114
938.614628	2572.347052
938.917216	2574.376117
939.219765	2574.792012
939.522275	2579.568505
939.824747	2576.213617
940.127179	2569.450910
940.429573	2569.420663
940.731929	2568.709860
941.034246	2565.705332
941.336524	2567.328584
941.638763	2564.797925
941.940964	2568.067113
942.243126	2566.111145
942.545250	2563.381360
942.847335	2563.179714
943.149381	2562.526885
943.451389	2559.330793
943.753359	2558.738458
944.055290	2558.657799
944.357182	2558.708211
944.659036	2557.599157
944.960851	2557.042109
945.262628	2554.312325
945.564367	2557.238714
945.866067	2557.369784
946.167729	2561.120403
946.469352	2558.352809
946.770937	2558.806513
947.072484	2557.110165
947.373992	2557.586554
947.675462	2555.854918
947.976893	2556.873231
948.278286	2557.730227
948.579641	2557.147974
948.880958	2555.812068
949.182236	2556.414486
949.483476	2554.304763
949.784678	2557.614280
950.085841	2558.090669
950.386967	2555.486913
950.688054	2554.198899
950.989103	2554.985319
951.290114	2556.732078
951.591087	2559.567727
951.892021	2557.296688
952.192917	2558.614949
952.493776	2560.270968
952.794596	2560.323901
953.095378	2562.373130
953.396122	2565.034859
953.696828	2560.591082
953.997496	2560.649055
954.298126	2558.367933
954.598718	2558.304918
954.899272	2554.077911
955.199788	2554.239228
955.500266	2553.039433
955.800706	2551.564896
956.101108	2546.740512
956.401472	2548.215049
956.701798	2543.819163
957.002087	2545.467620
957.302337	2546.178423
957.602550	2546.392672
957.902724	2545.843186
958.202861	2545.621375
958.502960	2544.938299
958.803022	2544.217414
959.103045	2544.192208
959.403031	2545.633978
959.702979	2541.399409
960.002889	2543.166333
960.302762	2540.066024
960.602596	2543.877136
960.902393	2544.489636
961.202153	2542.947043
961.501875	2539.342618
961.801559	2542.586601
962.101205	2544.630789
962.400814	2538.717515
962.700385	2541.722043
962.999918	2541.739687
963.299414	2541.379244
963.598873	2542.160623
963.898293	2540.348328
964.197677	2541.167516
964.497022	2541.555685
964.796331	2544.514842
965.095601	2540.310520
965.394835	2544.560212
965.694030	2541.868236
965.993189	2541.880839
966.292309	2538.780530
966.591393	2541.273380
966.890439	2540.028215
967.189447	2538.828421
967.488419	2541.938813
967.787353	2539.236754
968.086249	2541.575849
968.385108	2542.261446
968.683930	2540.091230
968.982714	2540.363452
969.281462	2539.766075
969.580172	2539.992927
969.878844	2540.953267
970.177480	2541.275901
970.476078	2539.304810
970.774639	2542.445448
971.073162	2542.001827
971.371649	2539.514017
971.670098	2537.076620
971.968510	2538.820859
972.266885	2535.861702
972.565223	2541.429656
972.863524	2538.591486
973.161788	2541.482588
973.460014	2539.640046
973.758204	2540.441590
974.056356	2543.231868
974.354471	2541.003678
974.652550	2543.085675
974.950591	2541.437218
975.248595	2538.994779
975.546563	2542.800850
975.844493	2541.170037
976.142386	2540.582742
976.440243	2539.093081
976.738062	2539.357742
977.035845	2540.053421
977.333590	2543.120963
977.631299	2540.681045
977.928971	2540.250026
978.226606	2540.948226
978.524204	2540.771785
978.821765	2541.258257
979.119290	2542.236241
979.416777	2540.043339
979.714228	2543.373021
980.011642	2541.558205
980.309020	2542.127856
980.606360	2538.679707
980.903664	2539.710622
981.200931	2542.266487
981.498162	2542.339584
981.795356	2544.514842
982.092513	2549.102292
982.389633	2550.758311
982.686717	2551.650595
982.983764	2552.812581
983.280775	2554.415668
983.577749	2553.173024
983.874686	2554.130843
984.171587	2548.996428
984.468451	2547.410985
984.765279	2546.614483
985.062070	2547.068187
985.358824	2546.372507
985.655543	2542.190870
985.952224	2543.355377
986.248869	2541.434697
986.545478	2535.037473
986.842050	2537.568132
987.138586	2536.380940
987.435086	2536.776671
987.731549	2536.368338
988.027975	2538.402443
988.324366	2537.484953
988.620719	2538.594007
988.917037	2538.341949
989.213318	2536.111239
989.509563	2535.952442
989.805772	2537.759696
990.101944	2539.813966
990.398080	2539.231713
990.694180	2536.733821
990.990244	2538.941847
991.286271	2534.581248
991.582262	2535.319777
991.878217	2538.397402
992.174136	2537.694161
992.470019	2539.589635
992.765865	2538.717515
993.061676	2537.706764
993.357450	2537.041332
993.653188	2537.159799
993.948890	2537.399253
994.244556	2539.698020
994.540186	2540.015612
994.835780	2536.443955
995.131337	2540.582742
995.426859	2535.544109
995.722345	2538.445293
996.017795	2542.631971
996.313208	2541.041487
996.608586	2541.162475
996.903928	2544.535007
997.199234	2542.856302
997.494504	2538.896476
997.789738	2540.597866
998.084936	2539.503935
998.380099	2540.091230
998.675225	2537.603420
998.970316	2539.118287
999.265371	2539.327495
999.560390	2536.161650
999.855373	2538.873791
1000.150320	2535.891948
1000.445232	2538.029398
1000.740108	2536.486805
1001.034948	2537.684079
1001.329752	2538.319264
1001.624521	2534.387164
1001.919254	2533.794828
1002.213951	2535.927237
1002.508613	2533.152081
1002.803239	2534.608975
1003.097829	2532.358100
1003.392384	2535.133255
1003.686903	2536.673327
1003.981386	2537.749614
1004.275834	2534.218285
1004.570246	2537.580735
1004.864623	2535.932278
1005.158964	2536.960673
1005.453270	2534.876156
1005.747540	2535.864222
1006.041775	2535.135775
1006.335974	2536.590148
1006.630138	2534.321629
1006.924266	2537.190046
1007.218359	2532.889941
1007.512416	2536.428831
1007.806438	2535.546629
1008.100425	2535.234078
1008.394376	2535.279448
1008.688292	2538.586445
1008.982172	2534.682072
1009.276017	2535.002185
1009.569827	2536.774150
1009.863602	2536.335570
1010.157341	2538.137782
1010.451045	2536.872453
1010.744714	2537.053934
1011.038347	2536.471681
1011.331945	2534.946732
1011.625508	2537.419418
1011.919036	2533.620909
1012.212528	2533.429345
1012.505986	2535.508821
1012.799408	2534.465302
1013.092795	2535.307175
1013.386147	2535.667617
1013.679464	2530.986906
1013.972745	2532.463964
1014.265992	2534.475384
1014.559204	2534.666948
1014.852380	2535.760878
1015.145521	2534.359438
1015.438628	2533.172246
1015.731699	2535.715508
1016.024736	2535.113090
1016.317737	2537.489994
1016.610703	2537.752134
1016.903635	2530.812986
1017.196531	2532.597554
1017.489393	2529.562780
1017.782219	2529.081350
1018.075011	2533.283151
1018.367768	2533.968748
1018.660490	2534.979500
1018.953177	2534.979500
1019.245829	2534.979500
