Dividing Wavelength (nm)	Counts (n)	Blue Motor Position (mm): 5.400000	Red Motor Position (mm): 0.000000	
326.493990	2158.367499
326.888308	2158.367499
327.282561	2158.367499
327.676750	2117.342589
328.070874	2115.066508
328.464933	2115.898298
328.858929	2120.122785
329.252859	2123.596140
329.646726	2130.878087
330.040528	2143.702782
330.434265	2156.456901
330.827938	2176.041784
331.221547	2192.249094
331.615091	2209.668801
332.008571	2227.653117
332.401986	2244.561147
332.795338	2266.490166
333.188625	2282.364760
333.581847	2303.323357
333.975006	2320.120482
334.368100	2338.767710
334.761129	2354.939731
335.154095	2372.649305
335.546996	2390.295864
335.939833	2405.752041
336.332606	2421.195616
336.725315	2434.773964
337.117960	2447.303752
337.510540	2456.077880
337.903056	2468.960549
338.295508	2476.948257
338.687896	2488.200112
339.080220	2493.130361
339.472480	2498.093377
339.864676	2507.474964
340.256807	2512.800943
340.648875	2515.268588
341.040879	2517.910153
341.432818	2522.237983
341.824694	2522.265710
342.216506	2525.252593
342.608253	2525.998684
342.999937	2526.361647
343.391557	2526.898530
343.783113	2527.054806
344.174605	2522.827798
344.566033	2526.366688
344.957397	2522.275792
345.348697	2520.501306
345.739934	2521.386028
346.131106	2518.194978
346.522215	2517.257323
346.913260	2513.909997
347.304241	2514.567868
347.695159	2509.186436
348.086012	2510.245078
348.476802	2507.971518
348.867528	2502.489263
349.258191	2500.205620
349.648789	2499.671258
350.039324	2497.806031
350.429796	2501.818790
350.820203	2496.109683
351.210548	2495.587923
351.600828	2493.936946
351.991045	2496.507934
352.381198	2494.793942
352.771288	2491.862511
353.161314	2492.974085
353.551276	2493.702532
353.941175	2493.236225
354.331010	2491.005515
354.720782	2491.315546
355.110490	2492.222953
355.500135	2488.106851
355.889717	2490.261944
356.279235	2493.132882
356.668689	2491.050885
357.058080	2490.584578
357.447408	2487.655668
357.836672	2494.012563
358.225873	2492.656492
358.615010	2494.493993
359.004084	2493.268993
359.393095	2493.644559
359.782043	2493.536174
360.170927	2494.738489
360.559748	2495.855105
360.948505	2496.961638
361.337199	2496.533140
361.725830	2497.165805
362.114398	2496.381905
362.502903	2497.848881
362.891344	2497.359889
363.279722	2496.674292
363.668037	2500.487925
364.056289	2497.594303
364.444478	2502.398522
364.832603	2504.447751
365.220665	2502.786691
365.608665	2500.659324
365.996601	2501.080261
366.384474	2503.247957
366.772284	2501.869201
367.160031	2502.310302
367.547715	2505.168636
367.935336	2505.498832
368.322893	2503.260560
368.710388	2498.156391
369.097820	2503.777278
369.485189	2499.336021
369.872495	2503.552947
370.259738	2504.626712
370.646918	2503.179901
371.034035	2505.579490
371.421090	2503.878101
371.808081	2506.764162
372.195010	2507.588390
372.581875	2506.408760
372.968678	2506.731394
373.355418	2507.119563
373.742096	2506.134017
374.128710	2509.264574
374.515262	2506.088647
374.901751	2509.473782
375.288177	2506.557474
375.674540	2507.626199
376.060841	2506.950684
376.447079	2508.367248
376.833254	2509.488905
377.219367	2509.461179
377.605417	2511.737260
377.991404	2510.411436
378.377329	2508.556292
378.763191	2507.043946
379.148991	2510.522342
379.534727	2511.160048
379.920402	2510.103926
380.306013	2510.106447
380.691563	2515.165244
381.077049	2508.256343
381.462474	2512.427898
381.847835	2509.486385
382.233134	2511.752383
382.618371	2511.742301
383.003545	2511.071828
383.388657	2513.068124
383.773706	2513.186592
384.158693	2512.102743
384.543618	2514.036026
384.928480	2512.062414
385.313280	2514.046108
385.698017	2513.897394
386.082692	2513.199194
386.467305	2516.241531
386.851856	2515.785306
387.236344	2515.616428
387.620770	2512.722805
388.005133	2512.962260
388.389435	2514.431757
388.773674	2509.136024
389.157851	2513.451252
389.541965	2513.284894
389.926018	2519.747653
390.310008	2517.171624
390.693936	2516.254134
391.077802	2520.163548
391.461606	2518.976357
391.845348	2518.873013
392.229027	2517.216994
392.612645	2515.714730
392.996200	2515.848321
393.379694	2517.244720
393.763125	2517.070801
394.146494	2517.206912
394.529801	2518.709176
394.913047	2522.021214
395.296230	2518.588188
395.679351	2517.307735
396.062410	2518.031140
396.445408	2520.536594
396.828343	2520.234125
397.211217	2518.472241
397.594028	2519.397293
397.976778	2521.764115
398.359466	2518.263033
398.742092	2519.442663
399.124656	2521.544825
399.507158	2522.742099
399.889598	2522.477438
400.271977	2520.846625
400.654294	2522.676564
401.036549	2518.676408
401.418742	2520.410565
401.800874	2519.001563
402.182944	2521.585154
402.564952	2523.493231
402.946898	2521.159176
403.328783	2523.878879
403.710606	2523.057171
404.092367	2521.776718
404.474067	2522.348889
404.855705	2525.625639
405.237282	2520.821419
405.618797	2522.716893
406.000250	2524.045237
406.381642	2523.079856
406.762972	2521.980884
407.144240	2520.486182
407.525447	2521.890144
407.906593	2518.820081
408.287677	2525.960875
408.668700	2525.968437
409.049661	2525.870135
409.430560	2524.680422
409.811399	2524.859383
410.192176	2527.069929
410.572891	2526.802748
410.953545	2527.632018
411.334138	2525.179497
411.714669	2524.594723
412.095139	2528.277286
412.475547	2526.039013
412.855894	2525.449198
413.236180	2525.373581
413.616405	2526.356606
413.996568	2526.722090
414.376670	2526.654034
414.756711	2525.865093
415.136691	2529.061185
415.516609	2526.792666
415.896466	2530.739889
416.276262	2528.078160
416.655997	2529.635877
417.035670	2528.925074
417.415283	2529.628315
417.794834	2528.078160
418.174324	2527.085053
418.553753	2528.874662
418.933121	2530.749972
419.312428	2529.635877
419.691674	2528.476411
420.070859	2530.235774
420.449983	2529.257790
420.829045	2529.214940
421.208047	2531.155784
421.586988	2530.059333
421.965867	2529.792152
422.344686	2531.165867
422.723444	2531.596885
423.102141	2530.414735
423.480777	2527.503468
423.859352	2530.954138
424.237866	2529.519930
424.616319	2531.128058
424.994712	2532.337935
425.373044	2530.810465
425.751314	2526.593540
426.129524	2527.770650
426.507673	2531.208717
426.885762	2527.289219
427.263789	2531.954807
427.641756	2530.855836
428.019662	2527.931967
428.397508	2531.279293
428.775292	2531.864067
429.153016	2531.705270
429.530679	2532.567308
429.908282	2531.511186
430.285824	2533.847761
430.663305	2533.472195
431.040726	2529.797193
431.418086	2534.548481
431.795385	2530.923891
432.172624	2532.572349
432.549802	2533.106711
432.926920	2533.507483
433.303977	2531.861546
433.680974	2532.393388
434.057910	2532.506814
434.434786	2534.041845
434.811601	2536.149047
435.188355	2533.956145
435.565050	2532.801721
435.941683	2535.801208
436.318257	2533.313398
436.694770	2534.687113
437.071222	2535.917154
437.447614	2533.802390
437.823946	2535.874304
438.200218	2533.250384
438.576429	2537.817669
438.952580	2530.828109
439.328670	2534.903882
439.704700	2533.326001
440.080670	2535.193749
440.456580	2535.954963
440.832429	2535.453368
441.208218	2535.203831
441.583947	2537.464788
441.959616	2535.375230
442.335224	2535.702905
442.710773	2535.828934
443.086261	2535.171063
443.461689	2537.255581
443.837057	2535.019829
444.212365	2537.283307
444.587612	2533.479756
444.962800	2532.166536
445.337927	2536.108718
445.712995	2534.031763
446.088002	2536.348173
446.462949	2538.604089
446.837837	2534.608975
447.212664	2537.852957
447.587431	2539.229192
447.962139	2538.135262
448.336786	2536.421270
448.711374	2538.646939
449.085901	2535.443286
449.460369	2536.789274
449.834776	2537.749614
450.209124	2537.986548
450.583412	2534.616537
450.957640	2537.190046
451.331808	2539.357742
451.705917	2537.369007
452.079965	2539.292207
452.453954	2537.978986
452.827883	2536.310364
453.201752	2537.943698
453.575562	2535.579397
453.949311	2540.935623
454.323001	2536.786753
454.696632	2536.567463
455.070202	2538.495704
455.443713	2537.532844
455.817164	2537.641229
456.190556	2536.862371
456.563888	2540.106353
456.937160	2536.801877
457.310373	2539.214069
457.683526	2538.977135
458.056619	2537.928575
458.429653	2538.566281
458.802628	2538.977135
459.175542	2541.648946
459.548398	2540.383617
459.921194	2541.013761
460.293930	2541.301107
460.666607	2538.299099
461.039224	2539.203987
461.411782	2538.914120
461.784280	2536.985879
462.156719	2537.472350
462.529099	2539.398071
462.901419	2539.763555
463.273680	2538.407484
463.645882	2534.571166
464.018024	2538.573842
464.390106	2535.065199
464.762130	2541.389327
465.134094	2540.164326
465.505999	2541.989224
465.877845	2538.357073
466.249631	2541.490150
466.621358	2537.401774
466.993026	2543.710778
467.364634	2545.858310
467.736184	2542.518545
468.107674	2542.223638
468.479105	2543.443597
468.850477	2540.310520
469.221790	2542.324461
469.593043	2543.557023
469.964238	2540.255067
470.335373	2541.399409
470.706449	2540.635674
471.077467	2543.110881
471.448425	2539.241795
471.819324	2539.851775
472.190164	2540.232382
472.560945	2539.909748
472.931667	2542.140459
473.302330	2540.728936
473.672934	2540.396219
474.043479	2543.118442
474.413965	2541.260777
474.784393	2542.747918
475.154761	2544.406457
475.525070	2543.118442
475.895321	2540.101312
476.265513	2543.791437
476.635645	2540.449152
477.005719	2543.236910
477.375734	2543.110881
477.745691	2543.345294
478.115588	2543.302445
478.485427	2541.933771
478.855207	2545.558361
479.224928	2544.116591
479.594591	2541.482588
479.964194	2541.636343
480.333739	2544.638350
480.703226	2540.028215
481.072653	2544.456869
481.442022	2542.261446
481.811333	2539.443441
482.180584	2540.111394
482.549777	2537.280786
482.918912	2536.207021
483.287988	2542.750438
483.657005	2542.740356
484.025964	2541.422094
484.394864	2543.791437
484.763706	2541.495191
485.132489	2542.657177
485.501213	2545.419729
485.869879	2543.940151
486.238487	2545.470141
486.607036	2544.903011
486.975527	2544.623227
487.343959	2542.221117
487.712333	2544.464431
488.080648	2543.015099
488.448905	2544.242620
488.817104	2542.165664
489.185244	2540.461754
489.553326	2543.350336
489.921350	2545.999462
490.289315	2543.262115
490.657222	2545.187836
491.025070	2544.406457
491.392861	2545.361756
491.760593	2542.904193
492.128267	2542.689944
492.495883	2542.755479
492.863440	2544.043494
493.230939	2543.720860
493.598380	2546.523742
493.965763	2545.767569
494.333088	2544.628268
494.700354	2543.239430
495.067563	2543.602393
495.434713	2543.007537
495.801805	2547.007693
496.168839	2544.235058
496.535815	2546.165820
496.902733	2542.758000
497.269593	2543.330171
497.636395	2542.480737
498.003139	2542.831097
498.369825	2544.030891
498.736453	2544.454348
499.103023	2545.369318
499.469535	2545.215563
499.835989	2544.955943
500.202385	2542.987372
500.568723	2542.843700
500.935003	2544.063659
501.301226	2540.749100
501.667390	2545.795295
502.033497	2547.753783
502.399546	2544.522404
502.765537	2546.606921
503.131470	2545.417209
503.497345	2545.916283
503.863163	2543.945192
504.228923	2547.484082
504.594625	2542.972249
504.960269	2546.614483
505.325856	2544.872764
505.691385	2543.463762
506.056856	2545.689431
506.422270	2545.374359
506.787625	2544.545089
507.152924	2545.281098
507.518164	2542.964687
507.883347	2544.716488
508.248472	2545.775131
508.613540	2546.112888
508.978550	2544.325799
509.343503	2545.631458
509.708398	2548.729247
510.073236	2544.547610
510.438016	2546.395192
510.802738	2544.260264
511.167403	2547.010213
511.532010	2544.640871
511.896561	2549.538352
512.261053	2544.991231
512.625488	2545.505429
512.989866	2547.489123
513.354186	2548.449463
513.718449	2547.055584
514.082655	2546.178423
514.446803	2545.996941
514.810894	2547.721016
515.174927	2545.107178
515.538904	2546.049873
515.902822	2544.043494
516.266684	2542.037115
516.630488	2544.671118
516.994235	2547.660522
517.357925	2546.964843
517.721558	2550.385266
518.085133	2545.747404
518.448651	2545.291180
518.812112	2547.514329
519.175516	2545.392003
519.538863	2542.112732
519.902152	2547.441232
520.265385	2545.205480
520.628560	2548.139432
520.991678	2544.832435
521.354739	2547.491643
521.717743	2545.533155
522.080690	2548.595656
522.443580	2547.287477
522.806413	2549.291335
523.169189	2546.702703
523.531908	2546.470810
523.894569	2547.514329
524.257174	2545.555840
524.619722	2546.087682
524.982213	2548.729247
525.344647	2548.507436
525.707025	2548.567930
526.069345	2548.658671
526.431608	2547.274874
526.793815	2551.028013
527.155964	2548.199926
527.518057	2546.944678
527.880093	2545.069369
528.242072	2547.723537
528.603995	2548.018444
528.965860	2546.596839
529.327669	2546.490974
529.689421	2547.249668
530.051117	2547.615152
530.412755	2547.403423
530.774337	2545.366797
531.135862	2548.134391
531.497331	2545.500388
531.858743	2548.114226
532.220098	2546.617003
532.581396	2549.003990
532.942638	2547.652960
533.303824	2548.235214
533.664953	2547.153886
534.026025	2547.174051
534.387040	2550.060111
534.747999	2546.584236
535.108902	2548.187323
535.469748	2546.702703
535.830537	2547.416026
536.191270	2550.876778
536.551947	2546.251520
536.912567	2545.308824
537.273131	2547.514329
537.633638	2543.073072
537.994089	2547.456355
538.354483	2547.496685
538.714821	2548.149514
539.075103	2547.325285
539.435328	2548.557847
539.795497	2547.713454
540.155609	2547.118598
540.515665	2547.153886
540.875665	2546.995090
541.235609	2547.693290
541.595496	2550.400389
541.955328	2549.119936
542.315102	2547.017775
542.674821	2547.365615
543.034483	2546.256561
543.394090	2546.952240
543.753640	2548.973743
544.113134	2548.804864
544.472571	2546.712785
544.831953	2546.438042
545.191278	2549.689587
545.550548	2546.097764
545.909761	2547.920142
546.268918	2547.000131
546.628019	2549.351829
546.987064	2547.053063
547.346053	2548.038609
547.704986	2549.379556
548.063863	2548.479710
548.422684	2548.184802
548.781449	2548.028526
549.140158	2548.908208
549.498811	2551.474155
549.857408	2546.944678
550.215949	2552.835267
550.574434	2547.078269
550.932864	2548.368804
551.291237	2549.371994
551.649555	2548.484751
552.007817	2551.229659
552.366022	2548.719164
552.724173	2549.230842
553.082267	2548.330996
553.440305	2549.054401
553.798288	2550.450801
554.156215	2550.932231
554.514086	2543.456200
554.871902	2547.400903
555.229661	2545.545758
555.587365	2544.298073
555.945014	2546.528783
556.302606	2549.235883
556.660143	2549.220759
557.017625	2549.371994
557.375050	2548.981304
557.732421	2546.927034
558.089735	2550.007179
558.446994	2548.000800
558.804197	2548.880481
559.161345	2551.338044
559.518437	2548.207487
559.875474	2546.743032
560.232455	2549.964329
560.589381	2548.746891
560.946251	2549.276212
561.303065	2549.949206
561.659825	2548.373845
562.016528	2547.058104
562.373177	2548.371325
562.729770	2549.235883
563.086307	2547.771428
563.442789	2548.681356
563.799216	2550.652447
564.155587	2549.997097
564.511904	2549.470296
564.868164	2550.778476
565.224370	2550.155893
565.580520	2549.200595
565.936615	2550.894422
566.292654	2547.796633
566.648638	2550.100441
567.004567	2547.249668
567.360441	2549.871068
567.716260	2551.751418
568.072023	2550.554144
568.427732	2550.264278
568.783385	2548.658671
569.138982	2548.530121
569.494525	2550.838970
569.850013	2549.145142
570.205445	2549.256047
570.560823	2548.504915
570.916145	2546.783361
571.271412	2553.205791
571.626625	2549.185471
571.981782	2549.359391
572.336884	2549.742519
572.691931	2546.468289
573.046923	2549.712272
573.401860	2542.926879
573.756743	2550.823846
574.111570	2551.055739
574.466342	2550.286963
574.821059	2549.966850
575.175722	2548.905687
575.530330	2548.799823
575.884882	2551.511964
576.239380	2549.729916
576.593823	2552.752087
576.948211	2547.867209
577.302544	2548.711603
577.656823	2547.826880
578.011047	2550.319731
578.365216	2549.261088
578.719330	2546.979966
579.073389	2546.168341
579.427394	2550.536500
579.781344	2549.543393
580.135239	2550.526418
580.489080	2549.810574
580.842866	2546.498536
581.196597	2550.349978
581.550273	2548.177240
581.903895	2548.784699
582.257463	2549.734957
582.610975	2549.936603
582.964434	2551.229659
583.317837	2549.271171
583.671186	2554.486244
584.024481	2549.092210
584.377721	2548.847714
584.730906	2548.278063
585.084037	2548.535162
585.437113	2550.803682
585.790135	2553.760318
586.143103	2550.859134
586.496016	2552.946172
586.848874	2552.631100
587.201679	2550.884340
587.554428	2551.511964
587.907124	2552.333672
588.259765	2546.004503
588.612352	2549.629093
588.964884	2550.828887
589.317362	2550.556665
589.669786	2548.336037
590.022155	2547.627755
590.374470	2545.298742
590.726731	2546.372507
591.078937	2543.907383
591.431090	2549.117416
591.783188	2551.685883
592.135232	2548.867878
592.487222	2549.097251
592.839157	2553.049516
593.191038	2549.109854
593.542866	2549.772766
593.894639	2548.535162
594.246358	2549.815615
594.598022	2550.022303
594.949633	2550.954916
595.301190	2548.305790
595.652692	2548.595656
596.004141	2549.508105
596.355535	2552.464742
596.706876	2547.181613
597.058162	2553.319217
597.409395	2549.908877
597.760573	2551.121274
598.111698	2550.062632
598.462768	2549.913918
598.813785	2551.111192
599.164748	2549.641696
599.515657	2549.533311
599.866511	2550.778476
600.217312	2549.009031
600.568060	2549.082127
600.918753	2552.431974
601.269392	2547.380738
601.619978	2549.213198
601.970510	2551.650595
602.320988	2549.621531
602.671412	2550.717982
603.021783	2550.160934
603.372100	2549.714792
603.722363	2550.128167
604.072572	2551.680842
604.422728	2549.147662
604.772830	2550.672612
605.122878	2549.452652
605.472872	2550.539021
605.822813	2549.578681
606.172701	2549.588763
606.522534	2549.558517
606.872314	2551.663198
607.222041	2549.944165
607.571714	2547.809236
607.921333	2547.045501
608.270899	2549.818136
608.620411	2547.456355
608.969870	2551.201933
609.319276	2554.377860
609.668627	2555.713765
610.017926	2561.911864
610.367171	2564.966803
610.716362	2563.267934
611.065500	2562.466391
611.414585	2558.854404
611.763616	2557.621842
612.112594	2555.444064
612.461518	2554.660164
612.810389	2551.968188
613.159207	2551.433826
613.507971	2555.189485
613.856682	2553.248641
614.205340	2553.871224
614.553945	2550.846531
614.902496	2549.999618
615.250994	2551.978270
615.599439	2551.958106
615.947830	2549.603887
616.296169	2549.064483
616.644454	2549.409802
616.992686	2550.554144
617.340864	2549.477858
617.688990	2550.241593
618.037063	2551.431305
618.385082	2550.952396
618.733048	2551.968188
619.080961	2550.987684
619.428821	2553.994732
619.776628	2551.867365
620.124382	2553.435164
620.472083	2549.273691
620.819731	2548.532642
621.167326	2552.734443
621.514868	2550.380225
621.862357	2550.745708
622.209793	2548.981304
622.557176	2551.128836
622.904506	2548.179761
623.251783	2549.218239
623.599007	2551.350647
623.946179	2548.661191
624.293297	2553.089845
624.640363	2549.803012
624.987376	2545.671787
625.334336	2546.216232
625.681243	2547.239586
626.028097	2544.630789
626.374899	2547.882333
626.721647	2550.047508
627.068343	2554.259392
627.414987	2550.072714
627.761577	2548.734288
628.108115	2549.561037
628.454600	2550.730585
628.801032	2548.298228
629.147412	2551.511964
629.493739	2553.041954
629.840014	2550.115564
630.186236	2551.113713
630.532405	2553.052036
630.878521	2549.578681
631.224585	2551.151521
631.570597	2549.283774
631.916556	2550.954916
632.262462	2549.261088
632.608316	2549.734957
632.954117	2552.026161
633.299866	2550.997766
633.645562	2550.281922
633.991206	2549.747560
634.336797	2552.845349
634.682336	2547.965512
635.027823	2547.721016
635.373257	2551.269988
635.718639	2548.167158
636.063968	2551.627910
636.409245	2548.285625
636.754470	2548.242775
637.099642	2549.727395
637.444762	2548.245296
637.789829	2551.398538
638.134845	2548.414175
638.479808	2547.620193
638.824719	2550.216387
639.169577	2552.157231
639.514383	2549.941644
639.859137	2548.328475
640.203839	2548.351160
640.548489	2549.545914
640.893086	2547.388300
641.237632	2547.211859
641.582125	2550.879299
641.926566	2547.731098
642.270955	2548.542724
642.615292	2547.552137
642.959576	2547.242106
643.303809	2541.331353
643.647990	2548.857796
643.992118	2550.284443
644.336195	2550.627241
644.680219	2550.516336
645.024192	2549.276212
645.368112	2550.420554
645.711981	2547.126160
646.055797	2552.447098
646.399562	2550.992725
646.743274	2545.477702
647.086935	2550.977601
647.430544	2548.517518
647.774101	2550.380225
648.117606	2549.298897
648.461059	2547.968033
648.804460	2552.633620
649.147810	2548.915769
649.491108	2548.444422
649.834354	2549.245965
650.177548	2551.484237
650.520690	2549.492982
650.863781	2551.380894
651.206820	2547.809236
651.549807	2548.235214
651.892742	2548.081458
652.235626	2545.223124
652.578458	2548.081458
652.921238	2547.683207
653.263967	2551.995914
653.606644	2548.283105
653.949269	2548.613300
654.291843	2548.772097
654.634365	2550.216387
654.976836	2548.157076
655.319255	2551.895091
655.661622	2549.896274
656.003938	2549.200595
656.346203	2547.839483
656.688416	2548.499874
657.030577	2546.506098
657.372687	2546.750594
657.714746	2549.001469
658.056753	2549.054401
658.398708	2547.282436
658.740612	2550.153373
659.082465	2546.944678
659.424266	2545.956612
659.766016	2543.045346
660.107715	2548.094061
660.449362	2543.307486
660.790958	2545.568443
661.132503	2549.044319
661.473996	2550.050029
661.815438	2545.926365
662.156829	2548.462066
662.498168	2550.231511
662.839456	2550.352498
663.180693	2546.314534
663.521879	2549.770245
663.863013	2550.821326
664.204097	2547.254709
664.545129	2550.710420
664.886110	2550.410472
665.227040	2547.297559
665.567918	2547.045501
665.908746	2547.922662
666.249522	2548.099102
666.590248	2548.416695
666.930922	2549.049360
667.271545	2549.820657
667.612118	2547.335368
667.952639	2548.144473
668.293109	2546.642209
668.633528	2549.011551
668.973896	2551.511964
669.314213	2549.578681
669.654480	2550.382745
669.994695	2551.010369
670.334859	2548.590615
670.674973	2549.442570
671.015035	2548.799823
671.355047	2547.879812
671.695008	2549.994576
672.034918	2551.068342
672.374777	2544.605583
672.714585	2549.409802
673.054342	2548.852755
673.394049	2549.263609
673.733705	2549.452652
674.073310	2550.052550
674.412864	2548.845193
674.752368	2548.724206
675.091820	2549.394679
675.431223	2547.166489
675.770574	2550.412992
676.109875	2547.680687
676.449125	2548.152035
676.788324	2543.713299
677.127473	2550.612118
677.466571	2542.175747
677.805619	2549.366953
678.144616	2547.005172
678.483562	2549.006510
678.822458	2547.874771
679.161303	2549.006510
679.500098	2548.222611
679.838842	2550.423074
680.177535	2548.096582
680.516179	2546.944678
680.854771	2547.834442
681.193314	2547.660522
681.531805	2548.449463
681.870247	2546.614483
682.208638	2548.865358
682.546978	2548.184802
682.885268	2548.605738
683.223508	2548.958619
683.561697	2546.836293
683.899836	2548.951058
684.237925	2546.937117
684.575963	2550.508774
684.913951	2547.257230
685.251889	2551.930379
685.589776	2546.001982
685.927614	2549.321582
686.265401	2548.716644
686.603137	2548.923331
686.940824	2547.479041
687.278460	2549.303938
687.616046	2551.648075
687.953582	2547.247147
688.291068	2548.688918
688.628504	2548.683876
688.965889	2549.702189
689.303224	2547.647919
689.640510	2549.795451
689.977745	2547.373176
690.314930	2550.052550
690.652065	2549.898794
690.989150	2549.626572
691.326185	2544.499719
691.663170	2549.729916
692.000105	2547.640357
692.336990	2550.455842
692.673825	2548.346119
693.010610	2549.371994
693.347345	2544.711447
693.684030	2543.007537
694.020665	2546.430481
694.357251	2542.962167
694.693786	2549.344267
695.030272	2549.046839
695.366707	2548.273022
695.703093	2546.226314
696.039429	2551.171686
696.375716	2550.108002
696.711952	2547.791592
697.048139	2549.112374
697.384276	2548.378887
697.720363	2548.514998
698.056400	2549.228321
698.392388	2547.642878
698.728326	2548.976263
699.064214	2546.047353
699.400053	2548.983825
699.735842	2546.944678
700.071581	2547.796633
700.407270	2547.226983
700.742910	2550.584391
701.078501	2549.402241
701.414042	2547.877292
701.749533	2546.639688
702.084974	2549.366953
702.420366	2549.124977
702.755709	2549.964329
703.091002	2549.596325
703.426246	2549.339226
703.761440	2550.632282
704.096584	2547.867209
704.431679	2547.262271
704.766725	2550.148332
705.101721	2548.598177
705.436668	2546.548948
705.771565	2548.434339
706.106413	2549.142621
706.441212	2550.717982
706.775961	2549.442570
707.110661	2549.936603
707.445311	2550.763352
707.779913	2550.962478
708.114465	2547.315203
708.448967	2548.794782
708.783421	2549.366953
709.117825	2549.016592
709.452180	2547.874771
709.786485	2548.497354
710.120742	2547.579864
710.454949	2544.277908
710.789107	2549.293856
711.123216	2546.243958
711.457275	2550.163455
711.791286	2550.082797
712.125247	2551.771583
712.459159	2550.430636
712.793023	2548.325954
713.126837	2549.361912
713.460602	2550.193702
713.794318	2551.242262
714.127985	2549.427447
714.461602	2548.270502
714.795171	2548.792261
715.128691	2549.424926
715.462162	2547.547096
715.795584	2547.962991
716.128957	2549.818136
716.462281	2547.917621
716.795556	2552.137067
717.128782	2549.102292
717.461960	2548.056253
717.795088	2547.872251
718.128167	2548.071376
718.461198	2548.499874
718.794180	2550.654968
719.127113	2547.962991
719.459997	2548.971222
719.792833	2548.998948
720.125619	2548.678835
720.458357	2547.784030
720.791046	2550.234031
721.123686	2548.421736
721.456278	2549.331665
721.788821	2546.067518
722.121315	2547.320244
722.453761	2549.949206
722.786158	2548.986346
723.118506	2547.272353
723.450805	2547.728578
723.783056	2548.073897
724.115259	2549.397200
724.447412	2547.713454
724.779518	2548.154555
725.111574	2545.545758
725.443582	2548.426777
725.775542	2550.501212
726.107453	2549.180430
726.439315	2549.092210
726.771129	2548.169679
727.102895	2544.625747
727.434612	2547.410985
727.766281	2544.570295
728.097901	2547.133722
728.429473	2550.279402
728.760996	2552.074052
729.092471	2549.601366
729.423897	2549.661860
729.755276	2549.208156
730.086606	2547.239586
730.417887	2550.584391
730.749120	2551.426264
731.080305	2548.928372
731.411442	2548.235214
731.742530	2551.847200
732.073570	2549.034237
732.404562	2547.784030
732.735506	2549.092210
733.066401	2549.742519
733.397249	2552.764690
733.728048	2549.634134
734.058798	2548.885523
734.389501	2545.921324
734.720156	2549.203115
735.050762	2549.508105
735.381320	2548.855276
735.711831	2547.037940
736.042293	2550.034906
736.372707	2549.258568
736.703073	2547.509287
737.033391	2549.394679
737.363661	2548.769576
737.693883	2546.322096
738.024056	2547.355532
738.354182	2546.559030
738.684260	2543.882177
739.014290	2548.774617
739.344272	2550.264278
739.674207	2548.094061
740.004093	2547.867209
740.333931	2548.139432
740.663722	2546.745553
740.993464	2550.493651
741.323159	2548.605738
741.652806	2548.633465
741.982405	2547.741181
742.311956	2550.397869
742.641460	2549.175389
742.970915	2550.473486
743.300323	2547.247147
743.629683	2543.730943
743.958996	2546.506098
744.288260	2543.836807
744.617477	2545.707075
744.946647	2549.898794
745.275768	2550.357539
745.604842	2547.111036
745.933869	2549.876109
746.262847	2548.497354
746.591778	2550.581871
746.920662	2549.929041
747.249498	2550.934752
747.578286	2548.673794
747.907027	2547.353012
748.235720	2547.511808
748.564365	2547.746222
748.892963	2546.158258
749.221514	2550.476007
749.550017	2548.673794
749.878473	2548.699000
750.206881	2549.503064
750.535242	2548.656150
750.863555	2549.472817
751.191821	2549.155224
751.520039	2548.956099
751.848210	2550.007179
752.176334	2546.553989
752.504411	2547.605069
752.832440	2548.583053
753.160421	2550.140770
753.488356	2550.183620
753.816243	2550.105482
754.144082	2550.322251
754.471875	2548.547765
754.799620	2548.572971
755.127318	2549.508105
755.454969	2548.590615
755.782572	2549.079607
756.110129	2547.037940
756.437638	2551.892571
756.765100	2548.131870
757.092515	2549.392158
757.419882	2546.937117
757.747203	2549.384597
758.074477	2548.094061
758.401703	2547.088351
758.728882	2548.184802
759.056014	2547.249668
759.383099	2550.324772
759.710138	2548.197405
760.037129	2544.015768
760.364073	2546.601880
760.690970	2544.424101
761.017820	2550.622200
761.344623	2550.476007
761.671379	2550.786037
761.998088	2548.635985
762.324751	2549.132539
762.651366	2553.372149
762.977935	2551.834598
763.304456	2553.430123
763.630931	2557.311811
763.957359	2555.350802
764.283740	2555.249979
764.610074	2554.438353
764.936362	2554.405586
765.262602	2551.138918
765.588796	2550.002138
765.914943	2549.533311
766.241044	2550.977601
766.567097	2548.726726
766.893104	2549.954247
767.219064	2550.216387
767.544978	2550.665050
767.870845	2548.472148
768.196665	2549.601366
768.522438	2550.599515
768.848165	2548.404092
769.173846	2551.464073
769.499479	2548.386448
769.825066	2549.508105
770.150607	2548.719164
770.476101	2547.721016
770.801548	2548.457024
771.126949	2547.332847
771.452303	2548.494833
771.777611	2547.058104
772.102872	2551.431305
772.428087	2546.163299
772.753256	2548.923331
773.078378	2547.645399
773.403453	2548.857796
773.728482	2549.210677
774.053465	2549.878630
774.378401	2546.306972
774.703291	2548.255378
775.028135	2547.758825
775.352932	2547.421067
775.677683	2547.199257
776.002388	2545.765048
776.327046	2542.836138
776.651658	2546.266643
776.976224	2543.161292
777.300743	2548.396531
777.625216	2547.441232
777.949643	2548.951057
778.274024	2547.940306
778.598359	2547.968032
778.922647	2549.324103
779.246889	2549.830739
779.571086	2548.678835
779.895236	2548.827549
780.219339	2546.271684
780.543397	2547.574823
780.867409	2547.587425
781.191374	2548.464586
781.515294	2546.150697
781.839167	2549.041798
782.162995	2548.547765
782.486776	2548.998948
782.810511	2546.289328
783.134201	2546.440563
783.457844	2545.628937
783.781441	2550.153373
784.104993	2547.852086
784.428498	2547.839483
784.751958	2547.279915
785.075372	2548.900646
785.398739	2547.095913
785.722061	2548.386448
786.045337	2550.143290
786.368568	2549.543393
786.691752	2547.461397
787.014891	2548.109185
787.337983	2547.295038
787.661030	2547.854607
787.984031	2549.145142
788.306987	2549.538352
788.629897	2545.830583
788.952760	2548.552806
789.275579	2546.737991
789.598351	2546.347302
789.921078	2547.310162
790.243759	2547.789072
790.566395	2548.532642
790.888984	2548.215049
791.211529	2549.311500
791.534027	2549.954247
791.856480	2546.402754
792.178888	2544.295552
792.501249	2542.236241
792.823566	2548.240255
793.145836	2543.753628
793.468062	2547.584905
793.790241	2545.573484
794.112375	2547.650440
794.434464	2545.807898
794.756507	2545.792775
795.078505	2547.917621
795.400457	2546.448125
795.722364	2546.808567
796.044226	2549.112374
796.366042	2550.458362
796.687812	2547.544576
797.009538	2544.666077
797.331218	2549.571119
797.652852	2548.376366
797.974442	2546.884184
798.295986	2549.155224
798.617484	2550.203784
798.938938	2544.580377
799.260346	2548.343598
799.581709	2547.007693
799.903026	2550.549103
800.224299	2548.114226
800.545526	2544.905532
800.866708	2544.502239
801.187845	2546.680018
801.508936	2547.242106
801.829983	2545.225645
802.150984	2550.380225
802.471940	2549.916438
802.792851	2546.259081
803.113717	2545.611293
803.434538	2546.627086
803.755314	2546.896787
804.076045	2546.977446
804.396731	2547.224462
804.717372	2548.152035
805.037967	2548.328475
805.358518	2546.954761
805.679024	2546.788402
805.999485	2546.266643
806.319901	2547.789072
806.640272	2546.201108
806.960598	2546.740512
807.280879	2547.287477
807.601115	2549.114895
807.921306	2547.917621
808.241453	2545.618855
808.561554	2543.662887
808.881611	2546.052394
809.201623	2544.169523
809.521590	2546.228834
809.841513	2547.526932
810.161390	2548.469627
810.481223	2546.611962
810.801011	2550.412992
811.120755	2547.385779
811.440453	2546.344781
811.760107	2547.229503
812.079716	2548.247817
812.399281	2546.692621
812.718801	2547.494164
813.038276	2547.642878
813.357707	2548.305790
813.677093	2548.270502
813.996434	2550.657488
814.315731	2548.174720
814.634983	2545.974256
814.954191	2547.438711
815.273354	2547.108516
815.592473	2547.090872
815.911547	2549.452652
816.230577	2549.036757
816.549562	2549.724875
816.868502	2544.046015
817.187399	2548.484751
817.506250	2549.462735
817.825058	2547.358053
818.143821	2548.146993
818.462539	2550.148332
818.781213	2548.598177
819.099843	2545.510470
819.418429	2549.432488
819.736970	2551.038095
820.055466	2550.244113
820.373919	2551.988353
820.692327	2550.964998
821.010691	2554.377860
821.329011	2560.966648
821.647286	2568.878739
821.965517	2579.949112
822.283704	2583.276274
822.601847	2590.737182
822.919945	2591.347161
823.237999	2587.011769
823.556010	2580.115471
823.873976	2576.264029
824.191897	2566.267421
824.509775	2561.506051
824.827609	2558.304918
825.145398	2551.453990
825.463144	2559.217367
825.780845	2558.249466
826.098502	2558.209137
826.416116	2561.904302
826.733685	2566.325394
827.051210	2567.147102
827.368692	2569.113152
827.686129	2567.084088
828.003522	2562.509241
828.320872	2557.946997
828.638177	2555.751574
828.955439	2552.792417
829.272656	2550.901984
829.589830	2550.108002
829.906960	2551.307797
830.224046	2549.034237
830.541088	2549.669422
830.858086	2546.982487
831.175041	2548.877961
831.491952	2547.428629
831.808819	2548.033567
832.125642	2549.329144
832.442421	2550.390307
832.759157	2551.459032
833.075849	2553.414999
833.392497	2553.848538
833.709101	2557.563869
834.025662	2559.534960
834.342179	2561.768191
834.658653	2554.511450
834.975083	2553.838456
835.291469	2558.289795
835.607811	2550.420554
835.924110	2547.600028
836.240366	2549.979453
836.556578	2546.248999
836.872746	2549.198074
837.188871	2547.045501
837.504952	2547.088351
837.820990	2546.528783
838.136984	2545.601211
838.452935	2547.559699
838.768842	2548.885523
839.084706	2547.962991
839.400526	2550.039947
839.716303	2549.102292
840.032037	2546.990049
840.347727	2546.145655
840.663373	2550.113043
840.978977	2545.021478
841.294537	2546.982487
841.610054	2547.862168
841.925527	2546.836293
842.240957	2546.453166
842.556344	2546.904349
842.871687	2545.301262
843.186987	2545.271015
843.502244	2546.763197
843.817458	2545.278577
844.132629	2544.461910
844.447756	2545.003834
844.762840	2544.282949
845.077881	2546.420398
845.392879	2543.420912
845.707833	2545.996941
846.022745	2542.997455
846.337613	2548.010882
846.652438	2544.890408
846.967221	2545.757487
847.281960	2545.492826
847.596656	2543.718340
847.911309	2544.776982
848.225919	2543.433515
848.540485	2546.107847
848.855009	2545.046684
849.169490	2545.147507
849.483928	2543.141128
849.798323	2545.114739
850.112675	2540.955787
850.426984	2543.922507
850.741251	2542.362269
851.055474	2545.633978
851.369654	2545.933927
851.683792	2542.916796
851.997887	2545.855789
852.311938	2546.100285
852.625947	2544.073741
852.939914	2543.640202
853.253837	2547.806716
853.567718	2543.274718
853.881555	2546.148176
854.195350	2543.385624
854.509103	2546.485933
854.822812	2548.260419
855.136479	2546.642209
855.450103	2546.241437
855.763685	2541.389327
856.077224	2541.608617
856.390720	2540.572660
856.704173	2537.991589
857.017584	2544.620706
857.330953	2544.547610
857.644278	2544.048535
857.957561	2545.858310
858.270802	2543.826725
858.584000	2545.283618
858.897155	2544.003165
859.210268	2544.240099
859.523339	2546.692621
859.836367	2548.023485
860.149352	2545.407126
860.462295	2544.282949
860.775195	2545.568443
861.088054	2546.170861
861.400869	2542.884029
861.713642	2542.253885
862.026373	2543.408309
862.339062	2541.278421
862.651708	2546.090203
862.964312	2544.766900
863.276873	2544.938299
863.589392	2545.762528
863.901869	2545.240768
864.214303	2545.235727
864.526696	2546.112888
864.839045	2544.298072
865.151353	2543.741025
865.463619	2542.838658
865.775842	2542.148020
866.088023	2545.591128
866.400162	2542.982331
866.712258	2542.069883
867.024313	2542.236241
867.336325	2544.860161
867.648296	2545.515511
867.960224	2545.770089
868.272110	2543.637681
868.583954	2547.559699
868.895755	2545.233207
869.207515	2545.240768
869.519233	2546.211190
869.830909	2544.267826
870.142542	2544.920655
870.454134	2545.596170
870.765684	2546.543907
871.077191	2545.339071
871.388657	2543.632640
871.700081	2543.141128
872.011463	2541.101981
872.322803	2540.078627
872.634101	2545.855789
872.945357	2546.342260
873.256571	2545.457538
873.567744	2545.301262
873.878874	2545.603731
874.189963	2545.543238
874.501010	2544.882846
874.812015	2544.734132
875.122979	2549.026675
875.433900	2546.606921
875.744780	2543.425953
876.055618	2547.199257
876.366415	2547.050543
876.677169	2545.835624
876.987882	2544.555171
877.298554	2547.849565
877.609183	2545.447456
877.919771	2546.448125
878.230317	2546.601880
878.540822	2547.466438
878.851285	2546.924514
879.161707	2548.751932
879.472087	2548.033567
879.782425	2549.278732
880.092722	2551.701007
880.402977	2554.614794
880.713191	2558.257027
881.023363	2559.721483
881.333494	2563.194838
881.643583	2563.333469
881.953631	2563.492266
882.263637	2563.008315
882.573602	2562.869683
882.883526	2561.760629
883.193408	2560.316339
883.503248	2555.663354
883.813048	2556.190154
884.122806	2557.188303
884.432522	2555.582695
884.742197	2550.236552
885.051831	2549.152704
885.361424	2550.216387
885.670975	2548.215049
885.980485	2547.075748
886.289954	2550.332334
886.599382	2547.849565
886.908768	2547.844524
887.218113	2543.713299
887.527417	2545.797816
887.836680	2539.909748
888.145901	2545.994421
888.455082	2544.204811
888.764221	2547.708413
889.073319	2542.944523
889.382376	2544.673638
889.691392	2545.276056
890.000366	2546.957281
890.309300	2543.632640
890.618193	2545.495347
890.927044	2541.933771
891.235855	2544.265305
891.544625	2544.416540
891.853353	2545.495347
892.162041	2546.032229
892.470687	2547.320244
892.779293	2547.375697
893.087858	2547.274874
893.396381	2546.279246
893.704864	2547.171530
894.013306	2548.031047
894.321707	2552.558003
894.630068	2551.000287
894.938387	2549.051881
895.246665	2550.193702
895.554903	2551.050698
895.863100	2549.407282
896.171256	2550.465924
896.479371	2547.186654
896.787446	2548.998948
897.095480	2548.210008
897.403473	2546.667415
897.711425	2543.153731
898.019336	2544.953422
898.327207	2544.451828
898.635038	2543.683052
898.942827	2544.610624
899.250576	2545.092054
899.558284	2548.676315
899.865952	2546.032229
900.173579	2545.896118
900.481165	2543.370500
900.788711	2544.794626
901.096216	2543.889739
901.403681	2547.025337
901.711105	2544.605583
902.018489	2542.455531
902.325832	2542.601724
902.633135	2541.142310
902.940397	2541.769934
903.247619	2540.688606
903.554800	2544.008206
903.861941	2547.579864
904.169041	2549.815615
904.476101	2553.180586
904.783121	2549.664381
905.090100	2547.388300
905.397039	2549.029195
905.703938	2546.422919
906.010796	2547.627755
906.317614	2545.124822
906.624391	2547.784030
906.931129	2545.422250
907.237826	2544.963505
907.544483	2543.173895
907.851099	2543.090716
908.157675	2542.979811
908.464211	2543.657846
908.770707	2543.224307
909.077163	2544.998793
909.383578	2542.959646
909.689954	2542.808412
909.996289	2543.183978
910.302584	2542.019471
910.608839	2542.357228
910.915054	2541.752290
911.221229	2543.990562
911.527363	2542.468134
911.833458	2541.656508
912.139513	2542.700027
912.445527	2544.199770
912.751502	2541.303627
913.057436	2542.120294
913.363331	2545.515511
913.669186	2542.972249
913.975000	2544.582898
914.280775	2543.088196
914.586510	2545.069369
914.892205	2545.956612
915.197859	2546.715306
915.503475	2546.470810
915.809050	2545.502908
916.114585	2548.567930
916.420081	2550.453321
916.725536	2547.098433
917.030952	2548.104144
917.336328	2545.865871
917.641665	2548.162117
917.946961	2541.008720
918.252218	2543.141128
918.557435	2539.914789
918.862612	2542.127856
919.167750	2544.802188
919.472848	2543.967877
919.777906	2544.340922
920.082925	2544.144317
920.387904	2543.579708
920.692843	2543.194060
920.997743	2544.398896
921.302603	2543.317568
921.607423	2543.375541
921.912204	2542.916796
922.216946	2544.240099
922.521647	2542.793288
922.826310	2542.357228
923.130932	2542.102650
923.435516	2538.934285
923.740059	2542.722712
924.044564	2544.598021
924.349028	2546.034750
924.653454	2542.987372
924.957840	2542.079965
925.262186	2544.582898
925.566493	2542.339584
925.870761	2541.434697
926.174989	2542.364790
926.479178	2542.032074
926.783328	2542.720191
927.087438	2541.250695
927.391509	2543.597352
927.695541	2542.009389
927.999533	2540.605427
928.303486	2540.933102
928.607400	2541.890922
928.911275	2542.334543
929.215110	2540.597866
929.518906	2542.218597
929.822663	2542.304296
930.126381	2540.562577
930.430060	2543.189019
930.733699	2542.052238
931.037299	2541.858154
931.340861	2541.550644
931.644383	2543.743546
931.947866	2540.252547
932.251309	2540.940664
932.554714	2541.512835
932.858080	2539.042670
933.161407	2538.523431
933.464694	2539.758513
933.767943	2536.310364
934.071153	2541.248174
934.374323	2541.699358
934.677455	2540.373534
934.980548	2540.018133
935.283602	2541.449821
935.586617	2542.909235
935.889593	2543.541899
936.192530	2538.195756
936.495428	2542.339584
936.798287	2540.802032
937.101108	2540.497043
937.403890	2542.460572
937.706632	2539.123328
938.009336	2540.539892
938.312002	2542.397557
938.614628	2542.090047
938.917216	2540.852444
939.219765	2540.986034
939.522275	2540.126518
939.824747	2539.635005
940.127179	2541.946374
940.429573	2539.783719
940.731929	2541.197763
941.034246	2541.643905
941.336524	2540.529810
941.638763	2543.952753
941.940964	2540.996117
942.243126	2542.763041
942.545250	2540.136600
942.847335	2542.558874
943.149381	2540.691127
943.451389	2540.134079
943.753359	2542.896632
944.055290	2537.731970
944.357182	2539.385468
944.659036	2541.560726
944.960851	2543.168854
945.262628	2539.619882
945.564367	2545.071890
945.866067	2538.064686
946.167729	2543.224307
946.469352	2539.514018
946.770937	2538.354552
947.072484	2541.820345
947.373992	2539.687937
947.675462	2541.684234
947.976893	2538.311702
948.278286	2535.415559
948.579641	2539.100643
948.880958	2538.210879
949.182236	2540.892773
949.483476	2541.386806
949.784678	2540.126518
950.085841	2540.219779
950.386967	2536.829603
950.688054	2541.961498
950.989103	2540.552495
951.290114	2540.862526
951.591087	2543.743546
951.892021	2541.182639
952.192917	2539.377906
952.493776	2542.815973
952.794596	2539.955118
953.095378	2538.863709
953.396122	2541.328833
953.696828	2543.486447
953.997496	2539.009902
954.298126	2542.427804
954.598718	2542.490819
954.899272	2540.975952
955.199788	2540.502084
955.500266	2541.961498
955.800706	2540.174409
956.101108	2539.761034
956.401472	2540.252547
956.701798	2541.429656
957.002087	2539.486291
957.302337	2538.972093
957.602550	2539.950077
957.902724	2540.998637
958.202861	2540.910417
958.502960	2541.311189
958.803022	2543.108360
959.103045	2542.485778
959.403031	2541.066693
959.702979	2539.743390
960.002889	2540.852444
960.302762	2539.110725
960.602596	2538.820859
960.902393	2542.208514
961.202153	2540.330684
961.501875	2540.292876
961.801559	2537.242978
962.101205	2538.029398
962.400814	2541.477547
962.700385	2537.389171
962.999918	2538.246167
963.299414	2538.417567
963.598873	2539.186342
963.898293	2534.576207
964.197677	2538.006713
964.497022	2539.551826
964.796331	2538.228523
965.095601	2538.145344
965.394835	2542.377393
965.694030	2542.079965
965.993189	2542.241282
966.292309	2538.863709
966.591393	2542.606765
966.890439	2540.146682
967.189447	2541.038967
967.488419	2542.077444
967.787353	2540.696168
968.086249	2541.149872
968.385108	2539.355221
968.683930	2540.199614
968.982714	2538.321785
969.281462	2539.274563
969.580172	2539.486291
969.878844	2539.884542
970.177480	2541.399409
970.476078	2538.639377
970.774639	2538.394881
971.073162	2539.060314
971.371649	2539.680376
971.670098	2538.404964
971.968510	2539.176260
972.266885	2539.894625
972.565223	2539.887063
972.863524	2539.632485
973.161788	2539.065355
973.460014	2540.275232
973.758204	2540.421425
974.056356	2538.906558
974.354471	2539.854295
974.652550	2538.483102
974.950591	2537.666435
975.248595	2539.488812
975.546563	2539.017464
975.844493	2536.557381
976.142386	2539.544264
976.440243	2540.313040
976.738062	2540.224820
977.035845	2541.099460
977.333590	2538.208359
977.631299	2542.763041
977.928971	2539.730787
978.226606	2537.338760
978.524204	2539.889583
978.821765	2535.334901
979.119290	2537.565612
979.416777	2540.355890
979.714228	2538.525951
980.011642	2539.229192
980.309020	2538.778009
980.606360	2539.211548
980.903664	2538.208359
981.200931	2538.016795
981.498162	2540.423946
981.795356	2539.181301
982.092513	2539.526620
982.389633	2540.116435
982.686717	2540.796991
982.983764	2536.421270
983.280775	2540.739018
983.577749	2540.502084
983.874686	2538.525951
984.171587	2539.544264
984.468451	2540.517207
984.765279	2541.081816
985.062070	2539.662732
985.358824	2539.425797
985.655543	2537.560570
985.952224	2539.776157
986.248869	2539.425797
986.545478	2539.440921
986.842050	2537.661393
987.138586	2540.560057
987.435086	2536.852288
987.731549	2540.313040
988.027975	2542.674821
988.324366	2538.215920
988.620719	2539.201466
988.917037	2540.156765
989.213318	2541.157434
989.509563	2537.878163
989.805772	2540.401261
990.101944	2539.448483
990.398080	2539.261960
990.694180	2539.718184
990.990244	2535.080323
991.286271	2537.989068
991.582262	2539.695499
991.878217	2539.796322
992.174136	2542.458051
992.470019	2541.500232
992.765865	2539.778678
993.061676	2535.851619
993.357450	2536.010416
993.653188	2533.215096
993.948890	2540.038297
994.244556	2540.534851
994.540186	2541.787578
994.835780	2539.665252
995.131337	2536.892617
995.426859	2539.776157
995.722345	2539.322454
996.017795	2537.830272
996.313208	2541.853113
996.608586	2539.440921
996.903928	2538.248688
997.199234	2537.850437
997.494504	2541.313709
997.789738	2537.089222
998.084936	2540.532331
998.380099	2539.947557
998.675225	2538.495704
998.970316	2539.188863
999.265371	2540.905376
999.560390	2538.379758
999.855373	2537.913451
1000.150320	2538.089892
1000.445232	2536.675848
1000.740108	2538.087371
1001.034948	2539.382947
1001.329752	2539.254398
1001.624521	2537.784902
1001.919254	2540.701209
1002.213951	2538.977135
1002.508613	2539.758513
1002.803239	2538.563760
1003.097829	2536.121321
1003.392384	2538.185673
1003.686903	2540.323123
1003.981386	2540.638195
1004.275834	2538.316743
1004.570246	2539.889583
1004.864623	2537.061496
1005.158964	2540.686086
1005.453270	2541.112063
1005.747540	2538.296579
1006.041775	2538.820859
1006.335974	2536.965714
1006.630138	2538.833462
1006.924266	2538.921682
1007.218359	2540.678524
1007.512416	2536.267514
1007.806438	2535.733152
1008.100425	2533.663758
1008.394376	2534.603934
1008.688292	2541.714481
1008.982172	2539.110725
1009.276017	2538.634336
1009.569827	2537.810108
1009.863602	2539.652649
1010.157341	2537.857998
1010.451045	2539.123328
1010.744714	2540.418905
1011.038347	2537.520241
1011.331945	2540.607948
1011.625508	2539.198945
1011.919036	2538.606610
1012.212528	2539.103163
1012.505986	2537.570653
1012.799408	2539.211548
1013.092795	2537.421939
1013.386147	2542.228679
1013.679464	2539.942516
1013.972745	2541.210366
1014.265992	2540.255067
1014.559204	2541.374203
1014.852380	2539.955118
1015.145521	2535.612164
1015.438628	2537.850437
1015.731699	2537.976466
1016.024736	2538.430169
1016.317737	2538.863709
1016.610703	2540.771785
1016.903635	2539.367824
1017.196531	2540.287835
1017.489393	2538.861188
1017.782219	2541.182639
1018.075011	2539.017464
1018.367768	2538.152906
1018.660490	2536.338091
1018.953177	2536.338091
1019.245829	2536.338091
