Dividing Wavelength (nm)	Counts (n)	Blue Motor Position (mm): 39.100000	Red Motor Position (mm): 0.000000	
326.493990	2130.631070
326.888308	2130.631070
327.282561	2130.631070
327.676750	2097.377099
328.070874	2094.808631
328.464933	2097.798035
328.858929	2105.939499
329.252859	2113.690273
329.646726	2125.806686
330.040528	2140.080713
330.434265	2156.857673
330.827938	2172.391989
331.221547	2190.809844
331.615091	2208.111084
332.008571	2228.880638
332.401986	2249.851838
332.795338	2268.292379
333.188625	2287.284926
333.581847	2304.918882
333.975006	2325.978302
334.368100	2343.982783
334.761129	2361.614219
335.154095	2378.040819
335.546996	2395.853736
335.939833	2422.450863
336.332606	2439.507608
336.725315	2454.260544
337.117960	2460.365382
337.510540	2469.149592
337.903056	2481.737353
338.295508	2488.106851
338.687896	2497.848881
339.080220	2502.635457
339.472480	2509.743483
339.864676	2512.788340
340.256807	2519.281347
340.648875	2522.122037
341.040879	2525.587830
341.432818	2527.775691
341.824694	2528.922553
342.216506	2530.883562
342.608253	2531.450692
342.999937	2530.064375
343.391557	2529.603109
343.783113	2528.569672
344.174605	2527.092614
344.566033	2523.974661
344.957397	2525.199661
345.348697	2521.897705
345.739934	2521.691018
346.131106	2519.583816
346.522215	2519.702283
346.913260	2512.944616
347.304241	2515.707168
347.695159	2511.475120
348.086012	2510.776920
348.476802	2508.611744
348.867528	2510.449245
349.258191	2505.108143
349.648789	2505.559326
350.039324	2500.543378
350.429796	2503.542864
350.820203	2499.517503
351.210548	2502.212000
351.600828	2496.502893
351.991045	2499.852740
352.381198	2496.719663
352.771288	2497.874087
353.161314	2495.857625
353.551276	2496.190341
353.941175	2496.628922
354.331010	2494.972903
354.720782	2494.246977
355.110490	2498.413490
355.500135	2496.591113
355.889717	2495.361072
356.279235	2495.265290
356.668689	2498.259735
357.058080	2497.082626
357.447408	2496.870897
357.836672	2490.297232
358.225873	2494.491473
358.615010	2493.410145
359.004084	2497.637153
359.393095	2500.339211
359.782043	2498.305105
360.170927	2500.883656
360.559748	2500.853409
360.948505	2501.160919
361.337199	2502.065806
361.725830	2503.767196
362.114398	2503.729387
362.502903	2504.495642
362.891344	2507.235509
363.279722	2503.046311
363.668037	2503.230313
364.056289	2505.125787
364.444478	2503.603358
364.832603	2507.371621
365.220665	2507.716940
365.608665	2509.211642
365.996601	2507.774913
366.384474	2507.144769
366.772284	2508.634430
367.160031	2507.477485
367.547715	2507.883298
367.935336	2509.073010
368.322893	2510.071158
368.710388	2511.492764
369.097820	2512.445542
369.485189	2512.932013
369.872495	2512.932013
370.259738	2510.575274
370.646918	2509.917403
371.034035	2510.812208
371.421090	2511.906138
371.808081	2511.379338
372.195010	2510.716426
372.581875	2514.227590
372.968678	2511.202897
373.355418	2513.153824
373.742096	2516.428053
374.128710	2515.089627
374.515262	2514.537621
374.901751	2515.780265
375.288177	2517.937879
375.674540	2516.997704
376.060841	2514.368742
376.447079	2519.069618
376.833254	2519.525843
377.219367	2514.996366
377.605417	2516.216325
377.991404	2514.797240
378.377329	2515.044257
378.763191	2516.155831
379.148991	2518.782272
379.534727	2522.273271
379.920402	2520.153466
380.306013	2520.909639
380.691563	2521.575072
381.077049	2522.933662
381.462474	2521.287726
381.847835	2523.987264
382.233134	2525.726462
382.618371	2523.026924
383.003545	2525.166894
383.388657	2526.664116
383.773706	2527.412728
384.158693	2527.427851
384.543618	2527.427851
384.928480	2526.422141
385.313280	2527.843746
385.698017	2528.156298
386.082692	2529.005732
386.467305	2528.400794
386.851856	2526.820392
387.236344	2529.812317
387.620770	2530.323994
388.005133	2529.550177
388.389435	2531.964890
388.773674	2531.556556
389.157851	2530.959179
389.541965	2534.084695
389.926018	2535.085364
390.310008	2539.614841
390.693936	2539.597197
391.077802	2544.860161
391.461606	2552.316028
391.845348	2560.618808
392.229027	2563.673747
392.612645	2570.481826
392.996200	2584.627303
393.379694	2599.160950
393.763125	2616.104268
394.146494	2627.179683
394.529801	2645.983187
394.913047	2666.409942
395.296230	2679.458969
395.679351	2702.421425
396.062410	2726.162739
396.445408	2741.941550
396.828343	2769.514141
397.211217	2794.384674
397.594028	2803.761220
397.976778	2840.037363
398.359466	2872.368803
398.742092	2904.062537
399.124656	2918.029054
399.507158	2966.194758
399.889598	3002.433093
400.271977	3049.867830
400.654294	3076.298600
401.036549	3112.673045
401.418742	3137.898979
401.800874	3207.648384
402.182944	3252.164293
402.564952	3315.501350
402.946898	3343.378930
403.328783	3384.166906
403.710606	3385.308728
404.092367	3512.844879
404.474067	3536.550905
404.855705	3578.299220
405.237282	3577.288469
405.618797	3677.148685
406.000250	3735.621029
406.381642	3824.065552
406.762972	3838.679857
407.144240	3884.256929
407.525447	3924.593722
407.906593	3998.018128
408.287677	4062.668405
408.668700	4048.119635
409.049661	4122.564875
409.430560	4187.626006
409.811399	4163.990556
410.192176	4324.389989
410.572891	4306.917350
410.953545	4419.940019
411.334138	4349.570553
411.714669	4431.728758
412.095139	4370.345148
412.475547	4518.509701
412.855894	4530.933624
413.236180	4561.311617
413.616405	4542.964338
413.996568	4644.047034
414.376670	4606.356848
414.756711	4584.236264
415.136691	4633.271568
415.516609	4719.001430
415.896466	4769.483545
416.276262	4813.427283
416.655997	4810.218588
417.035670	4994.097196
417.415283	5093.324747
417.794834	5047.130134
418.174324	5009.485318
418.553753	4931.833904
418.933121	5121.532524
419.312428	5190.649263
419.691674	5136.260255
420.070859	5272.172283
420.449983	5185.784550
420.829045	5305.572448
421.208047	5219.288058
421.586988	5292.427639
421.965867	5308.834074
422.344686	5440.226708
422.723444	5299.636489
423.102141	5122.583604
423.480777	5421.304737
423.859352	5192.333009
424.237866	5450.223316
424.616319	5442.449857
424.994712	5556.503442
425.373044	5429.610038
425.751314	5576.773922
426.129524	5384.181680
426.507673	5576.380712
426.885762	5657.583618
427.263789	5587.982927
427.641756	5476.996884
428.019662	5596.787302
428.397508	5601.583960
428.775292	5548.964397
429.153016	5652.514738
429.530679	5575.871555
429.908282	5660.235265
430.285824	5530.942272
430.663305	5804.923942
431.040726	5543.494745
431.418086	5542.738572
431.795385	5644.451412
432.172624	5662.307179
432.549802	5652.403832
432.926920	5663.229710
433.303977	5674.985681
433.680974	5714.798193
434.057910	5730.453497
434.434786	5738.597481
434.811601	5705.731678
435.188355	5943.495179
435.565050	5813.995498
435.941683	5797.440349
436.318257	6009.846846
436.694770	5992.021326
437.071222	6025.529875
437.447614	5956.771058
437.823946	5876.904057
438.200218	6025.335791
438.576429	5893.129011
438.952580	5990.924875
439.328670	6034.223345
439.704700	5945.481393
440.080670	5931.721564
440.456580	6198.151586
440.832429	6081.264872
441.208218	5924.147230
441.583947	6086.648825
441.959616	6089.512200
442.335224	6014.706518
442.710773	6154.399412
443.086261	6180.260531
443.461689	5977.419624
443.837057	6126.940247
444.212365	6277.764008
444.587612	6170.074880
444.962800	6326.146482
445.337927	6302.382483
445.712995	5915.201703
446.088002	6494.510938
446.462949	6324.084650
446.837837	6253.931953
447.212664	6426.538540
447.587431	6569.540952
447.962139	7110.164372
448.336786	8038.361783
448.711374	7778.046681
449.085901	6852.909250
449.460369	6772.999400
449.834776	6710.549586
450.209124	7100.429904
450.583412	7258.288596
450.957640	7397.366469
451.331808	7158.955180
451.705917	6713.044958
452.079965	6637.838504
452.453954	6842.723599
452.827883	6725.108439
453.201752	6820.812224
453.575562	6614.823116
453.949311	6823.415980
454.323001	6710.400872
454.696632	6784.435258
455.070202	6921.600013
455.443713	7075.952582
455.817164	7179.018972
456.190556	7262.722291
456.563888	7338.407654
456.937160	7379.992132
457.310373	7036.150152
457.683526	7058.001033
458.056619	6952.000691
458.429653	6940.216994
458.802628	6874.034206
459.175542	6981.004970
459.548398	7339.055442
459.921194	7502.061152
460.293930	7502.524938
460.666607	8032.781226
461.039224	8345.725974
461.411782	8466.249880
461.784280	8476.634657
462.156719	8371.834110
462.529099	8254.133250
462.901419	7838.759817
463.273680	7736.500011
463.645882	7748.124912
464.018024	7613.586598
464.390106	7781.341075
464.762130	8168.042945
465.134094	8636.109039
465.505999	9656.977981
465.877845	10880.339990
466.249631	11523.439986
466.621358	11143.445371
466.993026	10515.872129
467.364634	10256.804712
467.736184	9893.725689
468.107674	9563.673785
468.479105	9596.519423
468.850477	9357.835911
469.221790	9133.328125
469.593043	8803.097260
469.964238	8667.386878
470.335373	8673.209410
470.706449	8734.252742
471.077467	8717.392603
471.448425	10031.918839
471.819324	11100.789648
472.190164	11112.926226
472.560945	9872.958655
472.931667	9083.715609
473.302330	8949.731822
473.672934	8595.928522
474.043479	8950.225855
474.413965	8893.205364
474.784393	8778.561964
475.154761	8932.100387
475.525070	9021.195219
475.895321	8849.717851
476.265513	9017.051391
476.635645	9191.984470
477.005719	9189.373153
477.375734	9312.833531
477.745691	9543.196618
478.115588	9678.468419
478.485427	9917.409029
478.855207	10461.490682
479.224928	11274.916143
479.594591	11904.062225
479.964194	11706.897657
480.333739	11653.017805
480.703226	11570.161400
481.072653	11657.353197
481.442022	11896.770196
481.811333	12086.700708
482.180584	11887.197045
482.549777	11597.522263
482.918912	11423.494070
483.287988	11440.291195
483.657005	11461.501850
484.025964	11137.002777
484.394864	11273.126533
484.763706	11244.001267
485.132489	11001.317600
485.501213	10959.022319
485.869879	11036.527539
486.238487	10884.236802
486.607036	10988.379479
486.975527	10769.227918
487.343959	10965.361570
487.712333	11011.488128
488.080648	10936.470718
488.448905	10986.781433
488.817104	10918.645198
489.185244	11188.351970
489.553326	11347.796104
489.921350	11886.357693
490.289315	12944.924383
490.657222	13277.375877
491.025070	13186.819109
491.392861	13060.467629
491.760593	12690.278058
492.128267	12337.314110
492.495883	12010.145746
492.863440	11673.563027
493.230939	11333.998466
493.598380	11265.874833
493.965763	11142.169959
494.333088	11039.320338
494.700354	10954.565939
495.067563	11019.697647
495.434713	10848.021153
495.801805	10971.572272
496.168839	10899.773638
496.535815	10839.388177
496.902733	10836.318114
497.269593	10767.158525
497.636395	10863.154697
498.003139	10855.325785
498.369825	10728.717206
498.736453	10884.821576
499.103023	10814.384054
499.469535	10844.242808
499.835989	10826.477782
500.202385	10789.934458
500.568723	10638.616663
500.935003	10865.234173
501.301226	10674.305512
501.667390	10930.935531
502.033497	11025.779799
502.399546	10885.471885
502.765537	10794.358070
503.131470	10868.760460
503.497345	11040.673888
503.863163	10655.242389
504.228923	10968.527415
504.594625	11026.316682
504.960269	10776.817375
505.325856	10990.252267
505.691385	10785.314240
506.056856	10944.176121
506.422270	10961.941147
506.787625	10856.538182
507.152924	10973.535801
507.518164	10951.390013
507.883347	10868.301715
508.248472	10790.105857
508.613540	11023.579336
508.978550	10915.484394
509.343503	10885.040866
509.708398	11003.223156
510.073236	11118.955446
510.438016	11124.533482
510.802738	11069.867210
511.167403	11125.803853
511.532010	11021.237720
511.896561	11256.286559
512.261053	11329.995790
512.625488	11193.609893
512.989866	11177.087511
513.354186	11157.789974
513.718449	11068.916953
514.082655	11256.369738
514.446803	11157.263174
514.810894	11278.742379
515.174927	11141.131482
515.538904	11175.552480
515.902822	11323.059162
516.266684	11197.645337
516.630488	11143.299178
516.994235	11205.383508
517.357925	11263.087075
517.721558	11350.722494
518.085133	11370.604805
518.448651	11376.238294
518.812112	11258.388720
519.175516	11274.845567
519.538863	11394.850234
519.902152	11311.378809
520.265385	11472.935187
520.628560	11381.982689
520.991678	11365.425019
521.354739	11425.881057
521.717743	11356.555109
522.080690	11336.667757
522.443580	11473.129271
522.806413	11432.734505
523.169189	11462.583177
523.531908	11522.812363
523.894569	11336.395535
524.257174	11346.611433
524.619722	11466.180040
524.982213	11410.555949
525.344647	11459.351798
525.707025	11406.049157
526.069345	11507.439364
526.431608	11423.443659
526.793815	11526.860409
527.155964	11319.973976
527.518057	11371.426513
527.880093	11320.503297
528.242072	11389.622557
528.603995	11295.731067
528.965860	11219.249202
529.327669	11269.408682
529.689421	11222.228523
530.051117	11194.862620
530.412755	11297.823146
530.774337	11179.703870
531.135862	11162.987404
531.497331	11190.018071
531.858743	11041.989629
532.220098	11205.053312
532.581396	11079.170660
532.942638	11053.808615
533.303824	11023.687720
533.664953	11031.073011
534.026025	10951.410177
534.387040	11045.218488
534.747999	11047.562625
535.108902	11113.637028
535.469748	10866.486899
535.830537	10970.995060
536.191270	10944.324835
536.551947	10974.629732
536.912567	10970.198558
537.273131	10897.752136
537.633638	10879.165401
537.994089	10865.690397
538.354483	10815.046966
538.714821	10962.611621
539.075103	10972.746861
539.435328	10936.395100
539.795497	10759.616958
540.155609	10918.385578
540.515665	11008.486121
540.875665	10738.582744
541.235609	10805.562035
541.595496	10801.312342
541.955328	10958.976949
542.315102	10840.482107
542.674821	10794.254727
543.034483	10795.109202
543.394090	10797.261775
543.753640	10727.179654
544.113134	10945.912799
544.472571	10803.112034
544.831953	10946.547984
545.191278	10752.370300
545.550548	10776.393918
545.909761	10912.600854
546.268918	10889.164530
546.628019	10974.425565
546.987064	10838.594195
547.346053	10760.602504
547.704986	10862.045643
548.063863	10849.004178
548.422684	10839.431027
548.781449	10762.558472
549.140158	10856.379386
549.498811	10734.620397
549.857408	10596.006310
550.215949	10826.739922
550.574434	10670.091107
550.932864	10772.633218
551.291237	10830.543473
551.649555	10774.894175
552.007817	10797.115581
552.366022	10750.605896
552.724173	10748.755793
553.082267	10730.108564
553.440305	10866.978412
553.798288	10672.687302
554.156215	10824.544499
554.514086	10797.274378
554.871902	10651.033025
555.229661	10680.649804
555.587365	10666.131281
555.945014	10557.315455
556.302606	10679.966728
556.660143	10576.542415
557.017625	10727.807278
557.375050	10623.944385
557.732421	10762.392114
558.089735	10679.742396
558.446994	10671.590851
558.804197	10713.354290
559.161345	10712.419156
559.518437	10561.527339
559.875474	10653.911524
560.232455	10675.832982
560.589381	10631.727927
560.946251	10632.237083
561.303065	10731.177289
561.659825	10667.351240
562.016528	10601.808678
562.373177	10485.882305
562.729770	10588.694117
563.086307	10510.392395
563.442789	10605.763464
563.799216	10475.348814
564.155587	10530.685559
564.511904	10487.079579
564.868164	10473.753288
565.224370	10488.720474
565.580520	10415.313712
565.936615	10419.891080
566.292654	10290.363673
566.648638	10418.136759
567.004567	10382.407581
567.360441	10361.794303
567.716260	10270.819120
568.072023	10372.020283
568.427732	10311.798659
568.783385	10226.497295
569.138982	10297.880034
569.494525	10309.318412
569.850013	10190.390031
570.205445	10265.208316
570.560823	10166.313480
570.916145	10081.738042
571.271412	10157.851903
571.626625	10096.241442
571.981782	10080.611344
572.336884	10050.709740
572.691931	10054.795595
573.046923	9995.647737
573.401860	9956.898908
573.756743	9890.872396
574.111570	9930.672305
574.466342	9918.939020
574.821059	9950.322723
575.175722	9838.867852
575.530330	9843.684675
575.884882	9841.348100
576.239380	9771.613819
576.593823	9749.374769
576.948211	9761.957489
577.302544	9648.314758
577.656823	9657.517384
578.011047	9656.128546
578.365216	9640.604313
578.719330	9559.933248
579.073389	9569.279548
579.427394	9514.895580
579.781344	9491.844904
580.135239	9443.510321
580.489080	9450.517525
580.842866	9349.086989
581.196597	9349.349129
581.550273	9397.774453
581.903895	9366.594916
582.257463	9431.540101
582.610975	9306.539650
582.964434	9333.071243
583.317837	9263.452908
583.671186	9239.472140
584.024481	9239.734280
584.377721	9158.934666
584.730906	9132.783680
585.084037	9163.726283
585.437113	9099.471736
585.790135	9118.242472
586.143103	9018.173047
586.496016	8993.904933
586.848874	9045.392758
587.201679	9033.568731
587.554428	8924.210981
587.907124	8966.037434
588.259765	8935.165408
588.612352	8941.996172
588.964884	8818.170310
589.317362	8834.780912
589.669786	8826.016866
590.022155	8882.215649
590.374470	8897.878514
590.726731	8837.661931
591.078937	8686.936472
591.431090	8798.552660
591.783188	8675.871140
592.135232	8668.415273
592.487222	8658.456474
592.839157	8713.581491
593.191038	8650.899784
593.542866	8599.545550
593.894639	8493.976227
594.246358	8548.279536
594.598022	8564.900220
594.949633	8466.078481
595.301190	8432.963142
595.652692	8465.597051
596.004141	8579.675842
596.355535	8351.911470
596.706876	8337.755910
597.058162	8263.207327
597.409395	8340.410078
597.760573	8404.735201
598.111698	8310.440418
598.462768	8308.597876
598.813785	8266.216896
599.164748	8227.541163
599.515657	8230.288592
599.866511	8137.672514
600.217312	8259.675999
600.568060	8116.930686
600.918753	8223.606543
601.269392	8192.666461
601.619978	8103.178419
601.970510	8168.229468
602.320988	8171.637288
602.671412	8224.284578
603.021783	8159.334352
603.372100	8134.786453
603.722363	8137.612020
604.072572	8109.129501
604.422728	8116.668546
604.772830	8049.180099
605.122878	8056.053712
605.472872	8052.963485
605.822813	8077.725633
606.172701	8023.261007
606.522534	8098.727080
606.872314	8094.704239
607.222041	8072.813028
607.571714	8127.252449
607.921333	8081.042712
608.270899	8088.801048
608.620411	8178.820932
608.969870	8080.473062
609.319276	8081.695542
609.668627	8093.779187
610.017926	8128.555587
610.367171	8175.387906
610.716362	8151.029051
611.065500	8143.868092
611.414585	8172.930344
611.763616	8159.011718
612.112594	8138.952967
612.461518	8157.776635
612.810389	8216.679997
613.159207	8153.204309
613.507971	8103.934592
613.856682	8219.233342
614.205340	8180.371087
614.553945	8257.818333
614.902496	8157.688415
615.250994	8210.600366
615.599439	8186.969957
615.947830	8203.189870
616.296169	8177.061569
616.644454	8192.570679
616.992686	8184.608177
617.340864	8249.104699
617.688990	8150.381263
618.037063	8237.137000
618.385082	8187.673198
618.733048	8275.238041
619.080961	8211.618679
619.428821	8228.667861
619.776628	8232.577276
620.124382	8188.457098
620.472083	8165.023294
620.819731	8196.023870
621.167326	8089.668126
621.514868	8099.453006
621.862357	7988.071232
622.209793	8007.991352
622.557176	7941.236392
622.904506	7905.474447
623.251783	7839.347112
623.599007	7794.682488
623.946179	7797.475288
624.293297	7760.548836
624.640363	7675.313007
624.987376	7656.685943
625.334336	7601.122345
625.681243	7550.761218
626.028097	7540.578088
626.374899	7517.804675
626.721647	7508.037440
627.068343	7443.772810
627.414987	7416.255672
627.761577	7366.701130
628.108115	7405.308807
628.454600	7300.220913
628.801032	7350.534149
629.147412	7314.442008
629.493739	7304.994886
629.840014	7236.803198
630.186236	7295.850233
630.532405	7173.075452
630.878521	7226.804069
631.224585	7181.327821
631.570597	7109.178827
631.916556	7144.051008
632.262462	7136.126315
632.608316	7098.267249
632.954117	7082.196051
633.299866	7062.621250
633.645562	7056.728142
633.991206	6977.448436
634.336797	6926.147133
634.682336	6876.441357
635.027823	6837.952147
635.373257	6837.934503
635.718639	6765.092350
636.063968	6776.124916
636.409245	6672.032650
636.754470	6672.420819
637.099642	6629.712164
637.444762	6575.739050
637.789829	6581.932108
638.134845	6527.041504
638.479808	6514.610019
638.824719	6514.761253
639.169577	6447.066119
639.514383	6470.313400
639.859137	6393.612244
640.203839	6401.768831
640.548489	6385.216202
640.893086	6360.751483
641.237632	6334.597977
641.582125	6353.807293
641.926566	6322.171532
642.270955	6336.180899
642.615292	6334.232493
642.959576	6346.583320
643.303809	6338.419171
643.647990	6346.462332
643.992118	6335.568399
644.336195	6282.810203
644.680219	6305.986908
645.024192	6293.071472
645.368112	6387.973713
645.711981	6416.030255
646.055797	6489.195042
646.399562	6449.795904
646.743274	6570.813843
647.086935	6630.821218
647.430544	6625.578418
647.774101	6646.279916
648.117606	6650.398539
648.461059	6643.159442
648.804460	6604.639985
649.147810	6511.439133
649.491108	6479.334545
649.834354	6455.116842
650.177548	6369.271033
650.520690	6291.564167
650.863781	6267.888388
651.206820	6289.494773
651.549807	6206.895467
651.892742	6146.431868
652.235626	6158.596172
652.578458	6138.945755
652.921238	6049.308998
653.263967	6090.555719
653.606644	6027.432911
653.949269	6027.553899
654.291843	5970.924097
654.634365	6021.068454
654.976836	5975.932483
655.319255	5972.133974
655.661622	5952.602023
656.003938	5944.843688
656.346203	5908.081073
656.688416	5943.782525
657.030577	5893.605400
657.372687	5864.800247
657.714746	5846.173183
658.056753	5891.805708
658.398708	5829.529814
658.740612	5826.610986
659.082465	5871.610846
659.424266	5862.035174
659.766016	5865.947109
660.107715	5833.598025
660.449362	5855.365727
660.790958	5846.256362
661.132503	5835.198591
661.473996	5871.212594
661.815438	5857.876222
662.156829	5858.665163
662.498168	5848.474470
662.839456	5826.530327
663.180693	5858.831521
663.521879	5860.457293
663.863013	5849.765005
664.204097	5867.124219
664.545129	5908.801958
664.886110	5902.790382
665.227040	5939.666423
665.567918	5904.637965
665.908746	5932.114774
666.249522	5935.462100
666.590248	5923.335605
666.930922	5946.897958
667.271545	5959.284073
667.612118	5964.846986
667.952639	5935.293222
668.293109	5956.758455
668.633528	5918.357465
668.973896	5920.615902
669.314213	5910.752885
669.654480	5892.024998
669.994695	5887.344287
670.334859	5879.638883
670.674973	5867.756883
671.015035	5871.275609
671.355047	5873.135795
671.695008	5861.677252
672.034918	5830.628785
672.374777	5846.465570
672.714585	5828.390513
673.054342	5828.118291
673.394049	5824.599565
673.733705	5852.709039
674.073310	5846.659655
674.412864	5802.950330
674.752368	5794.093023
675.091820	5799.245082
675.431223	5736.646554
675.770574	5736.954065
676.109875	5686.532444
676.449125	5696.854206
676.788324	5660.651160
677.127473	5603.986070
677.466571	5588.824800
677.805619	5582.654428
678.144616	5570.475000
678.483562	5550.484304
678.822458	5517.689078
679.161303	5512.728583
679.500098	5500.866748
679.838842	5486.133976
680.177535	5486.852340
680.516179	5507.440412
680.854771	5518.261249
681.193314	5594.662456
681.531805	5706.192944
681.870247	5853.457651
682.208638	5959.246264
682.546978	5969.217666
682.885268	5944.783194
683.223508	5861.094999
683.561697	5804.503006
683.899836	5782.311846
684.237925	5732.578343
684.575963	5694.061407
684.913951	5657.744935
685.251889	5722.193566
685.589776	5682.280231
685.927614	5659.408516
686.265401	5730.924845
686.603137	5716.421445
686.940824	5788.709071
687.278460	5813.355272
687.616046	5825.204504
687.953582	5891.934257
688.291068	5872.067070
688.628504	5934.637872
688.965889	5898.477675
689.303224	5842.591443
689.640510	5791.678310
689.977745	5718.576538
690.314930	5618.214727
690.652065	5566.966357
690.989150	5472.752233
691.326185	5395.819184
691.663170	5341.432696
692.000105	5271.040544
692.336990	5192.085992
692.673825	5161.813863
693.010610	5099.530408
693.347345	5022.960322
693.684030	5014.324825
694.020665	4969.995439
694.357251	4882.952356
694.693786	4893.722781
695.030272	4859.132904
695.366707	4822.965146
695.703093	4785.801760
696.039429	4810.747910
696.375716	4797.303152
696.711952	4764.318883
697.048139	4757.621710
697.384276	4733.545159
697.720363	4741.704267
698.056400	4751.910082
698.392388	4701.438050
698.728326	4685.409702
699.064214	4661.517153
699.400053	4659.110002
699.735842	4622.803612
700.071581	4599.117751
700.407270	4570.088266
700.742910	4553.729722
701.078501	4498.438347
701.414042	4498.193851
701.749533	4469.108913
702.084974	4402.079211
702.420366	4460.233962
702.755709	4405.366044
703.091002	4351.155996
703.426246	4397.509405
703.761440	4355.141028
704.096584	4317.791119
704.431679	4333.892564
704.766725	4320.775482
705.101721	4310.378102
705.436668	4334.242925
705.771565	4288.353301
706.106413	4312.843227
706.441212	4347.022250
706.775961	4357.515411
707.110661	4333.955579
707.445311	4362.821226
707.779913	4381.740676
708.114465	4398.396648
708.448967	4421.422119
708.783421	4481.522755
709.117825	4524.057490
709.452180	4529.585116
709.786485	4573.077670
710.120742	4662.631248
710.454949	4644.962004
710.789107	4710.144123
711.123216	4789.514570
711.457275	4777.801449
711.791286	4849.678220
712.125247	4866.855952
712.459159	4771.121920
712.793023	4843.911140
713.126837	4804.378412
713.460602	4798.855828
713.794318	4718.182243
714.127985	4724.753387
714.461602	4641.541581
714.795171	4608.098566
715.128691	4545.116911
715.462162	4484.580215
715.795584	4435.436526
716.128957	4420.333229
716.462281	4369.445302
716.795556	4340.519161
717.128782	4303.257473
717.461960	4236.321032
717.795088	4245.790839
718.128167	4205.539746
718.461198	4142.686640
718.794180	4141.196979
719.127113	4119.278042
719.459997	4099.446143
719.792833	4058.396027
720.125619	4047.804563
720.458357	4010.421887
720.791046	4019.148124
721.123686	3988.054287
721.456278	3948.050211
721.788821	3966.551245
722.121315	3937.483952
722.453761	3910.367586
722.786158	3922.567178
723.118506	3948.072896
723.450805	3900.895258
723.783056	3922.441149
724.115259	3939.684416
724.447412	3941.325312
724.779518	3935.243159
725.111574	3940.614509
725.443582	3969.792707
725.775542	3955.294349
726.107453	4003.699508
726.439315	4008.304602
726.771129	4020.806664
727.102895	4057.927200
727.434612	4102.677523
727.766281	4113.563894
728.097901	4117.188484
728.429473	4121.937251
728.760996	4126.958240
729.092471	4125.526553
729.423897	4109.636836
729.755276	4111.912917
730.086606	4115.209831
730.417887	4150.818021
730.749120	4215.559040
731.080305	4283.881798
731.411442	4305.629335
731.742530	4278.765027
732.073570	4279.458185
732.404562	4331.654292
732.735506	4329.060618
733.066401	4288.693579
733.397249	4226.014393
733.728048	4145.166888
734.058798	4062.507088
734.389501	3990.032940
734.720156	3929.707972
735.050762	3888.100809
735.381320	3880.178636
735.711831	3828.844566
736.042293	3798.595123
736.372707	3823.009431
736.703073	3792.218063
737.033391	3785.717495
737.363661	3802.449085
737.693883	3826.558403
738.024056	3838.505938
738.354182	3833.278261
738.684260	3893.774628
739.014290	3916.285900
739.344272	3910.410436
739.674207	3952.327630
740.004093	3957.472127
740.333931	3953.998772
740.663722	3955.160758
740.993464	3952.075572
741.323159	3932.347017
741.652806	3896.685894
741.982405	3867.653889
742.311956	3838.362265
742.641460	3832.993436
742.970915	3806.953356
743.300323	3762.404679
743.629683	3733.944845
743.958996	3717.777865
744.288260	3694.996891
744.617477	3663.061181
744.946647	3647.960405
745.275768	3625.635655
745.604842	3621.280098
745.933869	3577.679158
746.262847	3566.107190
746.591778	3604.694702
746.920662	3575.095567
747.249498	3542.328067
747.578286	3586.506219
747.907027	3606.436420
748.235720	3609.216617
748.564365	3627.160604
748.892963	3628.574647
749.221514	3608.435238
749.550017	3588.552927
749.878473	3587.292639
750.206881	3558.953792
750.535242	3556.551682
750.863555	3557.330541
751.191821	3547.759910
751.520039	3531.461860
751.848210	3510.044518
752.176334	3540.117521
752.504411	3545.952657
752.832440	3509.802542
753.160421	3490.225221
753.488356	3499.037158
753.816243	3511.471164
754.144082	3469.909371
754.471875	3454.007052
754.799620	3476.117552
755.127318	3467.668578
755.454969	3465.452991
755.782572	3471.472129
756.110129	3446.785599
756.437638	3440.300154
756.765100	3448.938171
757.092515	3461.478042
757.419882	3468.674289
757.747203	3439.453240
758.074477	3440.554732
758.401703	3456.348667
758.728882	3479.202738
759.056014	3486.633399
759.383099	3488.307062
759.710138	3485.224397
760.037129	3505.436903
760.364073	3536.596275
760.690970	3517.971732
761.017820	3497.512209
761.344623	3515.236906
761.671379	3561.239956
761.998088	3613.483953
762.324751	3737.786204
762.651366	3983.381137
762.977935	4460.359991
763.304456	4908.059823
763.630931	5003.635059
763.957359	4638.738699
764.283740	4297.712203
764.610074	4103.421093
764.936362	3905.943973
765.262602	3747.923965
765.588796	3637.147130
765.914943	3546.905435
766.241044	3458.738174
766.567097	3428.123247
766.893104	3384.476937
767.219064	3349.327492
767.544978	3321.530570
767.870845	3268.124586
768.196665	3249.578181
768.522438	3259.237032
768.848165	3252.723861
769.173846	3216.553582
769.499479	3198.690253
769.825066	3185.363963
770.150607	3167.944256
770.476101	3182.838345
770.801548	3177.635874
771.126949	3130.392701
771.452303	3114.989455
771.777611	3122.747791
772.102872	3125.089407
772.428087	3102.124431
772.753256	3091.142277
773.078378	3083.923345
773.403453	3049.116698
773.728482	3038.361396
774.053465	3060.512226
774.378401	3049.638458
774.703291	3017.269209
775.028135	3016.996986
775.352932	3012.931296
775.677683	2998.009480
776.002388	2994.092504
776.327046	2998.286744
776.651658	2987.501195
776.976224	2978.112046
777.300743	2978.729588
777.625216	2966.464460
777.949643	2962.005560
778.274024	2962.827268
778.598359	2953.294446
778.922647	2955.930969
779.246889	2956.283850
779.571086	2941.462858
779.895236	2935.234512
780.219339	2943.832200
780.543397	2956.722430
780.867409	2959.737040
781.191374	2957.060188
781.515294	2952.329065
781.839167	2951.968622
782.162995	2943.998558
782.486776	2951.633386
782.810511	2950.065587
783.134201	2937.704678
783.457844	2940.414298
783.781441	2932.482042
784.104993	2913.640730
784.428498	2916.819177
784.751958	2931.083122
785.075372	2924.065836
785.398739	2903.016498
785.722061	2924.592636
786.045337	2933.906168
786.368568	2922.850918
786.691752	2911.457910
787.014891	2960.919191
787.337983	2994.747854
787.661030	3017.286853
787.984031	3086.227152
788.306987	3130.672485
788.629897	3124.469345
788.952760	3107.452930
789.275579	3092.168152
789.598351	3033.408463
789.921078	2991.271978
790.243759	2979.097592
790.566395	2963.354068
790.888984	2937.908844
791.211529	2919.662388
791.534027	2910.689134
791.856480	2901.166394
792.178888	2887.840104
792.501249	2878.342570
792.823566	2877.528424
793.145836	2873.135058
793.468062	2869.538195
793.790241	2867.395705
794.112375	2872.245295
794.434464	2884.916235
794.756507	2888.223232
795.078505	2898.683626
795.400457	2911.175605
795.722364	2949.813529
796.044226	2968.087712
796.366042	2973.353197
796.687812	2963.525468
797.009538	2980.267139
797.331218	2967.805407
797.652852	2952.560958
797.974442	2936.842640
798.295986	2932.192176
798.617484	2928.154212
798.938938	2913.184505
799.260346	2897.410735
799.581709	2892.369581
799.903026	2885.430433
800.224299	2881.699979
800.545526	2870.042311
800.866708	2854.150073
801.187845	2841.660614
801.508936	2848.269567
801.829983	2850.442304
802.150984	2837.773885
802.471940	2827.290805
802.792851	2828.518326
803.113717	2828.246104
803.434538	2832.619305
803.755314	2823.262923
804.076045	2816.507777
804.396731	2819.978612
804.717372	2818.262099
805.037967	2814.425781
805.358518	2818.657829
805.679024	2834.396312
805.999485	2828.556135
806.319901	2830.554952
806.640272	2823.129333
806.960598	2828.205775
807.280879	2836.937053
807.601115	2845.882581
807.921306	2832.205930
808.241453	2827.484890
808.561554	2834.187104
808.881611	2836.271621
809.201623	2831.782473
809.521590	2828.891372
809.841513	2824.850887
810.161390	2832.886486
810.481223	2823.096565
810.801011	2814.332519
811.120755	2810.450831
811.440453	2811.816984
811.760107	2812.258085
812.079716	2810.695327
812.399281	2802.654687
812.718801	2794.117492
813.038276	2792.385856
813.357707	2797.875673
813.677093	2805.371868
813.996434	2798.135292
814.315731	2793.147070
814.634983	2787.826132
814.954191	2788.995680
815.273354	2804.409008
815.592473	2812.626089
815.911547	2812.033753
816.230577	2821.359888
816.549562	2834.179542
816.868502	2828.493121
817.187399	2841.758917
817.506250	2855.715351
817.825058	2849.635720
818.143821	2864.355889
818.462539	2877.624206
818.781213	2905.048083
819.099843	2943.456634
819.418429	3002.670027
819.736970	3063.909964
820.055466	3135.829585
820.373919	3243.564084
820.692327	3379.803788
821.010691	3554.878019
821.329011	3996.888909
821.647286	4904.082352
821.965517	6288.930164
822.283704	7037.349946
822.601847	7019.703387
822.919945	6389.894393
823.237999	5876.253748
823.556010	5288.460251
823.873976	4729.887802
824.191897	4315.497394
824.509775	4024.464021
824.827609	3752.745828
825.145398	3627.344606
825.463144	3617.350518
825.780845	3706.760423
826.098502	3810.512410
826.416116	4094.616718
826.733685	4415.158485
827.051210	4483.821521
827.368692	4363.136298
827.686129	4095.176286
828.003522	3767.544136
828.320872	3508.264990
828.638177	3313.283242
828.955439	3175.526151
829.272656	3089.602205
829.589830	3021.410517
829.906960	2970.449492
830.224046	2927.178748
830.541088	2895.064078
830.858086	2874.249153
831.175041	2858.838346
831.491952	2862.102493
831.808819	2872.262939
832.125642	2894.570045
832.442421	2945.228600
832.759157	3023.628624
833.075849	3204.210317
833.392497	3488.836383
833.709101	3693.426571
834.025662	3638.475474
834.342179	3480.238696
834.658653	3306.160092
834.975083	3153.413130
835.291469	3053.671381
835.607811	2968.186014
835.924110	2910.051428
836.240366	2859.407997
836.556578	2815.948209
836.872746	2792.610187
837.188871	2773.998247
837.504952	2754.224322
837.820990	2747.766603
838.136984	2734.107597
838.452935	2725.547718
838.768842	2724.234497
839.084706	2742.165882
839.400526	2821.248982
839.716303	2953.541462
840.032037	3035.629091
840.347727	3020.961854
840.663373	2957.166052
840.978977	2885.294322
841.294537	2809.104843
841.610054	2762.874942
841.925527	2738.740417
842.240957	2716.476162
842.556344	2694.567307
842.871687	2679.993331
843.186987	2669.328770
843.502244	2666.261228
843.817458	2659.644714
844.132629	2648.992756
844.447756	2638.131590
844.762840	2634.166722
845.077881	2634.446506
845.392879	2636.984727
845.707833	2631.910806
846.022745	2623.262706
846.337613	2627.882924
846.652438	2626.345372
846.967221	2628.671864
847.281960	2623.096348
847.596656	2622.347737
847.911309	2621.246245
848.225919	2617.914042
848.540485	2614.760800
848.855009	2616.779782
849.169490	2615.716099
849.483928	2613.621500
849.798323	2615.186778
850.112675	2609.182764
850.426984	2613.349277
850.741251	2611.869699
851.055474	2612.653598
851.369654	2616.505040
851.683792	2613.908845
851.997887	2614.939761
852.311938	2612.237703
852.625947	2613.276181
852.939914	2616.981429
853.253837	2614.334823
853.567718	2611.998248
853.881555	2612.774586
854.195350	2615.413630
854.509103	2616.318517
854.822812	2610.586725
855.136479	2611.332816
855.450103	2613.893722
855.763685	2616.348764
856.077224	2610.833742
856.390720	2609.714605
856.704173	2608.696292
857.017584	2616.968826
857.330953	2619.171810
857.644278	2621.894033
857.957561	2621.004269
858.270802	2617.301542
858.584000	2617.762807
858.897155	2617.898919
859.210268	2619.184413
859.523339	2614.329782
859.836367	2610.748042
860.149352	2611.161417
860.462295	2613.462703
860.775195	2609.737291
861.088054	2607.703185
861.400869	2609.563371
861.713642	2604.275200
862.026373	2607.201590
862.339062	2610.924482
862.651708	2616.484875
862.964312	2613.913887
863.276873	2613.520677
863.589392	2615.884978
863.901869	2621.092490
864.214303	2627.792183
864.526696	2627.847636
864.839045	2630.784108
865.151353	2631.084057
865.463619	2632.180507
865.775842	2630.257307
866.088023	2632.644294
866.400162	2633.851650
866.712258	2635.321146
867.024313	2631.384005
867.336325	2629.123048
867.648296	2630.879890
867.960224	2634.280148
868.272110	2632.578759
868.583954	2628.409724
868.895755	2628.455095
869.207515	2633.992802
869.519233	2641.579739
869.830909	2639.414563
870.142542	2632.964407
870.454134	2633.014818
870.765684	2639.850623
871.077191	2638.267701
871.388657	2644.937147
871.700081	2643.185346
872.011463	2642.905562
872.322803	2643.825573
872.634101	2647.545944
872.945357	2655.914260
873.256571	2661.177224
873.567744	2655.531132
873.878874	2657.973571
874.189963	2658.891061
874.501010	2662.167811
874.812015	2668.229799
875.122979	2665.467246
875.433900	2657.812254
875.744780	2657.688746
876.055618	2661.540187
876.366415	2665.920950
876.677169	2667.854233
876.987882	2661.996412
877.298554	2661.295692
877.609183	2672.182063
877.919771	2678.738084
878.230317	2683.643127
878.540822	2697.851619
878.851285	2710.956098
879.161707	2735.665314
879.472087	2772.730397
879.782425	2822.156390
880.092722	2938.367589
880.402977	3129.235756
880.713191	3393.349368
881.023363	3690.086807
881.333494	3886.611148
881.643583	4057.244124
881.953631	4052.949061
882.263637	3876.213768
882.573602	3656.343843
882.883526	3522.294522
883.193408	3405.110380
883.503248	3301.398722
883.813048	3185.910928
884.122806	3070.927250
884.432522	2981.522387
884.742197	2915.793302
885.051831	2876.951212
885.361424	2844.350070
885.670975	2809.147693
885.980485	2774.940943
886.289954	2758.063160
886.599382	2742.012126
886.908768	2730.140209
887.218113	2715.649412
887.527417	2697.536547
887.836680	2691.721576
888.145901	2684.159845
888.455082	2678.314627
888.764221	2664.753923
889.073319	2657.598005
889.382376	2658.888541
889.691392	2659.034734
890.000366	2657.971051
890.309300	2656.831750
890.618193	2659.927018
890.927044	2659.853922
891.235855	2660.383243
891.544625	2660.799138
891.853353	2662.785352
892.162041	2667.503872
892.470687	2689.667305
892.779293	2699.636187
893.087858	2708.261601
893.396381	2736.053482
893.704864	2775.714760
894.013306	2846.364011
894.321707	2940.830193
894.630068	2993.185096
894.938387	3016.447501
895.246665	3007.053310
895.554903	2964.664768
895.863100	2919.145670
896.171256	2859.551669
896.479371	2798.916671
896.787446	2759.789755
897.095480	2739.478947
897.403473	2732.743965
897.711425	2717.451625
898.019336	2698.643080
898.327207	2684.434588
898.635038	2683.580112
898.942827	2681.049453
899.250576	2669.681651
899.558284	2658.785197
899.865952	2655.528612
900.173579	2652.400576
900.481165	2648.609628
900.788711	2644.085192
901.096216	2634.194448
901.403681	2631.507513
901.711105	2632.087246
902.018489	2628.858387
902.325832	2634.786784
902.633135	2636.193266
902.940397	2651.271357
903.247619	2689.057326
903.554800	2758.191710
903.861941	2888.946638
904.169041	3017.581760
904.476101	3081.312027
904.783121	3074.188877
905.090100	3019.565454
905.397039	2939.290120
905.703938	2864.227340
906.010796	2801.018832
906.317614	2749.286511
906.624391	2709.199256
906.931129	2686.168745
907.237826	2660.637821
907.544483	2642.774492
907.851099	2628.813017
908.157675	2617.404886
908.464211	2610.778289
908.770707	2601.459716
909.077163	2596.912595
909.383578	2593.721545
909.689954	2592.695670
909.996289	2590.202819
910.302584	2591.427820
910.608839	2588.536718
910.915054	2586.139649
911.221229	2591.221132
911.527363	2591.420258
911.833458	2589.310535
912.139513	2590.676688
912.445527	2590.560741
912.751502	2599.402925
913.057436	2604.091198
913.363331	2608.522372
913.669186	2620.500154
913.975000	2634.446506
914.280775	2651.906542
914.586510	2673.568381
914.892205	2709.594987
915.197859	2777.428753
915.503475	2862.538553
915.809050	2931.924995
916.114585	2948.714558
916.420081	2962.507154
916.725536	2969.637867
917.030952	2941.730039
917.336328	2897.776218
917.641665	2844.702951
917.946961	2792.264868
918.252218	2759.739344
918.557435	2731.836557
918.862612	2710.114225
919.167750	2689.629497
919.472848	2677.447548
919.777906	2658.003818
920.082925	2643.944040
920.387904	2634.007926
920.692843	2628.863428
920.997743	2625.690022
921.302603	2616.631068
921.607423	2611.327775
921.912204	2606.153030
922.216946	2601.303440
922.521647	2600.459047
922.826310	2594.840681
923.130932	2592.315063
923.435516	2583.596387
923.740059	2585.645616
924.044564	2582.126891
924.349028	2583.021696
924.653454	2572.868812
924.957840	2569.188770
925.262186	2568.634243
925.566493	2571.583318
925.870761	2566.766495
926.174989	2562.796587
926.479178	2562.297512
926.783328	2562.189127
927.087438	2561.006977
927.391509	2561.059909
927.695541	2558.728375
927.999533	2557.629404
928.303486	2559.018242
928.607400	2558.877089
928.911275	2556.679146
929.215110	2554.090514
929.518906	2554.100596
929.822663	2557.689898
930.126381	2555.396173
930.430060	2554.221584
930.733699	2554.846687
931.037299	2558.456153
931.340861	2559.229970
931.644383	2556.749723
931.947866	2554.110678
932.251309	2557.452963
932.554714	2553.175544
932.858080	2558.435988
933.161407	2554.362736
933.464694	2556.106975
933.767943	2553.999773
934.071153	2556.205278
934.374323	2551.501881
934.677455	2552.558003
934.980548	2553.062118
935.283602	2551.315359
935.586617	2551.456511
935.889593	2553.311656
936.192530	2552.041285
936.495428	2555.605381
936.798287	2553.959444
937.101108	2553.989691
937.403890	2559.237532
937.706632	2561.546380
938.009336	2566.625343
938.312002	2568.394788
938.614628	2572.142886
938.917216	2572.679769
939.219765	2575.434759
939.522275	2577.612538
939.824747	2576.831159
940.127179	2572.175653
940.429573	2568.921588
940.731929	2568.596434
941.034246	2566.070816
941.336524	2567.086608
941.638763	2565.264231
941.940964	2566.486711
942.243126	2565.319684
942.545250	2563.131823
942.847335	2559.540001
943.149381	2559.630742
943.451389	2556.739640
943.753359	2559.209806
944.055290	2556.003632
944.357182	2557.216029
944.659036	2556.326266
944.960851	2555.449105
945.262628	2556.343910
945.564367	2555.391132
945.866067	2561.251473
946.167729	2555.365926
946.469352	2556.144784
946.770937	2557.274003
947.072484	2556.570762
947.373992	2555.171841
947.675462	2556.137222
947.976893	2552.658826
948.278286	2551.307797
948.579641	2553.104968
948.880958	2554.042623
949.182236	2552.265616
949.483476	2550.632282
949.784678	2554.435833
950.085841	2549.694628
950.386967	2551.758980
950.688054	2551.244782
950.989103	2552.111861
951.290114	2555.744012
951.591087	2556.848025
951.892021	2555.940617
952.192917	2558.932542
952.493776	2556.389280
952.794596	2563.320867
953.095378	2560.142419
953.396122	2559.872717
953.696828	2559.882800
953.997496	2558.153684
954.298126	2553.407437
954.598718	2552.870555
954.899272	2553.871224
955.199788	2551.043136
955.500266	2552.273178
955.800706	2548.787220
956.101108	2544.444266
956.401472	2545.399565
956.701798	2540.907897
957.002087	2543.123484
957.302337	2545.192877
957.602550	2542.034594
957.902724	2543.420912
958.202861	2543.506611
958.502960	2541.222969
958.803022	2542.261446
959.103045	2542.430325
959.403031	2541.921168
959.702979	2539.657690
960.002889	2537.948739
960.302762	2537.434542
960.602596	2540.123997
960.902393	2535.970086
961.202153	2541.447300
961.501875	2538.621733
961.801559	2538.750283
962.101205	2537.316074
962.400814	2535.697864
962.700385	2538.498225
962.999918	2537.638708
963.299414	2537.832793
963.598873	2537.031249
963.898293	2535.665097
964.197677	2537.754655
964.497022	2534.848430
964.796331	2537.089223
965.095601	2536.048224
965.394835	2537.721887
965.694030	2535.143337
965.993189	2539.211548
966.292309	2535.289531
966.591393	2534.576207
966.890439	2539.718184
967.189447	2538.072248
967.488419	2536.282638
967.787353	2539.405633
968.086249	2536.965714
968.385108	2534.205682
968.683930	2538.208359
968.982714	2537.374048
969.281462	2535.463450
969.580172	2534.188038
969.878844	2534.654345
970.177480	2539.451003
970.476078	2538.294058
970.774639	2537.699202
971.073162	2537.177443
971.371649	2536.333049
971.670098	2533.308357
971.968510	2533.436907
972.266885	2532.952956
972.565223	2539.594676
972.863524	2538.404964
973.161788	2539.176260
973.460014	2540.139121
973.758204	2539.002340
974.056356	2537.295910
974.354471	2538.825900
974.652550	2540.648277
974.950591	2536.663245
975.248595	2538.077289
975.546563	2536.990920
975.844493	2539.574511
976.142386	2537.280786
976.440243	2533.686444
976.738062	2535.105528
977.035845	2533.313398
977.333590	2535.695343
977.631299	2534.959335
977.928971	2538.911600
978.226606	2536.370858
978.524204	2535.080323
978.821765	2537.401774
979.119290	2535.302133
979.416777	2534.891279
979.714228	2536.685930
980.011642	2536.098636
980.309020	2540.930582
980.606360	2536.370858
980.903664	2536.958153
981.200931	2539.887063
981.498162	2534.916485
981.795356	2536.353214
982.092513	2547.499205
982.389633	2545.870913
982.686717	2547.481561
982.983764	2551.310317
983.280775	2550.171017
983.577749	2552.079093
983.874686	2548.794782
984.171587	2547.910059
984.468451	2545.215562
984.765279	2541.835469
985.062070	2540.746580
985.358824	2541.137269
985.655543	2534.924047
985.952224	2536.186856
986.248869	2534.571166
986.545478	2532.907585
986.842050	2535.221475
987.138586	2529.406504
987.435086	2530.913809
987.731549	2532.660569
988.027975	2535.919675
988.324366	2534.172915
988.620719	2536.764068
988.917037	2531.158305
989.213318	2533.867925
989.509563	2532.736186
989.805772	2531.889272
990.101944	2532.892462
990.398080	2532.005219
990.694180	2531.851464
990.990244	2533.247863
991.286271	2534.185518
991.582262	2532.342976
991.878217	2533.976310
992.174136	2531.571680
992.470019	2534.044366
992.765865	2532.562266
993.061676	2534.384643
993.357450	2532.829447
993.653188	2532.834489
993.948890	2532.421114
994.244556	2532.615198
994.540186	2533.845240
994.835780	2535.077802
995.131337	2532.726104
995.426859	2533.167205
995.722345	2536.660724
996.017795	2536.315405
996.313208	2537.394212
996.608586	2540.446631
996.903928	2537.333718
997.199234	2536.862371
997.494504	2537.210210
997.789738	2537.442103
998.084936	2535.097967
998.380099	2534.417411
998.675225	2534.538399
998.970316	2534.588810
999.265371	2532.496731
999.560390	2535.927237
999.855373	2533.431865
1000.150320	2531.798532
1000.445232	2533.847761
1000.740108	2532.224509
1001.034948	2531.483459
1001.329752	2535.105528
1001.624521	2532.564787
1001.919254	2526.709487
1002.213951	2530.291227
1002.508613	2528.350382
1002.803239	2528.791483
1003.097829	2527.674868
1003.392384	2533.210055
1003.686903	2530.540764
1003.981386	2529.237625
1004.275834	2531.180990
1004.570246	2533.457071
1004.864623	2527.896678
1005.158964	2530.497914
1005.453270	2531.526309
1005.747540	2529.454395
1006.041775	2530.374406
1006.335974	2531.211237
1006.630138	2533.898172
1006.924266	2530.586134
1007.218359	2529.189734
1007.512416	2532.491690
1007.806438	2532.199303
1008.100425	2531.796011
1008.394376	2531.082688
1008.688292	2531.349869
1008.982172	2530.588655
1009.276017	2528.980527
1009.569827	2530.175280
1009.863602	2531.647297
1010.157341	2530.089580
1010.451045	2528.345341
1010.744714	2531.362472
1011.038347	2531.649817
1011.331945	2527.760567
1011.625508	2531.075126
1011.919036	2532.368182
1012.212528	2531.037317
1012.505986	2529.502286
1012.799408	2530.182842
1013.092795	2527.521112
1013.386147	2530.008922
1013.679464	2529.857687
1013.972745	2529.565300
1014.265992	2528.804086
1014.559204	2529.832482
1014.852380	2530.122348
1015.145521	2531.831299
1015.438628	2530.792821
1015.731699	2530.170239
1016.024736	2528.516740
1016.317737	2528.199148
1016.610703	2531.415404
1016.903635	2526.717048
1017.196531	2524.970289
1017.489393	2526.396935
1017.782219	2523.778056
1018.075011	2532.600075
1018.367768	2529.189734
1018.660490	2530.397091
1018.953177	2530.397091
1019.245829	2530.397091
