Dividing Wavelength (nm)	Counts (n)	Blue Motor Position (mm): 5.700000	Red Motor Position (mm): 0.000000	
326.493990	2158.869093
326.888308	2158.869093
327.282561	2158.869093
327.676750	2116.871241
328.070874	2113.781013
328.464933	2114.852259
328.858929	2115.968874
329.252859	2125.554628
329.646726	2132.624847
330.040528	2145.270581
330.434265	2158.057468
330.827938	2177.090344
331.221547	2193.277489
331.615091	2210.372042
332.008571	2227.960628
332.401986	2248.553741
332.795338	2265.791967
333.188625	2283.705707
333.581847	2302.839406
333.975006	2322.283137
334.368100	2340.201918
334.761129	2356.308404
335.154095	2372.407329
335.546996	2390.966337
335.939833	2406.634243
336.332606	2419.597570
336.725315	2438.771599
337.117960	2448.206118
337.510540	2458.585854
337.903056	2468.343007
338.295508	2478.309369
338.687896	2486.904536
339.080220	2494.466267
339.472480	2502.461537
339.864676	2508.921775
340.256807	2512.125429
340.648875	2513.105933
341.040879	2518.449556
341.432818	2523.155473
341.824694	2524.877027
342.216506	2524.234280
342.608253	2526.485155
342.999937	2525.920546
343.391557	2528.478932
343.783113	2524.725793
344.174605	2524.075484
344.566033	2525.567665
344.957397	2524.317459
345.348697	2522.240504
345.739934	2521.305370
346.131106	2517.799247
346.522215	2518.671367
346.913260	2514.756911
347.304241	2511.550737
347.695159	2515.177847
348.086012	2511.482682
348.476802	2508.087464
348.867528	2503.941115
349.258191	2502.088491
349.648789	2502.111177
350.039324	2498.431134
350.429796	2499.676299
350.820203	2498.267297
351.210548	2499.537668
351.600828	2497.221257
351.991045	2496.011380
352.381198	2493.324445
352.771288	2493.788232
353.161314	2495.519868
353.551276	2490.894609
353.941175	2490.214053
354.331010	2491.355875
354.720782	2491.721358
355.110490	2494.131030
355.500135	2491.091214
355.889717	2490.458549
356.279235	2490.224136
356.668689	2489.394866
357.058080	2493.803355
357.447408	2493.072388
357.836672	2492.868221
358.225873	2494.037769
358.615010	2491.600371
359.004084	2491.920484
359.393095	2492.535505
359.782043	2491.214723
360.170927	2494.080618
360.559748	2496.064313
360.948505	2495.056082
361.337199	2498.259735
361.725830	2496.064312
362.114398	2497.579179
362.502903	2496.893582
362.891344	2498.592451
363.279722	2497.871566
363.668037	2500.689571
364.056289	2497.702687
364.444478	2501.463388
364.832603	2497.811072
365.220665	2502.264932
365.608665	2500.142606
365.996601	2501.339880
366.384474	2498.350476
366.772284	2501.654952
367.160031	2504.727535
367.547715	2503.300889
367.935336	2502.963132
368.322893	2501.382730
368.710388	2503.137051
369.097820	2501.637308
369.485189	2500.331649
369.872495	2505.030005
370.259738	2504.747700
370.646918	2506.257526
371.034035	2506.244923
371.421090	2506.998575
371.808081	2506.239882
372.195010	2509.466220
372.581875	2506.912876
372.968678	2510.073679
373.355418	2507.248112
373.742096	2507.212824
374.128710	2507.147289
374.515262	2508.589059
374.901751	2507.618637
375.288177	2507.459841
375.674540	2508.694923
376.060841	2509.360356
376.447079	2506.978411
376.833254	2508.127794
377.219367	2509.685510
377.605417	2511.830521
377.991404	2507.653925
378.377329	2508.798267
378.763191	2511.165089
379.148991	2510.880264
379.534727	2509.698113
379.920402	2511.913700
380.306013	2512.130470
380.691563	2510.671056
381.077049	2512.410254
381.462474	2512.155676
381.847835	2508.841117
382.233134	2510.603000
382.618371	2511.686848
383.003545	2512.586694
383.388657	2513.925121
383.773706	2513.529390
384.158693	2514.572909
384.543618	2511.868330
384.928480	2512.528721
385.313280	2515.029133
385.698017	2515.815553
386.082692	2515.140039
386.467305	2516.745646
386.851856	2515.792868
387.236344	2514.678773
387.620770	2512.042250
388.005133	2511.212980
388.389435	2513.360511
388.773674	2510.923113
389.157851	2516.912004
389.541965	2515.971829
389.926018	2517.673218
390.310008	2513.136180
390.693936	2517.670698
391.077802	2514.507374
391.461606	2517.859741
391.845348	2518.787313
392.229027	2518.447036
392.612645	2518.746984
392.996200	2519.094824
393.379694	2518.215142
393.763125	2520.019876
394.146494	2517.955523
394.529801	2520.153466
394.913047	2518.391583
395.296230	2518.094155
395.679351	2518.981398
396.062410	2522.548014
396.445408	2518.764628
396.828343	2520.443333
397.211217	2518.197498
397.594028	2519.188085
397.976778	2518.772190
398.359466	2522.190092
398.742092	2521.791841
399.124656	2520.521470
399.507158	2519.291429
399.889598	2520.990298
400.271977	2519.611542
400.654294	2522.187572
401.036549	2522.129598
401.418742	2520.718075
401.800874	2523.037006
402.182944	2521.360823
402.564952	2521.096162
402.946898	2521.789321
403.328783	2521.882582
403.710606	2523.609177
404.092367	2522.207736
404.474067	2522.853004
404.855705	2522.492562
405.237282	2525.552542
405.618797	2521.741430
406.000250	2524.014990
406.381642	2522.560617
406.762972	2520.783610
407.144240	2519.883764
407.525447	2521.932993
407.906593	2519.069618
408.287677	2523.969620
408.668700	2526.190248
409.049661	2524.995494
409.430560	2526.268386
409.811399	2525.570186
410.192176	2525.338293
410.572891	2525.822244
410.953545	2524.801410
411.334138	2526.941380
411.714669	2524.667819
412.095139	2526.003725
412.475547	2527.059847
412.855894	2528.252080
413.236180	2526.931297
413.616405	2529.154446
413.996568	2527.783253
414.376670	2527.931967
414.756711	2529.139323
415.136691	2529.953469
415.516609	2528.458767
415.896466	2525.393746
416.276262	2529.197296
416.655997	2527.379960
417.035670	2527.879034
417.415283	2529.703932
417.794834	2528.662934
418.174324	2526.671678
418.553753	2527.382481
418.933121	2531.160826
419.312428	2530.863398
419.691674	2530.331556
420.070859	2531.123017
420.449983	2528.413397
420.829045	2528.347862
421.208047	2529.600588
421.586988	2529.736700
421.965867	2531.538912
422.344686	2530.492873
422.723444	2529.613191
423.102141	2531.380116
423.480777	2530.213089
423.859352	2532.214427
424.237866	2528.541946
424.616319	2530.392050
424.994712	2530.896165
425.373044	2532.065713
425.751314	2529.774508
426.129524	2527.077491
426.507673	2534.019160
426.885762	2526.951462
427.263789	2531.483459
427.641756	2531.009591
428.019662	2528.965403
428.397508	2531.846422
428.775292	2532.675692
429.153016	2533.842719
429.530679	2533.184849
429.908282	2533.847761
430.285824	2534.742565
430.663305	2534.505631
431.040726	2533.686444
431.418086	2529.633356
431.795385	2533.454551
432.172624	2534.737524
432.549802	2533.966228
432.926920	2532.879859
433.303977	2533.162164
433.680974	2535.287010
434.057910	2532.254756
434.434786	2535.370189
434.811601	2531.745599
435.188355	2535.428162
435.565050	2534.616537
435.941683	2533.336083
436.318257	2531.957328
436.694770	2534.399767
437.071222	2533.202493
437.447614	2532.632842
437.823946	2534.906403
438.200218	2534.871115
438.576429	2536.252391
438.952580	2534.792977
439.328670	2534.999664
439.704700	2535.390354
440.080670	2535.506300
440.456580	2535.511341
440.832429	2536.534696
441.208218	2535.836496
441.583947	2536.680889
441.959616	2535.458409
442.335224	2534.878677
442.710773	2537.379089
443.086261	2537.522762
443.461689	2535.576876
443.837057	2537.981507
444.212365	2534.341794
444.587612	2534.210724
444.962800	2532.600075
445.337927	2532.526978
445.712995	2529.953469
446.088002	2534.795498
446.462949	2536.567463
446.837837	2538.069727
447.212664	2535.042514
447.587431	2536.091074
447.962139	2538.553678
448.336786	2540.633154
448.711374	2537.457227
449.085901	2537.616023
449.460369	2533.817514
449.834776	2538.120138
450.209124	2535.380271
450.583412	2535.725590
450.957640	2538.722556
451.331808	2539.075437
451.705917	2535.435724
452.079965	2537.900848
452.453954	2537.787422
452.827883	2537.802546
453.201752	2539.700540
453.575562	2536.915303
453.949311	2537.553009
454.323001	2540.779347
454.696632	2539.161137
455.070202	2539.763555
455.443713	2538.215920
455.817164	2540.517207
456.190556	2538.105015
456.563888	2541.684234
456.937160	2538.462937
457.310373	2537.550488
457.683526	2540.645757
458.056619	2539.408153
458.429653	2537.048893
458.802628	2539.761034
459.175542	2539.256919
459.548398	2540.943185
459.921194	2538.520910
460.293930	2538.190715
460.666607	2541.696837
461.039224	2541.666590
461.411782	2539.062834
461.784280	2541.200283
462.156719	2539.695499
462.529099	2542.833617
462.901419	2541.984183
463.273680	2537.426980
463.645882	2536.811959
464.018024	2540.403781
464.390106	2536.355735
464.762130	2539.672814
465.134094	2536.716177
465.505999	2540.040818
465.877845	2541.084337
466.249631	2542.584080
466.621358	2540.305479
466.993026	2540.038297
467.364634	2546.483413
467.736184	2543.456200
468.107674	2541.240613
468.479105	2540.441590
468.850477	2541.217927
469.221790	2542.153062
469.593043	2542.253885
469.964238	2541.817825
470.335373	2540.363452
470.706449	2543.146169
471.077467	2542.024512
471.448425	2540.509645
471.819324	2540.769265
472.190164	2544.131714
472.560945	2541.485109
472.931667	2541.071734
473.302330	2540.789429
473.672934	2545.102137
474.043479	2540.106353
474.413965	2541.346477
474.784393	2543.189019
475.154761	2541.197763
475.525070	2541.661549
475.895321	2540.766744
476.265513	2542.362269
476.635645	2543.995603
477.005719	2542.127856
477.375734	2541.119625
477.745691	2545.074410
478.115588	2543.216745
478.485427	2542.359749
478.855207	2543.831766
479.224928	2545.434853
479.594591	2540.403781
479.964194	2543.360418
480.333739	2540.716333
480.703226	2543.310006
481.072653	2545.591128
481.442022	2542.410160
481.811333	2540.839841
482.180584	2541.666590
482.549777	2541.096940
482.918912	2538.546116
483.287988	2544.383772
483.657005	2542.115253
484.025964	2544.348484
484.394864	2543.650284
484.763706	2542.863864
485.132489	2543.499050
485.501213	2543.405788
485.869879	2541.134748
486.238487	2544.945861
486.607036	2541.880839
486.975527	2545.512991
487.343959	2546.478372
487.712333	2542.072403
488.080648	2543.365459
488.448905	2545.702034
488.817104	2545.684390
489.185244	2546.763197
489.553326	2544.068700
489.921350	2545.702034
490.289315	2544.484595
490.657222	2542.705068
491.025070	2546.009544
491.392861	2544.587939
491.760593	2545.208001
492.128267	2545.994421
492.495883	2545.150027
492.863440	2542.372352
493.230939	2543.264636
493.598380	2544.257743
493.965763	2544.305634
494.333088	2546.322096
494.700354	2542.750438
495.067563	2545.699513
495.434713	2542.657177
495.801805	2544.996272
496.168839	2546.594318
496.535815	2546.170861
496.902733	2544.837476
497.269593	2547.138763
497.636395	2544.643392
498.003139	2545.346633
498.369825	2545.802857
498.736453	2545.583567
499.103023	2546.553989
499.469535	2545.598690
499.835989	2545.472661
500.202385	2543.332692
500.568723	2541.258257
500.935003	2543.113401
501.301226	2542.765562
501.667390	2544.073741
502.033497	2544.671118
502.399546	2548.179761
502.765537	2545.621375
503.131470	2544.333361
503.497345	2545.480223
503.863163	2543.098278
504.228923	2544.519883
504.594625	2546.145655
504.960269	2545.664225
505.325856	2545.823022
505.691385	2544.189688
506.056856	2546.362425
506.422270	2545.989380
506.787625	2547.574822
507.152924	2547.458876
507.518164	2548.330996
507.883347	2546.337219
508.248472	2547.431150
508.613540	2545.712116
508.978550	2545.883515
509.343503	2548.552806
509.708398	2549.601366
510.073236	2545.707075
510.438016	2545.923845
510.802738	2547.511808
511.167403	2544.587939
511.532010	2545.946530
511.896561	2549.324103
512.261053	2547.350491
512.625488	2544.890408
512.989866	2546.806047
513.354186	2546.803526
513.718449	2546.281767
514.082655	2548.799823
514.446803	2546.700182
514.810894	2544.368649
515.174927	2547.292518
515.538904	2547.015254
515.902822	2546.042312
516.266684	2545.951571
516.630488	2547.917621
516.994235	2546.206149
517.357925	2548.391489
517.721558	2549.102292
518.085133	2547.658002
518.448651	2545.064328
518.812112	2543.899821
519.175516	2544.910573
519.538863	2542.437887
519.902152	2548.336037
520.265385	2548.086500
520.628560	2547.529452
520.991678	2545.709596
521.354739	2550.765873
521.717743	2548.146993
522.080690	2548.275543
522.443580	2548.517518
522.806413	2547.171530
523.169189	2548.842673
523.531908	2547.902497
523.894569	2549.800492
524.257174	2546.528783
524.619722	2548.898125
524.982213	2549.424926
525.344647	2548.953578
525.707025	2548.777138
526.069345	2548.318393
526.431608	2547.032898
526.793815	2548.797302
527.155964	2547.607590
527.518057	2546.281767
527.880093	2546.669935
528.242072	2546.911911
528.603995	2548.121788
528.965860	2547.350491
529.327669	2546.168341
529.689421	2546.223793
530.051117	2549.417364
530.412755	2545.540717
530.774337	2547.176571
531.135862	2546.001982
531.497331	2548.051212
531.858743	2549.082127
532.220098	2548.726726
532.581396	2548.663712
532.942638	2548.825029
533.303824	2547.768907
533.664953	2549.639175
534.026025	2549.167827
534.387040	2544.910573
534.747999	2548.409133
535.108902	2548.409133
535.469748	2549.840821
535.830537	2548.363763
536.191270	2549.518187
536.551947	2547.350491
536.912567	2543.055428
537.273131	2546.632127
537.633638	2543.279759
537.994089	2549.477858
538.354483	2549.424926
538.714821	2551.302756
539.075103	2547.267312
539.435328	2548.308310
539.795497	2551.055739
540.155609	2548.643547
540.515665	2549.601366
540.875665	2552.109340
541.235609	2548.066335
541.595496	2550.140770
541.955328	2547.995759
542.315102	2549.089689
542.674821	2551.156562
543.034483	2549.878630
543.394090	2548.550286
543.753640	2551.101110
544.113134	2548.394010
544.472571	2549.795451
544.831953	2550.602035
545.191278	2550.871737
545.550548	2548.018444
545.909761	2548.827549
546.268918	2549.553475
546.628019	2547.136242
546.987064	2550.483568
547.346053	2547.035419
547.704986	2548.101623
548.063863	2549.392158
548.422684	2547.121119
548.781449	2550.959957
549.140158	2550.226469
549.498811	2550.622200
549.857408	2550.985163
550.215949	2548.489792
550.574434	2552.242931
550.932864	2547.574822
551.291237	2552.583209
551.649555	2549.371994
552.007817	2548.119267
552.366022	2550.551624
552.724173	2547.970553
553.082267	2549.319062
553.440305	2547.458876
553.798288	2550.491130
554.156215	2548.330996
554.514086	2548.479710
554.871902	2545.467620
555.229661	2547.272353
555.587365	2543.980480
555.945014	2550.428116
556.302606	2552.003476
556.660143	2549.235883
557.017625	2549.530790
557.375050	2548.789741
557.732421	2550.596994
558.089735	2549.445091
558.446994	2550.831408
558.804197	2547.574823
559.161345	2551.136398
559.518437	2551.017931
559.875474	2550.496171
560.232455	2549.578681
560.589381	2551.675801
560.946251	2549.901315
561.303065	2552.767211
561.659825	2548.802343
562.016528	2550.692776
562.373177	2549.314021
562.729770	2548.668753
563.086307	2550.818805
563.442789	2552.726882
563.799216	2552.230328
564.155587	2550.755791
564.511904	2553.306614
564.868164	2550.526418
565.224370	2550.927190
565.580520	2550.037426
565.936615	2551.958106
566.292654	2550.662529
566.648638	2552.263096
567.004567	2551.083466
567.360441	2550.612118
567.716260	2550.670091
568.072023	2553.530946
568.427732	2550.614638
568.783385	2551.554813
569.138982	2550.176058
569.494525	2549.321582
569.850013	2549.029195
570.205445	2550.223949
570.560823	2551.123795
570.916145	2551.882488
571.271412	2551.166645
571.626625	2549.777807
571.981782	2551.199412
572.336884	2548.943496
572.691931	2546.115408
573.046923	2549.629093
573.401860	2545.074410
573.756743	2551.136398
574.111570	2550.750749
574.466342	2549.293856
574.821059	2550.004659
575.175722	2550.052550
575.530330	2551.020451
575.884882	2552.908363
576.239380	2548.497354
576.593823	2551.234700
576.948211	2550.896943
577.302544	2549.566078
577.656823	2548.333516
578.011047	2551.769062
578.365216	2548.729247
578.719330	2551.136398
579.073389	2553.223435
579.427394	2552.981460
579.781344	2552.797458
580.135239	2550.304607
580.489080	2551.890050
580.842866	2553.765359
581.196597	2551.330482
581.550273	2551.585060
581.903895	2551.648075
582.257463	2553.430123
582.610975	2554.118240
582.964434	2550.816284
583.317837	2551.038095
583.671186	2551.171686
584.024481	2550.629762
584.377721	2551.033054
584.730906	2549.064483
585.084037	2553.883827
585.437113	2550.019782
585.790135	2551.212015
586.143103	2550.168496
586.496016	2554.392983
586.848874	2551.436346
587.201679	2552.121943
587.554428	2552.726882
587.907124	2551.912735
588.259765	2552.762170
588.612352	2551.902653
588.964884	2549.208156
589.317362	2552.182437
589.669786	2552.174875
590.022155	2548.749411
590.374470	2548.643547
590.726731	2551.474155
591.078937	2546.591797
591.431090	2550.302087
591.783188	2549.175389
592.135232	2553.924156
592.487222	2551.816953
592.839157	2552.333672
593.191038	2552.830225
593.542866	2550.566747
593.894639	2551.353167
594.246358	2551.708569
594.598022	2546.944678
594.949633	2552.958775
595.301190	2552.293342
595.652692	2551.204453
596.004141	2550.874258
596.355535	2550.009700
596.706876	2553.261244
597.058162	2549.346788
597.409395	2549.553475
597.760573	2551.771583
598.111698	2551.267468
598.462768	2549.931562
598.813785	2551.368291
599.164748	2552.915925
599.515657	2549.447611
599.866511	2552.197561
600.217312	2549.586243
600.568060	2548.341078
600.918753	2551.867365
601.269392	2550.375183
601.619978	2554.087993
601.970510	2549.908877
602.320988	2551.441387
602.671412	2551.275029
603.021783	2548.167158
603.372100	2551.096068
603.722363	2549.934083
604.072572	2549.825698
604.422728	2552.895760
604.772830	2549.840821
605.122878	2553.014227
605.472872	2549.767724
605.822813	2552.472303
606.172701	2549.901315
606.522534	2548.676315
606.872314	2552.205122
607.222041	2550.506253
607.571714	2548.139432
607.921333	2546.264122
608.270899	2549.631613
608.620411	2547.020296
608.969870	2551.179247
609.319276	2556.313663
609.668627	2561.296843
610.017926	2559.386246
610.367171	2564.182904
610.716362	2566.519479
611.065500	2562.869683
611.414585	2560.906154
611.763616	2556.132181
612.112594	2558.027655
612.461518	2552.404248
612.810389	2555.272664
613.159207	2555.554969
613.507971	2556.238045
613.856682	2552.454659
614.205340	2551.824515
614.553945	2553.752757
614.902496	2551.252344
615.250994	2554.289639
615.599439	2551.436346
615.947830	2550.564227
616.296169	2552.300904
616.644454	2551.564896
616.992686	2553.402396
617.340864	2552.996583
617.688990	2553.798127
618.037063	2549.432488
618.385082	2549.437529
618.733048	2553.873744
619.080961	2551.806871
619.428821	2550.433157
619.776628	2552.777293
620.124382	2551.017931
620.472083	2550.483568
620.819731	2550.715461
621.167326	2550.745708
621.514868	2551.509443
621.862357	2553.404917
622.209793	2553.465411
622.557176	2552.505071
622.904506	2550.380225
623.251783	2552.958775
623.599007	2549.616490
623.946179	2553.437684
624.293297	2551.068342
624.640363	2550.904505
624.987376	2549.709751
625.334336	2545.455017
625.681243	2547.726057
626.028097	2545.797816
626.374899	2548.751932
626.721647	2550.662529
627.068343	2550.211346
627.414987	2550.256716
627.761577	2550.342416
628.108115	2550.370142
628.454600	2549.916438
628.801032	2551.665719
629.147412	2552.837787
629.493739	2551.935421
629.840014	2552.752087
630.186236	2553.659495
630.532405	2553.067160
630.878521	2550.957437
631.224585	2551.549772
631.570597	2550.286963
631.916556	2550.833928
632.262462	2549.929041
632.608316	2551.698486
632.954117	2550.811243
633.299866	2551.300235
633.645562	2549.583722
633.991206	2549.382076
634.336797	2550.276881
634.682336	2551.683363
635.027823	2550.186140
635.373257	2549.843342
635.718639	2548.043650
636.063968	2551.219577
636.409245	2550.775955
636.754470	2551.007848
637.099642	2548.537683
637.444762	2553.271326
637.789829	2548.898125
638.134845	2548.764535
638.479808	2549.301418
638.824719	2549.349309
639.169577	2549.006510
639.514383	2552.827705
639.859137	2548.522559
640.203839	2551.040616
640.548489	2551.254865
640.893086	2546.095244
641.237632	2549.051881
641.582125	2548.149514
641.926566	2548.172199
642.270955	2547.559699
642.615292	2548.401572
642.959576	2549.447611
643.303809	2544.093906
643.647990	2551.085986
643.992118	2549.860986
644.336195	2547.572302
644.680219	2551.948023
645.024192	2550.813764
645.368112	2550.014741
645.711981	2550.244113
646.055797	2548.633465
646.399562	2551.174206
646.743274	2548.857796
647.086935	2550.770914
647.430544	2550.728064
647.774101	2549.676984
648.117606	2548.121788
648.461059	2549.934082
648.804460	2551.693445
649.147810	2550.385266
649.491108	2552.421892
649.834354	2549.639175
650.177548	2550.450801
650.520690	2549.563558
650.863781	2550.468445
651.206820	2550.211346
651.549807	2551.277550
651.892742	2551.766542
652.235626	2550.254196
652.578458	2549.906356
652.921238	2549.515667
653.263967	2551.333003
653.606644	2549.182951
653.949269	2551.096068
654.291843	2551.443908
654.634365	2549.150183
654.976836	2549.591284
655.319255	2550.775955
655.661622	2551.890050
656.003938	2551.506923
656.346203	2548.751932
656.688416	2549.810574
657.030577	2546.914431
657.372687	2549.167827
657.714746	2550.667570
658.056753	2549.770245
658.398708	2552.873075
658.740612	2551.103630
659.082465	2550.838970
659.424266	2548.673794
659.766016	2546.052394
660.107715	2548.378887
660.449362	2547.146324
660.790958	2551.756460
661.132503	2549.314021
661.473996	2550.241593
661.815438	2551.237221
662.156829	2552.742005
662.498168	2550.433157
662.839456	2548.164637
663.180693	2549.132539
663.521879	2551.368291
663.863013	2551.264947
664.204097	2551.058260
664.545129	2550.460883
664.886110	2550.619679
665.227040	2551.000287
665.567918	2552.106820
665.908746	2551.489278
666.249522	2547.892415
666.590248	2550.113043
666.930922	2550.102961
667.271545	2554.277037
667.612118	2550.208825
667.952639	2552.653785
668.293109	2552.011038
668.633528	2550.256716
668.973896	2549.009031
669.314213	2548.973743
669.654480	2552.321069
669.994695	2547.763866
670.334859	2550.458362
670.674973	2549.997097
671.015035	2549.782848
671.355047	2550.501212
671.695008	2550.929710
672.034918	2550.138249
672.374777	2551.050698
672.714585	2550.201264
673.054342	2550.881819
673.394049	2550.196223
673.733705	2549.026675
674.073310	2551.698486
674.412864	2551.040616
674.752368	2551.426264
675.091820	2551.569937
675.431223	2549.780327
675.770574	2551.345606
676.109875	2550.155893
676.449125	2547.768907
676.788324	2547.816798
677.127473	2550.266799
677.466571	2545.949050
677.805619	2550.286963
678.144616	2547.713454
678.483562	2551.849721
678.822458	2550.226469
679.161303	2553.409958
679.500098	2549.102292
679.838842	2550.914587
680.177535	2551.537169
680.516179	2550.619679
680.854771	2549.717313
681.193314	2552.346275
681.531805	2550.758311
681.870247	2548.522559
682.208638	2550.032385
682.546978	2556.477500
682.885268	2551.574978
683.223508	2552.305945
683.561697	2552.525236
683.899836	2549.790410
684.237925	2551.690925
684.575963	2550.899463
684.913951	2552.210163
685.251889	2552.063970
685.589776	2551.658157
685.927614	2553.558672
686.265401	2551.489278
686.603137	2551.564896
686.940824	2552.673950
687.278460	2552.747046
687.616046	2553.261244
687.953582	2552.331151
688.291068	2555.101265
688.628504	2551.688404
688.965889	2554.158569
689.303224	2555.557490
689.640510	2554.337530
689.977745	2555.020607
690.314930	2554.481203
690.652065	2552.890719
690.989150	2554.256872
691.326185	2551.459032
691.663170	2553.979608
692.000105	2552.762170
692.336990	2552.537838
692.673825	2552.361398
693.010610	2550.392828
693.347345	2549.419885
693.684030	2547.935265
694.020665	2550.387786
694.357251	2548.668753
694.693786	2553.437684
695.030272	2551.224618
695.366707	2552.063970
695.703093	2551.453990
696.039429	2552.467262
696.375716	2552.298384
696.711952	2551.980791
697.048139	2552.152190
697.384276	2547.814277
697.720363	2554.808878
698.056400	2552.341233
698.392388	2555.096224
698.728326	2551.668239
699.064214	2554.413148
699.400053	2555.257541
699.735842	2551.297715
700.071581	2552.144628
700.407270	2550.924669
700.742910	2551.935421
701.078501	2551.605225
701.414042	2552.356357
701.749533	2552.109340
702.084974	2553.669578
702.420366	2552.890719
702.755709	2551.426264
703.091002	2549.500543
703.426246	2549.591284
703.761440	2554.647561
704.096584	2552.454659
704.431679	2548.628424
704.766725	2552.953734
705.101721	2551.227138
705.436668	2554.929866
705.771565	2550.549103
706.106413	2555.386090
706.441212	2553.399876
706.775961	2555.209650
707.110661	2554.960113
707.445311	2553.823333
707.779913	2552.742005
708.114465	2556.417006
708.448967	2553.122612
708.783421	2552.931048
709.117825	2553.835936
709.452180	2557.314332
709.786485	2555.381049
710.120742	2552.857952
710.454949	2552.603373
710.789107	2553.175544
711.123216	2549.639175
711.457275	2559.988664
711.791286	2558.758622
712.125247	2557.831050
712.459159	2559.103941
712.793023	2558.385577
713.126837	2559.817265
713.460602	2560.437327
713.794318	2555.922973
714.127985	2559.880279
714.461602	2559.905485
714.795171	2556.449774
715.128691	2556.926163
715.462162	2556.112017
715.795584	2556.948848
716.128957	2557.526060
716.462281	2555.960782
716.795556	2555.706204
717.128782	2556.233004
717.461960	2555.824671
717.795088	2557.727706
718.128167	2554.224104
718.461198	2555.086142
718.794180	2555.945658
719.127113	2557.405072
719.459997	2555.597819
719.792833	2556.285936
720.125619	2554.589588
720.458357	2554.881975
720.791046	2555.983467
721.123686	2553.089845
721.456278	2555.660833
721.788821	2551.471634
722.121315	2552.157231
722.453761	2554.851728
722.786158	2555.121430
723.118506	2556.480021
723.450805	2552.467262
723.783056	2558.859445
724.115259	2555.988508
724.447412	2556.376677
724.779518	2555.607901
725.111574	2555.890206
725.443582	2553.820812
725.775542	2556.089331
726.107453	2559.476987
726.439315	2554.060267
726.771129	2560.278530
727.102895	2553.518343
727.434612	2560.026473
727.766281	2555.703683
728.097901	2557.231153
728.429473	2558.912378
728.760996	2561.145609
729.092471	2557.049671
729.423897	2561.047306
729.755276	2560.061761
730.086606	2559.469425
730.417887	2561.049827
730.749120	2559.061092
731.080305	2563.540157
731.411442	2561.574107
731.742530	2563.625856
732.073570	2563.310784
732.404562	2560.323901
732.735506	2562.322718
733.066401	2564.639128
733.397249	2566.070816
733.728048	2561.906823
734.058798	2561.516133
734.389501	2561.334652
734.720156	2559.245094
735.050762	2559.850032
735.381320	2557.813406
735.711831	2559.056050
736.042293	2558.640155
736.372707	2559.419013
736.703073	2558.130999
737.033391	2558.244425
737.363661	2559.585372
737.693883	2562.168963
738.024056	2561.362378
738.354182	2561.231308
738.684260	2561.294323
739.014290	2560.601164
739.344272	2563.852708
739.674207	2564.802966
740.004093	2563.691391
740.333931	2562.728531
740.663722	2562.937739
740.993464	2563.298181
741.323159	2564.654252
741.652806	2563.943449
741.982405	2563.537636
742.311956	2560.691905
742.641460	2564.891186
742.970915	2563.731721
743.300323	2562.000084
743.629683	2559.597974
743.958996	2560.439847
744.288260	2558.372974
744.617477	2563.209961
744.946647	2561.324570
745.275768	2562.587379
745.604842	2560.898592
745.933869	2560.238201
746.262847	2561.445557
746.591778	2559.519837
746.920662	2561.314487
747.249498	2560.346586
747.578286	2558.204095
747.907027	2562.287430
748.235720	2558.083108
748.564365	2561.526216
748.892963	2562.123592
749.221514	2563.777091
749.550017	2562.907492
749.878473	2561.531257
750.206881	2562.809189
750.535242	2561.518654
750.863555	2566.436300
751.191821	2563.356155
751.520039	2562.073181
751.848210	2560.873386
752.176334	2562.501679
752.504411	2563.330949
752.832440	2560.545711
753.160421	2563.676268
753.488356	2563.172152
753.816243	2565.506207
754.144082	2563.681309
754.471875	2562.685681
754.799620	2561.783315
755.127318	2563.527554
755.454969	2563.426731
755.782572	2564.465208
756.110129	2562.673078
756.437638	2563.257852
756.765100	2566.022925
757.092515	2564.109807
757.419882	2565.261711
757.747203	2564.014025
758.074477	2568.059551
758.401703	2567.194993
758.728882	2567.525189
759.056014	2565.370096
759.383099	2566.201886
759.710138	2561.508572
760.037129	2563.320867
760.364073	2565.120558
760.690970	2561.967317
761.017820	2567.237843
761.344623	2570.938050
761.671379	2571.409398
761.998088	2568.349418
762.324751	2571.333781
762.651366	2575.807805
762.977935	2583.183013
763.304456	2596.403439
763.630931	2602.684716
763.957359	2597.812441
764.283740	2595.801021
764.610074	2586.719382
764.936362	2586.563106
765.262602	2579.636561
765.588796	2573.551888
765.914943	2572.720098
766.241044	2571.298492
766.567097	2569.340004
766.893104	2565.990158
767.219064	2567.114335
767.544978	2567.381516
767.870845	2565.942267
768.196665	2565.286917
768.522438	2564.762637
768.848165	2564.319015
769.173846	2563.857749
769.499479	2563.731721
769.825066	2564.674416
770.150607	2559.955896
770.476101	2559.408931
770.801548	2562.239539
771.126949	2562.358006
771.452303	2562.098387
771.777611	2564.112328
772.102872	2566.005281
772.428087	2562.778942
772.753256	2560.144940
773.078378	2561.294323
773.403453	2560.407080
773.728482	2562.844477
774.053465	2562.564693
774.378401	2560.996895
774.703291	2562.027811
775.028135	2559.204764
775.352932	2562.945301
775.677683	2558.867007
776.002388	2555.764177
776.327046	2555.136553
776.651658	2558.932542
776.976224	2557.203426
777.300743	2555.804506
777.625216	2561.947152
777.949643	2559.232491
778.274024	2560.525547
778.598359	2560.465053
778.922647	2559.804662
779.246889	2556.638817
779.571086	2558.254507
779.895236	2557.387428
780.219339	2559.350958
780.543397	2556.976574
780.867409	2558.917419
781.191374	2559.192162
781.515294	2558.118396
781.839167	2557.231153
782.162995	2562.128634
782.486776	2557.631924
782.810511	2557.886503
783.134201	2558.367933
783.457844	2557.871379
783.781441	2556.369115
784.104993	2557.485731
784.428498	2559.295505
784.751958	2559.020762
785.075372	2555.600339
785.398739	2558.892213
785.722061	2557.558828
786.045337	2559.633262
786.368568	2560.104610
786.691752	2558.307439
787.014891	2559.729044
787.337983	2561.581668
787.661030	2562.819272
787.984031	2561.538819
788.306987	2564.855898
788.629897	2566.680796
788.952760	2568.147771
789.275579	2566.277503
789.598351	2563.640980
789.921078	2563.376319
790.243759	2559.413972
790.566395	2562.047975
790.888984	2559.585372
791.211529	2560.507903
791.534027	2558.952707
791.856480	2561.667368
792.178888	2555.275185
792.501249	2556.157387
792.823566	2553.999773
793.145836	2553.334341
793.468062	2557.087480
793.790241	2556.774928
794.112375	2558.778787
794.434464	2557.957079
794.756507	2557.291647
795.078505	2558.017573
795.400457	2558.357851
795.722364	2561.405228
796.044226	2562.534447
796.366042	2562.549570
796.687812	2563.371278
797.009538	2563.399004
797.331218	2561.740465
797.652852	2561.440516
797.974442	2563.018397
798.295986	2560.452450
798.617484	2561.092677
798.938938	2560.785166
799.260346	2562.630228
799.581709	2560.132337
799.903026	2559.696277
800.224299	2558.924980
800.545526	2557.853735
800.866708	2557.863818
801.187845	2557.422717
801.508936	2557.284085
801.829983	2558.327604
802.150984	2559.686195
802.471940	2558.841801
802.792851	2559.398849
803.113717	2554.574465
803.434538	2554.430792
803.755314	2556.938766
804.076045	2557.999929
804.396731	2555.660833
804.717372	2559.348437
805.037967	2558.771225
805.358518	2558.272151
805.679024	2560.961607
805.999485	2559.605536
806.319901	2560.538150
806.640272	2558.912377
806.960598	2558.345248
807.280879	2557.286605
807.601115	2560.739796
807.921306	2557.258879
808.241453	2558.713252
808.561554	2557.100083
808.881611	2554.856769
809.201623	2554.332489
809.521590	2561.561504
809.841513	2559.038406
810.161390	2559.116544
810.481223	2561.828685
810.801011	2558.370453
811.120755	2558.801472
811.440453	2560.341545
811.760107	2561.092677
812.079716	2562.242060
812.399281	2556.379198
812.718801	2559.686195
813.038276	2558.322563
813.357707	2559.613098
813.677093	2558.841801
813.996434	2561.455640
814.315731	2557.110165
814.634983	2560.207954
814.954191	2556.245607
815.273354	2560.659137
815.592473	2560.245763
815.911547	2560.308777
816.230577	2560.437327
816.549562	2562.302553
816.868502	2563.454457
817.187399	2564.071998
817.506250	2565.448233
817.825058	2563.459498
818.143821	2563.071329
818.462539	2565.493604
818.781213	2569.692885
819.099843	2568.304047
819.418429	2575.550706
819.736970	2577.794019
820.055466	2577.776375
820.373919	2584.208888
820.692327	2592.405804
821.010691	2600.703543
821.329011	2617.087293
821.647286	2653.804537
821.965517	2692.180321
822.283704	2712.483568
822.601847	2753.571492
822.919945	2753.468148
823.237999	2736.378637
823.556010	2705.567105
823.873976	2689.107737
824.191897	2664.733758
824.509775	2637.622433
824.827609	2621.092490
825.145398	2614.995214
825.463144	2614.085286
825.780845	2611.990686
826.098502	2617.941768
826.416116	2632.440127
826.733685	2645.153917
827.051210	2653.476862
827.368692	2659.806031
827.686129	2653.817140
828.003522	2631.220168
828.320872	2615.133846
828.638177	2602.236054
828.955439	2593.734148
829.272656	2587.047057
829.589830	2580.624627
829.906960	2578.925758
830.224046	2574.814697
830.541088	2572.145406
830.858086	2570.358317
831.175041	2567.994016
831.491952	2567.550395
831.808819	2568.467885
832.125642	2571.545509
832.442421	2573.675397
832.759157	2574.696230
833.075849	2584.425657
833.392497	2599.400405
833.709101	2611.274842
834.025662	2610.531272
834.342179	2613.760131
834.658653	2606.647063
834.975083	2596.496700
835.291469	2593.408993
835.607811	2576.690007
835.924110	2577.133628
836.240366	2570.310426
836.556578	2567.323543
836.872746	2564.099725
837.188871	2564.124931
837.504952	2560.286092
837.820990	2561.800959
838.136984	2556.595967
838.452935	2559.527398
838.768842	2560.109652
839.084706	2558.554456
839.400526	2565.317163
839.716303	2567.366393
840.032037	2573.493915
840.347727	2576.745459
840.663373	2577.748649
840.978977	2571.485015
841.294537	2568.102401
841.610054	2561.168294
841.925527	2561.944632
842.240957	2560.089487
842.556344	2559.280382
842.871687	2559.287943
843.186987	2556.283416
843.502244	2552.346275
843.817458	2553.049516
844.132629	2550.526418
844.447756	2553.641851
844.762840	2553.833415
845.077881	2553.886347
845.392879	2552.898281
845.707833	2553.977088
846.022745	2551.254865
846.337613	2553.543549
846.652438	2552.797458
846.967221	2553.079763
847.281960	2551.025492
847.596656	2553.195709
847.911309	2550.821326
848.225919	2551.491799
848.540485	2549.054401
848.855009	2550.720502
849.169490	2551.108671
849.483928	2551.557334
849.798323	2550.617159
850.112675	2550.929710
850.426984	2549.319062
850.741251	2551.501881
851.055474	2550.249155
851.369654	2553.001625
851.683792	2552.570606
851.997887	2550.463404
852.311938	2549.540873
852.625947	2550.438198
852.939914	2552.038764
853.253837	2552.391645
853.567718	2551.877447
853.881555	2549.790410
854.195350	2551.365770
854.509103	2549.603887
854.822812	2548.938455
855.136479	2551.290153
855.450103	2548.628424
855.763685	2547.451314
856.077224	2545.702034
856.390720	2548.557848
856.704173	2546.001982
857.017584	2549.722354
857.330953	2550.712941
857.644278	2551.758980
857.957561	2552.245452
858.270802	2551.053219
858.584000	2552.805020
858.897155	2551.118754
859.210268	2552.253013
859.523339	2550.415513
859.836367	2550.992725
860.149352	2550.775955
860.462295	2549.621531
860.775195	2550.239072
861.088054	2550.786037
861.400869	2551.121274
861.713642	2549.835780
862.026373	2550.596994
862.339062	2550.488609
862.651708	2550.506253
862.964312	2552.111861
863.276873	2550.697817
863.589392	2548.547765
863.901869	2551.784186
864.214303	2550.377704
864.526696	2549.956768
864.839045	2550.896943
865.151353	2550.226469
865.463619	2550.786038
865.775842	2553.407437
866.088023	2552.300904
866.400162	2551.489278
866.712258	2551.171686
867.024313	2550.692776
867.336325	2549.792930
867.648296	2554.279557
867.960224	2553.152859
868.272110	2551.209494
868.583954	2553.939279
868.895755	2556.099414
869.207515	2553.709907
869.519233	2549.462735
869.830909	2554.355174
870.142542	2551.960626
870.454134	2552.782334
870.765684	2554.806358
871.077191	2554.813919
871.388657	2549.172868
871.700081	2550.712941
872.011463	2552.810061
872.322803	2548.003321
872.634101	2554.685370
872.945357	2552.747046
873.256571	2556.467418
873.567744	2554.622356
873.878874	2556.752243
874.189963	2557.526060
874.501010	2555.131512
874.812015	2553.818292
875.122979	2558.677964
875.433900	2555.151677
875.744780	2557.702501
876.055618	2556.984136
876.366415	2554.907181
876.677169	2556.792572
876.987882	2557.664692
877.298554	2555.378529
877.609183	2556.598488
877.919771	2556.681667
878.230317	2559.136709
878.540822	2559.948335
878.851285	2561.458160
879.161707	2563.673747
879.472087	2566.133830
879.782425	2572.165571
880.092722	2582.225193
880.402977	2593.751792
880.713191	2601.545416
881.023363	2613.712240
881.333494	2628.518109
881.643583	2631.704118
881.953631	2627.477111
882.263637	2628.608850
882.573602	2627.724127
882.883526	2621.364712
883.193408	2615.297683
883.503248	2608.834924
883.813048	2602.571290
884.122806	2596.564756
884.432522	2587.404979
884.742197	2581.640420
885.051831	2575.830490
885.361424	2574.640777
885.670975	2569.680282
885.980485	2564.354303
886.289954	2565.271793
886.599382	2565.165929
886.908768	2559.368602
887.218113	2556.331307
887.527417	2558.506565
887.836680	2554.539177
888.145901	2555.338199
888.455082	2556.084290
888.764221	2556.749722
889.073319	2554.599670
889.382376	2553.195709
889.691392	2554.808878
890.000366	2556.139743
890.309300	2554.997922
890.618193	2556.727037
890.927044	2556.989177
891.235855	2557.054712
891.544625	2552.250493
891.853353	2556.500185
892.162041	2557.019424
892.470687	2556.351471
892.779293	2556.714434
893.087858	2560.117213
893.396381	2560.883469
893.704864	2562.826833
894.013306	2569.997875
894.321707	2575.061714
894.630068	2580.188567
894.938387	2580.546489
895.246665	2581.345512
895.554903	2576.838721
895.863100	2577.206725
896.171256	2572.415108
896.479371	2568.190621
896.787446	2561.407749
897.095480	2562.884807
897.403473	2561.437996
897.711425	2555.186965
898.019336	2560.220557
898.327207	2554.937428
898.635038	2555.663354
898.942827	2556.626214
899.250576	2555.055895
899.558284	2552.202602
899.865952	2553.609084
900.173579	2552.835267
900.481165	2553.972047
900.788711	2550.602035
901.096216	2549.888712
901.403681	2552.411810
901.711105	2552.318548
902.018489	2553.629248
902.325832	2549.676984
902.633135	2548.865358
902.940397	2550.322251
903.247619	2547.181613
903.554800	2558.461194
903.861941	2565.637277
904.169041	2575.825449
904.476101	2579.749987
904.783121	2581.259813
905.090100	2575.154975
905.397039	2574.605489
905.703938	2568.593913
906.010796	2562.970506
906.317614	2561.397666
906.624391	2558.912377
906.931129	2555.428940
907.237826	2553.929197
907.544483	2550.594474
907.851099	2550.196222
908.157675	2546.601880
908.464211	2548.734288
908.770707	2547.990718
909.077163	2547.902498
909.383578	2545.369318
909.689954	2547.652960
909.996289	2545.868392
910.302584	2547.826880
910.608839	2545.288659
910.915054	2548.026006
911.221229	2544.149358
911.527363	2546.175902
911.833458	2546.700182
912.139513	2547.403423
912.445527	2547.579864
912.751502	2547.889895
913.057436	2546.871582
913.363331	2546.753114
913.669186	2547.849565
913.975000	2551.849721
914.280775	2553.994732
914.586510	2552.381563
914.892205	2558.282233
915.197859	2556.611091
915.503475	2563.237687
915.809050	2564.676937
916.114585	2567.512586
916.420081	2569.803790
916.725536	2569.342525
917.030952	2567.996537
917.336328	2566.370765
917.641665	2558.748540
917.946961	2556.033879
918.252218	2554.700493
918.557435	2553.984650
918.862612	2553.936759
919.167750	2551.043136
919.472848	2553.435164
919.777906	2551.315359
920.082925	2551.731254
920.387904	2553.399876
920.692843	2547.418547
920.997743	2547.257230
921.302603	2548.978784
921.607423	2547.567261
921.912204	2549.755122
922.216946	2547.579864
922.521647	2545.008875
922.826310	2547.358053
923.130932	2545.139945
923.435516	2545.966694
923.740059	2544.124153
924.044564	2545.001313
924.349028	2545.039122
924.653454	2545.374359
924.957840	2547.395862
925.262186	2544.129194
925.566493	2546.327137
925.870761	2544.429142
926.174989	2544.885367
926.479178	2543.151210
926.783328	2543.869574
927.087438	2543.448638
927.391509	2542.788247
927.695541	2542.740356
927.999533	2545.137425
928.303486	2545.593649
928.607400	2542.700027
928.911275	2540.350849
929.215110	2543.612476
929.518906	2542.694986
929.822663	2543.660367
930.126381	2541.482588
930.430060	2542.977290
930.733699	2543.370500
931.037299	2544.638350
931.340861	2542.727753
931.644383	2541.936292
931.947866	2543.425953
932.251309	2545.707075
932.554714	2544.010727
932.858080	2541.028884
933.161407	2537.167360
933.464694	2540.812115
933.767943	2537.071578
934.071153	2542.823535
934.374323	2541.195242
934.677455	2543.105840
934.980548	2541.903524
935.283602	2543.534338
935.586617	2543.995603
935.889593	2543.700696
936.192530	2541.785057
936.495428	2543.763710
936.798287	2541.454862
937.101108	2541.200283
937.403890	2541.157434
937.706632	2543.902342
938.009336	2542.463092
938.312002	2544.600542
938.614628	2543.345294
938.917216	2543.378062
939.219765	2545.729760
939.522275	2546.309493
939.824747	2545.328988
940.127179	2542.594162
940.429573	2542.465613
940.731929	2543.005017
941.034246	2542.702547
941.336524	2543.776313
941.638763	2541.686755
941.940964	2544.381252
942.243126	2543.178936
942.545250	2546.657333
942.847335	2543.967877
943.149381	2543.413350
943.451389	2540.456713
943.753359	2542.858823
944.055290	2542.672300
944.357182	2545.422250
944.659036	2545.442414
944.960851	2542.289173
945.262628	2541.812784
945.564367	2545.371838
945.866067	2542.420243
946.167729	2541.573329
946.469352	2542.253885
946.770937	2543.569626
947.072484	2543.506611
947.373992	2542.803370
947.675462	2542.407640
947.976893	2540.232382
948.278286	2535.944881
948.579641	2540.993596
948.880958	2538.551157
949.182236	2541.406971
949.483476	2543.287321
949.784678	2542.407640
950.085841	2539.168698
950.386967	2541.835469
950.688054	2542.016950
950.989103	2545.313865
951.290114	2539.579552
951.591087	2542.591642
951.892021	2544.109029
952.192917	2542.803370
952.493776	2543.287321
952.794596	2544.711447
953.095378	2542.024512
953.396122	2541.885880
953.696828	2540.396219
953.997496	2542.546272
954.298126	2542.059800
954.598718	2541.772454
954.899272	2542.190870
955.199788	2541.364121
955.500266	2540.260108
955.800706	2540.280273
956.101108	2543.252033
956.401472	2541.744728
956.701798	2540.005530
957.002087	2542.763041
957.302337	2540.733977
957.602550	2540.459234
957.902724	2542.412681
958.202861	2541.885880
958.502960	2540.272711
958.803022	2541.964018
959.103045	2539.995448
959.403031	2541.641384
959.702979	2539.014943
960.002889	2539.012423
960.302762	2538.513348
960.602596	2539.302289
960.902393	2540.058462
961.202153	2542.667259
961.501875	2541.797660
961.801559	2540.282793
962.101205	2541.412012
962.400814	2540.953267
962.700385	2541.112063
962.999918	2535.707946
963.299414	2538.349511
963.598873	2536.789274
963.898293	2535.259284
964.197677	2538.321785
964.497022	2539.216589
964.796331	2541.974101
965.095601	2538.523431
965.394835	2540.247505
965.694030	2537.449665
965.993189	2541.011240
966.292309	2540.933102
966.591393	2543.821683
966.890439	2538.283976
967.189447	2540.106353
967.488419	2538.742721
967.787353	2542.526107
968.086249	2541.457382
968.385108	2541.389327
968.683930	2540.524769
968.982714	2541.001158
969.281462	2540.950746
969.580172	2542.140459
969.878844	2540.935623
970.177480	2540.764224
970.476078	2539.773637
970.774639	2541.616179
971.073162	2540.023174
971.371649	2539.561908
971.670098	2539.904707
971.968510	2541.843031
972.266885	2538.848585
972.565223	2540.955788
972.863524	2540.746580
973.161788	2540.232382
973.460014	2542.168185
973.758204	2540.403781
974.056356	2538.420087
974.354471	2538.576363
974.652550	2538.972093
974.950591	2539.209028
975.248595	2543.458720
975.546563	2541.812784
975.844493	2538.462937
976.142386	2540.461754
976.440243	2540.802032
976.738062	2540.136600
977.035845	2541.142310
977.333590	2540.141641
977.631299	2540.423946
977.928971	2536.224665
978.226606	2536.302803
978.524204	2537.636188
978.821765	2534.961856
979.119290	2542.200952
979.416777	2540.708771
979.714228	2540.612989
980.011642	2541.832948
980.309020	2540.237423
980.606360	2538.929244
980.903664	2537.966383
981.200931	2540.282793
981.498162	2539.766075
981.795356	2539.846734
982.092513	2539.574511
982.389633	2541.820345
982.686717	2538.989738
982.983764	2539.861857
983.280775	2542.702547
983.577749	2540.590304
983.874686	2540.338246
984.171587	2540.454193
984.468451	2541.762372
984.765279	2539.897145
985.062070	2543.141128
985.358824	2536.106198
985.655543	2541.517876
985.952224	2539.196425
986.248869	2539.415715
986.545478	2540.600386
986.842050	2538.752803
987.138586	2541.638864
987.435086	2541.215407
987.731549	2540.726415
988.027975	2540.917979
988.324366	2538.145344
988.620719	2539.750952
988.917037	2535.602082
989.213318	2538.977135
989.509563	2539.098122
989.805772	2539.995448
990.101944	2539.151054
990.398080	2540.265149
990.694180	2538.941847
990.990244	2540.098791
991.286271	2540.466796
991.582262	2539.007382
991.878217	2543.342774
992.174136	2539.655170
992.470019	2537.820190
992.765865	2535.743234
993.061676	2535.957483
993.357450	2534.752648
993.653188	2535.488656
993.948890	2538.946888
994.244556	2539.740869
994.540186	2540.625592
994.835780	2539.748431
995.131337	2539.473688
995.426859	2538.420087
995.722345	2539.526620
996.017795	2540.194573
996.313208	2542.538710
996.608586	2537.134593
996.903928	2538.929244
997.199234	2540.439069
997.494504	2538.851106
997.789738	2537.984027
998.084936	2540.227341
998.380099	2538.042001
998.675225	2540.565098
998.970316	2538.193235
999.265371	2541.661549
999.560390	2536.106198
999.855373	2538.117618
1000.150320	2537.406815
1000.445232	2540.207176
1000.740108	2539.478729
1001.034948	2539.738349
1001.329752	2540.635674
1001.624521	2539.571991
1001.919254	2537.613502
1002.213951	2537.389171
1002.508613	2539.077958
1002.803239	2540.292876
1003.097829	2538.410005
1003.392384	2539.829090
1003.686903	2539.796322
1003.981386	2541.263298
1004.275834	2538.742721
1004.570246	2539.203987
1004.864623	2539.508976
1005.158964	2538.266332
1005.453270	2538.641898
1005.747540	2540.983514
1006.041775	2538.137782
1006.335974	2539.965201
1006.630138	2539.420756
1006.924266	2538.536034
1007.218359	2536.814480
1007.512416	2538.152906
1007.806438	2534.535878
1008.100425	2537.447144
1008.394376	2534.240971
1008.688292	2539.309851
1008.982172	2538.321785
1009.276017	2540.693648
1009.569827	2539.544264
1009.863602	2540.449152
1010.157341	2539.544264
1010.451045	2538.014274
1010.744714	2538.309182
1011.038347	2539.917310
1011.331945	2536.199459
1011.625508	2540.577701
1011.919036	2539.125849
1012.212528	2539.559388
1012.505986	2538.505787
1012.799408	2538.929244
1013.092795	2539.612320
1013.386147	2538.941847
1013.679464	2537.953780
1013.972745	2538.238606
1014.265992	2537.598379
1014.559204	2537.754655
1014.852380	2539.289686
1015.145521	2535.725590
1015.438628	2538.445293
1015.731699	2538.417567
1016.024736	2541.747249
1016.317737	2537.036290
1016.610703	2540.328164
1016.903635	2538.722556
1017.196531	2536.055786
1017.489393	2540.076106
1017.782219	2539.203987
1018.075011	2540.403781
1018.367768	2540.066024
1018.660490	2539.725746
1018.953177	2539.725746
1019.245829	2539.725746
