Dividing Wavelength (nm)	Counts (n)	Blue Motor Position (mm): 50.000000	Red Motor Position (mm): 0.000000	
326.493990	2094.145719
326.888308	2094.145719
327.282561	2094.145719
327.676750	2070.714436
328.070874	2070.301062
328.464933	2079.261713
328.858929	2086.228587
329.252859	2102.622419
329.646726	2114.378390
330.040528	2131.208282
330.434265	2152.116468
330.827938	2168.754796
331.221547	2187.891016
331.615091	2211.070242
332.008571	2228.779815
332.401986	2251.107085
332.795338	2269.895466
333.188625	2292.333642
333.581847	2311.495067
333.975006	2326.421924
334.368100	2346.775583
334.761129	2362.496421
335.154095	2377.317413
335.546996	2426.372881
335.939833	2512.276663
336.332606	2526.999353
336.725315	2537.001002
337.117960	2547.050542
337.510540	2552.041285
337.903056	2562.789025
338.295508	2570.529717
338.687896	2576.148082
339.080220	2583.309042
339.472480	2587.576378
339.864676	2593.179621
340.256807	2592.683067
340.648875	2596.189190
341.040879	2598.719849
341.432818	2598.326639
341.824694	2600.091043
342.216506	2599.723038
342.608253	2599.586927
342.999937	2599.246649
343.391557	2595.997626
343.783113	2599.566763
344.174605	2596.055599
344.566033	2594.230701
344.957397	2591.052254
345.348697	2590.986719
345.739934	2591.258941
346.131106	2587.631831
346.522215	2585.464135
346.913260	2585.111254
347.304241	2585.567478
347.695159	2578.971129
348.086012	2580.221335
348.476802	2579.737384
348.867528	2576.551375
349.258191	2577.100861
349.648789	2578.414081
350.039324	2573.950139
350.429796	2576.725295
350.820203	2571.815211
351.210548	2571.860581
351.600828	2574.010633
351.991045	2572.687330
352.381198	2572.712536
352.771288	2573.312433
353.161314	2572.352094
353.551276	2572.006775
353.941175	2568.611557
354.331010	2570.285221
354.720782	2572.841086
355.110490	2574.338308
355.500135	2575.371745
355.889717	2571.248081
356.279235	2573.624985
356.668689	2572.309244
357.058080	2576.017013
357.447408	2572.369738
357.836672	2573.594738
358.225873	2572.266394
358.615010	2576.705130
359.004084	2581.869792
359.393095	2579.760069
359.782043	2582.409196
360.170927	2581.022878
360.559748	2582.809967
360.948505	2583.999680
361.337199	2585.191912
361.725830	2586.366501
362.114398	2586.283322
362.502903	2587.314238
362.891344	2587.805751
363.279722	2586.058991
363.668037	2591.526122
364.056289	2590.467480
364.444478	2590.901019
364.832603	2591.841194
365.220665	2593.338417
365.608665	2595.559045
365.996601	2594.384457
366.384474	2595.175918
366.772284	2595.140630
367.160031	2599.692792
367.547715	2599.685230
367.935336	2599.322267
368.322893	2597.875456
368.710388	2600.156578
369.097820	2605.480036
369.485189	2601.615992
369.872495	2606.518514
370.259738	2607.080602
370.646918	2608.716457
371.034035	2610.430449
371.421090	2612.373814
371.808081	2613.997066
372.195010	2616.023609
372.581875	2623.023252
372.968678	2629.911988
373.355418	2634.751496
373.742096	2644.289359
374.128710	2652.367808
374.515262	2664.186793
374.901751	2676.875377
375.288177	2691.966072
375.674540	2707.472661
376.060841	2723.253993
376.447079	2747.643095
376.833254	2770.469440
377.219367	2790.578602
377.605417	2822.504230
377.991404	2851.231245
378.377329	2885.874054
378.763191	2917.897984
379.148991	2965.249542
379.534727	3011.343332
379.920402	3055.962585
380.306013	3100.493617
380.691563	3162.232629
381.077049	3212.054352
381.462474	3267.030655
381.847835	3334.975327
382.233134	3407.691451
382.618371	3460.870583
383.003545	3542.751524
383.388657	3617.955457
383.773706	3710.606823
384.158693	3777.223151
384.543618	3866.922922
384.928480	3944.528965
385.313280	4044.510169
385.698017	4142.593379
386.082692	4258.968415
386.467305	4322.514680
386.851856	4444.808031
387.236344	4589.496708
387.620770	4652.624557
388.005133	4768.482876
388.389435	4907.530502
388.773674	4984.188808
389.157851	5112.181183
389.541965	5246.659003
389.926018	5270.927118
390.310008	5439.790648
390.693936	5563.251027
391.077802	5674.592471
391.461606	5801.763138
391.845348	5910.074849
392.229027	6034.999683
392.612645	6243.637917
392.996200	6363.146031
393.379694	6531.765065
393.763125	6747.085349
394.146494	6836.459965
394.529801	6971.394010
394.913047	7204.857406
395.296230	7205.409412
395.679351	7254.769870
396.062410	7510.729416
396.445408	7409.046822
396.828343	7560.659524
397.211217	7695.948970
397.594028	7584.942762
397.976778	7784.615304
398.359466	7947.018596
398.742092	7931.988396
399.124656	8075.179850
399.507158	8262.854446
399.889598	8284.206253
400.271977	8488.478848
400.654294	8529.929736
401.036549	8726.249911
401.418742	8752.337882
401.800874	9053.105723
402.182944	9135.092529
402.564952	9490.440943
402.946898	9325.796858
403.328783	9378.628150
403.710606	9579.177853
404.092367	9827.641203
404.474067	10186.543630
404.855705	9993.255710
405.237282	9944.142268
405.618797	10375.105469
406.000250	10619.578746
406.381642	10973.555966
406.762972	10922.592421
407.144240	10739.147353
407.525447	10990.685807
407.906593	10935.712024
408.287677	11197.635254
408.668700	11348.171670
409.049661	11338.437202
409.430560	11494.294555
409.811399	11469.214815
410.192176	11630.133487
410.572891	11707.187523
410.953545	12185.051099
411.334138	11670.971874
411.714669	12255.108014
412.095139	11607.551638
412.475547	12083.209709
412.855894	11947.413628
413.236180	12266.894232
413.616405	11964.946761
413.996568	12234.645971
414.376670	12217.932025
414.756711	12105.720982
415.136691	12382.407231
415.516609	12556.679920
415.896466	12648.007983
416.276262	12932.210593
416.655997	13394.340728
417.035670	13441.246144
417.415283	14058.449733
417.794834	14140.726405
418.174324	13884.844997
418.553753	13800.279642
418.933121	14285.052119
419.312428	14113.660450
419.691674	14021.828271
420.070859	14489.861597
420.449983	14143.073062
420.829045	14709.963415
421.208047	14457.678871
421.586988	14918.160548
421.965867	15155.122505
422.344686	15167.236398
422.723444	15740.586989
423.102141	14428.770374
423.480777	15622.016530
423.859352	15123.978257
424.237866	16235.479583
424.616319	15953.099350
424.994712	16603.521622
425.373044	16397.575364
425.751314	17082.005260
426.129524	16220.898046
426.507673	17302.149928
426.885762	17028.722785
427.263789	17213.007205
427.641756	17396.787509
428.019662	17458.821428
428.397508	17507.410589
428.775292	17800.452863
429.153016	17779.118699
429.530679	17851.824741
429.908282	17893.530207
430.285824	17621.010471
430.663305	18339.798351
431.040726	17942.290767
431.418086	17786.619936
431.795385	18432.447197
432.172624	18861.179687
432.549802	18426.123069
432.926920	18635.169637
433.303977	18517.448612
433.680974	18766.811808
434.057910	19083.086238
434.434786	19126.137692
434.811601	19041.063180
435.188355	20101.164902
435.565050	19766.555795
435.941683	19728.192614
436.318257	20632.729369
436.694770	20421.991494
437.071222	21024.953823
437.447614	20085.839794
437.823946	20119.161821
438.200218	20297.059099
438.576429	20074.814791
438.952580	20378.088085
439.328670	20355.087821
439.704700	20769.208527
440.080670	20346.245637
440.456580	20957.445212
440.832429	21131.047427
441.208218	20123.648448
441.583947	20576.195349
441.959616	20685.379180
442.335224	20949.149993
442.710773	21096.392015
443.086261	21646.636478
443.461689	20985.337916
443.837057	21138.667131
444.212365	21799.048202
444.587612	21798.730610
444.962800	21392.625338
445.337927	21833.297802
445.712995	20531.964265
446.088002	22448.805042
446.462949	22653.475888
446.837837	22840.711904
447.212664	22873.663406
447.587431	25874.463165
447.962139	28873.687563
448.336786	31173.504798
448.711374	29442.662433
449.085901	25700.613933
449.460369	25717.365688
449.834776	25744.101447
450.209124	28327.150869
450.583412	27803.765674
450.957640	28256.085723
451.331808	26897.847643
451.705917	25516.458063
452.079965	25561.014301
452.453954	25956.974251
452.827883	25870.442845
453.201752	25654.447047
453.575562	25830.085888
453.949311	26982.140776
454.323001	27055.950830
454.696632	26832.778949
455.070202	28456.940416
455.443713	28632.357447
455.817164	29230.835669
456.190556	29782.542067
456.563888	29180.285499
456.937160	29621.774630
457.310373	27893.611638
457.683526	28348.653911
458.056619	28343.098559
458.429653	28330.714965
458.802628	28944.351938
459.175542	29102.699621
459.548398	30491.993730
459.921194	32135.430048
460.293930	32890.216808
460.666607	35009.802710
461.039224	36804.929868
461.411782	37124.896944
461.784280	35811.593188
462.156719	35246.348772
462.529099	34671.924415
462.901419	33333.563604
463.273680	32278.119908
463.645882	32417.056629
464.018024	32444.392285
464.390106	33405.296702
464.762130	36368.315534
465.134094	40782.922013
465.505999	46329.927921
465.877845	50825.621359
466.249631	51752.377000
466.621358	49875.280680
466.993026	47613.940052
467.364634	45458.937524
467.736184	43486.777645
468.107674	42207.002604
468.479105	41422.992275
468.850477	40698.477644
469.221790	39237.306764
469.593043	37436.783050
469.964238	36535.782665
470.335373	36502.856368
470.706449	38394.251921
471.077467	41244.648855
471.448425	45939.916533
471.819324	48652.730296
472.190164	46606.180631
472.560945	42952.092704
472.931667	39777.625195
473.302330	38677.937813
473.672934	37828.984820
474.043479	38380.045949
474.413965	37586.424661
474.784393	37223.426296
475.154761	38160.937239
475.525070	38205.773261
475.895321	37722.112358
476.265513	38359.871252
476.635645	39366.801403
477.005719	39205.086229
477.375734	39725.338347
477.745691	40458.236417
478.115588	41848.440454
478.485427	43989.307587
478.855207	47525.636681
479.224928	50171.382933
479.594591	51678.859333
479.964194	50562.921791
480.333739	50685.058866
480.703226	50790.514764
481.072653	51445.768982
481.442022	51915.889345
481.811333	52108.642904
482.180584	50816.927889
482.549777	50304.179529
482.918912	49759.646693
483.287988	49442.618610
483.657005	48604.534345
484.025964	47922.821631
484.394864	47909.951565
484.763706	47475.787231
485.132489	46593.996162
485.501213	46436.835670
485.869879	46576.238698
486.238487	46178.017791
486.607036	46374.461474
486.975527	45811.167984
487.343959	46044.969138
487.712333	46106.667820
488.080648	45966.001983
488.448905	46447.117104
488.817104	46251.313647
489.185244	47290.585321
489.553326	49087.149208
489.921350	51863.655430
490.289315	54648.237580
490.657222	55144.024978
491.025070	55340.476223
491.392861	54418.202168
491.760593	53155.035208
492.128267	51455.037143
492.495883	49912.711247
492.863440	48480.743771
493.230939	47114.182745
493.598380	46013.232554
493.965763	45660.150138
494.333088	44848.904976
494.700354	44363.993867
495.067563	44062.255604
495.434713	43900.779884
495.801805	43971.013240
496.168839	43582.488992
496.535815	43237.038884
496.902733	43268.203297
497.269593	42822.041017
497.636395	42752.977209
498.003139	43170.939275
498.369825	42592.192128
498.736453	42915.559462
499.103023	42429.050307
499.469535	42302.088848
499.835989	42396.620564
500.202385	42035.797457
500.568723	42066.407343
500.935003	42266.291614
501.301226	42060.007599
501.667390	42676.830580
502.033497	42920.305708
502.399546	42330.861233
502.765537	41626.455765
503.131470	42009.028930
503.497345	42374.371432
503.863163	41009.879800
504.228923	41630.332412
504.594625	42058.802763
504.960269	41311.224853
505.325856	42028.674307
505.691385	41373.536035
506.056856	41507.519822
506.422270	41957.374748
506.787625	41516.382171
507.152924	41730.376631
507.518164	41810.896461
507.883347	41001.682884
508.248472	41259.658891
508.613540	41748.736513
508.978550	42067.566809
509.343503	41803.790954
509.708398	42000.438804
510.073236	42536.837738
510.438016	42546.216805
510.802738	41981.136226
511.167403	42633.156544
511.532010	42847.433309
511.896561	43151.387159
512.261053	44022.501065
512.625488	43550.550762
512.989866	43424.363120
513.354186	43266.227165
513.718449	43251.136471
514.082655	43930.739462
514.446803	43596.027011
514.810894	44132.675482
515.174927	44042.194332
515.538904	43940.942757
515.902822	44606.465806
516.266684	44048.639447
516.630488	44485.825953
516.994235	44313.211804
517.357925	44897.252162
517.721558	45070.811527
518.085133	45376.575152
518.448651	45504.151633
518.812112	45275.686540
519.175516	45381.598662
519.538863	45700.139091
519.902152	45661.176013
520.265385	46140.241904
520.628560	46169.057140
520.991678	45947.589169
521.354739	46171.968406
521.717743	46496.956471
522.080690	46377.408028
522.443580	46933.094417
522.806413	46966.582802
523.169189	46931.408151
523.531908	47094.660877
523.894569	46953.092674
524.257174	47108.400542
524.619722	47407.903053
524.982213	47379.748209
525.344647	47296.281825
525.707025	47375.009525
526.069345	47768.625338
526.431608	47688.438224
526.793815	47985.415118
527.155964	47520.197276
527.518057	47675.409362
527.880093	47460.918348
528.242072	47994.179163
528.603995	47681.541925
528.965860	47688.589458
529.327669	47774.503323
529.689421	47688.995271
530.051117	47630.933782
530.412755	47774.594064
530.774337	47859.179584
531.135862	47664.560799
531.497331	47844.842542
531.858743	47748.488448
532.220098	48093.568032
532.581396	47783.645455
532.942638	47453.775033
533.303824	47769.522663
533.664953	47726.332577
534.026025	47454.173284
534.387040	47924.878422
534.747999	47873.551914
535.108902	48037.492757
535.469748	47544.223415
535.830537	47636.625245
536.191270	47847.695836
536.551947	47506.964247
536.912567	47799.542734
537.273131	47941.461297
537.633638	47415.064012
537.994089	47761.126621
538.354483	47327.668049
538.714821	47934.476778
539.075103	48268.385165
539.435328	48029.472282
539.795497	47895.813649
540.155609	47878.242707
540.515665	48360.441676
540.875665	47785.296433
541.235609	48125.516345
541.595496	48101.071790
541.955328	48767.098953
542.315102	48113.657030
542.674821	47888.009943
543.034483	47924.215510
543.394090	47894.916324
543.753640	47857.011888
544.113134	48863.629488
544.472571	47846.649796
544.831953	49100.694789
545.191278	48296.053538
545.550548	47993.664966
545.909761	48474.533069
546.268918	48664.589611
546.628019	48969.292072
546.987064	48497.298920
547.346053	47770.785472
547.704986	48664.977779
548.063863	48210.946258
548.422684	48384.674502
548.781449	48205.998366
549.140158	48610.112382
549.498811	48449.478535
549.857408	47849.263634
550.215949	48715.288495
550.574434	48638.017689
550.932864	48374.466166
551.291237	49092.959138
551.649555	48706.569819
552.007817	48917.774001
552.366022	48572.553265
552.724173	48723.477849
553.082267	49115.097365
553.440305	49391.178676
553.798288	48673.661167
554.156215	49009.560809
554.514086	49197.570642
554.871902	48932.544582
555.229661	48945.109657
555.587365	48754.133106
555.945014	48843.482517
556.302606	48781.867014
556.660143	49001.842803
557.017625	49062.437472
557.375050	48840.604018
557.732421	49167.858081
558.089735	49154.977933
558.446994	49053.759126
558.804197	49508.965236
559.161345	49441.340678
559.518437	48663.394857
559.875474	48986.381584
560.232455	49141.402106
560.589381	49310.978960
560.946251	49006.999903
561.303065	49655.438481
561.659825	49438.076530
562.016528	49117.307911
562.373177	48816.978650
562.729770	49306.628444
563.086307	48826.100618
563.442789	49253.930742
563.799216	49290.123706
564.155587	49082.639896
564.511904	49097.770919
564.868164	49163.149644
565.224370	49411.502088
565.580520	49119.626842
565.936615	49350.864569
566.292654	49038.302948
566.648638	49297.592176
567.004567	49241.229555
567.360441	49283.582809
567.716260	49157.362399
568.072023	49416.686915
568.427732	49381.482017
568.783385	48904.046939
569.138982	49287.225043
569.494525	49246.482437
569.850013	48993.434158
570.205445	48972.173092
570.560823	48902.020395
570.916145	48779.691756
571.271412	48800.007606
571.626625	48535.195794
571.981782	48566.445907
572.336884	48240.167307
572.691931	48567.945650
573.046923	48161.825255
573.401860	47989.755551
573.756743	47946.638562
574.111570	48055.381292
574.466342	47901.268178
574.821059	47986.854367
575.175722	47495.762803
575.530330	47518.531175
575.884882	47200.288173
576.239380	47156.147830
576.593823	47149.415369
576.948211	47049.083805
577.302544	46561.717654
577.656823	46568.840804
578.011047	46788.551933
578.365216	46517.862136
578.719330	46294.652447
579.073389	46132.007180
579.427394	46200.924794
579.781344	46163.484144
580.135239	45791.638554
580.489080	45861.672784
580.842866	45332.119737
581.196597	45766.848680
581.550273	45708.827520
581.903895	45589.412668
582.257463	45994.555079
582.610975	45346.431573
582.964434	45633.290871
583.317837	45250.165699
583.671186	45085.856851
584.024481	45287.117357
584.377721	44798.906813
584.730906	45085.761069
585.084037	45113.999093
585.437113	44826.151728
585.790135	44840.161095
586.143103	44418.420685
586.496016	44523.853897
586.848874	44547.501950
587.201679	44557.589298
587.554428	44031.234864
587.907124	44212.855034
588.259765	43956.585457
588.612352	44189.517012
588.964884	43562.886466
589.317362	43864.559194
589.669786	43782.736226
590.022155	43552.335331
590.374470	43939.405205
590.726731	43459.121875
591.078937	42969.940909
591.431090	43065.238881
591.783188	42703.677245
592.135232	42359.011036
592.487222	42630.346101
592.839157	42698.512583
593.191038	42360.470450
593.542866	42099.618465
593.894639	41494.286793
594.246358	41776.203240
594.598022	41751.481422
594.949633	41334.772083
595.301190	41290.954374
595.652692	41115.111366
596.004141	41442.899792
596.355535	40452.451693
596.706876	40385.986600
597.058162	40219.641126
597.409395	40673.380260
597.760573	40755.172981
598.111698	40329.477786
598.462768	40341.453047
598.813785	40369.065967
599.164748	39817.951905
599.515657	40204.994053
599.866511	39686.002224
600.217312	40301.229680
600.568060	39280.375862
600.918753	40023.820025
601.269392	39962.295263
601.619978	39594.875806
601.970510	39811.355555
602.320988	39985.277883
602.671412	40292.911776
603.021783	40047.059744
603.372100	39685.858551
603.722363	39784.524014
604.072572	39868.229853
604.422728	39896.757743
604.772830	39688.653871
605.122878	39782.678952
605.472872	39728.877237
605.822813	39990.959264
606.172701	39808.618209
606.522534	40065.769987
606.872314	40313.951032
607.222041	40072.187376
607.571714	40462.455863
607.921333	39897.130788
608.270899	40188.632988
608.620411	40545.970138
608.969870	40319.760962
609.319276	40337.178148
609.668627	40394.453218
610.017926	40852.789884
610.367171	41016.342559
610.716362	41106.122988
611.065500	41035.128419
611.414585	41229.658984
611.763616	41527.881043
612.112594	41464.158338
612.461518	41686.150588
612.810389	41993.035870
613.159207	41847.233098
613.507971	41920.715477
613.856682	42396.166861
614.205340	42279.514561
614.553945	42981.457425
614.902496	42430.834876
615.250994	42914.513423
615.599439	42971.428049
615.947830	43173.122094
616.296169	43250.476079
616.644454	43354.154970
616.992686	43533.410839
617.340864	44045.337492
617.688990	43777.669866
618.037063	44391.291715
618.385082	44328.302498
618.733048	44634.093849
619.080961	44631.023787
619.428821	44661.880689
619.776628	44751.303197
620.124382	44610.304644
620.472083	44712.541765
620.819731	44853.557961
621.167326	44498.723745
621.514868	44485.924255
621.862357	44030.075398
622.209793	44070.031584
622.557176	43736.738218
622.904506	43452.124754
623.251783	43110.286632
623.599007	42883.606108
623.946179	42660.023373
624.293297	42597.439969
624.640363	42027.592979
624.987376	42001.878054
625.334336	41766.209152
625.681243	41414.815524
626.028097	41370.828936
626.374899	41244.404359
626.721647	41234.027144
627.068343	41119.562705
627.414987	40871.071629
627.761577	40653.497949
628.108115	40999.227842
628.454600	40437.156832
628.801032	40632.158745
629.147412	40598.990473
629.493739	40594.556778
629.840014	40241.623077
630.186236	40594.829001
630.532405	40176.587151
630.878521	40394.135625
631.224585	40269.137695
631.570597	39976.566770
631.916556	40142.965176
632.262462	40084.235733
632.608316	40100.259041
632.954117	39982.989200
633.299866	39985.066155
633.645562	39901.682950
633.991206	39399.369778
634.336797	38958.896440
634.682336	38971.763985
635.027823	38716.253102
635.373257	38521.634317
635.718639	38281.083058
636.063968	38130.614698
636.409245	37557.836278
636.754470	37609.669422
637.099642	37367.754531
637.444762	36889.638897
637.789829	37036.759931
638.134845	36695.534309
638.479808	36636.971225
638.824719	36548.680457
639.169577	36163.753072
639.514383	36227.984934
639.859137	35910.798055
640.203839	36152.637328
640.548489	35789.379344
640.893086	35864.437083
641.237632	35612.575996
641.582125	35730.024798
641.926566	35656.255074
642.270955	35627.248274
642.615292	35651.816338
642.959576	35626.285414
643.303809	35620.553622
643.647990	35771.884019
643.992118	35735.776755
644.336195	35719.133386
644.680219	35809.506151
645.024192	36131.484647
645.368112	36658.471746
645.711981	36647.804665
646.055797	37530.457771
646.399562	37471.793864
646.743274	38440.098695
647.086935	38854.857107
647.430544	38748.571940
647.774101	38841.918985
648.117606	39093.160011
648.461059	39374.151406
648.804460	38978.415787
649.147810	38347.553192
649.491108	38078.262316
649.834354	37715.727737
650.177548	36883.692856
650.520690	36432.151665
650.863781	36456.318957
651.206820	36311.468962
651.549807	35867.292897
651.892742	35383.914299
652.235626	35192.138724
652.578458	35057.285338
652.921238	34443.844971
653.263967	34776.641783
653.606644	34456.087413
653.949269	34403.069598
654.291843	34005.478835
654.634365	34402.777211
654.976836	34005.118393
655.319255	34009.105945
655.661622	34002.222250
656.003938	33784.812408
656.346203	33653.152593
656.688416	33874.058475
657.030577	33672.976930
657.372687	33499.445292
657.714746	33779.425935
658.056753	33887.551123
658.398708	33349.014740
658.740612	33395.549631
659.082465	33673.579348
659.424266	33501.628111
659.766016	33621.998262
660.107715	33495.271216
660.449362	33620.317037
660.790958	33590.917028
661.132503	33606.751292
661.473996	33641.169770
661.815438	33771.458391
662.156829	33962.646672
662.498168	33717.835638
662.839456	33738.292640
663.180693	33896.733585
663.521879	34065.438319
663.863013	34024.993142
664.204097	34019.992317
664.545129	34454.282680
664.886110	34430.725368
665.227040	34509.077502
665.567918	34628.257940
665.908746	34683.488822
666.249522	34843.081670
666.590248	34832.129763
666.930922	34947.393226
667.271545	34914.174542
667.612118	34970.118747
667.952639	34749.530458
668.293109	34818.722815
668.633528	34699.058425
668.973896	34643.467101
669.314213	34671.697563
669.654480	34397.567178
669.994695	34421.910910
670.334859	34314.362934
670.674973	34196.798185
671.015035	34358.765417
671.355047	34306.796162
671.695008	34249.833644
672.034918	34174.370092
672.374777	34258.421250
672.714585	34090.628965
673.054342	34321.954912
673.394049	34061.836415
673.733705	34343.372254
674.073310	34001.970192
674.412864	34069.645162
674.752368	33675.106818
675.091820	33971.612364
675.431223	33552.672314
675.770574	33261.591050
676.109875	33108.793677
676.449125	32835.396781
676.788324	32750.506270
677.127473	32212.962995
677.466571	32139.641933
677.805619	31796.178039
678.144616	31807.134987
678.483562	31709.941540
678.822458	31386.722920
679.161303	31315.877065
679.500098	31230.815155
679.838842	31125.636522
680.177535	31277.430705
680.516179	31563.173387
680.854771	31833.268328
681.193314	32707.243088
681.531805	33858.156155
681.870247	34621.923730
682.208638	35326.062017
682.546978	35519.203745
682.885268	35598.876661
683.223508	35067.803706
683.561697	34739.508644
683.899836	34537.076070
684.237925	34026.157648
684.575963	33871.535378
684.913951	33413.544030
685.251889	33560.012234
685.589776	33572.617640
685.927614	33573.638473
686.265401	33715.728436
686.603137	33803.812517
686.940824	34337.713559
687.278460	34708.818099
687.616046	34840.107389
687.953582	35441.559893
688.291068	35288.122293
688.628504	35567.613945
688.965889	35479.855018
689.303224	35079.569759
689.640510	34726.482302
689.977745	33956.529231
690.314930	33145.563853
690.652065	32636.808087
690.989150	31886.860835
691.326185	30973.265126
691.663170	30269.399061
692.000105	29511.058288
692.336990	28856.905562
692.673825	28382.386792
693.010610	27878.687303
693.347345	27292.658209
693.684030	26640.582438
694.020665	26352.921597
694.357251	25678.914287
694.693786	25637.360056
695.030272	25405.787092
695.366707	24855.681261
695.703093	24576.280350
696.039429	24577.089455
696.375716	24312.338137
696.711952	24270.065542
697.048139	24111.889258
697.384276	23942.566982
697.720363	24065.477875
698.056400	23854.992058
698.392388	23633.395538
698.728326	23601.694242
699.064214	23396.426019
699.400053	23334.414785
699.735842	22967.534732
700.071581	22688.587525
700.407270	22387.411350
700.742910	22184.784692
701.078501	21931.832195
701.414042	21655.637458
701.749533	21351.076148
702.084974	20997.391315
702.420366	21196.153929
702.755709	20771.613157
703.091002	20475.173147
703.426246	20484.705969
703.761440	20372.706654
704.096584	20109.414750
704.431679	20068.407484
704.766725	19978.105295
705.101721	19919.133878
705.436668	20001.881897
705.771565	19683.651499
706.106413	20037.308606
706.441212	20029.066319
706.775961	20165.815179
707.110661	20224.738706
707.445311	20587.185065
707.779913	20427.872000
708.114465	20676.045483
708.448967	20967.976182
708.783421	21664.479642
709.117825	21933.704983
709.452180	22147.777581
709.786485	22567.367939
710.120742	23363.648436
710.454949	23375.689232
710.789107	23852.022818
711.123216	24559.634460
711.457275	24663.998947
711.791286	25197.179105
712.125247	25247.222639
712.459159	24930.802015
712.793023	25581.393166
713.126837	24463.393792
713.460602	24723.759306
713.794318	24340.326624
714.127985	23940.336272
714.461602	23036.848077
714.795171	22984.346980
715.128691	21963.815795
715.462162	21421.221283
715.795584	21003.652428
716.128957	20742.606358
716.462281	20343.049546
716.795556	20103.693040
717.128782	19606.642833
717.461960	19048.161125
717.795088	18978.434405
718.128167	18576.392304
718.461198	18115.041027
718.794180	17983.008167
719.127113	17618.313453
719.459997	17419.092095
719.792833	17060.721509
720.125619	17037.948096
720.458357	16716.309878
720.791046	16547.216975
721.123686	16385.973149
721.456278	16150.125287
721.788821	16117.027591
722.121315	15852.397261
722.453761	15926.950885
722.786158	15859.094434
723.118506	15863.291195
723.450805	15730.481997
723.783056	15879.352311
724.115259	15791.280832
724.447412	15716.694441
724.779518	15958.480782
725.111574	15983.963815
725.443582	16190.361256
725.775542	16185.292376
726.107453	16639.896068
726.439315	16528.282401
726.771129	16942.519054
727.102895	17303.747974
727.434612	17504.673243
727.766281	17616.886807
728.097901	17877.975726
728.429473	17908.464625
728.760996	17886.389412
729.092471	17980.709401
729.423897	17862.370835
729.755276	17708.018266
730.086606	17832.907811
730.417887	18370.690542
730.749120	18880.618377
731.080305	19045.320434
731.411442	19376.423419
731.742530	19435.054559
732.073570	19530.360093
732.404562	19805.876795
732.735506	19621.844432
733.066401	19319.344955
733.397249	18777.181461
733.728048	18126.741545
734.058798	17305.096483
734.389501	16626.877288
734.720156	16169.813513
735.050762	15647.295396
735.381320	15290.560665
735.711831	15066.924998
736.042293	14722.485641
736.372707	14733.729935
736.703073	14539.658114
737.033391	14725.447319
737.363661	14698.557804
737.693883	14797.525737
738.024056	14977.638602
738.354182	15152.014634
738.684260	15434.841009
739.014290	15664.558828
739.344272	15845.682444
739.674207	16117.917355
740.004093	16227.232255
740.333931	16207.644852
740.663722	16254.295690
740.993464	16226.564303
741.323159	16062.865434
741.652806	15776.558143
741.982405	15552.466251
742.311956	15209.793819
742.641460	15087.187916
742.970915	14780.577377
743.300323	14459.637359
743.629683	14245.347991
743.958996	13974.726250
744.288260	13695.259804
744.617477	13402.209969
744.946647	13329.413187
745.275768	13049.140157
745.604842	12874.789330
745.933869	12704.567209
746.262847	12652.502172
746.591778	12586.662182
746.920662	12478.751243
747.249498	12485.985299
747.578286	12611.068929
747.907027	12750.620670
748.235720	12967.034884
748.564365	12995.895490
748.892963	12890.792473
749.221514	12955.528450
749.550017	12801.599338
749.878473	12759.661979
750.206881	12538.531766
750.535242	12446.293774
750.863555	12365.272349
751.191821	12264.333326
751.520039	12280.490224
751.848210	12195.176257
752.176334	12227.716905
752.504411	12134.168213
752.832440	11973.173924
753.160421	12029.392872
753.488356	11913.537074
753.816243	11827.635812
754.144082	11683.531909
754.471875	11620.613268
754.799620	11565.306769
755.127318	11536.655371
755.454969	11497.931748
755.782572	11450.179418
756.110129	11461.514452
756.437638	11383.028728
756.765100	11375.368695
757.092515	11377.491021
757.419882	11385.009902
757.747203	11397.907694
758.074477	11468.766152
758.401703	11428.749473
758.728882	11588.982548
759.056014	11632.933848
759.383099	11751.385840
759.710138	11847.707166
760.037129	11927.485947
760.364073	11948.326077
760.690970	11932.164137
761.017820	11934.488109
761.344623	12120.438631
761.671379	12455.761061
761.998088	13122.907361
762.324751	14745.629578
762.651366	17670.242379
762.977935	21274.548912
763.304456	23366.325289
763.630931	23715.891500
763.957359	22476.942242
764.283740	20571.756613
764.610074	18686.291978
764.936362	16594.485354
765.262602	15093.335603
765.588796	13651.900840
765.914943	12643.037406
766.241044	11813.941518
766.567097	11192.770541
766.893104	10653.538479
767.219064	10303.269027
767.544978	9926.664588
767.870845	9619.567578
768.196665	9435.210061
768.522438	9240.583714
768.848165	9080.466586
769.173846	8912.197911
769.499479	8791.958830
769.825066	8637.550809
770.150607	8455.063560
770.476101	8399.807473
770.801548	8286.517622
771.126949	8143.921024
771.452303	8059.645535
771.777611	7900.476143
772.102872	7877.256588
772.428087	7760.450533
772.753256	7637.209445
773.078378	7549.047226
773.403453	7409.601349
773.728482	7306.330792
774.053465	7233.604586
774.378401	7150.181052
774.703291	7058.089253
775.028135	6962.493853
775.352932	6922.676299
775.677683	6841.954823
776.002388	6758.377533
776.327046	6757.633963
776.651658	6672.025089
776.976224	6596.405260
777.300743	6581.838846
777.625216	6518.025400
777.949643	6473.948072
778.274024	6480.446119
778.598359	6409.403658
778.922647	6410.290902
779.246889	6373.765221
779.571086	6388.097222
779.895236	6395.376648
780.219339	6394.234827
780.543397	6389.949846
780.867409	6440.943637
781.191374	6429.238078
781.515294	6400.337143
781.839167	6453.276820
782.162995	6423.944867
782.486776	6370.730447
782.810511	6338.237690
783.134201	6259.520072
783.457844	6245.172948
783.781441	6200.223500
784.104993	6151.009236
784.428498	6127.809846
784.751958	6106.019458
785.075372	6082.583134
785.398739	6047.801693
785.722061	6068.858593
786.045337	6073.433440
786.368568	6181.518299
786.691752	6209.383277
787.014891	6466.376259
787.337983	6746.684577
787.661030	7185.643048
787.984031	7609.581402
788.306987	7853.933690
788.629897	7925.739886
788.952760	7828.732962
789.275579	7641.743963
789.598351	7344.441915
789.921078	7089.677123
790.243759	6806.961654
790.566395	6608.360357
790.888984	6417.335914
791.211529	6280.803824
791.534027	6118.917250
791.856480	5989.152909
792.178888	5928.792654
792.501249	5866.804105
792.823566	5766.064207
793.145836	5758.605820
793.468062	5737.836267
793.790241	5705.948448
794.112375	5744.036886
794.434464	5843.390466
794.756507	5878.776846
795.078505	6002.942986
795.400457	6218.061623
795.722364	6452.692047
796.044226	6642.534339
796.366042	6795.982021
796.687812	6739.198464
797.009538	6762.407936
797.331218	6669.988463
797.652852	6599.805519
797.974442	6478.051571
798.295986	6403.533235
798.617484	6278.159739
798.938938	6170.803326
799.260346	6106.266475
799.581709	5970.470393
799.903026	5914.400159
800.224299	5843.803841
800.545526	5731.050873
800.866708	5666.277088
801.187845	5619.444768
801.508936	5541.717738
801.829983	5517.303430
802.150984	5413.702677
802.471940	5388.738883
802.792851	5373.068457
803.113717	5346.047872
803.434538	5323.526517
803.755314	5294.539883
804.076045	5283.915651
804.396731	5246.222943
804.717372	5262.601652
805.037967	5269.881078
805.358518	5297.546931
805.679024	5353.745714
805.999485	5358.192012
806.319901	5381.724118
806.640272	5400.288167
806.960598	5441.416420
807.280879	5434.373928
807.601115	5470.715607
807.921306	5429.647847
808.241453	5423.905972
808.561554	5434.860400
808.881611	5402.985184
809.201623	5397.581067
809.521590	5347.378737
809.841513	5332.091438
810.161390	5349.831258
810.481223	5262.954533
810.801011	5243.946863
811.120755	5224.359459
811.440453	5175.266183
811.760107	5143.708559
812.079716	5117.461792
812.399281	5064.040685
812.718801	5058.308893
813.038276	5021.992420
813.357707	4991.049818
813.677093	5013.984548
813.996434	4954.299807
814.315731	4977.332838
814.634983	4975.515503
814.954191	4978.000791
815.273354	5030.050705
815.592473	5078.304629
815.911547	5153.374972
816.230577	5204.149473
816.549562	5292.024347
816.868502	5341.399928
817.187399	5392.653339
817.506250	5474.541842
817.825058	5503.155432
818.143821	5657.518083
818.462539	5825.817004
818.781213	6055.590276
819.099843	6425.298417
819.418429	7063.838689
819.736970	7673.964498
820.055466	8370.014253
820.373919	9291.517012
820.692327	10772.101376
821.010691	13571.718767
821.329011	19935.605848
821.647286	29424.962942
821.965517	39416.451728
822.283704	44345.702041
822.601847	45448.058714
822.919945	40784.913268
823.237999	35777.923322
823.556010	30731.786295
823.873976	26183.934558
824.191897	22131.255200
824.509775	19157.344955
824.827609	16508.513517
825.145398	15031.694894
825.463144	14351.784393
825.780845	14713.827459
826.098502	16026.198602
826.416116	18472.229462
826.733685	20623.287288
827.051210	21005.111842
827.368692	19495.102263
827.686129	16971.639279
828.003522	14571.077106
828.320872	12415.182293
828.638177	10832.701086
828.955439	9621.437846
829.272656	8595.225281
829.589830	7775.823532
829.906960	7065.842548
830.224046	6545.328290
830.541088	6152.289689
830.858086	5906.954375
831.175041	5716.423966
831.491952	5661.455224
831.808819	5698.757242
832.125642	5959.710050
832.442421	6529.463778
832.759157	7674.708068
833.075849	9438.668293
833.392497	11230.836294
833.709101	12249.411511
834.025662	11917.224678
834.342179	10845.833292
834.658653	9569.604702
834.975083	8500.121393
835.291469	7637.290104
835.607811	6922.177225
835.924110	6410.122023
836.240366	5931.756852
836.556578	5496.060007
836.872746	5145.533457
837.188871	4884.174836
837.504952	4670.266075
837.820990	4508.094677
838.136984	4393.151328
838.452935	4356.088765
838.768842	4394.361205
839.084706	4699.797155
839.400526	5458.826045
839.716303	6333.640157
840.032037	6855.265990
840.347727	6658.736607
840.663373	6063.169651
840.978977	5499.377087
841.294537	5073.754988
841.610054	4759.398717
841.925527	4526.091596
842.240957	4322.335719
842.556344	4142.346362
842.871687	3988.024040
843.186987	3845.966845
843.502244	3728.195409
843.817458	3645.923778
844.132629	3577.323757
844.447756	3528.220398
844.762840	3484.042246
845.077881	3446.359621
845.392879	3414.139086
845.707833	3384.550034
846.022745	3360.299563
846.337613	3349.745908
846.652438	3326.549038
846.967221	3317.757266
847.281960	3298.033752
847.596656	3290.998821
847.911309	3279.154630
848.225919	3266.705501
848.540485	3257.207967
848.855009	3250.878798
849.169490	3239.415215
849.483928	3229.721076
849.798323	3228.153277
850.112675	3216.094837
850.426984	3217.239179
850.741251	3208.802808
851.055474	3203.557487
851.369654	3208.092005
851.683792	3203.572611
851.997887	3207.479505
852.311938	3205.941953
852.625947	3206.541850
852.939914	3201.367106
853.253837	3209.811039
853.567718	3207.366079
853.881555	3198.909543
854.195350	3206.209134
854.509103	3203.159236
854.822812	3198.554142
855.136479	3194.435519
855.450103	3197.407280
855.763685	3192.068698
856.077224	3191.612473
856.390720	3204.049000
856.704173	3215.626010
857.017584	3216.810681
857.330953	3222.794530
857.644278	3231.745099
857.957561	3235.583938
858.270802	3229.264851
858.584000	3229.763926
858.897155	3223.172617
859.210268	3213.299517
859.523339	3205.120245
859.836367	3200.071529
860.149352	3197.233360
860.462295	3189.908563
860.775195	3183.702903
861.088054	3177.658559
861.400869	3179.710309
861.713642	3176.438600
862.026373	3184.176771
862.339062	3187.914787
862.651708	3198.211344
862.964312	3215.757080
863.276873	3224.087586
863.589392	3255.335178
863.901869	3277.276801
864.214303	3299.775470
864.526696	3318.019406
864.839045	3332.409380
865.151353	3347.232893
865.463619	3345.965042
865.775842	3349.413192
866.088023	3352.034592
866.400162	3348.543593
866.712258	3344.253571
867.024313	3344.881194
867.336325	3344.031760
867.648296	3345.960001
867.960224	3338.287365
868.272110	3348.324302
868.583954	3345.339939
868.895755	3351.323789
869.207515	3350.499560
869.519233	3366.926160
869.830909	3379.198849
870.142542	3388.484654
870.454134	3392.598236
870.765684	3404.258425
871.077191	3424.002104
871.388657	3437.469546
871.700081	3455.521918
872.011463	3475.678972
872.322803	3495.609174
872.634101	3510.392357
872.945357	3531.265255
873.256571	3557.025551
873.567744	3575.329981
873.878874	3579.521700
874.189963	3593.944441
874.501010	3595.151797
874.812015	3592.240531
875.122979	3610.345835
875.433900	3604.530864
875.744780	3607.726956
876.055618	3617.161475
876.366415	3613.247019
876.677169	3620.216414
876.987882	3634.384577
877.298554	3661.483300
877.609183	3694.626366
877.919771	3742.489601
878.230317	3811.747493
878.540822	3918.882095
878.851285	4072.274324
879.161707	4294.765649
879.472087	4676.933001
879.782425	5316.852029
880.092722	6518.156470
880.402977	8457.697563
880.713191	10784.331215
881.023363	13062.423597
881.333494	14277.626499
881.643583	14651.952337
881.953631	14201.996589
882.263637	13382.814130
882.573602	12381.094011
882.883526	11463.241048
883.193408	10541.400532
883.503248	9653.358432
883.813048	8848.034105
884.122806	8100.864529
884.432522	7362.607713
884.742197	6720.405042
885.051831	6175.637793
885.361424	5698.036357
885.670975	5318.601310
885.980485	5001.837887
886.289954	4746.344649
886.599382	4532.352709
886.908768	4358.495916
887.218113	4201.297615
887.527417	4072.707863
887.836680	3949.212197
888.145901	3856.994369
888.455082	3780.106691
888.764221	3711.917523
889.073319	3653.190602
889.382376	3620.440746
889.691392	3601.150771
890.000366	3591.723813
890.309300	3591.779266
890.618193	3595.585337
890.927044	3586.869182
891.235855	3595.804627
891.544625	3609.168726
891.853353	3638.598982
892.162041	3700.017880
892.470687	3791.381232
892.779293	3916.686672
893.087858	4089.880554
893.396381	4371.628122
893.704864	4788.869302
894.013306	5358.300396
894.321707	5907.282050
894.630068	6236.993676
894.938387	6250.267034
895.246665	6062.171502
895.554903	5752.528709
895.863100	5425.360345
896.171256	5164.074821
896.479371	4928.053039
896.787446	4708.377198
897.095480	4521.247047
897.403473	4378.005181
897.711425	4235.985795
898.019336	4115.570274
898.327207	3996.367150
898.635038	3896.451481
898.942827	3789.795789
899.250576	3706.780588
899.558284	3622.852938
899.865952	3569.681368
900.173579	3505.593179
900.481165	3459.620376
900.788711	3423.876075
901.096216	3392.578071
901.403681	3362.154708
901.711105	3351.545600
902.018489	3350.280270
902.325832	3384.539952
902.633135	3451.448666
902.940397	3628.884678
903.247619	4052.386972
903.554800	4811.529288
903.861941	5753.161374
904.169041	6403.971815
904.476101	6569.359470
904.783121	6277.537156
905.090100	5885.610130
905.397039	5483.411752
905.703938	5141.326614
906.010796	4830.516794
906.317614	4584.591666
906.624391	4352.691027
906.931129	4162.722706
907.237826	3988.318948
907.544483	3820.715706
907.851099	3648.441835
908.157675	3494.921056
908.464211	3358.734285
908.770707	3256.865169
909.077163	3180.668128
909.383578	3122.644447
909.689954	3078.652818
909.996289	3050.981925
910.302584	3032.120448
910.608839	3019.373890
910.915054	3007.388547
911.221229	3002.753206
911.527363	3010.078003
911.833458	3013.445493
912.139513	3029.398225
912.445527	3045.250133
912.751502	3076.848085
913.057436	3118.591360
913.363331	3177.351049
913.669186	3265.823299
913.975000	3388.361146
914.280775	3576.217224
914.586510	3846.791074
914.892205	4223.977767
915.197859	4715.843147
915.503475	5285.730466
915.809050	5762.414412
916.114585	6030.008941
916.420081	6078.237659
916.725536	6004.329303
917.030952	5770.659219
917.336328	5568.992901
917.641665	5364.833732
917.946961	5147.186956
918.252218	4947.892500
918.557435	4726.381679
918.862612	4532.549314
919.167750	4366.002194
919.472848	4178.909851
919.777906	4014.280890
920.082925	3858.093341
920.387904	3708.915516
920.692843	3601.977520
920.997743	3504.100997
921.302603	3415.411978
921.607423	3352.644571
921.912204	3281.087913
922.216946	3237.779360
922.521647	3186.571319
922.826310	3148.283756
923.130932	3110.626337
923.435516	3074.211562
923.740059	3045.368600
924.044564	3014.794002
924.349028	2989.051350
924.653454	2965.269707
924.957840	2936.436827
925.262186	2914.890936
925.566493	2894.938049
925.870761	2870.861498
926.174989	2860.161649
926.479178	2846.560616
926.783328	2829.753409
927.087438	2817.573981
927.391509	2803.352886
927.695541	2791.370064
927.999533	2783.924279
928.303486	2773.579832
928.607400	2769.425921
928.911275	2764.198244
929.215110	2759.262955
929.518906	2752.853128
929.822663	2754.824219
930.126381	2755.083838
930.430060	2758.625249
930.733699	2761.372678
931.037299	2763.454674
931.340861	2759.401587
931.644383	2764.631784
931.947866	2765.561877
932.251309	2762.297729
932.554714	2760.515682
932.858080	2760.598861
933.161407	2755.880341
933.464694	2753.490834
933.767943	2749.349526
934.071153	2748.351377
934.374323	2742.382651
934.677455	2739.342835
934.980548	2736.262690
935.283602	2734.468040
935.586617	2731.387895
935.889593	2736.156826
936.192530	2735.655231
936.495428	2742.183526
936.798287	2750.786255
937.101108	2764.810745
937.403890	2787.652213
937.706632	2810.637354
938.009336	2845.670852
938.312002	2876.842827
938.614628	2897.458626
938.917216	2915.276584
939.219765	2924.280085
939.522275	2934.483380
939.824747	2934.445572
940.127179	2927.239242
940.429573	2923.347471
940.731929	2919.894281
941.034246	2911.546130
941.336524	2910.721902
941.638763	2904.485994
941.940964	2899.374264
942.243126	2881.291645
942.545250	2871.037938
942.847335	2855.690146
943.149381	2841.837055
943.451389	2829.120744
943.753359	2815.507108
944.055290	2808.192394
944.357182	2800.035807
944.659036	2796.010446
944.960851	2793.270579
945.262628	2785.043416
945.564367	2789.711524
945.866067	2786.815381
946.167729	2787.180865
946.469352	2783.238682
946.770937	2783.079886
947.072484	2775.629061
947.373992	2778.726850
947.675462	2772.795932
947.976893	2766.275200
948.278286	2762.413676
948.579641	2762.741351
948.880958	2757.793458
949.182236	2757.753129
949.483476	2756.883530
949.784678	2754.206677
950.085841	2756.961668
950.386967	2759.658685
950.688054	2765.546753
950.989103	2773.226951
951.290114	2779.291459
951.591087	2792.068263
951.892021	2800.371044
952.192917	2817.412664
952.493776	2824.339210
952.794596	2828.556135
953.095378	2829.952535
953.396122	2829.871876
953.696828	2826.194354
953.997496	2820.182778
954.298126	2812.807570
954.598718	2802.788277
954.899272	2790.676905
955.199788	2780.773558
955.500266	2766.068512
955.800706	2754.539394
956.101108	2738.551374
956.401472	2729.505024
956.701798	2716.254351
957.002087	2700.775488
957.302337	2690.904909
957.602550	2683.101202
957.902724	2672.373627
958.202861	2663.518840
958.502960	2658.409631
958.803022	2646.015954
959.103045	2642.257774
959.403031	2637.456075
959.702979	2630.466515
960.002889	2627.477111
960.302762	2619.925462
960.602596	2619.686008
960.902393	2616.217694
961.202153	2611.383227
961.501875	2608.313165
961.801559	2605.850561
962.101205	2602.243615
962.400814	2601.212699
962.700385	2601.832761
962.999918	2599.763368
963.299414	2597.114241
963.598873	2597.179776
963.898293	2595.700198
964.197677	2591.689960
964.497022	2591.198447
964.796331	2590.964034
965.095601	2589.282809
965.394835	2589.683581
965.694030	2586.069073
965.993189	2589.986050
966.292309	2587.107551
966.591393	2588.067891
966.890439	2586.553024
967.189447	2587.707448
967.488419	2588.715679
967.787353	2588.216605
968.086249	2586.394228
968.385108	2588.332551
968.683930	2586.444639
968.982714	2591.538725
969.281462	2590.885896
969.580172	2591.465628
969.878844	2593.754312
970.177480	2599.894438
970.476078	2603.151023
970.774639	2603.534151
971.073162	2609.454986
971.371649	2604.791919
971.670098	2605.865684
971.968510	2606.243771
972.266885	2605.071703
972.565223	2611.153855
972.863524	2612.830038
973.161788	2613.850872
973.460014	2615.980760
973.758204	2617.956892
974.056356	2619.038219
974.354471	2618.617283
974.652550	2615.852210
974.950591	2618.103085
975.248595	2614.939761
975.546563	2615.993362
975.844493	2613.961777
976.142386	2611.605038
976.440243	2610.261571
976.738062	2611.095882
977.035845	2607.562033
977.333590	2604.607917
977.631299	2599.513831
977.928971	2599.977617
978.226606	2598.051896
978.524204	2596.602564
978.821765	2598.540888
979.119290	2594.520568
979.416777	2594.407142
979.714228	2591.982347
980.011642	2597.386464
980.309020	2601.603389
980.606360	2604.098760
980.903664	2615.844648
981.200931	2628.742441
981.498162	2644.279277
981.795356	2676.769513
982.092513	2711.414843
982.389633	2754.120978
982.686717	2793.638583
982.983764	2824.336689
983.280775	2840.944771
983.577749	2840.448217
983.874686	2831.064109
984.171587	2813.904021
984.468451	2796.794345
984.765279	2780.944957
985.062070	2763.265631
985.358824	2746.743249
985.655543	2722.195351
985.952224	2703.225489
986.248869	2677.997034
986.545478	2652.219094
986.842050	2632.866104
987.138586	2615.307766
987.435086	2601.374016
987.731549	2591.473190
988.027975	2588.972778
988.324366	2578.961046
988.620719	2576.626992
988.917037	2574.865109
989.213318	2569.476115
989.509563	2570.368400
989.805772	2566.945456
990.101944	2566.065775
990.398080	2566.146433
990.694180	2561.692574
990.990244	2565.909499
991.286271	2562.816751
991.582262	2562.347924
991.878217	2564.931515
992.174136	2564.495455
992.470019	2566.804304
992.765865	2569.546692
993.061676	2569.884449
993.357450	2572.369738
993.653188	2578.124215
993.948890	2584.740729
994.244556	2586.777355
994.540186	2599.496187
994.835780	2607.819132
995.131337	2621.773045
995.426859	2636.168060
995.722345	2654.709424
996.017795	2675.413443
996.313208	2688.608663
996.608586	2699.076619
996.903928	2698.693491
997.199234	2696.346834
997.494504	2696.684592
997.789738	2688.137315
998.084936	2681.208249
998.380099	2668.847340
998.675225	2657.701349
998.970316	2645.738691
999.265371	2629.977523
999.560390	2617.462859
999.855373	2608.590428
1000.150320	2599.503748
1000.445232	2589.257603
1000.740108	2579.074472
1001.034948	2576.153124
1001.329752	2572.112639
1001.624521	2570.368400
1001.919254	2562.436144
1002.213951	2559.850032
1002.508613	2555.282747
1002.803239	2555.076059
1003.097829	2552.023641
1003.392384	2555.123950
1003.686903	2549.009031
1003.981386	2550.932231
1004.275834	2547.446273
1004.570246	2550.309648
1004.864623	2548.383928
1005.158964	2546.606921
1005.453270	2548.600697
1005.747540	2545.699513
1006.041775	2545.172713
1006.335974	2545.565923
1006.630138	2545.676828
1006.924266	2546.191026
1007.218359	2543.564585
1007.512416	2544.648433
1007.806438	2544.073741
1008.100425	2544.078782
1008.394376	2541.250695
1008.688292	2543.224307
1008.982172	2543.204142
1009.276017	2544.033412
1009.569827	2540.008051
1009.863602	2543.204142
1010.157341	2541.177598
1010.451045	2544.161961
1010.744714	2538.846065
1011.038347	2540.595345
1011.331945	2537.416897
1011.625508	2542.684903
1011.919036	2540.242464
1012.212528	2539.675334
1012.505986	2542.095088
1012.799408	2540.071065
1013.092795	2539.387989
1013.386147	2538.437731
1013.679464	2538.044521
1013.972745	2541.028884
1014.265992	2538.155427
1014.559204	2538.846065
1014.852380	2535.377751
1015.145521	2537.800025
1015.438628	2539.070396
1015.731699	2537.016126
1016.024736	2539.445962
1016.317737	2539.980324
1016.610703	2538.480581
1016.903635	2535.594520
1017.196531	2534.926568
1017.489393	2538.591486
1017.782219	2534.762730
1018.075011	2539.080478
1018.367768	2540.902855
1018.660490	2538.810777
1018.953177	2538.810777
1019.245829	2538.810777
