Dividing Wavelength (nm)	Counts (n)	Blue Motor Position (mm): 0.000000	Red Motor Position (mm): 0.000000	
326.493990	2141.220014
326.888308	2141.220014
327.282561	2141.220014
327.676750	2109.198605
328.070874	2107.779520
328.464933	2111.386465
328.858929	2118.933073
329.252859	2128.198713
329.646726	2137.978552
330.040528	2150.173103
330.434265	2169.886535
330.827938	2186.726510
331.221547	2206.777699
331.615091	2222.483414
332.008571	2244.354460
332.401986	2262.308529
332.795338	2282.755449
333.188625	2302.305044
333.581847	2320.362457
333.975006	2339.266784
334.368100	2357.629187
334.761129	2373.569315
335.154095	2390.563045
335.546996	2407.697927
335.939833	2422.798703
336.332606	2441.889553
336.725315	2449.504216
337.117960	2460.453602
337.510540	2465.290589
337.903056	2480.431694
338.295508	2485.061994
338.687896	2496.394508
339.080220	2503.096722
339.472480	2511.281035
339.864676	2514.706499
340.256807	2518.436953
340.648875	2521.012983
341.040879	2524.022552
341.432818	2527.090094
341.824694	2527.626977
342.216506	2526.464991
342.608253	2529.232584
342.999937	2529.945908
343.391557	2526.880886
343.783113	2527.889117
344.174605	2525.239990
344.566033	2523.896523
344.957397	2522.595905
345.348697	2518.580626
345.739934	2517.388393
346.131106	2517.900070
346.522215	2514.199863
346.913260	2513.088289
347.304241	2510.499657
347.695159	2511.028978
348.086012	2506.108812
348.476802	2507.104439
348.867528	2507.263236
349.258191	2505.783657
349.648789	2505.604696
350.039324	2499.386433
350.429796	2500.578666
350.820203	2499.144457
351.210548	2496.318891
351.600828	2494.408293
351.991045	2494.884683
352.381198	2496.901144
352.771288	2497.133037
353.161314	2494.589775
353.551276	2496.197903
353.941175	2493.818478
354.331010	2490.793786
354.720782	2495.414004
355.110490	2493.541215
355.500135	2494.272182
355.889717	2493.944507
356.279235	2496.601195
356.668689	2492.449805
357.058080	2496.749909
357.447408	2492.754795
357.836672	2492.303612
358.225873	2493.856287
358.615010	2494.662872
359.004084	2496.719663
359.393095	2500.117400
359.782043	2498.020280
360.170927	2498.330311
360.559748	2500.084633
360.948505	2500.848367
361.337199	2500.248470
361.725830	2501.554129
362.114398	2502.199397
362.502903	2502.804335
362.891344	2503.149654
363.279722	2502.491784
363.668037	2501.430621
364.056289	2504.450272
364.444478	2502.844664
364.832603	2503.346259
365.220665	2503.373986
365.608665	2502.027997
365.996601	2505.181239
366.384474	2506.567557
366.772284	2506.365910
367.160031	2508.309275
367.547715	2508.952022
367.935336	2505.120745
368.322893	2508.508401
368.710388	2508.586539
369.097820	2508.500839
369.485189	2507.384223
369.872495	2509.599811
370.259738	2506.741476
370.646918	2508.931858
371.034035	2508.861282
371.421090	2511.535614
371.808081	2508.916734
372.195010	2509.050325
372.581875	2510.177023
372.968678	2510.751714
373.355418	2510.701303
373.742096	2511.218021
374.128710	2509.541837
374.515262	2512.380007
374.901751	2511.772548
375.288177	2511.853206
375.674540	2510.608041
376.060841	2513.665501
376.447079	2511.437311
376.833254	2511.908659
377.219367	2510.144255
377.605417	2512.347239
377.991404	2510.398833
378.377329	2510.091323
378.763191	2505.110663
379.148991	2515.752539
379.534727	2514.025944
379.920402	2511.830521
380.306013	2514.043588
380.691563	2512.579133
381.077049	2515.492919
381.462474	2514.174658
381.847835	2515.230779
382.233134	2514.882940
382.618371	2516.639782
383.003545	2515.092148
383.388657	2517.461490
383.773706	2516.798578
384.158693	2516.803619
384.543618	2518.562982
384.928480	2518.689011
385.313280	2517.451408
385.698017	2518.129443
386.082692	2517.388393
386.467305	2516.591891
386.851856	2518.573064
387.236344	2518.028620
387.620770	2518.172293
388.005133	2520.861748
388.389435	2518.842766
388.773674	2518.293280
389.157851	2518.953672
389.541965	2519.606501
389.926018	2519.059536
390.310008	2519.462828
390.693936	2520.944927
391.077802	2518.147087
391.461606	2520.539114
391.845348	2520.045081
392.229027	2520.166069
392.612645	2519.717406
392.996200	2522.837881
393.379694	2519.750174
393.763125	2523.699918
394.146494	2521.106244
394.529801	2522.996677
394.913047	2520.952489
395.296230	2521.136491
395.679351	2520.864269
396.062410	2524.319980
396.445408	2522.084228
396.828343	2524.496420
397.211217	2520.042561
397.594028	2520.619773
397.976778	2519.742612
398.359466	2520.123219
398.742092	2520.995339
399.124656	2525.328211
399.507158	2520.561800
399.889598	2524.219157
400.271977	2524.345186
400.654294	2526.447347
401.036549	2524.640093
401.418742	2523.677233
401.800874	2526.054137
402.182944	2527.679909
402.564952	2525.514733
402.946898	2525.955834
403.328783	2525.572707
403.710606	2527.090094
404.092367	2524.932480
404.474067	2528.063037
404.855705	2524.433406
405.237282	2527.581606
405.618797	2525.650844
406.000250	2523.498272
406.381642	2527.105217
406.762972	2524.796369
407.144240	2526.336441
407.525447	2527.846267
407.906593	2528.652852
408.287677	2529.900537
408.668700	2528.713345
409.049661	2528.413397
409.430560	2528.741072
409.811399	2529.119158
410.192176	2529.892975
410.572891	2527.997502
410.953545	2528.070598
411.334138	2530.651669
411.714669	2526.873324
412.095139	2528.146216
412.475547	2529.887934
412.855894	2527.659744
413.236180	2529.827440
413.616405	2529.038500
413.996568	2527.853829
414.376670	2529.658562
414.756711	2531.659900
415.136691	2530.288706
415.516609	2530.356762
415.896466	2531.732997
416.276262	2533.477236
416.655997	2525.421472
417.035670	2526.359127
417.415283	2529.587986
417.794834	2524.468694
418.174324	2532.496731
418.553753	2531.266690
418.933121	2530.918850
419.312428	2533.421783
419.691674	2532.128727
420.070859	2532.297606
420.449983	2529.081350
420.829045	2532.022863
421.208047	2534.303985
421.586988	2531.634694
421.965867	2534.709798
422.344686	2532.290044
422.723444	2531.871628
423.102141	2531.208717
423.480777	2533.295754
423.859352	2531.675023
424.237866	2534.251053
424.616319	2535.355066
424.994712	2533.552853
425.373044	2536.653163
425.751314	2535.274407
426.129524	2532.690816
426.507673	2533.575538
426.885762	2534.520755
427.263789	2533.520086
427.641756	2534.840868
428.019662	2538.558719
428.397508	2534.246012
428.775292	2535.241640
429.153016	2534.051927
429.530679	2535.045035
429.908282	2535.229037
430.285824	2535.917154
430.663305	2535.223996
431.040726	2538.478060
431.418086	2534.543440
431.795385	2537.426980
432.172624	2536.068389
432.549802	2537.356404
432.926920	2537.220292
433.303977	2538.682227
433.680974	2535.440765
434.057910	2535.246681
434.434786	2534.974458
434.811601	2538.818338
435.188355	2534.987061
435.565050	2535.823893
435.941683	2538.180632
436.318257	2535.231557
436.694770	2532.514375
437.071222	2534.316588
437.447614	2532.080836
437.823946	2534.553522
438.200218	2539.720705
438.576429	2536.320447
438.952580	2538.858667
439.328670	2536.927906
439.704700	2538.394881
440.080670	2537.147196
440.456580	2539.037628
440.832429	2540.166847
441.208218	2537.863040
441.583947	2538.142824
441.959616	2539.042670
442.335224	2536.690971
442.710773	2538.349511
443.086261	2540.439069
443.461689	2537.537885
443.837057	2539.322454
444.212365	2538.026877
444.587612	2538.646939
444.962800	2540.708771
445.337927	2539.287166
445.712995	2538.629295
446.088002	2540.870088
446.462949	2538.674665
446.837837	2540.802032
447.212664	2543.685572
447.587431	2540.192053
447.962139	2541.147351
448.336786	2538.772968
448.711374	2540.875129
449.085901	2539.267001
449.460369	2539.627443
449.834776	2540.451672
450.209124	2540.731456
450.583412	2539.060314
450.957640	2542.697506
451.331808	2540.121477
451.705917	2543.100798
452.079965	2541.240613
452.453954	2539.120807
452.827883	2541.064172
453.201752	2541.028884
453.575562	2539.350180
453.949311	2540.471837
454.323001	2539.420756
454.696632	2540.779347
455.070202	2544.955943
455.443713	2541.596014
455.817164	2542.984852
456.190556	2536.454037
456.563888	2541.061652
456.937160	2537.623585
457.310373	2542.203473
457.683526	2543.869574
458.056619	2542.445448
458.429653	2542.271529
458.802628	2544.242620
459.175542	2540.597866
459.548398	2542.566436
459.921194	2541.439738
460.293930	2542.763041
460.666607	2543.330171
461.039224	2544.900490
461.411782	2543.035263
461.784280	2543.683052
462.156719	2544.424101
462.529099	2542.032074
462.901419	2541.490150
463.273680	2545.079451
463.645882	2543.229348
464.018024	2543.365459
464.390106	2544.590459
464.762130	2542.778165
465.134094	2543.103319
465.505999	2546.314534
465.877845	2541.734646
466.249631	2544.661036
466.621358	2545.921324
466.993026	2545.243289
467.364634	2547.312682
467.736184	2544.242620
468.107674	2545.565923
468.479105	2543.446117
468.850477	2543.577187
469.221790	2544.091385
469.593043	2543.977959
469.964238	2543.776313
470.335373	2545.891077
470.706449	2543.418391
471.077467	2546.145655
471.448425	2545.485264
471.819324	2541.515356
472.190164	2547.002652
472.560945	2543.962836
472.931667	2544.066179
473.302330	2545.147507
473.672934	2547.975594
474.043479	2542.127856
474.413965	2542.203473
474.784393	2540.872608
475.154761	2545.283618
475.525070	2543.337733
475.895321	2544.572815
476.265513	2540.807073
476.635645	2546.301931
477.005719	2547.456355
477.375734	2547.307641
477.745691	2545.633978
478.115588	2547.635316
478.485427	2547.854607
478.855207	2546.322096
479.224928	2546.473330
479.594591	2547.947868
479.964194	2547.484082
480.333739	2546.579195
480.703226	2545.278577
481.072653	2546.306972
481.442022	2546.579195
481.811333	2548.273022
482.180584	2546.959802
482.549777	2547.335368
482.918912	2546.478372
483.287988	2547.506767
483.657005	2546.438042
484.025964	2546.664894
484.394864	2546.972405
484.763706	2545.933927
485.132489	2544.739173
485.501213	2548.356201
485.869879	2545.502908
486.238487	2546.233876
486.607036	2548.174720
486.975527	2549.021634
487.343959	2545.311344
487.712333	2547.746222
488.080648	2547.937786
488.448905	2549.427447
488.817104	2547.721016
489.185244	2548.073897
489.553326	2547.552137
489.921350	2549.039278
490.289315	2545.770089
490.657222	2550.087838
491.025070	2545.288659
491.392861	2546.279246
491.760593	2545.702034
492.128267	2549.820657
492.495883	2545.787733
492.863440	2549.482899
493.230939	2546.135573
493.598380	2547.539534
493.965763	2543.854451
494.333088	2541.656508
494.700354	2543.836807
495.067563	2548.711603
495.434713	2545.394523
495.801805	2549.649257
496.168839	2549.608928
496.535815	2549.687066
496.902733	2551.479196
497.269593	2548.323434
497.636395	2549.603887
498.003139	2549.606408
498.369825	2548.121788
498.736453	2550.450801
499.103023	2550.334854
499.469535	2548.283105
499.835989	2548.202446
500.202385	2546.916952
500.568723	2549.702189
500.935003	2550.118085
501.301226	2549.795451
501.667390	2547.776469
502.033497	2548.789741
502.399546	2550.594474
502.765537	2550.922149
503.131470	2546.138094
503.497345	2549.082127
503.863163	2550.576830
504.228923	2550.153373
504.594625	2549.898794
504.960269	2548.862837
505.325856	2549.664381
505.691385	2549.535831
506.056856	2551.078424
506.422270	2552.195040
506.787625	2549.210677
507.152924	2549.465255
507.518164	2548.958619
507.883347	2546.861499
508.248472	2548.867878
508.613540	2548.477189
508.978550	2548.555327
509.343503	2550.924669
509.708398	2548.162117
510.073236	2549.308979
510.438016	2550.876778
510.802738	2548.197405
511.167403	2548.499874
511.532010	2547.849565
511.896561	2549.747560
512.261053	2553.367108
512.625488	2548.177240
512.989866	2545.293700
513.354186	2547.728578
513.718449	2543.680531
514.082655	2550.423074
514.446803	2549.528270
514.810894	2548.512477
515.174927	2552.189999
515.538904	2550.410472
515.902822	2548.963660
516.266684	2547.468958
516.630488	2550.629762
516.994235	2548.555327
517.357925	2551.580019
517.721558	2552.782334
518.085133	2550.196223
518.448651	2548.552806
518.812112	2550.909546
519.175516	2549.697148
519.538863	2550.070194
519.902152	2549.959288
520.265385	2549.238403
520.628560	2552.381563
520.991678	2550.639844
521.354739	2549.969371
521.717743	2553.646892
522.080690	2550.569268
522.443580	2551.393497
522.806413	2551.764021
523.169189	2550.115564
523.531908	2551.605225
523.894569	2549.319062
524.257174	2552.258054
524.619722	2550.448280
524.982213	2553.445246
525.344647	2548.870399
525.707025	2550.244113
526.069345	2550.034906
526.431608	2550.029864
526.793815	2550.407951
527.155964	2549.301418
527.518057	2550.138249
527.880093	2550.191181
528.242072	2548.388969
528.603995	2550.493651
528.965860	2551.373332
529.327669	2551.161603
529.689421	2550.027344
530.051117	2551.494320
530.412755	2551.305276
530.774337	2552.021120
531.135862	2553.399876
531.497331	2547.814277
531.858743	2545.707075
532.220098	2548.847714
532.581396	2545.528114
532.942638	2550.831408
533.303824	2549.916438
533.664953	2549.732436
534.026025	2550.080276
534.387040	2552.936090
534.747999	2552.318548
535.108902	2551.517005
535.469748	2547.771427
535.830537	2551.111192
536.191270	2551.176727
536.551947	2553.967006
536.912567	2552.888199
537.273131	2549.901315
537.633638	2551.678322
537.994089	2551.580019
538.354483	2552.600853
538.714821	2549.555996
539.075103	2551.872406
539.435328	2553.518343
539.795497	2551.239741
540.155609	2551.126315
540.515665	2550.644885
540.875665	2553.054557
541.235609	2554.236707
541.595496	2554.508930
541.955328	2552.744526
542.315102	2551.837118
542.674821	2551.559855
543.034483	2553.944320
543.394090	2554.289639
543.753640	2552.827705
544.113134	2550.292004
544.472571	2551.927859
544.831953	2551.819474
545.191278	2552.235369
545.550548	2549.699669
545.909761	2551.350647
546.268918	2550.937272
546.628019	2550.259237
546.987064	2553.067160
547.346053	2551.600184
547.704986	2550.964998
548.063863	2552.694114
548.422684	2550.899463
548.781449	2551.131357
549.140158	2549.750080
549.498811	2553.921635
549.857408	2554.556821
550.215949	2548.489792
550.574434	2544.436704
550.932864	2546.911911
551.291237	2546.828732
551.649555	2552.253013
552.007817	2552.005997
552.366022	2552.903322
552.724173	2551.701007
553.082267	2552.026161
553.440305	2549.593805
553.798288	2552.739485
554.156215	2551.184289
554.514086	2554.050185
554.871902	2550.569268
555.229661	2549.908877
555.587365	2552.270657
555.945014	2554.534135
556.302606	2550.773435
556.660143	2551.358208
557.017625	2553.238559
557.375050	2552.716799
557.732421	2551.048177
558.089735	2552.482386
558.446994	2551.940462
558.804197	2550.665050
559.161345	2553.397355
559.518437	2551.501881
559.875474	2552.258054
560.232455	2555.486913
560.589381	2553.089845
560.946251	2555.733930
561.303065	2552.318548
561.659825	2551.988353
562.016528	2551.201933
562.373177	2550.365101
562.729770	2554.859290
563.086307	2551.821995
563.442789	2548.812426
563.799216	2552.419371
564.155587	2552.646223
564.511904	2550.647406
564.868164	2552.048847
565.224370	2556.245607
565.580520	2551.895091
565.936615	2551.615307
566.292654	2552.285781
566.648638	2552.195040
567.004567	2554.214022
567.360441	2553.949362
567.716260	2551.529608
568.072023	2552.968857
568.427732	2548.635985
568.783385	2550.695297
569.138982	2549.056922
569.494525	2547.589946
569.850013	2545.757487
570.205445	2549.682025
570.560823	2551.194371
570.916145	2553.581357
571.271412	2552.477345
571.626625	2553.737633
571.981782	2554.511450
572.336884	2550.743188
572.691931	2552.469783
573.046923	2551.847200
573.401860	2550.695297
573.756743	2553.490617
574.111570	2550.060111
574.466342	2555.408776
574.821059	2554.476162
575.175722	2551.983312
575.530330	2555.376008
575.884882	2552.492468
576.239380	2551.479196
576.593823	2551.622869
576.948211	2553.783003
577.302544	2549.974412
577.656823	2552.439536
578.011047	2554.473642
578.365216	2554.478683
578.719330	2551.161603
579.073389	2553.281409
579.427394	2550.901984
579.781344	2553.357026
580.135239	2552.179917
580.489080	2552.202602
580.842866	2553.387273
581.196597	2552.827705
581.550273	2552.091696
581.903895	2553.412479
582.257463	2554.100596
582.610975	2553.750236
582.964434	2553.079762
583.317837	2554.803837
583.671186	2553.034392
584.024481	2551.413661
584.377721	2551.209494
584.730906	2552.880637
585.084037	2552.253013
585.437113	2551.393497
585.790135	2551.398538
586.143103	2553.795606
586.496016	2556.316183
586.848874	2547.151366
587.201679	2547.479041
587.554428	2549.571119
587.907124	2551.174206
588.259765	2546.639688
588.612352	2552.759649
588.964884	2551.854762
589.317362	2551.363250
589.669786	2554.024979
590.022155	2554.738302
590.374470	2554.387942
590.726731	2553.404917
591.078937	2553.861141
591.431090	2553.339382
591.783188	2554.027499
592.135232	2553.626728
592.487222	2555.449105
592.839157	2552.822664
593.191038	2550.775955
593.542866	2553.571275
593.894639	2550.909546
594.246358	2552.837787
594.598022	2550.594474
594.949633	2553.490617
595.301190	2553.596481
595.652692	2554.196378
596.004141	2552.454659
596.355535	2554.284598
596.706876	2552.638662
597.058162	2550.581871
597.409395	2554.332489
597.760573	2550.980122
598.111698	2550.244113
598.462768	2552.926007
598.813785	2552.033723
599.164748	2553.883827
599.515657	2551.264947
599.866511	2554.929866
600.217312	2553.684701
600.568060	2553.551110
600.918753	2555.277706
601.269392	2552.449618
601.619978	2551.426264
601.970510	2552.633620
602.320988	2553.694783
602.671412	2553.651933
603.021783	2552.888199
603.372100	2552.000956
603.722363	2553.130174
604.072572	2552.973898
604.422728	2552.749567
604.772830	2550.614638
605.122878	2547.660522
605.472872	2551.287632
605.822813	2546.488454
606.172701	2550.561706
606.522534	2552.779814
606.872314	2552.129505
607.222041	2551.718651
607.571714	2553.624207
607.921333	2554.667726
608.270899	2554.415668
608.620411	2555.451625
608.969870	2553.016748
609.319276	2555.796944
609.668627	2556.583364
610.017926	2561.400187
610.367171	2562.602502
610.716362	2557.989846
611.065500	2558.728375
611.414585	2555.635627
611.763616	2553.868703
612.112594	2554.697973
612.461518	2554.196378
612.810389	2552.976419
613.159207	2558.067984
613.507971	2555.197047
613.856682	2555.212171
614.205340	2552.805020
614.553945	2553.999773
614.902496	2551.290153
615.250994	2551.794268
615.599439	2555.877603
615.947830	2552.396686
616.296169	2553.417520
616.644454	2554.410627
616.992686	2555.910370
617.340864	2553.583878
617.688990	2554.579506
618.037063	2551.927859
618.385082	2553.329300
618.733048	2555.396173
619.080961	2554.332489
619.428821	2553.568754
619.776628	2551.879968
620.124382	2552.585729
620.472083	2551.736295
620.819731	2555.670916
621.167326	2553.377191
621.514868	2557.349620
621.862357	2552.754608
622.209793	2553.225956
622.557176	2551.932900
622.904506	2553.160421
623.251783	2545.079451
623.599007	2552.368960
623.946179	2550.264278
624.293297	2548.802343
624.640363	2552.578168
624.987376	2554.332489
625.334336	2550.292004
625.681243	2555.360885
626.028097	2552.681511
626.374899	2550.728064
626.721647	2552.013558
627.068343	2551.663198
627.414987	2551.315359
627.761577	2553.967006
628.108115	2554.839125
628.454600	2554.811399
628.801032	2552.684032
629.147412	2555.065977
629.493739	2554.743343
629.840014	2551.569937
630.186236	2552.545400
630.532405	2552.857952
630.878521	2554.771070
631.224585	2555.660833
631.570597	2552.978939
631.916556	2550.816284
632.262462	2553.372149
632.608316	2551.504402
632.954117	2552.137067
633.299866	2553.031872
633.645562	2550.851573
633.991206	2553.311656
634.336797	2550.042467
634.682336	2555.365926
635.027823	2552.293343
635.373257	2551.058260
635.718639	2553.581357
636.063968	2551.249824
636.409245	2552.041285
636.754470	2552.905843
637.099642	2552.323589
637.444762	2551.741336
637.789829	2549.543393
638.134845	2552.366439
638.479808	2551.988353
638.824719	2553.112530
639.169577	2552.608415
639.514383	2554.017417
639.859137	2551.257385
640.203839	2550.271840
640.548489	2552.734443
640.893086	2551.506922
641.237632	2548.764535
641.582125	2549.039278
641.926566	2547.416026
642.270955	2550.135729
642.615292	2551.433826
642.959576	2551.214536
643.303809	2551.227138
643.647990	2551.948023
643.992118	2553.294012
644.336195	2554.352654
644.680219	2549.442570
645.024192	2551.335523
645.368112	2550.405430
645.711981	2550.629762
646.055797	2551.227138
646.399562	2550.022303
646.743274	2550.591953
647.086935	2552.943651
647.430544	2552.139587
647.774101	2552.847869
648.117606	2553.220915
648.461059	2552.394166
648.804460	2553.712427
649.147810	2551.832077
649.491108	2551.617828
649.834354	2552.805020
650.177548	2551.549772
650.520690	2552.177396
650.863781	2548.038609
651.206820	2554.529094
651.549807	2551.890050
651.892742	2554.100596
652.235626	2550.884340
652.578458	2552.374001
652.921238	2551.453990
653.263967	2552.757129
653.606644	2551.930379
653.949269	2553.268806
654.291843	2551.643034
654.634365	2553.170503
654.976836	2553.213353
655.319255	2550.372663
655.661622	2549.583722
656.003938	2552.066491
656.346203	2552.444577
656.688416	2553.447767
657.030577	2548.893084
657.372687	2553.263765
657.714746	2553.041954
658.056753	2550.254196
658.398708	2548.855276
658.740612	2551.191850
659.082465	2547.310162
659.424266	2549.581202
659.766016	2549.805533
660.107715	2553.067160
660.449362	2550.496171
660.790958	2550.765873
661.132503	2554.226625
661.473996	2550.178578
661.815438	2551.821995
662.156829	2551.217056
662.498168	2551.161603
662.839456	2550.128167
663.180693	2551.118754
663.521879	2549.319062
663.863013	2553.465411
664.204097	2551.572458
664.545129	2552.484906
664.886110	2552.802499
665.227040	2550.881819
665.567918	2552.588250
665.908746	2550.226469
666.249522	2551.942982
666.590248	2552.008517
666.930922	2552.517674
667.271545	2553.319217
667.612118	2553.067160
667.952639	2550.634803
668.293109	2550.009700
668.633528	2552.426933
668.973896	2548.877961
669.314213	2550.327292
669.654480	2551.484237
669.994695	2550.486089
670.334859	2552.749567
670.674973	2553.568754
671.015035	2551.532128
671.355047	2550.833928
671.695008	2552.462221
672.034918	2551.025492
672.374777	2552.540359
672.714585	2550.228990
673.054342	2552.172355
673.394049	2550.168496
673.733705	2551.088507
674.073310	2550.249155
674.412864	2552.489947
674.752368	2550.304607
675.091820	2552.709238
675.431223	2550.957437
675.770574	2552.868034
676.109875	2546.407795
676.449125	2547.761345
676.788324	2546.337219
677.127473	2550.153373
677.466571	2546.725388
677.805619	2550.871737
678.144616	2554.077911
678.483562	2552.026161
678.822458	2548.313352
679.161303	2552.994063
679.500098	2549.460214
679.838842	2548.588094
680.177535	2553.233518
680.516179	2550.458362
680.854771	2549.061963
681.193314	2552.479865
681.531805	2548.633465
681.870247	2552.923487
682.208638	2550.211346
682.546978	2550.682694
682.885268	2549.760163
683.223508	2551.441387
683.561697	2549.694628
683.899836	2551.761501
684.237925	2550.977601
684.575963	2552.840308
684.913951	2550.609597
685.251889	2553.261244
685.589776	2551.915256
685.927614	2552.792417
686.265401	2551.038095
686.603137	2549.820657
686.940824	2552.447098
687.278460	2553.871224
687.616046	2552.162273
687.953582	2549.513146
688.291068	2551.937941
688.628504	2551.350647
688.965889	2549.765204
689.303224	2551.055739
689.640510	2550.556665
689.977745	2552.091696
690.314930	2550.705379
690.652065	2551.040616
690.989150	2550.647406
691.326185	2553.314176
691.663170	2552.351316
692.000105	2552.179917
692.336990	2553.004145
692.673825	2550.203784
693.010610	2551.663198
693.347345	2547.133722
693.684030	2547.053063
694.020665	2549.530790
694.357251	2546.077600
694.693786	2550.022303
695.030272	2549.722354
695.366707	2551.877447
695.703093	2551.300235
696.039429	2552.336192
696.375716	2550.773435
696.711952	2548.953578
697.048139	2550.312169
697.384276	2553.079763
697.720363	2551.093548
698.056400	2552.830225
698.392388	2551.683363
698.728326	2554.093034
699.064214	2550.470965
699.400053	2554.836605
699.735842	2551.779145
700.071581	2553.551110
700.407270	2551.637993
700.742910	2549.732436
701.078501	2551.141439
701.414042	2551.791748
701.749533	2551.769062
702.084974	2550.859134
702.420366	2548.782179
702.755709	2552.469783
703.091002	2551.093548
703.426246	2550.775955
703.761440	2550.410472
704.096584	2550.155893
704.431679	2548.320913
704.766725	2552.575647
705.101721	2551.890050
705.436668	2552.595812
705.771565	2550.823846
706.106413	2553.969526
706.441212	2549.961809
706.775961	2549.218239
707.110661	2552.104299
707.445311	2554.478683
707.779913	2547.811757
708.114465	2553.167983
708.448967	2550.975081
708.783421	2550.836449
709.117825	2549.225800
709.452180	2551.585060
709.786485	2548.716644
710.120742	2549.876109
710.454949	2551.028013
710.789107	2550.438198
711.123216	2546.541386
711.457275	2550.178578
711.791286	2547.854607
712.125247	2550.246634
712.459159	2549.760163
712.793023	2551.292673
713.126837	2551.582540
713.460602	2549.949206
713.794318	2550.473486
714.127985	2548.693959
714.461602	2550.072714
714.795171	2547.768907
715.128691	2552.820143
715.462162	2548.822508
715.795584	2550.607077
716.128957	2551.650595
716.462281	2549.956768
716.795556	2551.776624
717.128782	2551.774104
717.461960	2553.777962
717.795088	2551.758980
718.128167	2550.912066
718.461198	2551.844680
718.794180	2550.276881
719.127113	2551.078424
719.459997	2550.879299
719.792833	2547.688248
720.125619	2552.290822
720.458357	2552.522715
720.791046	2550.806202
721.123686	2549.475338
721.456278	2552.260575
721.788821	2552.661347
722.121315	2553.372149
722.453761	2550.760832
722.786158	2547.461397
723.118506	2550.027344
723.450805	2552.331151
723.783056	2551.096068
724.115259	2548.913249
724.447412	2549.162786
724.779518	2548.469627
725.111574	2551.895091
725.443582	2552.810061
725.775542	2551.945503
726.107453	2551.000287
726.439315	2550.370142
726.771129	2555.922973
727.102895	2551.300235
727.434612	2551.385935
727.766281	2550.067673
728.097901	2547.040460
728.429473	2547.111036
728.760996	2548.409133
729.092471	2545.449976
729.423897	2549.356870
729.755276	2547.847045
730.086606	2549.843342
730.417887	2549.525749
730.749120	2550.574309
731.080305	2551.675801
731.411442	2551.489278
731.742530	2549.293856
732.073570	2549.160265
732.404562	2549.329144
732.735506	2549.873589
733.066401	2548.502395
733.397249	2549.561037
733.728048	2547.693290
734.058798	2548.963660
734.389501	2548.971222
734.720156	2548.870399
735.050762	2551.496840
735.381320	2548.852755
735.711831	2549.881150
736.042293	2553.127653
736.372707	2550.760832
736.703073	2550.811243
737.033391	2550.019782
737.363661	2550.554144
737.693883	2549.515667
738.024056	2553.026830
738.354182	2549.223280
738.684260	2552.731923
739.014290	2550.007179
739.344272	2550.047508
739.674207	2547.665563
740.004093	2549.099772
740.333931	2550.160934
740.663722	2549.901315
740.993464	2550.685214
741.323159	2551.844680
741.652806	2548.474668
741.982405	2549.167827
742.311956	2547.514329
742.641460	2551.108671
742.970915	2548.255378
743.300323	2547.983156
743.629683	2547.358053
743.958996	2548.804864
744.288260	2549.818136
744.617477	2547.642878
744.946647	2546.438042
745.275768	2546.939637
745.604842	2544.351005
745.933869	2546.271684
746.262847	2543.050387
746.591778	2549.863506
746.920662	2545.626417
747.249498	2546.801005
747.578286	2547.700851
747.907027	2551.053219
748.235720	2551.073383
748.564365	2551.262427
748.892963	2548.046170
749.221514	2549.387117
749.550017	2548.015923
749.878473	2548.562889
750.206881	2549.750080
750.535242	2549.780327
750.863555	2547.753783
751.191821	2553.520863
751.520039	2551.151521
751.848210	2548.799823
752.176334	2549.646737
752.504411	2549.225800
752.832440	2548.938455
753.160421	2549.805533
753.488356	2548.633465
753.816243	2551.683363
754.144082	2548.782179
754.471875	2549.019113
754.799620	2549.220759
755.127318	2548.492313
755.454969	2549.883671
755.782572	2552.328631
756.110129	2549.913918
756.437638	2550.468445
756.765100	2548.086500
757.092515	2549.913918
757.419882	2546.478372
757.747203	2551.499361
758.074477	2549.429967
758.401703	2548.504915
758.728882	2551.181768
759.056014	2550.090358
759.383099	2549.959288
759.710138	2547.920142
760.037129	2549.223280
760.364073	2549.314021
760.690970	2548.013403
761.017820	2548.265461
761.344623	2547.466438
761.671379	2547.161448
761.998088	2543.531817
762.324751	2547.564740
762.651366	2545.482744
762.977935	2547.796633
763.304456	2543.841848
763.630931	2550.188661
763.957359	2545.875954
764.283740	2548.555327
764.610074	2548.310831
764.936362	2551.091027
765.262602	2551.322920
765.588796	2549.926521
765.914943	2548.827549
766.241044	2547.597508
766.567097	2545.321427
766.893104	2549.664381
767.219064	2547.748742
767.544978	2546.886705
767.870845	2545.880995
768.196665	2548.792261
768.522438	2549.016593
768.848165	2548.993907
769.173846	2550.833928
769.499479	2546.480892
769.825066	2548.439380
770.150607	2549.790410
770.476101	2549.157745
770.801548	2550.780996
771.126949	2548.197405
771.452303	2550.067673
771.777611	2545.568443
772.102872	2547.710934
772.428087	2548.197405
772.753256	2547.564740
773.078378	2549.649257
773.403453	2547.325285
773.728482	2545.891077
774.053465	2550.027344
774.378401	2547.990718
774.703291	2547.257230
775.028135	2548.094061
775.352932	2546.579195
775.677683	2548.562889
776.002388	2548.754452
776.327046	2549.422405
776.651658	2548.968702
776.976224	2551.035575
777.300743	2549.336706
777.625216	2548.802343
777.949643	2548.532642
778.274024	2550.526418
778.598359	2545.064328
778.922647	2544.860161
779.246889	2546.455686
779.571086	2544.184647
779.895236	2545.444935
780.219339	2549.117416
780.543397	2548.736808
780.867409	2547.925183
781.191374	2546.483413
781.515294	2545.702034
781.839167	2548.555327
782.162995	2547.292518
782.486776	2547.854607
782.810511	2544.920655
783.134201	2546.417878
783.457844	2545.384441
783.781441	2550.327293
784.104993	2548.310831
784.428498	2548.676315
784.751958	2550.299566
785.075372	2549.223280
785.398739	2545.817980
785.722061	2546.017106
786.045337	2548.381407
786.368568	2547.287477
786.691752	2548.835111
787.014891	2548.015923
787.337983	2549.795451
787.661030	2546.049873
787.984031	2549.573640
788.306987	2546.122970
788.629897	2546.281767
788.952760	2549.462735
789.275579	2550.382745
789.598351	2549.175389
789.921078	2545.550799
790.243759	2550.004659
790.566395	2545.833104
790.888984	2548.749411
791.211529	2548.925852
791.534027	2549.548434
791.856480	2546.294369
792.178888	2548.152035
792.501249	2549.613969
792.823566	2549.530790
793.145836	2548.474668
793.468062	2547.388300
793.790241	2548.469627
794.112375	2547.302600
794.434464	2548.648588
794.756507	2546.496016
795.078505	2549.407282
795.400457	2547.005172
795.722364	2542.752959
796.044226	2545.591128
796.366042	2546.911911
796.687812	2544.971067
797.009538	2548.958619
797.331218	2548.469627
797.652852	2547.310162
797.974442	2549.470296
798.295986	2547.305121
798.617484	2550.329813
798.938938	2549.724875
799.260346	2545.981818
799.581709	2550.758311
799.903026	2551.050698
800.224299	2545.928886
800.545526	2547.710934
800.866708	2548.220090
801.187845	2549.485420
801.508936	2546.846376
801.829983	2547.499205
802.150984	2548.502395
802.471940	2547.153886
802.792851	2545.568443
803.113717	2548.893084
803.434538	2546.465769
803.755314	2548.635985
804.076045	2548.197405
804.396731	2545.520552
804.717372	2547.718495
805.037967	2548.542724
805.358518	2545.545758
805.679024	2548.721685
805.999485	2547.539534
806.319901	2549.248486
806.640272	2547.390820
806.960598	2546.770758
807.280879	2549.399720
807.601115	2548.129349
807.921306	2546.974925
808.241453	2546.445604
808.561554	2548.341078
808.881611	2548.691438
809.201623	2547.905018
809.521590	2547.204298
809.841513	2545.611293
810.161390	2547.746222
810.481223	2547.715975
810.801011	2546.990049
811.120755	2549.613969
811.440453	2547.403423
811.760107	2548.671273
812.079716	2540.996117
812.399281	2545.182795
812.718801	2544.834955
813.038276	2544.839997
813.357707	2548.189843
813.677093	2549.840821
813.996434	2547.252189
814.315731	2548.217570
814.634983	2547.206818
814.954191	2547.600028
815.273354	2547.385779
815.592473	2545.696993
815.911547	2545.734801
816.230577	2548.043650
816.549562	2547.383259
816.868502	2545.213042
817.187399	2549.152704
817.506250	2544.923176
817.825058	2549.621531
818.143821	2550.322251
818.462539	2548.111705
818.781213	2546.889226
819.099843	2547.615152
819.418429	2547.600028
819.736970	2545.959133
820.055466	2545.366797
820.373919	2546.390151
820.692327	2546.438042
821.010691	2546.450645
821.329011	2548.184802
821.647286	2551.345606
821.965517	2546.584236
822.283704	2546.498536
822.601847	2547.141283
822.919945	2545.908721
823.237999	2549.530790
823.556010	2546.576674
823.873976	2547.559699
824.191897	2547.582384
824.509775	2548.378887
824.827609	2549.001469
825.145398	2546.987528
825.463144	2548.038609
825.780845	2545.127342
826.098502	2550.506253
826.416116	2544.802188
826.733685	2546.279246
827.051210	2547.410985
827.368692	2545.273536
827.686129	2545.817980
828.003522	2546.604400
828.320872	2540.267670
828.638177	2545.598690
828.955439	2544.101468
829.272656	2542.493339
829.589830	2541.341436
829.906960	2546.221273
830.224046	2547.771427
830.541088	2546.115408
830.858086	2547.731098
831.175041	2546.203629
831.491952	2547.221942
831.808819	2548.434339
832.125642	2548.237734
832.442421	2545.956612
832.759157	2547.257230
833.075849	2545.570964
833.392497	2546.271684
833.709101	2546.969884
834.025662	2546.049873
834.342179	2547.453835
834.658653	2547.705892
834.975083	2549.135060
835.291469	2551.811912
835.607811	2546.783361
835.924110	2545.402085
836.240366	2545.114739
836.556578	2545.931406
836.872746	2546.133053
837.188871	2543.458720
837.504952	2548.338557
837.820990	2547.978115
838.136984	2544.109029
838.452935	2544.771941
838.768842	2545.598690
839.084706	2544.277908
839.400526	2549.871068
839.716303	2546.359904
840.032037	2545.026519
840.347727	2545.250851
840.663373	2546.826211
840.978977	2546.750594
841.294537	2544.454348
841.610054	2545.843186
841.925527	2544.729091
842.240957	2545.911242
842.556344	2547.990718
842.871687	2546.128011
843.186987	2545.633978
843.502244	2546.669935
843.817458	2549.220759
844.132629	2545.795295
844.447756	2547.000131
844.762840	2543.993083
845.077881	2541.366642
845.392879	2544.393854
845.707833	2541.447300
846.022745	2543.047866
846.337613	2545.185316
846.652438	2545.757487
846.967221	2547.398382
847.281960	2547.600028
847.596656	2546.485933
847.911309	2544.028371
848.225919	2546.483413
848.540485	2546.493495
848.855009	2545.979297
849.169490	2546.594318
849.483928	2545.097095
849.798323	2544.469472
850.112675	2546.135573
850.426984	2545.374359
850.741251	2546.238917
851.055474	2543.725902
851.369654	2547.710934
851.683792	2547.027857
851.997887	2548.068856
852.311938	2546.080120
852.625947	2548.182282
852.939914	2545.543238
853.253837	2545.293700
853.567718	2547.153886
853.881555	2545.838145
854.195350	2547.395862
854.509103	2546.990049
854.822812	2547.438711
855.136479	2545.588608
855.450103	2547.065666
855.763685	2547.073228
856.077224	2545.137425
856.390720	2545.979297
856.704173	2545.109698
857.017584	2545.278577
857.330953	2546.654812
857.644278	2547.839483
857.957561	2549.341747
858.270802	2547.468958
858.584000	2546.385110
858.897155	2545.361756
859.210268	2545.760007
859.523339	2545.570964
859.836367	2543.811601
860.149352	2546.241437
860.462295	2546.402754
860.775195	2542.639533
861.088054	2541.517876
861.400869	2539.453524
861.713642	2541.293545
862.026373	2543.743546
862.339062	2545.586087
862.651708	2547.201777
862.964312	2544.061138
863.276873	2546.410316
863.589392	2544.751776
863.901869	2548.283105
864.214303	2545.949050
864.526696	2545.497867
864.839045	2545.288659
865.151353	2544.847558
865.463619	2544.908052
865.775842	2545.749925
866.088023	2545.248330
866.400162	2545.936448
866.712258	2547.524411
867.024313	2542.427804
867.336325	2545.550799
867.648296	2548.073897
867.960224	2545.712116
868.272110	2547.418547
868.583954	2544.890408
868.895755	2547.216901
869.207515	2544.212373
869.519233	2547.955430
869.830909	2546.019627
870.142542	2546.259081
870.454134	2544.598021
870.765684	2548.215049
871.077191	2545.281097
871.388657	2546.664894
871.700081	2545.631458
872.011463	2546.899308
872.322803	2543.156251
872.634101	2545.628937
872.945357	2546.536345
873.256571	2544.950902
873.567744	2545.742363
873.878874	2545.795295
874.189963	2547.413506
874.501010	2546.846376
874.812015	2543.385624
875.122979	2546.445604
875.433900	2543.698175
875.744780	2543.723381
876.055618	2546.150697
876.366415	2546.125491
876.677169	2544.802188
876.987882	2545.172713
877.298554	2542.828576
877.609183	2542.710109
877.919771	2542.021992
878.230317	2542.546272
878.540822	2546.450645
878.851285	2547.123639
879.161707	2546.997610
879.472087	2545.139945
879.782425	2545.505429
880.092722	2544.557692
880.402977	2545.215562
880.713191	2545.515511
881.023363	2544.938299
881.333494	2545.666746
881.643583	2544.935778
881.953631	2545.636499
882.263637	2544.751776
882.573602	2545.339071
882.883526	2545.220604
883.193408	2547.771427
883.503248	2545.727240
883.813048	2545.394523
884.122806	2543.236910
884.432522	2544.497198
884.742197	2547.022816
885.051831	2543.937630
885.361424	2547.138763
885.670975	2546.518701
885.980485	2546.231355
886.289954	2546.972405
886.599382	2546.624565
886.908768	2549.760163
887.218113	2546.574153
887.527417	2546.952240
887.836680	2547.166489
888.145901	2544.010727
888.455082	2545.238248
888.764221	2546.032229
889.073319	2548.008362
889.382376	2544.895449
889.691392	2546.380069
890.000366	2545.439894
890.309300	2545.389482
890.618193	2544.973587
890.927044	2542.316899
891.235855	2545.586087
891.544625	2545.651622
891.853353	2547.138763
892.162041	2544.744215
892.470687	2546.115408
892.779293	2546.019627
893.087858	2543.035263
893.396381	2541.412012
893.704864	2545.651622
894.013306	2540.802032
894.321707	2545.041643
894.630068	2543.667928
894.938387	2547.423588
895.246665	2543.040305
895.554903	2547.738660
895.863100	2546.740512
896.171256	2544.517363
896.479371	2545.172713
896.787446	2544.746735
897.095480	2544.814791
897.403473	2546.160779
897.711425	2541.948895
898.019336	2544.492157
898.327207	2544.600542
898.635038	2543.254554
898.942827	2545.334030
899.250576	2543.483926
899.558284	2545.601211
899.865952	2544.482075
900.173579	2543.630120
900.481165	2546.821170
900.788711	2544.300593
901.096216	2544.935778
901.403681	2543.199101
901.711105	2544.822353
902.018489	2545.515511
902.325832	2546.339740
902.633135	2546.138094
902.940397	2546.145655
903.247619	2542.203473
903.554800	2544.005686
903.861941	2544.482075
904.169041	2544.245140
904.476101	2542.621889
904.783121	2546.034750
905.090100	2546.218752
905.397039	2545.969215
905.703938	2544.960984
906.010796	2546.001982
906.317614	2545.815460
906.624391	2541.679193
906.931129	2545.334030
907.237826	2544.078782
907.544483	2544.799667
907.851099	2544.139276
908.157675	2543.315048
908.464211	2542.271529
908.770707	2539.763555
909.077163	2543.080634
909.383578	2542.148020
909.689954	2541.129707
909.996289	2539.382948
910.302584	2546.191026
910.608839	2544.270346
910.915054	2543.317568
911.221229	2544.282949
911.527363	2543.206663
911.833458	2542.483257
912.139513	2543.594832
912.445527	2545.404606
912.751502	2545.001313
913.057436	2545.276056
913.363331	2543.559543
913.669186	2544.167002
913.975000	2543.466282
914.280775	2546.075079
914.586510	2544.537527
914.892205	2542.962167
915.197859	2547.751263
915.503475	2542.490819
915.809050	2543.753628
916.114585	2546.480892
916.420081	2545.742363
916.725536	2543.531817
917.030952	2542.279090
917.336328	2543.226827
917.641665	2541.691796
917.946961	2544.918134
918.252218	2542.253885
918.557435	2544.731612
918.862612	2543.204142
919.167750	2544.300593
919.472848	2545.245809
919.777906	2543.128525
920.082925	2545.127342
920.387904	2544.822352
920.692843	2542.455531
920.997743	2543.292362
921.302603	2544.615665
921.607423	2543.811601
921.912204	2545.003834
922.216946	2543.665408
922.521647	2545.419729
922.826310	2544.668597
923.130932	2544.048535
923.435516	2544.663556
923.740059	2543.914945
924.044564	2545.006355
924.349028	2544.729091
924.653454	2539.665252
924.957840	2541.734646
925.262186	2540.670962
925.566493	2544.114070
925.870761	2540.232382
926.174989	2543.327650
926.479178	2543.685572
926.783328	2544.870243
927.087438	2542.087527
927.391509	2545.018957
927.695541	2545.328988
927.999533	2542.354708
928.303486	2543.665408
928.607400	2545.518032
928.911275	2542.185829
929.215110	2542.374872
929.518906	2542.261446
929.822663	2541.351518
930.126381	2543.710778
930.430060	2542.458051
930.733699	2544.471992
931.037299	2541.825387
931.340861	2541.643905
931.644383	2543.136087
931.947866	2544.381252
932.251309	2538.752803
932.554714	2543.897301
932.858080	2544.315717
933.161407	2544.109029
933.464694	2544.315717
933.767943	2544.960984
934.071153	2545.180274
934.374323	2539.420756
934.677455	2546.191026
934.980548	2541.691796
935.283602	2542.503422
935.586617	2541.636343
935.889593	2541.875798
936.192530	2545.036602
936.495428	2542.826056
936.798287	2546.775800
937.101108	2544.275387
937.403890	2543.781354
937.706632	2545.404606
938.009336	2543.940151
938.312002	2545.429812
938.614628	2543.433515
938.917216	2543.531817
939.219765	2543.025181
939.522275	2545.616334
939.824747	2546.869061
940.127179	2540.439069
940.429573	2538.916641
940.731929	2540.628113
941.034246	2538.599048
941.336524	2542.702547
941.638763	2545.011396
941.940964	2541.243133
942.243126	2544.015768
942.545250	2542.674821
942.847335	2540.446631
943.149381	2543.972918
943.451389	2542.112732
943.753359	2543.136087
944.055290	2542.503422
944.357182	2545.142466
944.659036	2545.064328
944.960851	2544.310675
945.262628	2542.475695
945.564367	2541.406971
945.866067	2544.507280
946.167729	2544.804708
946.469352	2544.482075
946.770937	2543.312527
947.072484	2542.168185
947.373992	2543.327650
947.675462	2542.516025
947.976893	2545.712116
948.278286	2543.113401
948.579641	2543.894780
948.880958	2544.308155
949.182236	2543.385624
949.483476	2544.809750
949.784678	2543.289842
950.085841	2544.020809
950.386967	2542.846220
950.688054	2546.062476
950.989103	2543.776313
951.290114	2541.999306
951.591087	2541.374203
951.892021	2543.035263
952.192917	2542.785726
952.493776	2543.741025
952.794596	2544.345963
953.095378	2544.487116
953.396122	2546.780841
953.696828	2545.404606
953.997496	2540.706250
954.298126	2542.964687
954.598718	2542.818494
954.899272	2543.980480
955.199788	2545.633978
955.500266	2542.019471
955.800706	2539.360262
956.101108	2538.112577
956.401472	2542.153062
956.701798	2538.800694
957.002087	2540.875129
957.302337	2543.040305
957.602550	2540.975952
957.902724	2541.139790
958.202861	2546.100285
958.502960	2544.078782
958.803022	2542.117773
959.103045	2542.730274
959.403031	2541.795140
959.702979	2543.546941
960.002889	2542.813453
960.302762	2542.455531
960.602596	2545.016437
960.902393	2542.687424
961.202153	2543.751107
961.501875	2544.535007
961.801559	2543.940151
962.101205	2540.834800
962.400814	2544.408978
962.700385	2540.650798
962.999918	2542.095088
963.299414	2543.453679
963.598873	2541.028884
963.898293	2544.774462
964.197677	2543.864533
964.497022	2542.483257
964.796331	2543.065510
965.095601	2541.459903
965.394835	2542.657177
965.694030	2545.114739
965.993189	2543.327650
966.292309	2542.326981
966.591393	2544.182126
966.890439	2542.848741
967.189447	2544.892929
967.488419	2541.785057
967.787353	2544.320758
968.086249	2542.241282
968.385108	2541.157434
968.683930	2544.797147
968.982714	2543.186498
969.281462	2542.594162
969.580172	2545.460058
969.878844	2544.161961
970.177480	2542.606765
970.476078	2540.033256
970.774639	2542.427804
971.073162	2543.037784
971.371649	2540.030736
971.670098	2537.066537
971.968510	2541.454862
972.266885	2536.222144
972.565223	2543.098278
972.863524	2542.064841
973.161788	2542.480737
973.460014	2541.588452
973.758204	2544.497198
974.056356	2540.628113
974.354471	2544.063659
974.652550	2540.590304
974.950591	2544.807229
975.248595	2541.958977
975.546563	2545.291180
975.844493	2543.393185
976.142386	2541.359080
976.440243	2544.434184
976.738062	2544.504760
977.035845	2544.287990
977.333590	2541.598535
977.631299	2541.112063
977.928971	2540.532331
978.226606	2541.172557
978.524204	2542.702547
978.821765	2543.239430
979.119290	2543.158772
979.416777	2541.653987
979.714228	2544.000644
980.011642	2542.447969
980.309020	2545.402085
980.606360	2541.656508
980.903664	2543.549461
981.200931	2541.089378
981.498162	2543.095757
981.795356	2543.138607
982.092513	2545.795295
982.389633	2542.200952
982.686717	2541.321271
982.983764	2543.625078
983.280775	2542.936961
983.577749	2542.324461
983.874686	2543.970397
984.171587	2542.107691
984.468451	2544.845038
984.765279	2541.147351
985.062070	2543.254554
985.358824	2541.104502
985.655543	2543.307486
985.952224	2539.546785
986.248869	2541.911086
986.545478	2539.143493
986.842050	2538.651980
987.138586	2537.908410
987.435086	2537.316074
987.731549	2537.467309
988.027975	2542.649615
988.324366	2542.120294
988.620719	2540.648277
988.917037	2542.069883
989.213318	2544.252702
989.509563	2542.538710
989.805772	2541.265818
990.101944	2542.722712
990.398080	2541.172557
990.694180	2541.812784
990.990244	2541.507794
991.286271	2541.870757
991.582262	2543.214224
991.878217	2543.362938
992.174136	2538.838503
992.470019	2542.059800
992.765865	2540.544933
993.061676	2544.724050
993.357450	2545.321427
993.653188	2544.688762
993.948890	2542.594163
994.244556	2543.342774
994.540186	2543.012578
994.835780	2542.596683
995.131337	2543.635161
995.426859	2541.643905
995.722345	2541.966539
996.017795	2542.389996
996.313208	2539.307330
996.608586	2542.654656
996.903928	2542.969728
997.199234	2542.185829
997.494504	2543.952753
997.789738	2539.483771
998.084936	2541.028884
998.380099	2545.616334
998.675225	2543.723381
998.970316	2541.739687
999.265371	2541.119625
999.560390	2541.006199
999.855373	2540.938143
1000.150320	2543.110881
1000.445232	2541.681714
1000.740108	2542.856302
1001.034948	2542.705068
1001.329752	2544.197249
1001.624521	2541.966539
1001.919254	2536.756506
1002.213951	2541.210366
1002.508613	2540.519728
1002.803239	2540.693647
1003.097829	2537.966383
1003.392384	2543.398227
1003.686903	2543.327650
1003.981386	2541.999306
1004.275834	2540.552495
1004.570246	2542.800850
1004.864623	2540.187012
1005.158964	2543.156251
1005.453270	2542.838658
1005.747540	2542.319420
1006.041775	2543.095757
1006.335974	2544.154400
1006.630138	2541.754810
1006.924266	2542.289173
1007.218359	2541.802701
1007.512416	2544.303114
1007.806438	2541.764893
1008.100425	2544.978628
1008.394376	2541.764893
1008.688292	2543.068031
1008.982172	2542.016950
1009.276017	2541.810263
1009.569827	2541.661549
1009.863602	2544.149358
1010.157341	2543.153731
1010.451045	2542.521066
1010.744714	2543.909904
1011.038347	2542.332023
1011.331945	2539.957639
1011.625508	2544.000644
1011.919036	2541.475026
1012.212528	2542.349667
1012.505986	2538.689789
1012.799408	2545.157589
1013.092795	2540.706250
1013.386147	2539.274563
1013.679464	2541.419574
1013.972745	2539.594676
1014.265992	2541.235572
1014.559204	2542.500901
1014.852380	2540.239944
1015.145521	2539.040149
1015.438628	2542.528628
1015.731699	2542.566436
1016.024736	2541.543082
1016.317737	2540.988555
1016.610703	2541.101981
1016.903635	2539.624923
1017.196531	2536.181815
1017.489393	2538.720036
1017.782219	2537.230375
1018.075011	2538.901517
1018.367768	2541.921168
1018.660490	2541.475026
1018.953177	2541.475026
1019.245829	2541.475026
