Dividing Wavelength (nm)	Counts (n)	Blue Motor Position (mm): 30.500000	Red Motor Position (mm): 0.000000	
326.493990	2153.202837
326.888308	2153.202837
327.282561	2153.202837
327.676750	2132.892028
328.070874	2130.910854
328.464933	2137.484519
328.858929	2145.416774
329.252859	2156.358599
329.646726	2170.337718
330.040528	2186.096365
330.434265	2204.849458
330.827938	2222.856459
331.221547	2242.983266
331.615091	2262.610998
332.008571	2283.254523
332.401986	2302.952832
332.795338	2323.828250
333.188625	2343.763493
333.581847	2360.162367
333.975006	2380.735315
334.368100	2400.907493
334.761129	2419.842066
335.154095	2435.603234
335.546996	2459.687346
335.939833	2492.543067
336.332606	2502.176712
336.725315	2517.693383
337.117960	2520.531553
337.510540	2528.791483
337.903056	2543.151210
338.295508	2549.563558
338.687896	2555.418858
339.080220	2564.369427
339.472480	2565.382698
339.864676	2571.822772
340.256807	2572.848647
340.648875	2577.103381
341.040879	2576.483319
341.432818	2582.015986
341.824694	2580.400296
342.216506	2580.876685
342.608253	2580.790985
342.999937	2583.009093
343.391557	2579.303845
343.783113	2577.657908
344.174605	2576.538772
344.566033	2575.613720
344.957397	2572.717577
345.348697	2568.546023
345.739934	2570.806980
346.131106	2567.850343
346.522215	2568.901424
346.913260	2563.083932
347.304241	2563.048644
347.695159	2560.306257
348.086012	2558.809034
348.476802	2558.168807
348.867528	2557.412634
349.258191	2555.496996
349.648789	2552.263096
350.039324	2552.106820
350.429796	2553.873744
350.820203	2552.207643
351.210548	2550.213867
351.600828	2546.884184
351.991045	2549.316541
352.381198	2548.981304
352.771288	2549.853424
353.161314	2549.034237
353.551276	2550.617159
353.941175	2547.670604
354.331010	2548.709082
354.720782	2550.110523
355.110490	2547.917621
355.500135	2549.054401
355.889717	2550.423074
356.279235	2551.252344
356.668689	2549.538352
357.058080	2549.674463
357.447408	2547.093392
357.836672	2548.232693
358.225873	2549.475337
358.615010	2546.450645
359.004084	2550.823846
359.393095	2551.600184
359.782043	2553.987170
360.170927	2554.193858
360.559748	2554.612273
360.948505	2555.086142
361.337199	2557.316852
361.725830	2558.007490
362.114398	2556.003632
362.502903	2557.442881
362.891344	2560.384394
363.279722	2554.733261
363.668037	2557.594116
364.056289	2556.719476
364.444478	2558.405742
364.832603	2559.890361
365.220665	2558.677964
365.608665	2560.278530
365.996601	2561.702656
366.384474	2562.231977
366.772284	2562.410938
367.160031	2560.454971
367.547715	2563.991340
367.935336	2558.287274
368.322893	2560.704508
368.710388	2563.772050
369.097820	2565.869170
369.485189	2562.060578
369.872495	2564.019066
370.259738	2565.153326
370.646918	2558.662840
371.034035	2563.462019
371.421090	2566.443861
371.808081	2565.216340
372.195010	2567.046279
372.581875	2564.324056
372.968678	2564.901268
373.355418	2565.002091
373.742096	2567.144582
374.128710	2567.522668
374.515262	2565.904458
374.901751	2565.821279
375.288177	2568.321691
375.674540	2566.327915
376.060841	2570.559963
376.447079	2566.305230
376.833254	2567.683985
377.219367	2565.677606
377.605417	2566.718604
377.991404	2568.573749
378.377329	2565.463357
378.763191	2566.285065
379.148991	2571.527865
379.534727	2569.634912
379.920402	2569.627350
380.306013	2569.828996
380.691563	2571.875705
381.077049	2573.113308
381.462474	2566.025446
381.847835	2570.794377
382.233134	2570.280179
382.618371	2571.311095
383.003545	2573.367886
383.388657	2574.071127
383.773706	2574.630695
384.158693	2574.809656
384.543618	2573.151117
384.928480	2573.443503
385.313280	2571.144737
385.698017	2574.030798
386.082692	2578.691345
386.467305	2574.550037
386.851856	2576.858885
387.236344	2575.248237
387.620770	2577.572208
388.005133	2575.512897
388.389435	2572.420149
388.773674	2575.515418
389.157851	2574.887794
389.541965	2576.400140
389.926018	2575.422156
390.310008	2576.188412
390.693936	2579.568505
391.077802	2579.560944
391.461606	2577.327713
391.845348	2580.521283
392.229027	2578.850141
392.612645	2579.724781
392.996200	2577.181519
393.379694	2581.194277
393.763125	2579.029102
394.146494	2578.330902
394.529801	2579.669328
394.913047	2579.949112
395.296230	2580.143197
395.679351	2580.173444
396.062410	2582.772159
396.445408	2581.665625
396.828343	2581.509350
397.211217	2578.691345
397.594028	2577.163875
397.976778	2579.495409
398.359466	2579.782754
398.742092	2578.338464
399.124656	2585.630493
399.507158	2583.152766
399.889598	2584.811305
400.271977	2583.480441
400.654294	2582.603280
401.036549	2581.703434
401.418742	2584.420616
401.800874	2585.668302
402.182944	2583.354412
402.564952	2583.999680
402.946898	2586.250555
403.328783	2586.376584
403.710606	2586.517736
404.092367	2587.034454
404.474067	2585.723754
404.855705	2588.395566
405.237282	2586.827767
405.618797	2585.479258
406.000250	2588.718200
406.381642	2587.213415
406.762972	2585.443970
407.144240	2586.747108
407.525447	2590.401945
407.906593	2587.959506
408.287677	2588.672829
408.668700	2586.653847
409.049661	2590.371698
409.430560	2587.137798
409.811399	2591.256421
410.192176	2589.091245
410.572891	2589.834815
410.953545	2590.404466
411.334138	2590.984198
411.714669	2589.124013
412.095139	2589.739033
412.475547	2590.091914
412.855894	2588.715679
413.236180	2591.069898
413.616405	2591.954620
413.996568	2591.563931
414.376670	2592.539394
414.756711	2590.177614
415.136691	2593.487131
415.516609	2594.001329
415.896466	2592.274734
416.276262	2593.260279
416.655997	2590.719538
417.035670	2592.884713
417.415283	2591.604260
417.794834	2590.812799
418.174324	2593.764395
418.553753	2594.964189
418.933121	2598.487956
419.312428	2596.174066
419.691674	2595.617019
420.070859	2598.765219
420.449983	2596.597523
420.829045	2597.464602
421.208047	2599.435693
421.586988	2600.282607
421.965867	2601.061465
422.344686	2598.649273
422.723444	2601.298399
423.102141	2600.905189
423.480777	2602.614140
423.859352	2600.635487
424.237866	2607.587238
424.616319	2603.302258
424.994712	2604.854933
425.373044	2609.563371
425.751314	2610.932044
426.129524	2609.268463
426.507673	2612.192332
426.885762	2614.425564
427.263789	2616.063939
427.641756	2617.730040
428.019662	2623.474435
428.397508	2624.742285
428.775292	2627.136833
429.153016	2631.172277
429.530679	2635.742083
429.908282	2640.405150
430.285824	2645.529483
430.663305	2648.607107
431.040726	2651.079793
431.418086	2658.054230
431.795385	2670.195849
432.172624	2674.894204
432.549802	2680.091634
432.926920	2686.372911
433.303977	2695.131916
433.680974	2705.062989
434.057910	2716.186295
434.434786	2723.390104
434.811601	2734.152967
435.188355	2752.611152
435.565050	2757.007038
435.941683	2770.797115
436.318257	2787.354785
436.694770	2803.519244
437.071222	2820.303766
437.447614	2822.784014
437.823946	2836.042248
438.200218	2857.830115
438.576429	2869.132382
438.952580	2886.463869
439.328670	2904.836354
439.704700	2928.252514
440.080670	2937.745007
440.456580	2966.870273
440.832429	2992.703666
441.208218	2989.424395
441.583947	3016.845752
441.959616	3038.648742
442.335224	3067.829461
442.710773	3089.478696
443.086261	3123.894654
443.461689	3134.939822
443.837057	3157.761125
444.212365	3200.931046
444.587612	3229.655541
444.962800	3238.858167
445.337927	3278.022891
445.712995	3262.917074
446.088002	3349.496371
446.462949	3385.250754
446.837837	3418.124118
447.212664	3437.764454
447.587431	3554.000859
447.962139	3707.675393
448.336786	3875.697050
448.711374	3901.774939
449.085901	3779.418573
449.460369	3786.458545
449.834776	3792.185296
450.209124	3939.777677
450.583412	3979.461640
450.957640	4067.752409
451.331808	4033.901061
451.705917	3988.991942
452.079965	4022.654247
452.453954	4074.822627
452.827883	4087.138166
453.201752	4125.478662
453.575562	4174.405580
453.949311	4287.541675
454.323001	4322.774300
454.696632	4354.042056
455.070202	4487.614989
455.443713	4537.887896
455.817164	4632.792658
456.190556	4713.062951
456.563888	4731.745467
456.937160	4817.024146
457.310373	4745.286006
457.683526	4819.292665
458.056619	4845.985575
458.429653	4873.540522
458.802628	4937.232980
459.175542	4985.723839
459.548398	5127.579388
459.921194	5298.502229
460.293930	5376.405700
460.666607	5600.265699
461.039224	5806.209436
461.411782	5933.352377
461.784280	5901.814919
462.156719	5944.440395
462.529099	5951.349297
462.901419	5864.263364
463.273680	5786.070027
463.645882	5808.263706
464.018024	5841.613460
464.390106	5924.215286
464.762130	6181.946797
465.134094	6537.108688
465.505999	7108.646985
465.877845	7754.133968
466.249631	8101.693799
466.621358	8076.838390
466.993026	7942.869726
467.364634	7783.256713
467.736184	7559.346303
468.107674	7439.437418
468.479105	7388.080663
468.850477	7351.008018
469.221790	7214.009621
469.593043	7029.203442
469.964238	6947.105731
470.335373	6946.863755
470.706449	7110.602953
471.077467	7306.401368
471.448425	7948.218391
471.819324	8522.184003
472.190164	8567.244357
472.560945	8112.786858
472.931667	7669.412336
473.302330	7490.224523
473.672934	7395.355048
474.043479	7479.905281
474.413965	7397.830255
474.784393	7353.291661
475.154761	7509.761514
475.525070	7528.900255
475.895321	7493.113104
476.265513	7600.293076
476.635645	7766.124352
477.005719	7757.859380
477.375734	7850.737599
477.745691	7965.862429
478.115588	8169.451948
478.485427	8408.952126
478.855207	8885.013489
479.224928	9309.702974
479.594591	9698.297798
479.964194	9711.261125
480.333739	9794.745153
480.703226	9802.705135
481.072653	9910.278317
481.442022	10029.126040
481.811333	10175.049800
482.180584	10021.652529
482.549777	9964.148087
482.918912	9910.096836
483.287988	9894.713755
483.657005	9808.668820
484.025964	9727.652437
484.394864	9795.382859
484.763706	9752.911138
485.132489	9665.137088
485.501213	9655.004369
485.869879	9715.944357
486.238487	9650.671497
486.607036	9734.667202
486.975527	9677.586217
487.343959	9736.512265
487.712333	9780.408112
488.080648	9826.083486
488.448905	9930.420248
488.817104	9934.390156
489.185244	10105.111352
489.553326	10324.043622
489.921350	10781.072109
490.289315	11415.536609
490.657222	11709.892103
491.025070	11887.413815
491.392861	11793.449228
491.760593	11633.823612
492.128267	11384.226002
492.495883	11154.747638
492.863440	10916.555639
493.230939	10694.071876
493.598380	10506.004070
493.965763	10484.959773
494.333088	10358.656184
494.700354	10283.548033
495.067563	10260.240258
495.434713	10268.684191
495.801805	10310.417383
496.168839	10268.769891
496.535815	10238.391898
496.902733	10285.067941
497.269593	10241.512372
497.636395	10246.881201
498.003139	10362.777328
498.369825	10290.524990
498.736453	10377.608402
499.103023	10321.202932
499.469535	10334.751033
499.835989	10378.709894
500.202385	10351.565802
500.568723	10369.298060
500.935003	10440.141395
501.301226	10400.807792
501.667390	10570.964379
502.033497	10670.522126
502.399546	10595.514798
502.765537	10504.781590
503.131470	10610.418969
503.497345	10700.179234
503.863163	10477.554318
504.228923	10612.904258
504.594625	10725.770652
504.960269	10639.513989
505.325856	10792.228183
505.691385	10667.827629
506.056856	10733.649975
506.422270	10845.329177
506.787625	10770.571386
507.152924	10822.061731
507.518164	10884.909796
507.883347	10750.510114
508.248472	10826.891157
508.613540	10935.028948
508.978550	11009.416214
509.343503	10994.292752
509.708398	11038.412931
510.073236	11172.915957
510.438016	11184.457678
510.802738	11095.803947
511.167403	11221.656352
511.532010	11290.248812
511.896561	11380.717359
512.261053	11580.916702
512.625488	11497.346974
512.989866	11482.021866
513.354186	11466.916049
513.718449	11474.160187
514.082655	11617.951539
514.446803	11570.448746
514.810894	11675.266937
515.174927	11676.426403
515.538904	11659.536017
515.902822	11815.640387
516.266684	11693.591532
516.630488	11790.225410
516.994235	11782.106631
517.357925	11896.739949
517.721558	11955.202210
518.085133	12021.634536
518.448651	12044.554142
518.812112	12021.632015
519.175516	12012.331086
519.538863	12109.383380
519.902152	12119.662293
520.265385	12223.520144
520.628560	12246.880851
520.991678	12203.950385
521.354739	12253.845205
521.717743	12325.608551
522.080690	12293.433387
522.443580	12434.215169
522.806413	12454.538581
523.169189	12442.396962
523.531908	12502.585818
523.894569	12465.984521
524.257174	12481.327273
524.619722	12582.475504
524.982213	12567.546127
525.344647	12550.229763
525.707025	12556.722770
526.069345	12665.215962
526.431608	12639.218732
526.793815	12722.765774
527.155964	12617.748458
527.518057	12645.522695
527.880093	12608.419802
528.242072	12725.959345
528.603995	12643.370122
528.965860	12656.220023
529.327669	12688.828727
529.689421	12638.772590
530.051117	12646.180565
530.412755	12679.598374
530.774337	12688.591793
531.135862	12650.062254
531.497331	12705.988814
531.858743	12668.275943
532.220098	12760.100560
532.581396	12691.334180
532.942638	12611.779731
533.303824	12675.638548
533.664953	12656.635918
534.026025	12606.541973
534.387040	12716.630690
534.747999	12681.458560
535.108902	12732.366652
535.469748	12607.388886
535.830537	12636.133546
536.191270	12674.824401
536.551947	12598.166095
536.912567	12658.826300
537.273131	12687.245804
537.633638	12574.422261
537.994089	12642.918939
538.354483	12552.084908
538.714821	12677.405472
539.075103	12758.676434
539.435328	12692.465919
539.795497	12663.701095
540.155609	12662.193790
540.515665	12764.050304
540.875665	12620.997481
541.235609	12719.448695
541.595496	12679.938652
541.955328	12865.276673
542.315102	12714.946945
542.674821	12650.286585
543.034483	12665.795695
543.394090	12667.204697
543.753640	12635.092547
544.113134	12880.992470
544.472571	12646.357006
544.831953	12918.029827
545.191278	12738.365625
545.550548	12667.552537
545.909761	12783.108386
546.268918	12823.160353
546.628019	12896.937640
546.987064	12782.160649
547.346053	12630.258081
547.704986	12827.899038
548.063863	12702.855737
548.422684	12762.598452
548.781449	12716.739075
549.140158	12808.581336
549.498811	12765.240016
549.857408	12648.255000
550.215949	12842.057118
550.574434	12809.405565
550.932864	12748.208478
551.291237	12948.700207
551.649555	12844.784383
552.007817	12899.027198
552.366022	12812.286584
552.724173	12855.035569
553.082267	12948.634672
553.440305	13035.690358
553.798288	12856.469777
554.156215	12932.462651
554.514086	12988.111948
554.871902	12916.197368
555.229661	12939.948764
555.587365	12903.634813
555.945014	12916.204930
556.302606	12890.527813
556.660143	12960.708236
557.017625	12985.203202
557.375050	12946.025875
557.732421	13049.682081
558.089735	13037.308569
558.446994	13021.033203
558.804197	13133.589566
559.161345	13122.670427
559.518437	12946.136781
559.875474	13038.513404
560.232455	13069.060276
560.589381	13110.773304
560.946251	13058.027711
561.303065	13220.032752
561.659825	13166.654494
562.016528	13088.675406
562.373177	13030.545861
562.729770	13160.869770
563.086307	13048.739385
563.442789	13154.041527
563.799216	13189.576621
564.155587	13141.720947
564.511904	13151.112617
564.868164	13168.497036
565.224370	13230.851068
565.580520	13179.206967
565.936615	13240.358684
566.292654	13165.311027
566.648638	13241.324065
567.004567	13241.225762
567.360441	13243.771545
567.716260	13214.018655
568.072023	13308.320999
568.427732	13288.337866
568.783385	13183.166793
569.138982	13305.742449
569.494525	13295.367755
569.850013	13237.956574
570.205445	13228.315367
570.560823	13240.935896
570.916145	13195.174822
571.271412	13214.631155
571.626625	13171.594825
571.981782	13162.238443
572.336884	13110.715330
572.691931	13196.225903
573.046923	13084.327411
573.401860	13063.988875
573.756743	13067.139597
574.111570	13092.778905
574.466342	13067.174885
574.821059	13119.678502
575.175722	12986.541629
575.530330	13012.425433
575.884882	12944.379939
576.239380	12940.841049
576.593823	12923.870004
576.948211	12909.535483
577.302544	12784.167028
577.656823	12816.500989
578.011047	12876.977191
578.365216	12812.039568
578.719330	12748.571441
579.073389	12717.099518
579.427394	12728.817680
579.781344	12721.591186
580.135239	12651.468736
580.489080	12675.658712
580.842866	12555.462481
581.196597	12650.775577
581.550273	12647.007314
581.903895	12610.554731
582.257463	12718.226215
582.610975	12562.323492
582.964434	12614.892644
583.317837	12540.820450
583.671186	12496.060045
584.024481	12539.771890
584.377721	12438.701796
584.730906	12510.757529
585.084037	12526.153213
585.437113	12446.939042
585.790135	12465.767751
586.143103	12374.429605
586.496016	12391.660269
586.848874	12409.074935
587.201679	12399.164027
587.554428	12272.643668
587.907124	12325.661483
588.259765	12261.074220
588.612352	12339.925428
588.964884	12192.950588
589.317362	12248.080646
589.669786	12236.879202
590.022155	12199.597349
590.374470	12290.043211
590.726731	12182.737210
591.078937	12063.478633
591.431090	12093.095412
591.783188	12020.976665
592.135232	11944.267948
592.487222	12006.634582
592.839157	12024.056810
593.191038	11943.451281
593.542866	11891.393806
593.894639	11744.426527
594.246358	11806.636886
594.598022	11814.846405
594.949633	11714.731610
595.301190	11702.877337
595.652692	11667.712768
596.004141	11748.708987
596.355535	11529.262519
596.706876	11514.633091
597.058162	11480.655714
597.409395	11578.033162
597.760573	11602.843201
598.111698	11501.009372
598.462768	11497.031902
598.813785	11510.544715
599.164748	11377.183510
599.515657	11454.691251
599.866511	11327.258443
600.217312	11465.277674
600.568060	11226.760521
600.918753	11392.498536
601.269392	11390.966025
601.619978	11288.149172
601.970510	11331.014103
602.320988	11373.647141
602.671412	11443.638521
603.021783	11373.652182
603.372100	11297.737446
603.722363	11315.016001
604.072572	11319.490025
604.422728	11323.802732
604.772830	11273.441605
605.122878	11278.702049
605.472872	11250.801783
605.822813	11303.025617
606.172701	11266.958682
606.522534	11299.731223
606.872314	11351.009840
607.222041	11287.405602
607.571714	11366.360153
607.921333	11232.280584
608.270899	11287.834100
608.620411	11355.267094
608.969870	11302.024948
609.319276	11275.329517
609.668627	11288.048349
610.017926	11374.922553
610.367171	11407.843808
610.716362	11393.481561
611.065500	11369.455422
611.414585	11377.135619
611.763616	11444.795466
612.112594	11403.339537
612.461518	11439.230032
612.810389	11483.657721
613.159207	11431.844742
613.507971	11424.204873
613.856682	11525.078361
614.205340	11483.355252
614.553945	11622.735594
614.902496	11493.966880
615.250994	11559.779144
615.599439	11556.204966
615.947830	11587.127403
616.296169	11548.590303
616.644454	11560.449617
616.992686	11577.728172
617.340864	11673.845332
617.688990	11562.942468
618.037063	11696.245699
618.385082	11664.209166
618.733048	11700.470186
619.080961	11690.150944
619.428821	11681.170128
619.776628	11683.496621
620.124382	11622.942281
620.472083	11642.015487
620.819731	11664.723364
621.167326	11583.974162
621.514868	11571.542676
621.862357	11481.172432
622.209793	11464.773558
622.557176	11379.545291
622.904506	11325.189050
623.251783	11253.859243
623.599007	11188.835920
623.946179	11140.760957
624.293297	11111.413880
624.640363	10969.780142
624.987376	10971.902467
625.334336	10901.734647
625.681243	10820.110805
626.028097	10788.636361
626.374899	10750.568087
626.721647	10726.153779
627.068343	10680.196100
627.414987	10620.672676
627.761577	10558.651360
628.108115	10606.512075
628.454600	10474.403597
628.801032	10498.555765
629.147412	10475.641201
629.493739	10447.788826
629.840014	10371.193534
630.186236	10418.083827
630.532405	10311.221447
630.878521	10352.470689
631.224585	10306.243308
631.570597	10223.815401
631.916556	10230.580630
632.262462	10207.366116
632.608316	10199.368326
632.954117	10166.512606
633.299866	10154.101285
633.645562	10128.383838
633.991206	10032.947234
634.336797	9936.300753
634.682336	9925.961347
635.027823	9864.817192
635.373257	9826.171707
635.718639	9759.681408
636.063968	9736.071164
636.409245	9615.607752
636.754470	9604.217264
637.099642	9546.601917
637.444762	9450.325961
637.789829	9458.986663
638.134845	9383.591166
638.479808	9361.589050
638.824719	9340.822017
639.169577	9247.646371
639.514383	9251.727185
639.859137	9179.689096
640.203839	9210.472902
640.548489	9130.739492
640.893086	9139.687540
641.237632	9066.827744
641.582125	9067.483094
641.926566	9059.626456
642.270955	9042.448724
642.615292	9040.218013
642.959576	9020.373511
643.303809	9003.251232
643.647990	9027.158904
643.992118	8999.881221
644.336195	8985.332451
644.680219	8982.174168
645.024192	9008.423456
645.368112	9090.546373
645.711981	9066.142147
646.055797	9203.813538
646.399562	9163.607815
646.743274	9325.343154
647.086935	9390.550479
647.430544	9365.805976
647.774101	9390.943689
648.117606	9422.738247
648.461059	9478.206062
648.804460	9409.180063
649.147810	9288.421743
649.491108	9259.195654
649.834354	9192.533956
650.177548	9046.242192
650.520690	8962.438051
650.863781	8956.691135
651.206820	8930.608205
651.549807	8835.353083
651.892742	8739.891273
652.235626	8710.420688
652.578458	8669.471395
652.921238	8566.180673
653.263967	8594.746371
653.606644	8528.024180
653.949269	8507.224379
654.291843	8435.055220
654.634365	8500.229778
654.976836	8423.311853
655.319255	8409.708299
655.661622	8397.745641
656.003938	8355.220988
656.346203	8323.396183
656.688416	8358.001184
657.030577	8325.548756
657.372687	8284.463352
657.714746	8317.361922
658.056753	8333.576793
658.398708	8228.289775
658.740612	8232.587358
659.082465	8269.833924
659.424266	8224.773570
659.766016	8237.008450
660.107715	8206.567443
660.449362	8227.604178
660.790958	8223.346923
661.132503	8218.782159
661.473996	8223.961944
661.815438	8239.279490
662.156829	8265.236391
662.498168	8219.689566
662.839456	8213.501550
663.180693	8235.362514
663.521879	8257.803210
663.863013	8229.776915
664.204097	8223.825833
664.545129	8302.205693
664.886110	8290.732027
665.227040	8291.384856
665.567918	8308.938154
665.908746	8320.217736
666.249522	8340.203390
666.590248	8340.072320
666.930922	8355.135288
667.271545	8347.197991
667.612118	8364.428655
667.952639	8324.278385
668.293109	8330.436155
668.633528	8302.886249
668.973896	8287.956872
669.314213	8291.818396
669.654480	8250.806088
669.994695	8241.840396
670.334859	8224.851708
670.674973	8208.334367
671.015035	8229.907985
671.355047	8219.891212
671.695008	8211.926189
672.034918	8182.972322
672.374777	8185.555914
672.714585	8160.173704
673.054342	8187.945421
673.394049	8157.343096
673.733705	8195.429013
674.073310	8140.838358
674.412864	8156.937283
674.752368	8094.850432
675.091820	8148.392527
675.431223	8072.011485
675.770574	8024.453240
676.109875	8000.245619
676.449125	7957.330276
676.788324	7946.660674
677.127473	7864.880556
677.466571	7846.550920
677.805619	7785.552959
678.144616	7786.853577
678.483562	7761.834330
678.822458	7718.278761
679.161303	7710.321299
679.500098	7682.085797
679.838842	7661.868249
680.177535	7678.559510
680.516179	7712.932617
680.854771	7728.913075
681.193314	7845.257864
681.531805	8003.938264
681.870247	8126.392932
682.208638	8277.965305
682.546978	8349.620266
682.885268	8369.467288
683.223508	8304.481774
683.561697	8256.283302
683.899836	8221.456491
684.237925	8135.890466
684.575963	8108.549768
684.913951	8027.553549
685.251889	8046.853607
685.589776	8033.371041
685.927614	8021.857045
686.265401	8040.418574
686.603137	8049.732106
686.940824	8120.837581
687.278460	8170.944129
687.616046	8183.473917
687.953582	8295.808469
688.291068	8277.975387
688.628504	8331.255342
688.965889	8334.821958
689.303224	8286.799927
689.640510	8253.190554
689.977745	8145.909759
690.314930	8024.453240
690.652065	7953.312477
690.989150	7838.777461
691.326185	7683.078904
691.663170	7570.714105
692.000105	7450.464942
692.336990	7339.209197
692.673825	7270.044567
693.010610	7173.440935
693.347345	7082.261586
693.684030	6969.594318
694.020665	6920.503562
694.357251	6806.235728
694.693786	6794.935981
695.030272	6757.943994
695.366707	6661.539489
695.703093	6609.902950
696.039429	6608.619976
696.375716	6555.818931
696.711952	6543.465583
697.048139	6518.330390
697.384276	6482.535677
697.720363	6502.362535
698.056400	6472.423123
698.392388	6447.585358
698.728326	6445.964627
699.064214	6416.007570
699.400053	6412.839205
699.735842	6349.668506
700.071581	6307.375746
700.407270	6261.518890
700.742910	6233.245578
701.078501	6194.400968
701.414042	6145.315253
701.749533	6095.957315
702.084974	6035.891967
702.420366	6073.256999
702.755709	6004.568758
703.091002	5951.361899
703.426246	5955.397343
703.761440	5941.022493
704.096584	5901.088993
704.431679	5887.561056
704.766725	5866.093303
705.101721	5855.272466
705.436668	5874.469180
705.771565	5813.614891
706.106413	5874.675867
706.441212	5866.431060
706.775961	5888.740686
707.110661	5897.534979
707.445311	5957.086130
707.779913	5925.558753
708.114465	5960.919927
708.448967	6016.478484
708.783421	6120.021263
709.117825	6167.133366
709.452180	6196.999682
709.786485	6261.828921
710.120742	6389.851543
710.454949	6394.854888
710.789107	6468.508667
711.123216	6591.961483
711.457275	6621.255628
711.791286	6734.958853
712.125247	6753.863180
712.459159	6714.799279
712.793023	6856.765733
713.126837	6682.543456
713.460602	6741.711479
713.794318	6693.026536
714.127985	6641.979812
714.461602	6495.438511
714.795171	6501.228276
715.128691	6335.054201
715.462162	6244.439461
715.795584	6175.516805
716.128957	6128.485360
716.462281	6068.556123
716.795556	6026.026429
717.128782	5941.720693
717.461960	5841.305949
717.795088	5829.035781
718.128167	5761.123877
718.461198	5678.310322
718.794180	5659.030429
719.127113	5598.362663
719.459997	5563.644237
719.792833	5498.678887
720.125619	5494.209904
720.458357	5433.358136
720.791046	5403.116254
721.123686	5382.160177
721.456278	5332.630841
721.788821	5327.357794
722.121315	5282.552019
722.453761	5287.998985
722.786158	5275.043220
723.118506	5274.193786
723.450805	5252.022791
723.783056	5280.228047
724.115259	5264.930665
724.447412	5249.045990
724.779518	5294.204646
725.111574	5294.968381
725.443582	5332.847611
725.775542	5320.912679
726.107453	5406.755967
726.439315	5382.573552
726.771129	5452.990910
727.102895	5518.856105
727.434612	5560.430501
727.766281	5590.748000
728.097901	5640.095855
728.429473	5657.661756
728.760996	5665.036964
729.092471	5693.040573
729.423897	5682.005488
729.755276	5652.194624
730.086606	5664.197612
730.417887	5753.186580
730.749120	5844.202092
731.080305	5887.656838
731.411442	5963.737932
731.742530	5985.631663
732.073570	6005.408110
732.404562	6074.169448
732.735506	6063.492284
733.066401	6044.494696
733.397249	5976.237473
733.728048	5883.586107
734.058798	5742.428758
734.389501	5616.621722
734.720156	5525.149986
735.050762	5418.138892
735.381320	5345.382440
735.711831	5284.674344
736.042293	5208.810020
736.372707	5207.716090
736.703073	5158.491743
737.033391	5188.574829
737.363661	5171.999515
737.693883	5186.490312
738.024056	5214.020053
738.354182	5237.990739
738.684260	5284.644098
739.014290	5324.910314
739.344272	5361.554461
739.674207	5415.872894
740.004093	5448.998316
740.333931	5454.011743
740.663722	5478.380681
740.993464	5489.768647
741.323159	5469.732582
741.652806	5428.526190
741.982405	5393.061673
742.311956	5336.724258
742.641460	5327.017516
742.970915	5275.035658
743.300323	5213.052151
743.629683	5177.670813
743.958996	5125.237772
744.288260	5076.961162
744.617477	5017.530999
744.946647	5002.382332
745.275768	4943.786480
745.604842	4914.996451
745.933869	4879.179052
746.262847	4872.154205
746.591778	4860.075600
746.920662	4842.126572
747.249498	4834.421168
747.578286	4852.864229
747.907027	4874.314339
748.235720	4919.326802
748.564365	4926.061783
748.892963	4912.803549
749.221514	4929.923307
749.550017	4904.737703
749.878473	4904.241149
750.206881	4864.630282
750.535242	4850.021019
750.863555	4836.026776
751.191821	4809.911078
751.520039	4823.935568
751.848210	4798.500426
752.176334	4807.357734
752.504411	4787.364517
752.832440	4758.453500
753.160421	4770.985809
753.488356	4750.634671
753.816243	4729.814705
754.144082	4697.150549
754.471875	4685.757541
754.799620	4673.066436
755.127318	4666.172658
755.454969	4661.880116
755.782572	4652.969877
756.110129	4658.520187
756.437638	4638.305160
756.765100	4638.864728
757.092515	4642.517044
757.419882	4645.614833
757.747203	4641.622239
758.074477	4655.014064
758.401703	4645.234226
758.728882	4674.488042
759.056014	4687.264846
759.383099	4710.386098
759.710138	4739.700408
760.037129	4760.119602
760.364073	4770.610243
760.690970	4769.828864
761.017820	4774.345738
761.344623	4809.076767
761.671379	4865.189851
761.998088	4950.261842
762.324751	5185.613151
762.651366	5650.268904
762.977935	6342.681467
763.304456	6899.423977
763.630931	7207.647685
763.957359	7145.049157
764.283740	6852.105186
764.610074	6527.961515
764.936362	6123.161902
765.262602	5813.151105
765.588796	5458.785716
765.914943	5207.312798
766.241044	4977.562211
766.567097	4812.461902
766.893104	4661.433974
767.219064	4562.607194
767.544978	4464.196309
767.870845	4381.576839
768.196665	4334.308460
768.522438	4284.353146
768.848165	4243.272783
769.173846	4202.205023
769.499479	4176.648894
769.825066	4140.879387
770.150607	4095.234259
770.476101	4083.717743
770.801548	4059.923497
771.126949	4029.749671
771.452303	4011.838451
771.777611	3972.305722
772.102872	3970.231288
772.428087	3940.112914
772.753256	3917.513421
773.078378	3897.323600
773.403453	3869.314949
773.728482	3840.807224
774.053465	3828.728620
774.378401	3809.375630
774.703291	3787.033236
775.028135	3761.338475
775.352932	3753.028133
775.677683	3732.636666
776.002388	3712.603120
776.327046	3716.555385
776.651658	3694.283567
776.976224	3674.101308
777.300743	3675.003674
777.625216	3660.661592
777.949643	3647.864623
778.274024	3652.623472
778.598359	3635.738127
778.922647	3635.329794
779.246889	3623.110037
779.571086	3620.581898
779.895236	3623.898977
780.219339	3622.217752
780.543397	3622.442084
780.867409	3634.152684
781.191374	3637.061430
781.515294	3628.254534
781.839167	3649.240858
782.162995	3646.367400
782.486776	3636.196872
782.810511	3630.076911
783.134201	3617.317751
783.457844	3616.140642
783.781441	3605.201338
784.104993	3597.813527
784.428498	3593.614246
784.751958	3591.486879
785.075372	3583.718461
785.398739	3570.722366
785.722061	3580.776947
786.045337	3579.786361
786.368568	3605.531533
786.691752	3603.404166
787.014891	3645.265908
787.337983	3692.998073
787.661030	3782.145838
787.984031	3877.363152
788.306987	3952.771251
788.629897	4002.519878
788.952760	4009.637987
789.275579	3991.056294
789.598351	3942.673820
789.921078	3893.013414
790.243759	3831.486131
790.566395	3781.019140
790.888984	3734.484249
791.211529	3697.777087
791.534027	3655.428874
791.856480	3616.425467
792.178888	3595.451746
792.501249	3576.723860
792.823566	3544.397461
793.145836	3538.839588
793.468062	3531.318187
793.790241	3516.918131
794.112375	3520.081455
794.434464	3544.967111
794.756507	3543.505176
795.078505	3559.410017
795.400457	3598.201696
795.722364	3650.581805
796.044226	3700.206923
796.366042	3740.357193
796.687812	3736.258735
797.009538	3762.734875
797.331218	3750.802464
797.652852	3746.807349
797.974442	3726.234400
798.295986	3712.091443
798.617484	3683.424922
798.938938	3658.894667
799.260346	3647.456289
799.581709	3608.435238
799.903026	3596.984257
800.224299	3578.226123
800.545526	3548.508522
800.866708	3527.053371
801.187845	3516.184643
801.508936	3494.837877
801.829983	3486.814881
802.150984	3458.869244
802.471940	3445.553037
802.792851	3443.861729
803.113717	3438.815534
803.434538	3425.398503
803.755314	3414.184457
804.076045	3410.438879
804.396731	3396.467322
804.717372	3397.654513
805.037967	3396.691653
805.358518	3397.596540
805.679024	3410.275042
805.999485	3409.912079
806.319901	3416.861309
806.640272	3415.691762
806.960598	3429.633073
807.280879	3427.929163
807.601115	3441.613375
807.921306	3431.957045
808.241453	3433.166922
808.561554	3440.312757
808.881611	3438.636573
809.201623	3438.225719
809.521590	3430.830347
809.841513	3425.905139
810.161390	3437.719083
810.481223	3415.754776
810.801011	3412.810742
811.120755	3411.192532
811.440453	3398.418248
811.760107	3393.150242
812.079716	3384.862585
812.399281	3375.097870
812.718801	3375.080226
813.038276	3365.572610
813.357707	3359.866024
813.677093	3368.970348
813.996434	3351.752287
814.315731	3360.365098
814.634983	3360.135726
814.954191	3358.593133
815.273354	3375.944784
815.592473	3388.048595
815.911547	3409.413005
816.230577	3420.410282
816.549562	3446.778037
816.868502	3463.769246
817.187399	3484.982421
817.506250	3513.686751
817.825058	3522.302083
818.143821	3565.623239
818.462539	3611.391875
818.781213	3664.560924
819.099843	3750.578132
819.418429	3902.357192
819.736970	4056.165317
820.055466	4243.292948
820.373919	4484.648270
820.692327	4819.469106
821.010691	5328.834852
821.329011	6410.719400
821.647286	8156.473497
821.965517	10320.149331
822.283704	11935.292173
822.601847	13028.211807
822.919945	12617.241822
823.237999	11931.738160
823.556010	11038.977540
823.873976	10094.751781
824.191897	9125.148853
824.509775	8351.752674
824.827609	7552.485293
825.145398	7006.520770
825.463144	6622.672193
825.780845	6492.363407
826.098502	6557.709363
826.416116	6935.392610
826.733685	7439.157634
827.051210	7733.077068
827.368692	7632.264073
827.686129	7191.223606
828.003522	6635.827083
828.320872	6065.665022
828.638177	5609.112924
828.955439	5237.998301
829.272656	4897.307042
829.589830	4616.474443
829.906960	4354.815873
830.224046	4143.621774
830.541088	3974.692709
830.858086	3858.985625
831.175041	3761.928290
831.491952	3717.697206
831.808819	3700.305226
832.125642	3736.268817
832.442421	3835.869414
832.759157	4051.633319
833.075849	4431.902678
833.392497	4895.461979
833.709101	5282.781391
834.025662	5394.828597
834.342179	5267.121047
834.658653	4998.772866
834.975083	4727.944437
835.291469	4480.738855
835.607811	4258.625617
835.924110	4098.445474
836.240366	3938.658541
836.556578	3773.878345
836.872746	3641.162409
837.188871	3526.395500
837.504952	3429.806993
837.820990	3354.638348
838.136984	3296.528967
838.452935	3271.121552
838.768842	3256.156887
839.084706	3289.972947
839.400526	3424.281888
839.716303	3651.781599
840.032037	3862.249772
840.347727	3930.196964
840.663373	3839.829241
840.978977	3689.413813
841.294537	3556.418092
841.610054	3451.471351
841.925527	3374.281203
842.240957	3309.802325
842.556344	3247.027357
842.871687	3182.218283
843.186987	3124.542442
843.502244	3070.672672
843.817458	3030.287988
844.132629	2999.000067
844.447756	2975.946871
844.762840	2952.835701
845.077881	2939.688372
845.392879	2923.123140
845.707833	2913.048394
846.022745	2900.712691
846.337613	2895.996691
846.652438	2888.742471
846.967221	2883.328272
847.281960	2875.882487
847.596656	2874.292003
847.911309	2870.266642
848.225919	2863.393029
848.540485	2859.571834
848.855009	2855.309538
849.169490	2850.674197
849.483928	2849.209742
849.798323	2844.067765
850.112675	2842.079030
850.426984	2842.832683
850.741251	2840.120542
851.055474	2836.221209
851.369654	2840.193639
851.683792	2835.860767
851.997887	2837.486539
852.311938	2835.495283
852.625947	2834.981086
852.939914	2835.873370
853.253837	2837.665500
853.567718	2837.239522
853.881555	2834.905468
854.195350	2837.988134
854.509103	2838.832527
854.822812	2834.212310
855.136479	2835.374296
855.450103	2836.017043
855.763685	2829.892041
856.077224	2834.212310
856.390720	2833.897237
856.704173	2839.495439
857.017584	2839.087105
857.330953	2840.569205
857.644278	2846.099350
857.957561	2844.919720
858.270802	2845.743949
858.584000	2848.710668
858.897155	2845.302848
859.210268	2843.926613
859.523339	2841.640450
859.836367	2840.206242
860.149352	2841.211952
860.462295	2835.795232
860.775195	2833.375478
861.088054	2833.612412
861.400869	2830.693584
861.713642	2829.632421
862.026373	2831.048986
862.339062	2835.288596
862.651708	2836.334635
862.964312	2842.507528
863.276873	2843.823269
863.589392	2853.847604
863.901869	2855.586802
864.214303	2865.011239
864.526696	2874.037425
864.839045	2878.347612
865.151353	2886.773900
865.463619	2887.119219
865.775842	2891.802451
866.088023	2892.057029
866.400162	2894.597771
866.712258	2893.919736
867.024313	2899.901065
867.336325	2899.512896
867.648296	2898.058523
867.960224	2900.838719
868.272110	2905.448855
868.583954	2901.685633
868.895755	2905.844585
869.207515	2906.136972
869.519233	2911.536048
869.830909	2913.751635
870.142542	2919.644744
870.454134	2918.470155
870.765684	2923.755805
871.077191	2930.891558
871.388657	2936.870367
871.700081	2942.430759
872.011463	2947.199691
872.322803	2953.491051
872.634101	2958.018007
872.945357	2965.080663
873.256571	2973.975779
873.567744	2982.815443
873.878874	2985.295690
874.189963	2993.366578
874.501010	2996.905468
874.812015	2993.653923
875.122979	3005.316633
875.433900	3007.640605
875.744780	3011.418950
876.055618	3016.134949
876.366415	3017.564116
876.677169	3021.342461
876.987882	3027.865714
877.298554	3036.894421
877.609183	3052.385886
877.919771	3073.223496
878.230317	3094.290478
878.540822	3131.985706
878.851285	3182.334230
879.161707	3249.875609
879.472087	3355.321424
879.782425	3517.807895
880.092722	3793.435502
880.402977	4215.705233
880.713191	4758.264457
881.023363	5351.212534
881.333494	5795.219721
881.643583	6078.759419
881.953631	6152.624926
882.263637	6104.769252
882.573602	5955.210820
882.883526	5789.992044
883.193408	5589.064255
883.503248	5374.381677
883.813048	5154.645343
884.122806	4934.495634
884.432522	4698.249520
884.742197	4473.320798
885.051831	4266.981329
885.361424	4070.247780
885.670975	3902.518509
885.980485	3754.767331
886.289954	3630.696973
886.599382	3525.031868
886.908768	3439.228909
887.218113	3361.995912
887.527417	3297.443937
887.836680	3240.650297
888.145901	3192.613142
888.455082	3155.928666
888.764221	3125.943883
889.073319	3093.849377
889.382376	3074.604772
889.691392	3054.921587
890.000366	3049.283056
890.309300	3038.820141
890.618193	3039.523382
890.927044	3034.144471
891.235855	3031.283616
891.544625	3038.920964
891.853353	3043.505894
892.162041	3058.805796
892.470687	3081.296904
892.779293	3118.067080
893.087858	3161.980571
893.396381	3244.068200
893.704864	3349.808922
894.013306	3506.735000
894.321707	3691.616797
894.630068	3847.194366
894.938387	3919.648350
895.246665	3931.762243
895.554903	3873.758727
895.863100	3786.927372
896.171256	3712.391392
896.479371	3639.327429
896.787446	3558.290881
897.095480	3492.080366
897.403473	3434.626336
897.711425	3379.760938
898.019336	3326.057526
898.327207	3274.574742
898.635038	3225.899881
898.942827	3177.729136
899.250576	3132.331025
899.558284	3094.852566
899.865952	3067.353072
900.173579	3037.212013
900.481165	3015.028416
900.788711	2993.200220
901.096216	2977.300420
901.403681	2964.954635
901.711105	2959.573203
902.018489	2953.818726
902.325832	2963.142340
902.633135	2972.045017
902.940397	3010.133455
903.247619	3100.236519
903.554800	3274.244547
903.861941	3554.041188
904.169041	3814.999037
904.476101	3983.446672
904.783121	4002.618181
905.090100	3940.216258
905.397039	3833.142150
905.703938	3726.700707
906.010796	3624.304790
906.317614	3539.008467
906.624391	3456.895633
906.931129	3384.996176
907.237826	3316.885146
907.544483	3248.597676
907.851099	3175.148065
908.157675	3102.578135
908.464211	3032.891744
908.770707	2974.845378
909.077163	2926.467946
909.383578	2888.208108
909.689954	2862.573841
909.996289	2842.736901
910.302584	2831.210302
910.608839	2819.232521
910.915054	2811.010399
911.221229	2805.944039
911.527363	2806.838844
911.833458	2805.427321
912.139513	2811.247333
912.445527	2813.805719
912.751502	2823.406596
913.057436	2838.615757
913.363331	2859.269365
913.669186	2889.700290
913.975000	2925.583223
914.280775	2985.520022
914.586510	3064.950962
914.892205	3177.885411
915.197859	3323.052998
915.503475	3505.358765
915.809050	3676.470650
916.114585	3811.649191
916.420081	3890.510481
916.725536	3920.890994
917.030952	3882.426991
917.336328	3844.799818
917.641665	3798.890030
917.946961	3736.044486
918.252218	3675.643901
918.557435	3604.936677
918.862612	3537.276831
919.167750	3478.058397
919.472848	3401.828589
919.777906	3336.568332
920.082925	3266.110645
920.387904	3191.748584
920.692843	3138.246819
920.997743	3083.537697
921.302603	3036.397867
921.607423	3001.137516
921.912204	2963.747278
922.216946	2941.445214
922.521647	2917.940834
922.826310	2896.145405
923.130932	2878.899618
923.435516	2857.583099
923.740059	2843.220852
924.044564	2827.464725
924.349028	2814.909732
924.653454	2801.381795
924.957840	2788.226904
925.262186	2777.605193
925.566493	2765.405601
925.870761	2751.444125
926.174989	2748.729464
926.479178	2742.564133
926.783328	2734.460478
927.087438	2726.860938
927.391509	2721.691235
927.695541	2715.057077
927.999533	2708.301931
928.303486	2704.205993
928.607400	2701.088039
928.911275	2699.101825
929.215110	2694.776515
929.518906	2689.354754
929.822663	2692.979343
930.126381	2690.141174
930.430060	2689.392562
930.733699	2685.674712
931.037299	2688.517922
931.340861	2689.226204
931.644383	2692.397090
931.947866	2689.909281
932.251309	2690.859538
932.554714	2688.772501
932.858080	2691.542615
933.161407	2687.776873
933.464694	2687.318128
933.767943	2687.272757
934.071153	2686.100689
934.374323	2684.031295
934.677455	2681.795544
934.980548	2681.437622
935.283602	2679.484175
935.586617	2678.107940
935.889593	2682.047601
936.192530	2680.499967
936.495428	2683.862417
936.798287	2683.075997
937.101108	2688.500278
937.403890	2695.323480
937.706632	2705.557022
938.009336	2716.763507
938.312002	2728.703480
938.614628	2739.010119
938.917216	2750.367839
939.219765	2755.973602
939.522275	2765.803852
939.824747	2765.922319
940.127179	2764.682195
940.429573	2762.885024
940.731929	2764.495672
941.034246	2764.462905
941.336524	2767.490118
941.638763	2765.945004
941.940964	2764.165477
942.243126	2757.014600
942.545250	2755.222470
942.847335	2751.106368
943.149381	2744.154617
943.451389	2733.379150
943.753359	2729.578120
944.055290	2727.544015
944.357182	2723.148129
944.659036	2719.508416
944.960851	2715.082282
945.262628	2713.164123
945.564367	2711.913917
945.866067	2710.318392
946.167729	2710.779658
946.469352	2709.365614
946.770937	2707.666745
947.072484	2705.718339
947.373992	2705.093236
947.675462	2705.045345
947.976893	2701.582072
948.278286	2699.479911
948.579641	2699.542926
948.880958	2697.682740
949.182236	2695.767102
949.483476	2697.801207
949.784678	2695.212575
950.085841	2694.884900
950.386967	2696.944211
950.688054	2700.183152
950.989103	2699.172401
951.290114	2703.714481
951.591087	2706.928216
951.892021	2711.538351
952.192917	2716.473641
952.493776	2721.149311
952.794596	2723.508571
953.095378	2723.949672
953.396122	2724.773901
953.696828	2727.980075
953.997496	2725.109138
954.298126	2718.376677
954.598718	2719.105123
954.899272	2714.018599
955.199788	2709.385779
955.500266	2705.267156
955.800706	2700.432689
956.101108	2691.746781
956.401472	2684.001048
956.701798	2681.455266
957.002087	2671.826662
957.302337	2667.259377
957.602550	2664.232164
957.902724	2656.829229
958.202861	2654.389311
958.502960	2647.543424
958.803022	2643.984369
959.103045	2641.216776
959.403031	2638.849954
959.702979	2634.244860
960.002889	2630.065743
960.302762	2628.543315
960.602596	2626.642800
960.902393	2622.297325
961.202153	2621.095010
961.501875	2621.581482
961.801559	2620.096862
962.101205	2616.333640
962.400814	2615.103599
962.700385	2614.841459
962.999918	2613.296345
963.299414	2612.237703
963.598873	2611.027826
963.898293	2610.934565
964.197677	2610.548916
964.497022	2607.486415
964.796331	2609.523042
965.095601	2605.381734
965.394835	2609.371807
965.694030	2607.713267
965.993189	2608.164451
966.292309	2604.794439
966.591393	2604.229830
966.890439	2605.517845
967.189447	2604.194542
967.488419	2608.131683
967.787353	2607.035232
968.086249	2605.343925
968.385108	2606.183277
968.683930	2606.455499
968.982714	2606.478185
969.281462	2606.541199
969.580172	2610.881633
969.878844	2609.303751
970.177480	2612.081427
970.476078	2611.809205
970.774639	2613.394648
971.073162	2613.366921
971.371649	2615.557303
971.670098	2615.935389
971.968510	2613.687035
972.266885	2612.038577
972.565223	2619.570061
972.863524	2619.388580
973.161788	2621.647017
973.460014	2621.944445
973.758204	2621.556276
974.056356	2622.872017
974.354471	2623.935700
974.652550	2624.465022
974.950591	2626.443674
975.248595	2625.080042
975.546563	2625.750516
975.844493	2623.376132
976.142386	2620.759773
976.440243	2620.600977
976.738062	2619.927983
977.035845	2619.973353
977.333590	2618.448404
977.631299	2618.839094
977.928971	2617.667026
978.226606	2614.085286
978.524204	2614.274329
978.821765	2615.340533
979.119290	2613.147631
979.416777	2612.305758
979.714228	2613.802981
980.011642	2615.204422
980.309020	2618.098044
980.606360	2616.555451
980.903664	2619.958230
981.200931	2629.617081
981.498162	2632.659417
981.795356	2645.582415
982.092513	2659.667399
982.389633	2674.783299
982.686717	2695.797348
982.983764	2709.511807
983.280775	2725.620815
983.577749	2731.554253
983.874686	2729.321022
984.171587	2728.287585
984.468451	2724.110989
984.765279	2713.025492
985.062070	2707.560881
985.358824	2702.524768
985.655543	2692.288705
985.952224	2682.622293
986.248869	2669.371620
986.545478	2653.809578
986.842050	2643.686941
987.138586	2633.312247
987.435086	2621.536111
987.731549	2616.626027
988.027975	2615.232148
988.324366	2606.941971
988.620719	2605.474995
988.917037	2604.754110
989.213318	2603.503904
989.509563	2599.917123
989.805772	2596.569797
990.101944	2596.456371
990.398080	2597.567945
990.694180	2594.949066
990.990244	2595.117944
991.286271	2593.998808
991.582262	2594.654158
991.878217	2596.189190
992.174136	2596.216916
992.470019	2597.358737
992.765865	2596.842019
993.061676	2600.857298
993.357450	2601.172370
993.653188	2602.203286
993.948890	2604.587752
994.244556	2606.286621
994.540186	2612.111674
994.835780	2617.382200
995.131337	2620.119547
995.426859	2631.121865
995.722345	2637.415746
996.017795	2648.009731
996.313208	2658.535660
996.608586	2665.091680
996.903928	2666.488080
997.199234	2667.115704
997.494504	2669.681651
997.789738	2664.874911
998.084936	2664.232164
998.380099	2657.124137
998.675225	2653.149187
998.970316	2649.910246
999.265371	2641.829276
999.560390	2634.544809
999.855373	2627.613222
1000.150320	2621.704990
1000.445232	2616.419340
1000.740108	2610.135542
1001.034948	2606.808380
1001.329752	2604.436517
1001.624521	2602.631784
1001.919254	2595.201123
1002.213951	2592.413365
1002.508613	2594.719693
1002.803239	2590.961513
1003.097829	2588.032603
1003.392384	2590.747264
1003.686903	2593.194744
1003.981386	2590.989239
1004.275834	2589.434043
1004.570246	2589.187027
1004.864623	2586.953796
1005.158964	2587.155442
1005.453270	2585.708631
1005.747540	2583.198136
1006.041775	2585.509505
1006.335974	2585.058322
1006.630138	2583.495564
1006.924266	2585.635534
1007.218359	2584.473548
1007.512416	2583.445153
1007.806438	2584.604618
1008.100425	2586.361460
1008.394376	2584.692838
1008.688292	2585.471697
1008.982172	2583.069587
1009.276017	2583.127560
1009.569827	2583.470358
1009.863602	2583.359453
1010.157341	2581.040522
1010.451045	2583.246027
1010.744714	2584.889443
1011.038347	2584.433219
1011.331945	2580.886767
1011.625508	2581.922724
1011.919036	2582.154617
1012.212528	2581.655543
1012.505986	2582.096644
1012.799408	2580.324678
1013.092795	2580.894329
1013.386147	2580.344843
1013.679464	2582.653692
1013.972745	2581.539597
1014.265992	2580.175964
1014.559204	2581.658064
1014.852380	2582.525142
1015.145521	2581.579926
1015.438628	2579.134966
1015.731699	2580.730491
1016.024736	2583.530852
1016.317737	2580.564133
1016.610703	2582.951120
1016.903635	2579.399627
1017.196531	2579.959195
1017.489393	2577.925089
1017.782219	2577.063052
1018.075011	2578.986252
1018.367768	2582.608321
1018.660490	2583.225862
1018.953177	2583.225862
1019.245829	2583.225862
