Dividing Wavelength (nm)	Counts (n)	Blue Motor Position (mm): 8.800000	Red Motor Position (mm): 0.000000	
326.493990	2141.794705
326.888308	2141.794705
327.282561	2141.794705
327.676750	2108.923862
328.070874	2107.129211
328.464933	2108.150045
328.858929	2117.897116
329.252859	2123.480193
329.646726	2137.136679
330.040528	2148.917856
330.434265	2166.327481
330.827938	2183.825326
331.221547	2203.024560
331.615091	2222.974926
332.008571	2239.474623
332.401986	2261.093611
332.795338	2277.822680
333.188625	2301.009467
333.581847	2317.471355
333.975006	2336.032884
334.368100	2356.257993
334.761129	2371.479757
335.154095	2389.070863
335.546996	2408.731363
335.939833	2423.620411
336.332606	2435.298244
336.725315	2447.530604
337.117960	2459.725155
337.510540	2466.944087
337.903056	2481.984370
338.295508	2484.754484
338.687896	2493.997439
339.080220	2505.047649
339.472480	2514.308248
339.864676	2513.121057
340.256807	2522.437109
340.648875	2518.343692
341.040879	2523.994825
341.432818	2523.853673
341.824694	2527.238808
342.216506	2528.332738
342.608253	2527.684950
342.999937	2525.318128
343.391557	2525.514733
343.783113	2523.253776
344.174605	2524.337624
344.566033	2522.250586
344.957397	2524.030113
345.348697	2523.543642
345.739934	2520.047602
346.131106	2518.109278
346.522215	2515.442508
346.913260	2512.052332
347.304241	2511.288597
347.695159	2510.862620
348.086012	2510.114008
348.476802	2508.122752
348.867528	2504.503204
349.258191	2501.160919
349.648789	2501.677637
350.039324	2499.867863
350.429796	2498.957935
350.820203	2496.397029
351.210548	2499.661176
351.600828	2495.537512
351.991045	2498.239570
352.381198	2492.417038
352.771288	2493.820999
353.161314	2494.909888
353.551276	2494.821668
353.941175	2494.577172
354.331010	2494.428458
354.720782	2495.192193
355.110490	2493.163128
355.500135	2495.013232
355.889717	2492.371667
356.279235	2492.258241
356.668689	2495.731596
357.058080	2496.807883
357.447408	2493.200937
357.836672	2494.458705
358.225873	2494.602378
358.615010	2492.979126
359.004084	2495.103973
359.393095	2496.785198
359.782043	2493.964672
360.170927	2496.099601
360.559748	2498.660507
360.948505	2497.664879
361.337199	2498.463902
361.725830	2499.199910
362.114398	2500.225785
362.502903	2500.588748
362.891344	2502.249808
363.279722	2502.154026
363.668037	2501.528923
364.056289	2503.184942
364.444478	2502.184273
364.832603	2505.627381
365.220665	2502.814417
365.608665	2505.145951
365.996601	2506.743997
366.384474	2504.740138
366.772284	2505.229130
367.160031	2503.139572
367.547715	2505.478667
367.935336	2505.423215
368.322893	2506.922958
368.710388	2504.961949
369.097820	2511.296159
369.485189	2503.220230
369.872495	2508.493277
370.259738	2508.800788
370.646918	2507.222907
371.034035	2508.833555
371.421090	2507.172495
371.808081	2508.198370
372.195010	2511.717095
372.581875	2511.616272
372.968678	2512.621982
373.355418	2510.887825
373.742096	2511.762466
374.128710	2510.900428
374.515262	2512.246416
374.901751	2511.790192
375.288177	2511.525531
375.674540	2510.882784
376.060841	2512.034688
376.447079	2510.723988
376.833254	2513.158865
377.219367	2507.265756
377.605417	2513.776407
377.991404	2506.675941
378.377329	2511.933865
378.763191	2509.148627
379.148991	2513.337826
379.534727	2510.905469
379.920402	2512.561488
380.306013	2514.373783
380.691563	2514.058711
381.077049	2512.427898
381.462474	2515.326561
381.847835	2514.530059
382.233134	2513.942765
382.618371	2515.094668
383.003545	2514.373783
383.388657	2514.252796
383.773706	2514.688855
384.158693	2516.168434
384.543618	2518.840246
384.928480	2518.731861
385.313280	2515.876047
385.698017	2515.742457
386.082692	2520.458456
386.467305	2517.053157
386.851856	2517.945441
387.236344	2515.636592
387.620770	2520.034999
388.005133	2518.847807
388.389435	2519.346882
388.773674	2517.327899
389.157851	2516.667508
389.541965	2519.339320
389.926018	2518.106758
390.310008	2518.053826
390.693936	2522.686646
391.077802	2519.442663
391.461606	2520.834022
391.845348	2519.178003
392.229027	2521.436440
392.612645	2517.582478
392.996200	2521.438960
393.379694	2519.276305
393.763125	2520.450894
394.146494	2520.403003
394.529801	2522.016173
394.913047	2523.377284
395.296230	2522.855525
395.679351	2521.406193
396.062410	2523.079856
396.445408	2519.775380
396.828343	2522.739578
397.211217	2514.603156
397.594028	2519.787982
397.976778	2520.060205
398.359466	2521.209588
398.742092	2515.934020
399.124656	2522.487520
399.507158	2522.341327
399.889598	2525.373581
400.271977	2521.691018
400.654294	2524.985412
401.036549	2526.313756
401.418742	2524.829136
401.800874	2525.938190
402.182944	2526.197810
402.564952	2523.977181
402.946898	2526.946421
403.328783	2521.633045
403.710606	2527.470701
404.092367	2525.134126
404.474067	2525.174455
404.855705	2524.882068
405.237282	2529.043541
405.618797	2526.220495
406.000250	2526.215454
406.381642	2527.324507
406.762972	2528.378109
407.144240	2530.132430
407.525447	2526.744775
407.906593	2527.677388
408.287677	2527.788294
408.668700	2524.912315
409.049661	2529.114117
409.430560	2526.522964
409.811399	2529.315763
410.192176	2526.182686
410.572891	2527.987419
410.953545	2526.091945
411.334138	2527.170752
411.714669	2528.342821
412.095139	2531.617050
412.475547	2527.737882
412.855894	2529.532533
413.236180	2529.109076
413.616405	2533.212575
413.996568	2529.623274
414.376670	2530.949097
414.756711	2527.755526
415.136691	2529.691329
415.516609	2531.712832
415.896466	2531.334745
416.276262	2531.566638
416.655997	2531.067564
417.035670	2525.166894
417.415283	2527.649662
417.794834	2526.449867
418.174324	2531.826258
418.553753	2529.421628
418.933121	2532.360620
419.312428	2528.559590
419.691674	2530.013963
420.070859	2530.167718
420.449983	2531.294416
420.829045	2533.041176
421.208047	2531.334745
421.586988	2533.812473
421.965867	2530.548325
422.344686	2534.268697
422.723444	2533.774664
423.102141	2533.494880
423.480777	2532.758871
423.859352	2528.231915
424.237866	2532.705939
424.616319	2533.084026
424.994712	2533.774664
425.373044	2534.674510
425.751314	2534.853471
426.129524	2533.280631
426.507673	2535.387833
426.885762	2534.825744
427.263789	2535.773481
427.641756	2533.875487
428.019662	2536.348173
428.397508	2533.734335
428.775292	2537.336239
429.153016	2534.850950
429.530679	2534.785415
429.908282	2534.195600
430.285824	2532.411032
430.663305	2535.856660
431.040726	2534.180477
431.418086	2536.317926
431.795385	2533.842719
432.172624	2537.502597
432.549802	2535.234078
432.926920	2535.284489
433.303977	2537.134593
433.680974	2535.985210
434.057910	2535.110570
434.434786	2535.478574
434.811601	2537.043852
435.188355	2536.811959
435.565050	2537.653832
435.941683	2538.825900
436.318257	2534.692154
436.694770	2530.913809
437.071222	2533.061341
437.447614	2532.292565
437.823946	2532.073274
438.200218	2533.381454
438.576429	2536.809438
438.952580	2536.267514
439.328670	2538.261291
439.704700	2533.628470
440.080670	2537.245498
440.456580	2536.396064
440.832429	2538.387320
441.208218	2540.802032
441.583947	2539.072917
441.959616	2536.774150
442.335224	2536.968235
442.710773	2536.892617
443.086261	2539.899666
443.461689	2540.108874
443.837057	2538.021836
444.212365	2536.963194
444.587612	2538.702392
444.962800	2539.577032
445.337927	2535.692823
445.712995	2536.466640
446.088002	2539.108205
446.462949	2539.307330
446.837837	2540.222300
447.212664	2537.868081
447.587431	2538.473019
447.962139	2537.384130
448.336786	2542.389996
448.711374	2539.783719
449.085901	2539.652649
449.460369	2539.130890
449.834776	2540.842362
450.209124	2536.794315
450.583412	2542.977290
450.957640	2540.628112
451.331808	2539.491332
451.705917	2542.072403
452.079965	2540.171888
452.453954	2538.122659
452.827883	2541.724563
453.201752	2539.635005
453.575562	2541.018802
453.949311	2543.602393
454.323001	2542.818494
454.696632	2539.597197
455.070202	2541.659028
455.443713	2540.867567
455.817164	2540.391178
456.190556	2540.711292
456.563888	2538.099974
456.937160	2536.915303
457.310373	2541.059131
457.683526	2541.737166
458.056619	2542.480737
458.429653	2540.277752
458.802628	2542.440407
459.175542	2543.294883
459.548398	2542.505942
459.921194	2542.140459
460.293930	2541.913607
460.666607	2541.863195
461.039224	2543.403268
461.411782	2541.727084
461.784280	2542.679862
462.156719	2541.953936
462.529099	2543.854451
462.901419	2544.083823
463.273680	2540.144162
463.645882	2542.460572
464.018024	2543.284801
464.390106	2544.078782
464.762130	2541.608617
465.134094	2544.156920
465.505999	2544.164482
465.877845	2545.386962
466.249631	2544.073741
466.621358	2542.183308
466.993026	2545.800336
467.364634	2547.509288
467.736184	2543.105840
468.107674	2543.743546
468.479105	2538.185673
468.850477	2542.468134
469.221790	2545.417209
469.593043	2545.177754
469.964238	2546.574153
470.335373	2543.330171
470.706449	2543.236910
471.077467	2544.338402
471.448425	2544.144317
471.819324	2542.790768
472.190164	2542.533669
472.560945	2546.122970
472.931667	2546.377548
473.302330	2544.724050
473.672934	2545.066848
474.043479	2545.094575
474.413965	2547.020296
474.784393	2540.348328
475.154761	2540.076106
475.525070	2541.706919
475.895321	2542.132897
476.265513	2539.950077
476.635645	2547.065666
477.005719	2544.746735
477.375734	2547.547096
477.745691	2543.236910
478.115588	2548.759494
478.485427	2545.167672
478.855207	2547.778989
479.224928	2545.704554
479.594591	2545.069369
479.964194	2547.388300
480.333739	2545.923845
480.703226	2546.833773
481.072653	2544.892929
481.442022	2544.439225
481.811333	2544.892929
482.180584	2542.765562
482.549777	2544.666077
482.918912	2547.295038
483.287988	2546.133053
483.657005	2546.826211
484.025964	2544.598021
484.394864	2547.824360
484.763706	2548.293187
485.132489	2546.793444
485.501213	2547.300080
485.869879	2547.600028
486.238487	2546.155738
486.607036	2545.081972
486.975527	2545.843186
487.343959	2547.088351
487.712333	2546.470810
488.080648	2545.260933
488.448905	2545.800336
488.817104	2547.239586
489.185244	2546.533824
489.553326	2546.818649
489.921350	2546.559030
490.289315	2547.350491
490.657222	2548.489792
491.025070	2547.726057
491.392861	2546.145655
491.760593	2545.734801
492.128267	2545.500388
492.495883	2544.414019
492.863440	2549.382076
493.230939	2546.954761
493.598380	2544.214893
493.965763	2543.315047
494.333088	2546.425439
494.700354	2546.135573
495.067563	2546.112888
495.434713	2542.541230
495.801805	2547.710934
496.168839	2548.376366
496.535815	2545.533155
496.902733	2545.180274
497.269593	2548.638506
497.636395	2547.093392
498.003139	2548.605738
498.369825	2548.918290
498.736453	2551.088507
499.103023	2546.732950
499.469535	2548.242775
499.835989	2547.771427
500.202385	2548.714123
500.568723	2547.181612
500.935003	2549.505584
501.301226	2548.386448
501.667390	2550.644885
502.033497	2549.409802
502.399546	2546.911911
502.765537	2550.556665
503.131470	2547.869730
503.497345	2551.143959
503.863163	2551.955585
504.228923	2548.152035
504.594625	2548.230173
504.960269	2550.067673
505.325856	2549.936603
505.691385	2547.670604
506.056856	2551.900133
506.422270	2547.559699
506.787625	2549.742519
507.152924	2549.495502
507.518164	2549.135060
507.883347	2549.044319
508.248472	2549.543393
508.613540	2549.026675
508.978550	2549.855945
509.343503	2550.385266
509.708398	2549.326623
510.073236	2549.840821
510.438016	2549.137580
510.802738	2550.498692
511.167403	2551.083466
511.532010	2552.636141
511.896561	2550.503733
512.261053	2551.287632
512.625488	2547.577343
512.989866	2545.008875
513.354186	2548.333516
513.718449	2543.977959
514.082655	2548.109185
514.446803	2549.344267
514.810894	2548.585574
515.174927	2550.168496
515.538904	2546.248999
515.902822	2550.508774
516.266684	2549.339226
516.630488	2551.017931
516.994235	2550.022303
517.357925	2548.741850
517.721558	2551.552293
518.085133	2548.383928
518.448651	2551.688404
518.812112	2547.625234
519.175516	2549.470296
519.538863	2552.366439
519.902152	2549.069525
520.265385	2552.237890
520.628560	2547.277394
520.991678	2552.038764
521.354739	2550.173537
521.717743	2547.814277
522.080690	2550.234031
522.443580	2552.343754
522.806413	2551.655637
523.169189	2548.951057
523.531908	2550.541542
523.894569	2550.251675
524.257174	2550.024823
524.619722	2549.210677
524.982213	2551.385935
525.344647	2550.226469
525.707025	2549.830739
526.069345	2547.582384
526.431608	2551.668239
526.793815	2548.938455
527.155964	2550.140770
527.518057	2553.609084
527.880093	2553.740154
528.242072	2552.336192
528.603995	2552.268137
528.965860	2551.882488
529.327669	2548.789741
529.689421	2549.833259
530.051117	2549.835780
530.412755	2552.242931
530.774337	2552.936090
531.135862	2553.810730
531.497331	2550.387786
531.858743	2547.952909
532.220098	2553.404917
532.581396	2550.314690
532.942638	2549.397200
533.303824	2550.435677
533.664953	2552.744526
534.026025	2550.851573
534.387040	2552.941131
534.747999	2551.519525
535.108902	2552.374001
535.469748	2553.238559
535.830537	2553.135215
536.191270	2552.636141
536.551947	2554.055226
536.912567	2554.677808
537.273131	2553.840977
537.633638	2556.137222
537.994089	2553.077242
538.354483	2554.070349
538.714821	2556.059084
539.075103	2555.529763
539.435328	2551.227138
539.795497	2555.262582
540.155609	2558.146122
540.515665	2557.037068
540.875665	2555.807027
541.235609	2554.912222
541.595496	2556.721996
541.955328	2554.758467
542.315102	2556.903478
542.674821	2555.441543
543.034483	2557.831050
543.394090	2555.285267
543.753640	2556.190154
544.113134	2556.359033
544.472571	2557.095042
544.831953	2559.756771
545.191278	2556.449774
545.550548	2558.662840
545.909761	2557.863818
546.268918	2557.868859
546.628019	2559.376164
546.987064	2557.692418
547.346053	2556.858107
547.704986	2558.809034
548.063863	2560.523026
548.422684	2556.452294
548.781449	2557.649568
549.140158	2558.927501
549.498811	2557.591595
549.857408	2559.973540
550.215949	2555.018086
550.574434	2555.214691
550.932864	2557.289126
551.291237	2553.939279
551.649555	2560.102090
552.007817	2559.615618
552.366022	2558.803993
552.724173	2560.500341
553.082267	2557.019424
553.440305	2557.437840
553.798288	2561.987481
554.156215	2560.061761
554.514086	2560.949004
554.871902	2560.780125
555.229661	2560.223078
555.587365	2560.777604
555.945014	2559.214847
556.302606	2561.523695
556.660143	2559.166956
557.017625	2561.972358
557.375050	2561.127965
557.732421	2557.619322
558.089735	2560.601164
558.446994	2561.458160
558.804197	2559.814744
559.161345	2561.238870
559.518437	2560.782646
559.875474	2556.361554
560.232455	2561.848850
560.589381	2558.874569
560.946251	2563.396484
561.303065	2559.146791
561.659825	2561.495969
562.016528	2558.720814
562.373177	2557.677295
562.729770	2561.165773
563.086307	2560.190310
563.442789	2558.980433
563.799216	2561.019580
564.155587	2561.168294
564.511904	2559.345917
564.868164	2562.292471
565.224370	2557.954558
565.580520	2560.028993
565.936615	2560.638973
566.292654	2561.180897
566.648638	2558.710731
567.004567	2559.340876
567.360441	2559.686195
567.716260	2558.057902
568.072023	2559.958417
568.427732	2554.329969
568.783385	2555.212171
569.138982	2557.236194
569.494525	2559.913047
569.850013	2554.728220
570.205445	2559.688715
570.560823	2561.100238
570.916145	2560.097049
571.271412	2558.514126
571.626625	2560.361709
571.981782	2558.390618
572.336884	2557.591595
572.691931	2557.647048
573.046923	2559.391287
573.401860	2556.487583
573.756743	2559.187120
574.111570	2558.491441
574.466342	2559.189641
574.821059	2556.411965
575.175722	2556.134702
575.530330	2557.818447
575.884882	2559.416493
576.239380	2556.976574
576.593823	2559.466904
576.948211	2554.927345
577.302544	2554.627397
577.656823	2557.795762
578.011047	2559.643345
578.365216	2556.860628
578.719330	2556.590926
579.073389	2555.754095
579.427394	2554.425751
579.781344	2557.299208
580.135239	2559.434137
580.489080	2559.290464
580.842866	2559.668551
581.196597	2561.526216
581.550273	2556.517829
581.903895	2558.549414
582.257463	2559.015721
582.610975	2555.756615
582.964434	2556.396842
583.317837	2557.407593
583.671186	2558.007490
584.024481	2557.644527
584.377721	2555.355843
584.730906	2557.677295
585.084037	2557.271482
585.437113	2556.628735
585.790135	2557.541184
586.143103	2557.498334
586.496016	2555.870041
586.848874	2553.967006
587.201679	2554.715617
587.554428	2551.441387
587.907124	2556.737120
588.259765	2552.265616
588.612352	2556.601008
588.964884	2556.822819
589.317362	2557.130330
589.669786	2555.290308
590.022155	2556.253169
590.374470	2553.697304
590.726731	2557.054712
591.078937	2555.370967
591.431090	2553.311656
591.783188	2556.028837
592.135232	2555.955741
592.487222	2557.642007
592.839157	2559.459343
593.191038	2553.089845
593.542866	2555.476831
593.894639	2558.027655
594.246358	2555.494475
594.598022	2555.406255
594.949633	2556.384239
595.301190	2551.950544
595.652692	2554.733261
596.004141	2555.738971
596.355535	2557.052192
596.706876	2554.367777
597.058162	2553.077242
597.409395	2554.559341
597.760573	2555.355843
598.111698	2557.271482
598.462768	2556.626214
598.813785	2556.777449
599.164748	2552.812581
599.515657	2552.429454
599.866511	2559.393808
600.217312	2557.629404
600.568060	2556.316183
600.918753	2557.702501
601.269392	2554.728220
601.619978	2557.820968
601.970510	2557.649568
602.320988	2555.723848
602.671412	2557.599157
603.021783	2555.255020
603.372100	2556.119578
603.722363	2555.108827
604.072572	2555.486913
604.422728	2555.746533
604.772830	2551.867365
605.122878	2552.792417
605.472872	2553.692263
605.822813	2552.184958
606.172701	2553.586398
606.522534	2556.913560
606.872314	2554.576985
607.222041	2556.648899
607.571714	2555.865000
607.921333	2556.870710
608.270899	2555.038251
608.620411	2557.405072
608.969870	2558.433468
609.319276	2560.888510
609.668627	2560.550753
610.017926	2562.753737
610.367171	2563.512430
610.716362	2564.697102
611.065500	2561.982440
611.414585	2562.423541
611.763616	2561.556463
612.112594	2562.504200
612.461518	2559.590413
612.810389	2558.206616
613.159207	2559.083777
613.507971	2559.943293
613.856682	2557.304249
614.205340	2561.354817
614.553945	2557.379867
614.902496	2559.199723
615.250994	2561.879097
615.599439	2560.149981
615.947830	2560.268448
616.296169	2556.653941
616.644454	2556.918601
616.992686	2556.976574
617.340864	2556.172510
617.688990	2557.634445
618.037063	2560.102090
618.385082	2556.492624
618.733048	2561.440516
619.080961	2560.114693
619.428821	2561.944632
619.776628	2560.031514
620.124382	2562.045455
620.472083	2560.797769
620.819731	2561.054868
621.167326	2560.896072
621.514868	2561.974878
621.862357	2558.619991
622.209793	2558.998077
622.557176	2561.354817
622.904506	2560.533108
623.251783	2555.197047
623.599007	2557.745350
623.946179	2553.215874
624.293297	2555.920453
624.640363	2559.872717
624.987376	2560.651576
625.334336	2560.129816
625.681243	2559.756771
626.028097	2557.873900
626.374899	2560.593602
626.721647	2558.554456
627.068343	2559.734086
627.414987	2559.482028
627.761577	2559.413972
628.108115	2560.954045
628.454600	2562.514282
628.801032	2560.180228
629.147412	2559.088818
629.493739	2560.623849
629.840014	2563.237688
630.186236	2562.100907
630.532405	2560.283571
630.878521	2561.637121
631.224585	2562.927657
631.570597	2562.768860
631.916556	2563.106617
632.262462	2558.516647
632.608316	2560.860783
632.954117	2561.838767
633.299866	2561.415310
633.645562	2562.504200
633.991206	2563.220043
634.336797	2561.750547
634.682336	2561.979920
635.027823	2562.642831
635.373257	2563.565362
635.718639	2564.687019
636.063968	2563.131823
636.409245	2560.316339
636.754470	2563.396484
637.099642	2561.309446
637.444762	2563.207441
637.789829	2561.458160
638.134845	2565.803635
638.479808	2564.508058
638.824719	2564.319015
639.169577	2565.221382
639.514383	2564.860939
639.859137	2565.423028
640.203839	2566.796742
640.548489	2562.093346
640.893086	2564.883624
641.237632	2560.906154
641.582125	2564.021587
641.926566	2560.202913
642.270955	2566.849674
642.615292	2565.324725
642.959576	2567.505024
643.303809	2566.839592
643.647990	2567.394119
643.992118	2567.038717
644.336195	2568.578790
644.680219	2566.917730
645.024192	2569.161043
645.368112	2569.423183
645.711981	2571.237999
646.055797	2572.531055
646.399562	2573.506518
646.743274	2574.192115
647.086935	2576.760583
647.430544	2577.612538
647.774101	2578.673701
648.117606	2581.564802
648.461059	2578.610686
648.804460	2581.269895
649.147810	2581.093454
649.491108	2578.678742
649.834354	2578.716550
650.177548	2577.312589
650.520690	2578.129256
650.863781	2580.692683
651.206820	2581.627817
651.549807	2582.394072
651.892742	2581.247210
652.235626	2580.604463
652.578458	2584.004721
652.921238	2581.864751
653.263967	2582.023547
653.606644	2581.254771
653.949269	2584.125708
654.291843	2582.991449
654.634365	2587.094948
654.976836	2587.258786
655.319255	2587.205853
655.661622	2588.864393
656.003938	2589.686101
656.346203	2589.272727
656.688416	2591.059816
657.030577	2590.974116
657.372687	2591.024527
657.714746	2594.429827
658.056753	2593.134250
658.398708	2590.573344
658.740612	2591.082501
659.082465	2595.735486
659.424266	2593.451843
659.766016	2595.458222
660.107715	2600.219592
660.449362	2601.752103
660.790958	2600.915271
661.132503	2602.750251
661.473996	2607.383072
661.815438	2607.909872
662.156829	2608.295521
662.498168	2610.387599
662.839456	2612.961108
663.180693	2613.334154
663.521879	2615.569906
663.863013	2614.987652
664.204097	2619.199536
664.545129	2618.463528
664.886110	2623.277830
665.227040	2625.495938
665.567918	2624.916205
665.908746	2630.728655
666.249522	2630.101032
666.590248	2630.816875
666.930922	2633.322329
667.271545	2637.783750
667.612118	2638.975983
667.952639	2638.199645
668.293109	2643.578556
668.633528	2644.186015
668.973896	2642.351035
669.314213	2643.129894
669.654480	2648.561737
669.994695	2646.015954
670.334859	2646.439411
670.674973	2649.133908
671.015035	2651.798158
671.355047	2653.623055
671.695008	2659.311997
672.034918	2655.281595
672.374777	2660.108500
672.714585	2662.636638
673.054342	2663.614622
673.394049	2666.094870
673.733705	2672.666014
674.073310	2671.919923
674.412864	2668.325581
674.752368	2676.545182
675.091820	2677.097188
675.431223	2673.321364
675.770574	2676.658608
676.109875	2674.732887
676.449125	2676.199863
676.788324	2677.417302
677.127473	2679.978208
677.466571	2677.240861
677.805619	2684.709331
678.144616	2686.806451
678.483562	2686.703107
678.822458	2686.566996
679.161303	2689.647141
679.500098	2690.736030
679.838842	2691.711493
680.177535	2695.875486
680.516179	2697.420600
680.854771	2701.410673
681.193314	2709.733618
681.531805	2713.837117
681.870247	2732.892679
682.208638	2741.724781
682.546978	2741.066910
682.885268	2740.754358
683.223508	2745.505646
683.561697	2742.483474
683.899836	2742.659915
684.237925	2742.410377
684.575963	2745.692169
684.913951	2744.880543
685.251889	2758.002666
685.589776	2752.946389
685.927614	2754.405803
686.265401	2765.947525
686.603137	2768.024480
686.940824	2778.799947
687.278460	2782.351439
687.616046	2793.804941
687.953582	2797.573203
688.291068	2801.717032
688.628504	2816.729588
688.965889	2811.237251
689.303224	2809.162816
689.640510	2809.303968
689.977745	2806.357414
690.314930	2800.691157
690.652065	2794.896351
690.989150	2786.588529
691.326185	2785.338323
691.663170	2784.637603
692.000105	2781.353291
692.336990	2772.798453
692.673825	2774.958587
693.010610	2770.688730
693.347345	2755.724065
693.684030	2768.364758
694.020665	2762.461567
694.357251	2752.863210
694.693786	2760.888727
695.030272	2762.627925
695.366707	2761.690270
695.703093	2757.972419
696.039429	2767.359048
696.375716	2769.677979
696.711952	2765.839140
697.048139	2767.462392
697.384276	2766.600354
697.720363	2774.522527
698.056400	2781.819598
698.392388	2776.271808
698.728326	2772.748041
699.064214	2768.596651
699.400053	2776.977569
699.735842	2779.956891
700.071581	2774.928340
700.407270	2773.771396
700.742910	2774.958587
701.078501	2766.237391
701.414042	2776.228958
701.749533	2773.121087
702.084974	2761.977616
702.420366	2772.982455
702.755709	2767.548091
703.091002	2764.495672
703.426246	2777.758948
703.761440	2762.464087
704.096584	2760.331679
704.431679	2770.131682
704.766725	2770.897938
705.101721	2774.951026
705.436668	2781.451593
705.771565	2768.185797
706.106413	2774.061262
706.441212	2789.013324
706.775961	2794.417441
707.110661	2785.550052
707.445311	2788.388221
707.779913	2805.563432
708.114465	2810.223979
708.448967	2805.644091
708.783421	2820.502892
709.117825	2833.176352
709.452180	2835.986796
709.786485	2841.562312
710.120742	2862.556197
710.454949	2857.041175
710.789107	2871.620192
711.123216	2883.240051
711.457275	2884.719630
711.791286	2904.430542
712.125247	2914.739701
712.459159	2886.801627
712.793023	2894.668347
713.126837	2918.046698
713.460602	2917.761873
713.794318	2887.799775
714.127985	2901.075654
714.461602	2895.921074
714.795171	2881.634444
715.128691	2873.765203
715.462162	2872.764534
715.795584	2868.169522
716.128957	2869.306302
716.462281	2853.207377
716.795556	2851.518591
717.128782	2855.685104
717.461960	2845.166737
717.795088	2849.161851
718.128167	2845.688496
718.461198	2826.368274
718.794180	2828.230981
719.127113	2834.855057
719.459997	2837.617609
719.792833	2821.800989
720.125619	2819.550114
720.458357	2819.431647
720.791046	2829.965137
721.123686	2820.497851
721.456278	2811.166675
721.788821	2820.739826
722.121315	2814.990390
722.453761	2806.422949
722.786158	2821.949703
723.118506	2826.020435
723.450805	2808.066365
723.783056	2812.966367
724.115259	2831.152329
724.447412	2833.299861
724.779518	2825.153356
725.111574	2832.400015
725.443582	2839.066941
725.775542	2837.665500
726.107453	2854.538242
726.439315	2857.305835
726.771129	2856.889940
727.102895	2861.497555
727.434612	2885.374980
727.766281	2884.228118
728.097901	2877.478013
728.429473	2883.151831
728.760996	2889.571741
729.092471	2880.802653
729.423897	2889.622152
729.755276	2898.875190
730.086606	2893.975188
730.417887	2895.618605
730.749120	2916.665422
731.080305	2946.751028
731.411442	2952.790330
731.742530	2937.271138
732.073570	2940.043773
732.404562	2959.578244
732.735506	2962.923050
733.066401	2952.840742
733.397249	2937.119904
733.728048	2921.550300
734.058798	2916.254568
734.389501	2898.792011
734.720156	2874.823845
735.050762	2871.663042
735.381320	2883.035885
735.711831	2861.560569
736.042293	2854.432378
736.372707	2870.385109
736.703073	2859.859180
737.033391	2852.262161
737.363661	2860.491845
737.693883	2874.095398
738.024056	2876.391644
738.354182	2867.867053
738.684260	2894.040723
739.014290	2898.071126
739.344272	2893.806310
739.674207	2909.121335
740.004093	2911.198291
740.333931	2906.530182
740.663722	2919.806061
740.993464	2921.696493
741.323159	2908.602096
741.652806	2906.840213
741.982405	2904.647311
742.311956	2899.618760
742.641460	2896.725138
742.970915	2894.423851
743.300323	2882.763662
743.629683	2871.796632
743.958996	2874.302086
744.288260	2870.576673
744.617477	2863.352699
744.946647	2855.047398
745.275768	2853.824919
745.604842	2859.105527
745.933869	2838.706498
746.262847	2835.717094
746.591778	2861.069057
746.920662	2848.723271
747.249498	2835.805314
747.578286	2860.532174
747.907027	2864.098790
748.235720	2852.620083
748.564365	2869.636498
748.892963	2880.051522
749.221514	2869.444934
749.550017	2857.840198
749.878473	2862.682226
750.206881	2857.280630
750.535242	2858.230887
750.863555	2857.920856
751.191821	2859.763398
751.520039	2848.541789
751.848210	2838.703978
752.176334	2860.433871
752.504411	2868.209851
752.832440	2850.679239
753.160421	2840.309585
753.488356	2849.229907
753.816243	2865.898482
754.144082	2839.848320
754.471875	2834.280365
754.799620	2849.217304
755.127318	2838.638443
755.454969	2843.586335
755.782572	2849.270236
756.110129	2834.960921
756.437638	2832.248780
756.765100	2843.437621
757.092515	2851.596729
757.419882	2854.255937
757.747203	2842.310923
758.074477	2839.971828
758.401703	2850.714527
758.728882	2860.925384
759.056014	2867.373020
759.383099	2863.965200
759.710138	2857.701566
760.037129	2863.700539
760.364073	2884.018910
760.690970	2881.105123
761.017820	2865.356558
761.344623	2875.879967
761.671379	2895.575755
761.998088	2916.262130
762.324751	2960.059674
762.651366	3033.831920
762.977935	3174.427180
763.304456	3328.026096
763.630931	3389.389542
763.957359	3266.329935
764.283740	3158.666012
764.610074	3104.859257
764.936362	3045.131666
765.262602	2979.513487
765.588796	2943.139041
765.914943	2915.059814
766.241044	2878.027498
766.567097	2874.044987
766.893104	2855.528829
767.219064	2841.867302
767.544978	2835.376816
767.870845	2812.366469
768.196665	2804.986220
768.522438	2816.374187
768.848165	2819.212356
769.173846	2798.354582
769.499479	2794.656896
769.825066	2786.308745
770.150607	2784.544341
770.476101	2794.435085
770.801548	2798.213430
771.126949	2768.941970
771.452303	2763.255549
771.777611	2773.932712
772.102872	2777.980759
772.428087	2768.949532
772.753256	2767.008688
773.078378	2767.054058
773.403453	2748.051429
773.728482	2742.538927
774.053465	2759.593150
774.378401	2753.523601
774.703291	2737.696899
775.028135	2738.264028
775.352932	2737.437279
775.677683	2732.801938
776.002388	2735.032649
776.327046	2735.856877
776.651658	2732.658265
776.976224	2728.978223
777.300743	2731.183728
777.625216	2723.115361
777.949643	2721.953375
778.274024	2723.427913
778.598359	2717.761656
778.922647	2722.034034
779.246889	2725.116699
779.571086	2712.738146
779.895236	2713.080944
780.219339	2718.187633
780.543397	2726.913871
780.867409	2731.846640
781.191374	2722.928838
781.515294	2723.712738
781.839167	2724.640310
782.162995	2719.062273
782.486776	2724.995712
782.810511	2725.938407
783.134201	2720.221739
783.457844	2727.579303
783.781441	2721.282902
784.104993	2706.807228
784.428498	2711.112374
784.751958	2721.315669
785.075372	2717.985987
785.398739	2708.891746
785.722061	2720.085628
786.045337	2728.469067
786.368568	2712.780996
786.691752	2712.289483
787.014891	2740.351066
787.337983	2749.588981
787.661030	2751.981008
787.984031	2781.726336
788.306987	2807.990748
788.629897	2798.415076
788.952760	2795.619756
789.275579	2799.917340
789.598351	2771.286107
789.921078	2747.108733
790.243759	2750.624938
790.566395	2747.698548
790.888984	2735.030128
791.211529	2723.710217
791.534027	2722.306256
791.856480	2717.895246
792.178888	2713.050697
792.501249	2706.063658
792.823566	2708.974925
793.145836	2706.719008
793.468062	2706.839996
793.790241	2703.749769
794.112375	2706.393854
794.434464	2713.610266
794.756507	2712.057590
795.078505	2714.300904
795.400457	2720.312480
795.722364	2737.386868
796.044226	2744.812487
796.366042	2744.230234
796.687812	2741.694534
797.009538	2754.819178
797.331218	2752.822881
797.652852	2749.364649
797.974442	2739.736045
798.295986	2737.759913
798.617484	2738.198493
798.938938	2732.824623
799.260346	2721.877758
799.581709	2720.912377
799.903026	2721.308107
800.224299	2716.249310
800.545526	2710.698999
800.866708	2702.141641
801.187845	2694.751309
801.508936	2699.316074
801.829983	2706.903010
802.150984	2698.572504
802.471940	2690.093283
802.792851	2689.427851
803.113717	2694.312729
803.434538	2698.446475
803.755314	2692.361802
804.076045	2687.313087
804.396731	2687.708817
804.717372	2687.073632
805.037967	2685.725123
805.358518	2688.265865
805.679024	2695.731813
805.999485	2692.661751
806.319901	2694.227029
806.640272	2686.420802
806.960598	2692.835671
807.280879	2699.742051
807.601115	2703.525437
807.921306	2698.282637
808.241453	2694.791638
808.561554	2699.729448
808.881611	2699.767257
809.201623	2698.020497
809.521590	2697.589479
809.841513	2694.912626
810.161390	2702.224820
810.481223	2698.131403
810.801011	2691.754343
811.120755	2687.698735
811.440453	2694.456402
811.760107	2696.523275
812.079716	2695.842719
812.399281	2687.819722
812.718801	2682.682787
813.038276	2680.784792
813.357707	2688.091945
813.677093	2693.790969
813.996434	2693.732996
814.315731	2687.086235
814.634983	2685.583971
814.954191	2685.616738
815.273354	2696.009077
815.592473	2704.170705
815.911547	2700.478060
816.230577	2706.371169
816.549562	2709.804194
816.868502	2712.377703
817.187399	2715.684700
817.506250	2731.385374
817.825058	2722.936400
818.143821	2731.249263
818.462539	2740.835017
818.781213	2756.190372
819.099843	2776.680141
819.418429	2805.233237
819.736970	2835.913699
820.055466	2876.936088
820.373919	2944.916048
820.692327	3030.729089
821.010691	3117.507512
821.329011	3319.945127
821.647286	3686.928524
821.965517	4256.185698
822.283704	4565.616763
822.601847	4592.723047
822.919945	4390.471955
823.237999	4261.909929
823.556010	4017.625696
823.873976	3748.039911
824.191897	3540.798077
824.509775	3389.576064
824.827609	3236.786253
825.145398	3169.053310
825.463144	3166.653721
825.780845	3218.587687
826.098502	3270.166253
826.416116	3403.623239
826.733685	3554.217628
827.051210	3587.615272
827.368692	3552.312072
827.686129	3439.478446
828.003522	3262.223915
828.320872	3114.109774
828.638177	3001.152640
828.955439	2921.290681
829.272656	2875.532127
829.589830	2836.455623
829.906960	2808.199956
830.224046	2781.373456
830.541088	2759.877976
830.858086	2752.512850
831.175041	2741.530696
831.491952	2745.359452
831.808819	2754.748602
832.125642	2770.149327
832.442421	2797.852987
832.759157	2840.982579
833.075849	2938.869184
833.392497	3106.152313
833.709101	3226.550190
834.025662	3195.600026
834.342179	3109.751697
834.658653	3012.142355
834.975083	2925.739499
835.291469	2872.394009
835.607811	2820.094558
835.924110	2781.527211
836.240366	2750.322468
836.556578	2720.859445
836.872746	2707.676827
837.188871	2692.994467
837.504952	2681.472910
837.820990	2679.753876
838.136984	2669.888338
838.452935	2663.367606
838.768842	2661.721669
839.084706	2672.789522
839.400526	2720.589743
839.716303	2796.585137
840.032037	2843.278825
840.347727	2837.864626
840.663373	2808.875470
840.978977	2766.076074
841.294537	2722.137377
841.610054	2691.439271
841.925527	2676.351097
842.240957	2662.828202
842.556344	2647.170378
842.871687	2637.970273
843.186987	2631.033645
843.502244	2629.783439
843.817458	2627.099024
844.132629	2618.093003
844.447756	2611.327775
844.762840	2604.708740
845.077881	2609.318875
845.392879	2609.767537
845.707833	2605.651435
846.022745	2596.368151
846.337613	2603.408122
846.652438	2602.357041
846.967221	2601.258070
847.281960	2601.162288
847.596656	2600.222113
847.911309	2597.920826
848.225919	2595.743048
848.540485	2594.810434
848.855009	2594.134919
849.169490	2595.851432
849.483928	2593.313211
849.798323	2591.695001
850.112675	2593.567790
850.426984	2596.728593
850.741251	2593.550146
851.055474	2593.603078
851.369654	2599.768409
851.683792	2595.874117
851.997887	2595.395208
852.311938	2593.182141
852.625947	2594.964189
852.939914	2596.380753
853.253837	2596.025352
853.567718	2594.054261
853.881555	2595.039807
854.195350	2595.390167
854.509103	2594.744899
854.822812	2592.846905
855.136479	2594.888572
855.450103	2592.940166
855.763685	2596.416042
856.077224	2593.746751
856.390720	2591.818509
856.704173	2595.715321
857.017584	2597.877976
857.330953	2599.463419
857.644278	2598.649273
857.957561	2597.394025
858.270802	2596.048037
858.584000	2596.295054
858.897155	2599.135744
859.210268	2598.813110
859.523339	2596.620208
859.836367	2593.373705
860.149352	2594.419745
860.462295	2595.445619
860.775195	2593.340938
861.088054	2591.178283
861.400869	2590.855649
861.713642	2589.197109
862.026373	2587.893971
862.339062	2592.292378
862.651708	2596.526947
862.964312	2597.018459
863.276873	2593.308170
863.589392	2594.419745
863.901869	2598.248501
864.214303	2601.999119
864.526696	2605.001127
864.839045	2607.582197
865.151353	2610.906838
865.463619	2609.487753
865.775842	2611.007661
866.088023	2607.650253
866.400162	2610.306941
866.712258	2607.829214
867.024313	2609.112187
867.336325	2607.506580
867.648296	2608.839965
867.960224	2612.159565
868.272110	2610.811056
868.583954	2604.633122
868.895755	2606.263936
869.207515	2613.586212
869.519233	2618.390431
869.830909	2613.964298
870.142542	2611.637806
870.454134	2610.934565
870.765684	2617.155348
871.077191	2616.429422
871.388657	2621.994856
871.700081	2615.867334
872.011463	2616.363887
872.322803	2615.663167
872.634101	2619.945627
872.945357	2626.395783
873.256571	2632.039355
873.567744	2628.288737
873.878874	2627.091463
874.189963	2624.956534
874.501010	2632.230919
874.812015	2634.015487
875.122979	2635.200159
875.433900	2626.942749
875.744780	2628.213119
876.055618	2631.071454
876.366415	2637.259470
876.677169	2636.994809
876.987882	2629.508696
877.298554	2628.346710
877.609183	2638.912968
877.919771	2647.974442
878.230317	2651.283960
878.540822	2658.036586
878.851285	2668.418842
879.161707	2689.773170
879.472087	2717.408775
879.782425	2749.122674
880.092722	2832.894048
880.402977	2955.300825
880.713191	3102.724328
881.023363	3240.005030
881.333494	3332.883248
881.643583	3457.377063
881.953631	3483.205415
882.263637	3389.923904
882.573602	3259.252155
882.883526	3191.564582
883.193408	3128.890437
883.503248	3069.543453
883.813048	2989.368943
884.122806	2912.435894
884.432522	2855.150742
884.742197	2811.093578
885.051831	2787.374949
885.361424	2763.850405
885.670975	2737.797722
885.980485	2715.538507
886.289954	2701.400591
886.599382	2691.653520
886.908768	2683.514577
887.218113	2670.052176
887.527417	2660.978099
887.836680	2655.531132
888.145901	2651.636841
888.455082	2643.296252
888.764221	2638.308030
889.073319	2630.942904
889.382376	2633.002216
889.691392	2632.505662
890.000366	2631.651186
890.309300	2630.826958
890.618193	2631.729324
890.927044	2635.502628
891.235855	2634.428862
891.544625	2633.433234
891.853353	2634.824593
892.162041	2637.829120
892.470687	2654.129691
892.779293	2663.498676
893.087858	2667.395488
893.396381	2682.758404
893.704864	2710.711602
894.013306	2761.924684
894.321707	2828.208295
894.630068	2856.136288
894.938387	2870.775798
895.246665	2874.090357
895.554903	2844.927282
895.863100	2818.584733
896.171256	2773.415994
896.479371	2728.302708
896.787446	2699.187524
897.095480	2687.844928
897.403473	2686.914835
897.711425	2673.364214
898.019336	2660.073212
898.327207	2648.949906
898.635038	2647.646767
898.942827	2648.317241
899.250576	2640.785757
899.558284	2630.766464
899.865952	2627.908130
900.173579	2628.850825
900.481165	2625.006946
900.788711	2618.503857
901.096216	2614.843979
901.403681	2614.944802
901.711105	2613.008999
902.018489	2611.945316
902.325832	2612.141921
902.633135	2611.378186
902.940397	2627.043572
903.247619	2654.795124
903.554800	2702.988554
903.861941	2787.180865
904.169041	2871.410984
904.476101	2915.805905
904.783121	2912.072931
905.090100	2874.869215
905.397039	2827.999087
905.703938	2774.676283
906.010796	2732.645662
906.317614	2693.465815
906.624391	2668.280210
906.931129	2649.809422
907.237826	2629.745630
907.544483	2618.564351
907.851099	2608.235027
908.157675	2598.684561
908.464211	2597.212544
908.770707	2585.638055
909.077163	2583.419947
909.383578	2582.550348
909.689954	2581.232086
909.996289	2579.296283
910.302584	2578.472054
910.608839	2573.982907
910.915054	2575.497774
911.221229	2576.937023
911.527363	2580.337281
911.833458	2579.876016
912.139513	2578.348546
912.445527	2584.171079
912.751502	2585.988415
913.057436	2590.643920
913.363331	2594.976792
913.669186	2603.453492
913.975000	2611.942795
914.280775	2625.458129
914.586510	2637.572022
914.892205	2663.697801
915.197859	2712.682693
915.503475	2772.354831
915.809050	2816.563230
916.114585	2827.676454
916.420081	2832.735252
916.725536	2845.015502
917.030952	2828.697287
917.336328	2797.558080
917.641665	2760.830754
917.946961	2721.802141
918.252218	2698.043182
918.557435	2681.291428
918.862612	2664.083450
919.167750	2652.269506
919.472848	2641.400778
919.777906	2629.304529
920.082925	2618.352622
920.387904	2612.661160
920.692843	2608.076230
920.997743	2604.817124
921.302603	2599.395363
921.607423	2594.891092
921.912204	2590.096955
922.216946	2591.942017
922.521647	2589.854980
922.826310	2586.747108
923.130932	2580.705286
923.435516	2577.143710
923.740059	2576.979873
924.044564	2574.003072
924.349028	2575.664132
924.653454	2567.436969
924.957840	2563.837585
925.262186	2562.947821
925.566493	2566.756413
925.870761	2559.847512
926.174989	2564.923953
926.479178	2561.218705
926.783328	2560.638973
927.087438	2561.475804
927.391509	2557.750392
927.695541	2555.819630
927.999533	2555.721327
928.303486	2556.926163
928.607400	2554.014897
928.911275	2554.521533
929.215110	2557.614280
929.518906	2556.043961
929.822663	2553.974567
930.126381	2555.146636
930.430060	2555.348282
930.733699	2555.847356
931.037299	2555.459187
931.340861	2556.485062
931.644383	2555.181924
931.947866	2555.872562
932.251309	2554.629917
932.554714	2555.035730
932.858080	2554.881975
933.161407	2554.909701
933.464694	2553.546069
933.767943	2553.722510
934.071153	2552.295863
934.374323	2553.682180
934.677455	2553.800647
934.980548	2551.940462
935.283602	2551.942982
935.586617	2551.721172
935.889593	2552.802499
936.192530	2550.276881
936.495428	2551.753939
936.798287	2554.501368
937.101108	2553.601522
937.403890	2556.941286
937.706632	2559.298026
938.009336	2561.175856
938.312002	2562.514282
938.614628	2565.342369
938.917216	2572.042063
939.219765	2569.037535
939.522275	2567.850343
939.824747	2569.922257
940.127179	2565.354972
940.429573	2565.846485
940.731929	2561.669889
941.034246	2561.884138
941.336524	2564.029149
941.638763	2562.511761
941.940964	2563.063768
942.243126	2559.950855
942.545250	2564.868501
942.847335	2558.831719
943.149381	2558.040258
943.451389	2557.790721
943.753359	2554.879454
944.055290	2555.628066
944.357182	2556.608570
944.659036	2557.253838
944.960851	2555.801986
945.262628	2553.959444
945.564367	2553.992211
945.866067	2556.001111
946.167729	2556.371636
946.469352	2554.849207
946.770937	2555.680998
947.072484	2555.560010
947.373992	2555.376008
947.675462	2552.691594
947.976893	2556.588406
948.278286	2552.179917
948.579641	2555.103786
948.880958	2553.656975
949.182236	2554.703014
949.483476	2551.703527
949.784678	2553.344423
950.085841	2551.827036
950.386967	2554.130843
950.688054	2551.753939
950.989103	2555.242418
951.290114	2557.291647
951.591087	2554.965154
951.892021	2556.290978
952.192917	2558.617470
952.493776	2558.206616
952.794596	2561.669889
953.095378	2558.980433
953.396122	2560.772563
953.696828	2560.220557
953.997496	2556.785011
954.298126	2558.138560
954.598718	2557.105124
954.899272	2556.560679
955.199788	2553.987170
955.500266	2551.103630
955.800706	2548.255378
956.101108	2544.257743
956.401472	2546.659853
956.701798	2544.726571
957.002087	2543.531817
957.302337	2546.203629
957.602550	2549.026675
957.902724	2543.851930
958.202861	2546.634647
958.502960	2543.539379
958.803022	2546.992569
959.103045	2546.468289
959.403031	2546.901828
959.702979	2542.637012
960.002889	2544.129194
960.302762	2544.459389
960.602596	2543.557023
960.902393	2544.101467
961.202153	2544.189688
961.501875	2541.893442
961.801559	2542.321940
962.101205	2541.258257
962.400814	2542.488298
962.700385	2541.522917
962.999918	2541.379244
963.299414	2541.079296
963.598873	2543.620037
963.898293	2542.896632
964.197677	2543.010058
964.497022	2540.466796
964.796331	2543.264636
965.095601	2541.434697
965.394835	2545.812939
965.694030	2540.953267
965.993189	2543.020140
966.292309	2542.258926
966.591393	2543.151210
966.890439	2542.437887
967.189447	2542.800850
967.488419	2540.421425
967.787353	2542.513504
968.086249	2539.955118
968.385108	2542.329502
968.683930	2541.918648
968.982714	2543.579708
969.281462	2542.997455
969.580172	2543.902342
969.878844	2540.048380
970.177480	2542.420243
970.476078	2541.638864
970.774639	2544.633309
971.073162	2543.531817
971.371649	2539.652649
971.670098	2544.247661
971.968510	2541.202804
972.266885	2540.103833
972.565223	2544.439225
972.863524	2543.589790
973.161788	2545.112219
973.460014	2543.350336
973.758204	2544.645912
974.056356	2544.277908
974.354471	2543.993083
974.652550	2543.279759
974.950591	2542.029553
975.248595	2543.771272
975.546563	2545.540717
975.844493	2543.103319
976.142386	2545.422250
976.440243	2542.942002
976.738062	2543.667928
977.035845	2543.947712
977.333590	2545.306303
977.631299	2543.642723
977.928971	2542.480737
978.226606	2541.212886
978.524204	2541.840510
978.821765	2541.253216
979.119290	2541.422094
979.416777	2545.719678
979.714228	2542.090047
980.011642	2541.593493
980.309020	2543.834286
980.606360	2542.276570
980.903664	2541.984183
981.200931	2542.873947
981.498162	2544.134235
981.795356	2544.935778
982.092513	2549.152704
982.389633	2549.356870
982.686717	2551.189330
982.983764	2551.330482
983.280775	2556.923642
983.577749	2552.217725
983.874686	2554.735782
984.171587	2552.104299
984.468451	2548.222611
984.765279	2549.014072
985.062070	2549.233362
985.358824	2545.220604
985.655543	2542.916796
985.952224	2542.871426
986.248869	2541.749769
986.545478	2538.029398
986.842050	2541.371683
987.138586	2538.488143
987.435086	2535.738193
987.731549	2536.655683
988.027975	2543.612476
988.324366	2539.907228
988.620719	2541.031405
988.917037	2538.936805
989.213318	2542.891591
989.509563	2541.064172
989.805772	2540.923020
990.101944	2540.101312
990.398080	2542.740356
990.694180	2541.543082
990.990244	2540.754141
991.286271	2542.692465
991.582262	2542.362269
991.878217	2540.436549
992.174136	2541.535520
992.470019	2543.025181
992.765865	2538.324305
993.061676	2541.878319
993.357450	2541.651467
993.653188	2540.252547
993.948890	2538.989738
994.244556	2536.650642
994.540186	2543.536858
994.835780	2541.749769
995.131337	2543.337733
995.426859	2543.955274
995.722345	2544.018288
996.017795	2544.010727
996.313208	2542.097609
996.608586	2543.078113
996.903928	2542.750438
997.199234	2541.487629
997.494504	2543.486447
997.789738	2541.207845
998.084936	2545.462579
998.380099	2541.331353
998.675225	2541.444779
998.970316	2539.100643
999.265371	2542.601724
999.560390	2539.072917
999.855373	2541.031405
1000.150320	2540.577701
1000.445232	2542.848741
1000.740108	2540.660880
1001.034948	2538.057124
1001.329752	2538.309182
1001.624521	2540.512166
1001.919254	2536.138965
1002.213951	2537.873122
1002.508613	2537.089223
1002.803239	2536.817000
1003.097829	2536.469161
1003.392384	2541.371683
1003.686903	2539.546785
1003.981386	2537.535365
1004.275834	2539.561908
1004.570246	2541.268339
1004.864623	2540.678524
1005.158964	2542.228679
1005.453270	2539.506456
1005.747540	2540.096271
1006.041775	2539.261960
1006.335974	2540.590304
1006.630138	2538.425128
1006.924266	2539.889583
1007.218359	2537.865560
1007.512416	2536.622916
1007.806438	2539.796322
1008.100425	2538.248688
1008.394376	2540.764224
1008.688292	2538.838503
1008.982172	2536.688451
1009.276017	2542.402599
1009.569827	2538.722556
1009.863602	2539.836651
1010.157341	2539.791281
1010.451045	2541.878319
1010.744714	2537.893287
1011.038347	2538.833462
1011.331945	2539.534182
1011.625508	2538.210879
1011.919036	2538.208359
1012.212528	2540.310520
1012.505986	2540.330684
1012.799408	2539.783719
1013.092795	2540.728936
1013.386147	2538.415046
1013.679464	2540.189532
1013.972745	2540.582742
1014.265992	2540.431508
1014.559204	2540.892773
1014.852380	2537.956301
1015.145521	2540.247505
1015.438628	2539.130890
1015.731699	2536.814480
1016.024736	2540.418905
1016.317737	2539.272042
1016.610703	2537.011085
1016.903635	2538.024357
1017.196531	2533.590662
1017.489393	2538.977135
1017.782219	2534.823224
1018.075011	2541.296065
1018.367768	2537.883204
1018.660490	2538.488143
1018.953177	2538.488143
1019.245829	2538.488143
