Dividing Wavelength (nm)	Counts (n)	Blue Motor Position (mm): 25.600000	Red Motor Position (mm): 0.000000	
326.493990	2057.632642
326.888308	2057.632642
327.282561	2057.632642
327.676750	2032.378982
328.070874	2031.990813
328.464933	2041.407688
328.858929	2048.147711
329.252859	2058.638352
329.646726	2073.071176
330.040528	2089.666654
330.434265	2105.238778
330.827938	2128.743158
331.221547	2150.447846
331.615091	2168.830413
332.008571	2188.564010
332.401986	2212.448997
332.795338	2228.981461
333.188625	2248.778072
333.581847	2267.931936
333.975006	2285.578495
334.368100	2302.113480
334.761129	2321.050574
335.154095	2335.811073
335.546996	2386.141953
335.939833	2487.983343
336.332606	2496.790239
336.725315	2511.848165
337.117960	2521.988446
337.510540	2529.615712
337.903056	2538.901517
338.295508	2546.755635
338.687896	2553.672098
339.080220	2559.403890
339.472480	2564.654252
339.864676	2565.140723
340.256807	2570.320509
340.648875	2573.435942
341.040879	2570.958215
341.432818	2574.139183
341.824694	2573.143555
342.216506	2573.171281
342.608253	2572.999882
342.999937	2572.818400
343.391557	2571.916034
343.783113	2568.903944
344.174605	2569.700447
344.566033	2568.906465
344.957397	2565.241546
345.348697	2564.757595
345.739934	2563.262893
346.131106	2561.579148
346.522215	2559.013201
346.913260	2555.839794
347.304241	2557.558828
347.695159	2552.482386
348.086012	2553.800648
348.476802	2549.402241
348.867528	2545.971736
349.258191	2544.093906
349.648789	2544.643392
350.039324	2541.137269
350.429796	2546.206149
350.820203	2544.779503
351.210548	2543.635161
351.600828	2541.238092
351.991045	2542.420243
352.381198	2538.692309
352.771288	2542.059800
353.161314	2540.323123
353.551276	2540.209697
353.941175	2539.887063
354.331010	2538.132741
354.720782	2544.580377
355.110490	2544.580377
355.500135	2542.397558
355.889717	2542.705068
356.279235	2542.568957
356.668689	2543.098278
357.058080	2542.087527
357.447408	2545.704554
357.836672	2544.439225
358.225873	2543.519214
358.615010	2546.019627
359.004084	2544.033412
359.393095	2546.327137
359.782043	2545.608772
360.170927	2548.189843
360.559748	2545.056766
360.948505	2545.961653
361.337199	2549.820657
361.725830	2547.975594
362.114398	2550.244113
362.502903	2550.884340
362.891344	2547.574822
363.279722	2545.606252
363.668037	2550.687735
364.056289	2550.717982
364.444478	2551.348126
364.832603	2553.057077
365.220665	2554.181255
365.608665	2553.266285
365.996601	2554.206460
366.384474	2553.677139
366.772284	2555.910370
367.160031	2554.002294
367.547715	2556.754764
367.935336	2554.519012
368.322893	2552.484906
368.710388	2550.292004
369.097820	2553.551110
369.485189	2552.764690
369.872495	2557.762994
370.259738	2555.980947
370.646918	2558.993036
371.034035	2556.601008
371.421090	2555.686039
371.808081	2557.699980
372.195010	2558.859445
372.581875	2560.752399
372.968678	2559.419013
373.355418	2557.160577
373.742096	2557.967161
374.128710	2560.288612
374.515262	2561.006977
374.901751	2562.110990
375.288177	2562.789025
375.674540	2560.646534
376.060841	2564.593758
376.447079	2561.959755
376.833254	2562.267265
377.219367	2560.412121
377.605417	2563.467060
377.991404	2562.345403
378.377329	2563.088973
378.763191	2562.801628
379.148991	2564.603840
379.534727	2565.803635
379.920402	2564.941597
380.306013	2563.278017
380.691563	2566.209448
381.077049	2564.959242
381.462474	2563.714077
381.847835	2564.616443
382.233134	2562.274827
382.618371	2565.677606
383.003545	2566.844633
383.388657	2567.873028
383.773706	2567.187432
384.158693	2569.518965
384.543618	2564.311453
384.928480	2567.633574
385.313280	2567.210117
385.698017	2567.104252
386.082692	2569.087947
386.467305	2565.430589
386.851856	2571.159861
387.236344	2570.373441
387.620770	2568.588872
388.005133	2566.423697
388.389435	2567.774726
388.773674	2565.685168
389.157851	2567.830179
389.541965	2569.902093
389.926018	2571.424521
390.310008	2573.594738
390.693936	2569.811352
391.077802	2570.038204
391.461606	2573.882084
391.845348	2571.873184
392.229027	2572.417629
392.612645	2570.859912
392.996200	2576.097671
393.379694	2572.150448
393.763125	2572.944429
394.146494	2573.725808
394.529801	2573.370407
394.913047	2573.342680
395.296230	2575.094481
395.679351	2573.221693
396.062410	2575.180181
396.445408	2575.553226
396.828343	2576.022054
397.211217	2577.390727
397.594028	2577.395768
397.976778	2576.770665
398.359466	2577.529359
398.742092	2576.667321
399.124656	2577.032805
399.507158	2576.856365
399.889598	2579.462641
400.271977	2578.126735
400.654294	2579.422312
401.036549	2580.554051
401.418742	2581.635378
401.800874	2576.629513
402.182944	2579.752507
402.564952	2577.579770
402.946898	2584.019844
403.328783	2582.366346
403.710606	2580.906932
404.092367	2581.970615
404.474067	2581.607652
404.855705	2579.699575
405.237282	2584.713003
405.618797	2580.982549
406.000250	2583.286356
406.381642	2582.207549
406.762972	2581.794175
407.144240	2579.576067
407.525447	2582.018506
407.906593	2576.919379
408.287677	2583.966912
408.668700	2584.297108
409.049661	2585.728795
409.430560	2584.894484
409.811399	2585.547314
410.192176	2585.209557
410.572891	2586.863055
410.953545	2584.168558
411.334138	2586.061512
411.714669	2587.989753
412.095139	2590.507809
412.475547	2589.325659
412.855894	2586.578230
413.236180	2586.976481
413.616405	2588.022520
413.996568	2584.075297
414.376670	2590.878334
414.756711	2587.599063
415.136691	2589.696183
415.516609	2591.163159
415.896466	2591.508478
416.276262	2590.991760
416.655997	2589.509661
417.035670	2590.044023
417.415283	2591.841194
417.794834	2592.448653
418.174324	2588.884558
418.553753	2589.877665
418.933121	2593.262800
419.312428	2591.180803
419.691674	2590.154928
420.070859	2592.173911
420.449983	2594.886051
420.829045	2592.788931
421.208047	2593.900506
421.586988	2591.861359
421.965867	2593.792121
422.344686	2594.376895
422.723444	2594.560897
423.102141	2595.145671
423.480777	2595.246494
423.859352	2594.971751
424.237866	2596.267327
424.616319	2596.108531
424.994712	2595.881679
425.373044	2593.187182
425.751314	2592.662902
426.129524	2593.502255
426.507673	2594.702049
426.885762	2592.809096
427.263789	2596.443768
427.641756	2597.008377
428.019662	2596.456371
428.397508	2599.607092
428.775292	2597.096597
429.153016	2598.510641
429.530679	2601.177411
429.908282	2601.724377
430.285824	2601.966352
430.663305	2599.750765
431.040726	2600.486773
431.418086	2602.493152
431.795385	2603.536671
432.172624	2602.619181
432.549802	2603.072885
432.926920	2602.873760
433.303977	2604.323091
433.680974	2602.127669
434.057910	2605.260746
434.434786	2606.573967
434.811601	2605.926178
435.188355	2607.869543
435.565050	2605.855602
435.941683	2605.522886
436.318257	2609.822990
436.694770	2610.039760
437.071222	2608.688731
437.447614	2613.745008
437.823946	2609.197887
438.200218	2612.386417
438.576429	2611.673094
438.952580	2612.628392
439.328670	2612.514966
439.704700	2614.783486
440.080670	2613.732405
440.456580	2614.170985
440.832429	2616.363887
441.208218	2621.014352
441.583947	2618.450925
441.959616	2617.682149
442.335224	2617.611573
442.710773	2621.533591
443.086261	2622.214146
443.461689	2624.709517
443.837057	2624.210443
444.212365	2624.419651
444.587612	2626.393263
444.962800	2625.674898
445.337927	2626.662965
445.712995	2624.273458
446.088002	2633.065230
446.462949	2636.384830
446.837837	2641.055459
447.212664	2641.420942
447.587431	2645.504277
447.962139	2657.131698
448.336786	2662.908861
448.711374	2665.245436
449.085901	2665.089160
449.460369	2664.872390
449.834776	2668.312978
450.209124	2681.346881
450.583412	2687.993642
450.957640	2691.908098
451.331808	2697.576876
451.705917	2700.848585
452.079965	2707.986858
452.453954	2716.952551
452.827883	2725.787173
453.201752	2733.114490
453.575562	2743.839545
453.949311	2760.699684
454.323001	2773.814245
454.696632	2786.354116
455.070202	2812.137097
455.443713	2829.461022
455.817164	2847.561285
456.190556	2877.631768
456.563888	2893.534088
456.937160	2916.635175
457.310373	2922.808068
457.683526	2945.659618
458.056619	2969.988227
458.429653	2997.500324
458.802628	3031.409645
459.175542	3065.850808
459.548398	3122.079838
459.921194	3186.533511
460.293930	3245.598190
460.666607	3335.451716
461.039224	3420.795930
461.411782	3479.467399
461.784280	3493.718741
462.156719	3531.804658
462.529099	3572.315371
462.901419	3572.517017
463.273680	3591.708689
463.645882	3650.846465
464.018024	3708.401319
464.390106	3801.090494
464.762130	3982.965242
465.134094	4233.117378
465.505999	4563.617945
465.877845	4867.642372
466.249631	5041.726017
466.621358	5042.482190
466.993026	5028.661867
467.364634	5021.211042
467.736184	5015.214589
468.107674	5025.659860
468.479105	5090.597483
468.850477	5135.660357
469.221790	5157.871681
469.593043	5142.687726
469.964238	5167.691849
470.335373	5271.955513
470.706449	5511.342265
471.077467	5833.668601
471.448425	6379.696139
471.819324	6770.022599
472.190164	6774.095851
472.560945	6544.791407
472.931667	6348.050296
473.302330	6407.576240
473.672934	6412.652682
474.043479	6611.130471
474.413965	6676.315111
474.784393	6742.049236
475.154761	7005.021027
475.525070	7155.446537
475.895321	7226.171405
476.265513	7479.118861
476.635645	7762.948425
477.005719	7909.477123
477.375734	8139.883060
477.745691	8454.529198
478.115588	8787.184858
478.485427	9319.361825
478.855207	10070.249252
479.224928	10800.157918
479.594591	11348.012874
479.964194	11344.224447
480.333739	11649.178966
480.703226	11922.764906
481.072653	12310.848052
481.442022	12689.867204
481.811333	13002.103671
482.180584	13009.597346
482.549777	13131.021098
482.918912	13244.474786
483.287988	13413.976022
483.657005	13535.523283
484.025964	13583.701590
484.394864	13854.101521
484.763706	14030.783881
485.132489	14003.385209
485.501213	14229.105393
485.869879	14508.692827
486.238487	14683.441904
486.607036	15003.587941
486.975527	15073.090329
487.343959	15421.091262
487.712333	15785.138187
488.080648	15971.252545
488.448905	16387.364507
488.817104	16559.434212
489.185244	17249.948780
489.553326	18127.326319
489.921350	19433.635474
490.289315	21015.607524
490.657222	21636.902009
491.025070	22117.460082
491.392861	22123.378397
491.760593	21895.309035
492.128267	21538.765867
492.495883	21212.663708
492.863440	20921.663102
493.230939	20605.159299
493.598380	20497.651652
493.965763	20649.158489
494.333088	20576.810370
494.700354	20662.141981
495.067563	20851.916218
495.434713	21001.635966
495.801805	21395.876882
496.168839	21505.527020
496.535815	21614.093309
496.902733	21918.100092
497.269593	21994.002224
497.636395	22289.333181
498.003139	22697.263351
498.369825	22730.787024
498.736453	23218.087640
499.103023	23309.241783
499.469535	23566.771648
499.835989	23858.770402
500.202385	23953.657521
500.568723	24189.321381
500.935003	24623.468071
501.301226	24729.904472
501.667390	25439.572905
502.033497	25774.764265
502.399546	25791.276565
502.765537	25639.673945
503.131470	26206.571860
503.497345	26727.927991
503.863163	26067.352835
504.228923	26861.127878
504.594625	27356.640534
504.960269	27090.964164
505.325856	27823.834507
505.691385	27704.379326
506.056856	28129.610735
506.422270	28702.111892
506.787625	28446.785012
507.152924	29010.789304
507.518164	29331.903242
507.883347	29080.266486
508.248472	29355.163126
508.613540	30097.520921
508.978550	30432.533320
509.343503	30439.379207
509.708398	30880.016383
510.073236	31553.688456
510.438016	31759.039858
510.802738	31616.516357
511.167403	32238.488877
511.532010	32580.241299
511.896561	33138.687719
512.261053	33954.805157
512.625488	33851.736246
512.989866	33892.675456
513.354186	34042.193559
513.718449	34115.277687
514.082655	35035.709200
514.446803	34853.899986
514.810894	35519.203745
515.174927	35627.210466
515.538904	35717.033745
515.902822	36413.701042
516.266684	36206.784362
516.630488	36617.280478
516.994235	36707.562503
517.357925	37324.899682
517.721558	37657.961155
518.085133	38098.477342
518.448651	38338.758899
518.812112	38306.087181
519.175516	38502.765278
519.538863	38995.207871
519.902152	39104.517730
520.265385	39698.012773
520.628560	39769.385429
520.991678	39773.163774
521.354739	40054.548378
521.717743	40454.246343
522.080690	40422.640829
522.443580	41122.869702
522.806413	41179.189472
523.169189	41352.703467
523.531908	41613.134516
523.894569	41534.474872
524.257174	41752.073757
524.619722	42121.363482
524.982213	42301.504074
525.344647	42356.200593
525.707025	42525.661500
526.069345	42983.887261
526.431608	42924.696553
526.793815	43335.724512
527.155964	42901.340888
527.518057	43187.454095
527.880093	43065.889190
528.242072	43713.180906
528.603995	43473.380779
528.965860	43419.243828
529.327669	43658.166794
529.689421	43724.745313
530.051117	43690.510837
530.412755	43995.606509
530.774337	44067.599227
531.135862	44046.229776
531.497331	44189.552300
531.858743	44202.621492
532.220098	44618.315038
532.581396	44369.418149
532.942638	44148.487061
533.303824	44391.735337
533.664953	44484.328730
534.026025	44170.925237
534.387040	44750.620120
534.747999	44831.969220
535.108902	45146.670811
535.469748	44481.929141
535.830537	44760.851142
536.191270	45009.163257
536.551947	44744.144758
536.912567	45049.631120
537.273131	45209.914606
537.633638	44825.181306
537.994089	45034.248039
538.354483	44804.646166
538.714821	45436.206961
539.075103	45717.699951
539.435328	45600.399862
539.795497	45347.124732
540.155609	45480.337222
540.515665	46061.488999
540.875665	45392.598460
541.235609	45672.153126
541.595496	45790.264840
541.955328	46374.617750
542.315102	45818.028995
542.674821	45692.108533
543.034483	45602.832219
543.394090	45624.456249
543.753640	45604.508403
544.113134	46667.634817
544.472571	45787.610672
544.831953	46924.423632
545.191278	46190.068669
545.550548	45861.972733
545.909761	46508.664551
546.268918	46659.679876
546.628019	47088.175432
546.987064	46513.635129
547.346053	45808.705381
547.704986	46730.124960
548.063863	46386.247692
548.422684	46588.529031
548.781449	46173.896647
549.140158	46716.654997
549.498811	46482.816035
549.857408	45889.585653
550.215949	46705.821557
550.574434	46561.135401
550.932864	46491.698548
551.291237	47198.309521
551.649555	46961.105588
552.007817	47143.161818
552.366022	46804.771846
552.724173	46882.529123
553.082267	47310.606264
553.440305	47648.361051
553.798288	46889.223775
554.156215	47282.779094
554.514086	47487.575969
554.871902	47122.034342
555.229661	47289.715722
555.587365	46981.363465
555.945014	47108.239225
556.302606	47126.604148
556.660143	47236.350068
557.017625	47436.113350
557.375050	47126.551216
557.732421	47557.862257
558.089735	47626.946229
558.446994	47490.663676
558.804197	47975.221904
559.161345	47840.875154
559.518437	47161.007503
559.875474	47439.047302
560.232455	47653.669386
560.589381	47719.385867
560.946251	47516.426493
561.303065	48184.107155
561.659825	47866.708547
562.016528	47678.834826
562.373177	47252.774147
562.729770	47880.415445
563.086307	47417.778674
563.442789	47956.027711
563.799216	47816.022266
564.155587	47695.657156
564.511904	47676.092438
564.868164	47714.039724
565.224370	48020.153709
565.580520	47758.487577
565.936615	47947.356927
566.292654	47608.147767
566.648638	47974.904312
567.004567	47928.661808
567.360441	48021.154378
567.716260	47748.727903
568.072023	48092.670707
568.427732	48040.729178
568.783385	47572.620235
569.138982	47963.516345
569.494525	48107.499261
569.850013	47701.971201
570.205445	47832.847117
570.560823	47614.368550
570.916145	47478.373343
571.271412	47704.769042
571.626625	47360.543934
571.981782	47454.594220
572.336884	47036.627114
572.691931	47370.704379
573.046923	47025.765948
573.401860	46863.521453
573.756743	46887.330822
574.111570	47030.610497
574.466342	46936.872762
574.821059	47092.052080
575.175722	46582.797239
575.530330	46693.773200
575.884882	46322.366190
576.239380	46220.998668
576.593823	46318.252608
576.948211	46247.963800
577.302544	45804.246480
577.656823	45798.867569
578.011047	46051.189922
578.365216	45884.345373
578.719330	45601.660151
579.073389	45565.252938
579.427394	45626.891126
579.781344	45543.104628
580.135239	45313.094423
580.489080	45376.179422
580.842866	44868.681423
581.196597	45363.561414
581.550273	45353.095978
581.903895	45294.479962
582.257463	45728.399800
582.610975	45162.129509
582.964434	45496.980591
583.317837	44996.885527
583.671186	44949.138238
584.024481	45231.803296
584.377721	44770.512513
584.730906	44981.358773
585.084037	45112.287621
585.437113	44797.497810
585.790135	44931.353047
586.143103	44490.375594
586.496016	44655.672508
586.848874	44759.996667
587.201679	44775.379747
587.554428	44285.082166
587.907124	44570.595475
588.259765	44325.333258
588.612352	44498.433879
588.964884	43938.591059
589.317362	44261.421510
589.669786	44257.728865
590.022155	44097.352117
590.374470	44570.144292
590.726731	44137.749403
591.078937	43480.609794
591.431090	43814.485413
591.783188	43342.870347
592.135232	43140.183195
592.487222	43409.181685
592.839157	43554.273654
593.191038	43190.831668
593.542866	42982.306859
593.894639	42399.325143
594.246358	42699.765310
594.598022	42693.519320
594.949633	42280.033799
595.301190	42246.195054
595.652692	42191.407794
596.004141	42658.306861
596.355535	41583.842892
596.706876	41601.476848
597.058162	41320.467809
597.409395	41817.555825
597.760573	42026.289841
598.111698	41635.391210
598.462768	41548.963148
598.813785	41572.401993
599.164748	41170.185972
599.515657	41444.490276
599.866511	40946.018463
600.217312	41641.362457
600.568060	40581.190159
600.918753	41398.404047
601.269392	41336.851559
601.619978	41049.561242
601.970510	41237.548390
602.320988	41379.908054
602.671412	41644.278764
603.021783	41517.549198
603.372100	41077.895048
603.722363	41210.056457
604.072572	41233.714592
604.422728	41231.486402
604.772830	41016.019925
605.122878	41186.993178
605.472872	41015.573783
605.822813	41278.749740
606.172701	41031.942410
606.522534	41361.333923
606.872314	41564.336147
607.222041	41388.498180
607.571714	41739.226377
607.921333	41232.943296
608.270899	41448.137551
608.620411	41827.927999
608.969870	41565.165417
609.319276	41579.489855
609.668627	41616.784311
610.017926	42012.870290
610.367171	42149.190651
610.716362	42185.489480
611.065500	42076.260279
611.414585	42296.543578
611.763616	42478.967813
612.112594	42364.589073
612.461518	42514.392001
612.810389	42886.497210
613.159207	42672.374200
613.507971	42660.719053
613.856682	43139.668997
614.205340	42972.632885
614.553945	43666.338504
614.902496	42984.799710
615.250994	43426.392184
615.599439	43480.398065
615.947830	43584.734826
616.296169	43599.076909
616.644454	43631.206703
616.992686	43794.580417
617.340864	44235.252880
617.688990	43770.967652
618.037063	44452.088031
618.385082	44260.017549
618.733048	44592.889978
619.080961	44475.418491
619.428821	44502.502090
619.776628	44507.792781
620.124382	44328.978013
620.472083	44435.908448
620.819731	44528.882448
621.167326	44075.062655
621.514868	44067.493363
621.862357	43539.641705
622.209793	43622.213285
622.557176	43193.861401
622.904506	42944.641878
623.251783	42589.449740
623.599007	42281.848615
623.946179	42181.698532
624.293297	41935.823815
624.640363	41386.156564
624.987376	41226.215876
625.334336	41028.146421
625.681243	40618.129214
626.028097	40536.344054
626.374899	40342.511689
626.721647	40322.515952
627.068343	40102.953538
627.414987	39822.536834
627.761577	39566.337834
628.108115	39877.649249
628.454600	39144.557095
628.801032	39359.829487
629.147412	39264.813820
629.493739	39178.884832
629.840014	38733.571986
630.186236	39166.211371
630.532405	38606.287893
630.878521	38836.214920
631.224585	38618.553020
631.570597	38271.119218
631.916556	38449.061866
632.262462	38332.747323
632.608316	38258.846529
632.954117	38120.965930
633.299866	38081.372707
633.645562	37992.666044
633.991206	37467.970149
634.336797	37059.311533
634.682336	36955.471325
635.027823	36723.671510
635.373257	36587.913237
635.718639	36263.041118
636.063968	36146.025855
636.409245	35497.287328
636.754470	35455.259229
637.099642	35224.833128
637.444762	34664.042571
637.789829	34804.930218
638.134845	34434.612097
638.479808	34344.811503
638.824719	34287.586846
639.169577	33782.160761
639.514383	33867.109244
639.859137	33498.883203
640.203839	33658.561751
640.548489	33360.816081
640.893086	33366.613408
641.237632	33103.571042
641.582125	33188.506922
641.926566	32980.168637
642.270955	33030.348282
642.615292	32951.791982
642.959576	32840.647142
643.303809	32848.876826
643.647990	32928.237190
643.992118	32879.985786
644.336195	32728.534401
644.680219	32823.615604
645.024192	33016.081817
645.368112	33542.416087
645.711981	33562.474838
646.055797	34305.893796
646.399562	34119.144252
646.743274	34990.840410
647.086935	35372.670005
647.430544	35335.388152
647.774101	35371.271085
648.117606	35661.691958
648.461059	35805.873999
648.804460	35400.509777
649.147810	34878.248759
649.491108	34514.189232
649.834354	34382.665528
650.177548	33549.839186
650.520690	33070.884200
650.863781	33039.616443
651.206820	32859.387632
651.549807	32458.399131
651.892742	31881.270195
652.235626	31778.710441
652.578458	31653.682263
652.921238	30972.972739
653.263967	31274.075817
653.606644	30991.982930
653.949269	30876.926155
654.291843	30496.787867
654.634365	30857.263135
654.976836	30410.150597
655.319255	30478.206174
655.661622	30352.159684
656.003938	30218.944673
656.346203	30031.922907
656.688416	30284.940939
657.030577	30047.797500
657.372687	29872.163700
657.714746	30044.424968
658.056753	30216.406452
658.398708	29609.509502
658.740612	29665.340281
659.082465	29878.505472
659.424266	29763.516752
659.766016	29777.279102
660.107715	29644.991664
660.449362	29755.629867
660.790958	29721.740710
661.132503	29653.032304
661.473996	29731.482740
661.815438	29810.225563
662.156829	29930.545303
662.498168	29718.932788
662.839456	29708.053978
663.180693	29830.039818
663.521879	29921.229250
663.863013	29885.185000
664.204097	29866.663801
664.545129	30275.486255
664.886110	30202.369359
665.227040	30312.289198
665.567918	30301.354936
665.908746	30387.394829
666.249522	30476.850104
666.590248	30489.596661
666.930922	30593.623392
667.271545	30576.488510
667.612118	30651.705046
667.952639	30451.551073
668.293109	30487.809572
668.633528	30350.967451
668.973896	30315.175259
669.314213	30302.952981
669.654480	30107.179772
669.994695	30089.520610
670.334859	30007.611942
670.674973	29840.631283
671.015035	30027.521979
671.355047	29967.144080
671.695008	29896.542720
672.034918	29814.528188
672.374777	29905.677291
672.714585	29773.536046
673.054342	29912.172818
673.394049	29753.530227
673.733705	29979.749485
674.073310	29700.668687
674.412864	29762.866443
674.752368	29453.329515
675.091820	29674.706745
675.431223	29267.918397
675.770574	29081.710777
676.109875	28922.821169
676.449125	28701.045688
676.788324	28622.499470
677.127473	28129.696435
677.466571	28030.274799
677.805619	27750.936902
678.144616	27684.381069
678.483562	27639.867680
678.822458	27318.272312
679.161303	27249.977280
679.500098	27182.289707
679.838842	27112.983924
680.177535	27199.900978
680.516179	27441.856198
680.854771	27575.691271
681.193314	28347.628036
681.531805	29367.249293
681.870247	30118.726535
682.208638	30842.018686
682.546978	31102.618613
682.885268	31239.105333
683.223508	30792.844750
683.561697	30526.639060
683.899836	30370.617869
684.237925	29952.219744
684.575963	29824.978500
684.913951	29444.482290
685.251889	29612.319946
685.589776	29641.072167
685.927614	29649.868980
686.265401	29831.393368
686.603137	29947.334866
686.940824	30453.496959
687.278460	30792.726283
687.616046	30970.759672
687.953582	31624.657820
688.291068	31538.935520
688.628504	31855.643489
688.965889	31853.831195
689.303224	31589.997367
689.640510	31296.947532
689.977745	30658.762661
690.314930	29920.026935
690.652065	29478.416817
690.989150	28820.016919
691.326185	27972.664492
691.663170	27330.078694
692.000105	26595.869924
692.336990	25997.900858
692.673825	25563.242491
693.010610	25083.294398
693.347345	24570.916562
693.684030	23949.236429
694.020665	23750.042796
694.357251	23084.010591
694.693786	23088.766920
695.030272	22854.544830
695.366707	22358.349098
695.703093	22086.819949
696.039429	22159.112616
696.375716	21927.040578
696.711952	21922.400196
697.048139	21776.811673
697.384276	21621.350050
697.720363	21732.966237
698.056400	21625.698045
698.392388	21480.291003
698.728326	21468.010753
699.064214	21302.126544
699.400053	21312.128193
699.735842	20924.647465
700.071581	20726.550283
700.407270	20473.489401
700.742910	20307.053187
701.078501	20052.248065
701.414042	19856.457212
701.749533	19548.276354
702.084974	19233.731039
702.420366	19467.849785
702.755709	19049.292864
703.091002	18759.033307
703.426246	18818.975147
703.761440	18754.057689
704.096584	18515.999281
704.431679	18446.212067
704.766725	18398.300941
705.101721	18333.963215
705.436668	18450.764229
705.771565	18173.906581
706.106413	18497.674686
706.441212	18568.883505
706.775961	18674.591460
707.110661	18754.445858
707.445311	19112.266957
707.779913	18991.485952
708.114465	19289.997877
708.448967	19601.611761
708.783421	20239.965511
709.117825	20603.702405
709.452180	20827.552321
709.786485	21288.298659
710.120742	22047.778733
710.454949	22160.914828
710.789107	22659.978977
711.123216	23380.604357
711.457275	23595.019754
711.791286	24145.659947
712.125247	24307.186078
712.459159	24030.625858
712.793023	24778.465907
713.126837	23753.289299
713.460602	23992.756710
713.794318	23662.853520
714.127985	23388.622313
714.461602	22490.533193
714.795171	22467.472435
715.128691	21485.687559
715.462162	20970.952983
715.795584	20545.650998
716.128957	20270.507342
716.462281	19895.014477
716.795556	19618.242528
717.128782	19146.256937
717.461960	18551.635197
717.795088	18500.709461
718.128167	18152.189290
718.461198	17704.532308
718.794180	17574.704952
719.127113	17244.524499
719.459997	17042.540588
719.792833	16683.154209
720.125619	16719.158130
720.458357	16392.239303
720.791046	16260.418171
721.123686	16100.442195
721.456278	15886.974535
721.788821	15875.142947
722.121315	15615.631909
722.453761	15719.572940
722.786158	15602.245125
723.118506	15681.408884
723.450805	15569.558283
723.783056	15747.702578
724.115259	15643.726259
724.447412	15633.089425
724.779518	15843.935684
725.111574	15901.800569
725.443582	16168.888461
725.775542	16126.588139
726.107453	16645.113662
726.439315	16566.012917
726.771129	16992.461765
727.102895	17403.552738
727.434612	17675.724634
727.766281	17840.792176
728.097901	18160.983583
728.429473	18249.995236
728.760996	18266.968801
729.092471	18381.720586
729.423897	18268.861754
729.755276	18144.761150
730.086606	18273.129091
730.417887	18840.188323
730.749120	19405.629344
731.080305	19624.324680
731.411442	20009.806591
731.742530	20126.950404
732.073570	20286.583581
732.404562	20606.848085
732.735506	20452.061977
733.066401	20237.404605
733.397249	19741.047556
733.728048	19117.454305
734.058798	18251.119413
734.389501	17489.096078
734.720156	16974.878221
735.050762	16397.542597
735.381320	16025.059301
735.711831	15747.256436
736.042293	15379.726074
736.372707	15422.593525
736.703073	15212.591659
737.033391	15407.938891
737.363661	15407.328912
737.693883	15539.878490
738.024056	15739.293933
738.354182	15956.991121
738.684260	16325.585167
739.014290	16600.527177
739.344272	16822.408523
739.674207	17163.009041
740.004093	17346.834716
740.333931	17397.795740
740.663722	17471.799879
740.993464	17513.011311
741.323159	17360.594545
741.652806	17057.043987
741.982405	16891.409316
742.311956	16526.505395
742.641460	16417.364414
742.970915	16091.287460
743.300323	15740.027421
743.629683	15532.941863
743.958996	15215.371855
744.288260	14896.405449
744.617477	14595.960241
744.946647	14559.205188
745.275768	14242.555192
745.604842	14038.499367
745.933869	13864.919837
746.262847	13840.077031
746.591778	13756.313218
746.920662	13637.306699
747.249498	13651.404286
747.578286	13806.318944
747.907027	13978.187002
748.235720	14254.800155
748.564365	14326.729858
748.892963	14243.185336
749.221514	14360.853429
749.550017	14217.611563
749.878473	14187.372201
750.206881	13950.647178
750.535242	13884.908012
750.863555	13799.808294
751.191821	13694.788456
751.520039	13721.032703
751.848210	13645.438081
752.176334	13700.258108
752.504411	13627.184062
752.832440	13440.053911
753.160421	13562.687540
753.488356	13446.337709
753.816243	13354.019059
754.144082	13198.007950
754.471875	13145.189261
754.799620	13112.210032
755.127318	13080.097883
755.454969	13069.090523
755.782572	13041.306204
756.110129	13056.548132
756.437638	12964.786529
756.765100	12966.248464
757.092515	12992.190242
757.419882	13026.772557
757.747203	13046.377604
758.074477	13139.091985
758.401703	13124.472639
758.728882	13318.448678
759.056014	13358.351931
759.383099	13523.162373
759.710138	13647.434377
760.037129	13770.912400
760.364073	13840.177854
760.690970	13862.668962
761.017820	13882.175706
761.344623	14098.249643
761.671379	14489.531401
761.998088	15186.667525
762.324751	16980.569683
762.651366	20389.594519
762.977935	24875.185485
763.304456	27826.405496
763.630931	28869.193375
763.957359	27652.594073
764.283740	25392.213785
764.610074	23120.969811
764.936362	20481.467027
765.262602	18617.487790
765.588796	16679.965679
765.914943	15389.800820
766.241044	14292.024035
766.567097	13506.486237
766.893104	12787.683233
767.219064	12327.257008
767.544978	11844.667351
767.870845	11471.138015
768.196665	11240.220402
768.522438	11011.518375
768.848165	10809.539505
769.173846	10598.403379
769.499479	10472.740017
769.825066	10302.205344
770.150607	10074.161188
770.476101	9997.081945
770.801548	9865.608653
771.126949	9707.074447
771.452303	9595.881717
771.777611	9395.826047
772.102872	9385.322803
772.428087	9246.292821
772.753256	9087.897246
773.078378	8997.093463
773.403453	8820.277512
773.728482	8711.086120
774.053465	8634.624419
774.378401	8532.205817
774.703291	8406.645798
775.028135	8281.978063
775.352932	8250.299452
775.677683	8141.839027
776.002388	8040.844551
776.327046	8046.803195
776.651658	7956.221222
776.976224	7847.470931
777.300743	7853.923608
777.625216	7764.848940
777.949643	7718.437557
778.274024	7731.763847
778.598359	7651.831312
778.922647	7665.999475
779.246889	7612.928728
779.571086	7622.527085
779.895236	7631.086964
780.219339	7639.167933
780.543397	7647.105230
780.867409	7720.874955
781.191374	7737.510763
781.515294	7701.779064
781.839167	7793.709546
782.162995	7763.122345
782.486776	7711.594191
782.810511	7658.969586
783.134201	7573.426246
783.457844	7567.059269
783.781441	7520.935232
784.104993	7447.599046
784.428498	7427.444513
784.751958	7409.961792
785.075372	7382.729478
785.398739	7325.706467
785.722061	7376.543983
786.045337	7381.116309
786.368568	7536.600617
786.691752	7563.021305
787.014891	7898.270638
787.337983	8260.767408
787.661030	8860.027010
787.984031	9492.613680
788.306987	9886.161437
788.629897	10093.279764
788.952760	10040.410663
789.275579	9822.569802
789.598351	9422.934852
789.921078	9058.585457
790.243759	8650.602356
790.566395	8359.009415
790.888984	8109.147145
791.211529	7898.283241
791.534027	7671.809405
791.856480	7476.568037
792.178888	7400.222282
792.501249	7299.381561
792.823566	7148.063767
793.145836	7149.722307
793.468062	7130.225644
793.790241	7074.896460
794.112375	7142.233672
794.434464	7297.770913
794.756507	7340.068714
795.078505	7502.464444
795.400457	7812.563461
795.722364	8167.223758
796.044226	8447.950492
796.366042	8723.643634
796.687812	8675.510697
797.009538	8757.749560
797.331218	8651.708889
797.652852	8562.460302
797.974442	8409.756190
798.295986	8322.201430
798.617484	8126.511399
798.938938	7984.053433
799.260346	7878.617700
799.581709	7683.935900
799.903026	7602.380113
800.224299	7502.406471
800.545526	7322.492731
800.866708	7227.789615
801.187845	7160.991806
801.508936	7052.062554
801.829983	7012.877665
802.150984	6864.387958
802.471940	6818.216030
802.792851	6807.949720
803.113717	6772.717096
803.434538	6740.967909
803.755314	6684.345669
804.076045	6686.974630
804.396731	6637.110057
804.717372	6664.256671
805.037967	6664.806156
805.358518	6711.179731
805.679024	6791.961700
805.999485	6799.853627
806.319901	6847.532860
806.640272	6866.704368
806.960598	6946.223529
807.280879	6950.677388
807.601115	7025.914089
807.921306	6974.040616
808.241453	6988.917061
808.561554	7008.058322
808.881611	6970.582384
809.201623	6978.975905
809.521590	6924.838954
809.841513	6904.107209
810.161390	6945.018693
810.481223	6815.587068
810.801011	6793.095960
811.120755	6772.828001
811.440453	6689.036462
811.760107	6663.185425
812.079716	6635.340612
812.399281	6561.948974
812.718801	6554.737603
813.038276	6510.030130
813.357707	6452.813034
813.677093	6491.803839
813.996434	6396.825980
814.315731	6441.639317
814.634983	6430.037101
814.954191	6443.285253
815.273354	6550.805503
815.592473	6616.211954
815.911547	6739.831128
816.230577	6824.154509
816.549562	6967.298072
816.868502	7073.537869
817.187399	7167.815008
817.506250	7316.927297
817.825058	7351.711259
818.143821	7622.209492
818.462539	7897.761482
818.781213	8260.575845
819.099843	8817.492275
819.418429	9812.530344
819.736970	10789.271546
820.055466	11967.353912
820.373919	13512.691897
820.692327	15857.030082
821.010691	20016.788589
821.329011	29029.905359
821.647286	42019.890096
821.965517	55441.158148
822.283704	60812.316007
822.601847	62786.189878
822.919945	60082.714852
823.237999	55883.557206
823.556010	49700.529082
823.873976	42989.349351
824.191897	36454.267207
824.509775	31629.046145
824.827609	27102.979754
825.145398	24530.340315
825.463144	23162.375328
825.780845	23478.397701
826.098502	25258.040955
826.416116	29044.696105
826.733685	32692.011242
827.051210	33854.269426
827.368692	32059.238049
827.686129	28098.728627
828.003522	23968.304593
828.320872	20256.896226
828.638177	17400.563334
828.955439	15260.550676
829.272656	13450.531949
829.589830	11971.427164
829.906960	10699.082783
830.224046	9753.803423
830.541088	9007.120318
830.858086	8549.915390
831.175041	8170.966814
831.491952	8057.402221
831.808819	8098.684230
832.125642	8506.750510
832.442421	9391.863700
832.759157	11192.936899
833.075849	14125.615546
833.392497	17351.132300
833.709101	19530.400422
834.025662	19367.102326
834.342179	17672.089962
834.658653	15462.937880
834.975083	13532.775854
835.291469	11914.925912
835.607811	10598.133677
835.924110	9685.944451
836.240366	8815.894229
836.556578	8016.095007
836.872746	7370.575257
837.188871	6867.150510
837.504952	6450.244566
837.820990	6141.872144
838.136984	5920.734369
838.452935	5827.059648
838.768842	5858.408064
839.084706	6278.845336
839.400526	7494.257446
839.716303	9078.500536
840.032037	10176.511734
840.347727	10101.854766
840.663373	9115.288356
840.978977	8074.257319
841.294537	7261.537619
841.610054	6663.238358
841.925527	6228.186781
842.240957	5869.783427
842.556344	5535.333117
842.871687	5251.543881
843.186987	4972.757991
843.502244	4750.037294
843.817458	4581.393054
844.132629	4446.670738
844.447756	4356.960884
844.762840	4274.628760
845.077881	4201.559755
845.392879	4141.537257
845.707833	4087.730502
846.022745	4044.268194
846.337613	4017.539996
846.652438	3974.889314
846.967221	3961.280719
847.281960	3925.833846
847.596656	3908.141916
847.911309	3885.562588
848.225919	3866.060885
848.540485	3845.066999
848.855009	3833.197603
849.169490	3810.091474
849.483928	3801.395484
849.798323	3794.138743
850.112675	3772.297944
850.426984	3778.506125
850.741251	3767.234105
851.055474	3762.951644
851.369654	3766.913991
851.683792	3759.894185
851.997887	3768.801903
852.311938	3773.127213
852.625947	3775.509159
852.939914	3763.944752
853.253837	3771.619908
853.567718	3772.184518
853.881555	3762.626490
854.195350	3777.076958
854.509103	3771.032614
854.822812	3770.631842
855.136479	3759.934514
855.450103	3771.009929
855.763685	3757.774379
856.077224	3761.454422
856.390720	3779.998306
856.704173	3795.867858
857.017584	3811.707164
857.330953	3821.066066
857.644278	3843.809232
857.957561	3852.505222
858.270802	3845.666897
858.584000	3854.819112
858.897155	3844.260415
859.210268	3829.459587
859.523339	3807.359169
859.836367	3804.420176
860.149352	3798.388435
860.462295	3790.829225
860.775195	3779.128707
861.088054	3772.761730
861.400869	3771.738376
861.713642	3772.638222
862.026373	3783.448976
862.339062	3789.014410
862.651708	3809.521824
862.964312	3842.884180
863.276873	3853.936910
863.589392	3914.796239
863.901869	3957.348619
864.214303	4008.304602
864.526696	4038.644787
864.839045	4085.779575
865.151353	4114.125983
865.463619	4121.596973
865.775842	4122.627889
866.088023	4142.830313
866.400162	4134.560300
866.712258	4142.205210
867.024313	4146.215448
867.336325	4141.524654
867.648296	4147.695027
867.960224	4147.863905
868.272110	4155.796161
868.583954	4158.994773
868.895755	4176.459850
869.207515	4170.284437
869.519233	4216.610120
869.830909	4226.947006
870.142542	4251.363835
870.454134	4264.750619
870.765684	4293.752377
871.077191	4328.790917
871.388657	4354.263867
871.700081	4395.419847
872.011463	4437.740334
872.322803	4465.817040
872.634101	4501.410107
872.945357	4544.469122
873.256571	4595.225980
873.567744	4626.592039
873.878874	4645.209020
874.189963	4682.851316
874.501010	4689.921534
874.812015	4689.372048
875.122979	4732.937700
875.433900	4727.425198
875.744780	4743.390532
876.055618	4771.406745
876.366415	4773.720635
876.677169	4794.868275
876.987882	4839.399307
877.298554	4886.428232
877.609183	4966.196930
877.919771	5076.502417
878.230317	5226.207042
878.540822	5440.415751
878.851285	5765.083703
879.161707	6223.977417
879.472087	6983.162583
879.782425	8219.951706
880.092722	10400.129757
880.402977	13706.796485
880.713191	17445.550591
881.023363	21164.452633
881.333494	23376.947000
881.643583	24583.980712
881.953631	24578.450567
882.263637	23726.248550
882.573602	22259.857555
882.883526	20707.522448
883.193408	19032.546151
883.503248	17334.892223
883.813048	15796.982378
884.122806	14366.454151
884.432522	12897.671128
884.742197	11639.073973
885.051831	10553.418643
885.361424	9541.152430
885.670975	8722.078356
885.980485	8039.420425
886.289954	7468.194680
886.599382	6991.296485
886.908768	6620.844774
887.218113	6256.596203
887.527417	5966.593746
887.836680	5699.868816
888.145901	5480.573583
888.455082	5319.672555
888.764221	5164.745294
889.073319	5035.043968
889.382376	4961.614521
889.691392	4903.512702
890.000366	4878.027149
890.309300	4863.054922
890.618193	4861.736660
890.927044	4850.759548
891.235855	4873.331314
891.544625	4903.868103
891.853353	4965.211384
892.162041	5083.839816
892.470687	5269.288743
892.779293	5518.662021
893.087858	5892.856788
893.396381	6467.807946
893.704864	7268.169257
894.013306	8422.434692
894.321707	9592.925080
894.630068	10417.476367
894.938387	10621.103695
895.246665	10383.461182
895.554903	9774.409139
895.863100	9079.715454
896.171256	8521.143005
896.479371	8012.248606
896.787446	7518.059253
897.095480	7087.559838
897.403473	6777.478465
897.711425	6449.460667
898.019336	6187.701274
898.327207	5910.432771
898.635038	5686.388771
898.942827	5434.172282
899.250576	5240.962499
899.558284	5054.802770
899.865952	4930.286270
900.173579	4780.334628
900.481165	4673.164739
900.788711	4580.132765
901.096216	4510.491745
901.403681	4443.825006
901.711105	4420.411367
902.018489	4407.579110
902.325832	4478.351869
902.633135	4598.248152
902.940397	4942.916881
903.247619	5740.331638
903.554800	7178.308169
903.861941	9094.513761
904.169041	10608.679771
904.476101	11228.091385
904.783121	10874.643486
905.090100	10135.615374
905.397039	9305.049989
905.703938	8552.829177
906.010796	7858.236315
906.317614	7301.067827
906.624391	6770.337671
906.931129	6347.697415
907.237826	5949.955418
907.544483	5566.840328
907.851099	5196.426426
908.157675	4844.717725
908.464211	4522.446842
908.770707	4288.718785
909.077163	4086.671859
909.383578	3945.322947
909.689954	3831.229032
909.996289	3762.397118
910.302584	3694.724668
910.608839	3663.436747
910.915054	3635.594454
911.221229	3617.796661
911.527363	3630.485245
911.833458	3642.599137
912.139513	3668.828261
912.445527	3700.222047
912.751502	3784.195067
913.057436	3886.222979
913.363331	4018.732229
913.669186	4223.088003
913.975000	4484.426459
914.280775	4903.568155
914.586510	5479.454447
914.892205	6277.481703
915.197859	7314.575599
915.503475	8532.513327
915.809050	9584.491229
916.114585	10229.648016
916.420081	10491.699796
916.725536	10459.091092
917.030952	10015.807311
917.336328	9602.967058
917.641665	9194.547897
917.946961	8720.208088
918.252218	8296.340311
918.557435	7786.044471
918.862612	7354.473811
919.167750	6984.188458
919.472848	6561.787657
919.777906	6185.299164
920.082925	5824.740718
920.387904	5463.824349
920.692843	5195.347619
920.997743	4951.196976
921.302603	4716.715267
921.607423	4557.891194
921.912204	4390.557654
922.216946	4273.461733
922.521647	4155.712982
922.826310	4050.839338
923.130932	3955.306952
923.435516	3856.830532
923.740059	3789.657157
924.044564	3710.140517
924.349028	3654.599604
924.653454	3588.174841
924.957840	3518.901825
925.262186	3470.179073
925.566493	3410.718663
925.870761	3354.494675
926.174989	3319.390600
926.479178	3282.285187
926.783328	3237.875142
927.087438	3210.957901
927.391509	3175.558919
927.695541	3145.566574
927.999533	3119.733181
928.303486	3100.150819
928.607400	3084.215732
928.911275	3072.643763
929.215110	3055.539128
929.518906	3041.928013
929.822663	3041.819628
930.126381	3043.871377
930.430060	3050.014023
930.733699	3054.248593
931.037299	3060.736558
931.340861	3058.057184
931.644383	3069.424986
931.947866	3068.555387
932.251309	3061.273441
932.554714	3060.993657
932.858080	3053.958726
933.161407	3047.357335
933.464694	3039.052034
933.767943	3031.374357
934.071153	3026.043337
934.374323	3017.574198
934.677455	3014.736029
934.980548	3002.791015
935.283602	2998.185921
935.586617	2995.998060
935.889593	3006.017353
936.192530	3009.601614
936.495428	3024.160466
936.798287	3045.040925
937.101108	3076.807756
937.403890	3130.014614
937.706632	3191.395704
938.009336	3272.170112
938.312002	3345.256760
938.614628	3406.030390
938.917216	3460.258082
939.219765	3490.487361
939.522275	3525.009183
939.824747	3529.067312
940.127179	3525.110006
940.429573	3517.641537
940.731929	3517.676825
941.034246	3504.673168
941.336524	3490.179851
941.638763	3469.359886
941.940964	3460.091724
942.243126	3419.283584
942.545250	3396.280799
942.847335	3358.394007
943.149381	3324.719099
943.451389	3291.253400
943.753359	3256.290477
944.055290	3233.370871
944.357182	3206.733414
944.659036	3192.897967
944.960851	3184.753983
945.262628	3167.490552
945.564367	3167.374606
945.866067	3164.206240
946.167729	3162.212464
946.469352	3156.112668
946.770937	3156.004283
947.072484	3140.278404
947.373992	3145.022129
947.675462	3136.585758
947.976893	3116.428705
948.278286	3112.693210
948.579641	3102.056375
948.880958	3096.032196
949.182236	3098.260386
949.483476	3093.652772
949.784678	3093.864500
950.085841	3093.609922
950.386967	3102.830192
950.688054	3121.505147
950.989103	3139.197076
951.290114	3161.489058
951.591087	3189.704397
951.892021	3217.690362
952.192917	3247.571802
952.493776	3271.371089
952.794596	3281.776030
953.095378	3286.408851
953.396122	3276.255967
953.696828	3272.969135
953.997496	3259.816764
954.298126	3237.423959
954.598718	3216.916545
954.899272	3187.299766
955.199788	3164.143226
955.500266	3134.362610
955.800706	3096.800972
956.101108	3057.243038
956.401472	3027.646424
956.701798	2997.901096
957.002087	2956.084724
957.302337	2926.571289
957.602550	2898.194634
957.902724	2867.730942
958.202861	2842.507528
958.502960	2823.840136
958.803022	2803.486477
959.103045	2781.870009
959.403031	2766.214706
959.702979	2752.127202
960.002889	2739.231930
960.302762	2724.627707
960.602596	2714.162272
960.902393	2708.022147
961.202153	2698.912782
961.501875	2690.075639
961.801559	2682.168589
962.101205	2677.331602
962.400814	2671.756086
962.700385	2664.968172
962.999918	2657.782007
963.299414	2651.785555
963.598873	2652.274547
963.898293	2646.015954
964.197677	2644.536376
964.497022	2642.293062
964.796331	2639.666621
965.095601	2638.542444
965.394835	2637.264511
965.694030	2634.322998
965.993189	2630.993316
966.292309	2632.026752
966.591393	2631.099180
966.890439	2631.832668
967.189447	2630.121196
967.488419	2631.391567
967.787353	2632.525827
968.086249	2633.327370
968.385108	2633.581948
968.683930	2635.036321
968.982714	2641.181488
969.281462	2644.281797
969.580172	2651.379742
969.878844	2654.820329
970.177480	2664.300219
970.476078	2669.406908
970.774639	2682.070287
971.073162	2686.546831
971.371649	2690.773839
971.670098	2695.343645
971.968510	2703.613657
972.266885	2706.837475
972.565223	2712.314689
972.863524	2712.831407
973.161788	2719.221070
973.460014	2723.319528
973.758204	2721.991184
974.056356	2724.915053
974.354471	2726.888665
974.652550	2726.371947
974.950591	2725.320866
975.248595	2725.993860
975.546563	2722.903633
975.844493	2718.933724
976.142386	2714.449618
976.440243	2706.628267
976.738062	2701.876980
977.035845	2696.518233
977.333590	2690.536904
977.631299	2687.030782
977.928971	2680.535255
978.226606	2672.492094
978.524204	2671.017557
978.821765	2666.530930
979.119290	2668.920437
979.416777	2667.171156
979.714228	2670.095026
980.011642	2673.943947
980.309020	2681.520801
980.606360	2697.468491
980.903664	2717.111347
981.200931	2754.047881
981.498162	2805.475212
981.795356	2879.050853
982.092513	2967.409677
982.389633	3069.830799
982.686717	3170.850481
982.983764	3242.649115
983.280775	3291.266003
983.577749	3296.783545
983.874686	3285.909777
984.171587	3250.409971
984.468451	3209.543857
984.765279	3166.013494
985.062070	3118.641771
985.358824	3074.463620
985.655543	3019.683921
985.952224	2967.938998
986.248869	2905.141344
986.545478	2845.375945
986.842050	2793.588171
987.138586	2746.163517
987.435086	2709.025336
987.731549	2675.965449
988.027975	2652.947541
988.324366	2635.074130
988.620719	2621.944445
988.917037	2612.212497
989.213318	2603.113214
989.509563	2594.422265
989.805772	2590.308684
990.101944	2585.128898
990.398080	2584.213929
990.694180	2581.204360
990.990244	2579.313927
991.286271	2581.854669
991.582262	2584.163517
991.878217	2590.112079
992.174136	2586.182499
992.470019	2592.178952
992.765865	2595.609457
993.061676	2599.223964
993.357450	2607.327619
993.653188	2613.918928
993.948890	2632.437606
994.244556	2650.127015
994.540186	2672.945798
994.835780	2707.021477
995.131337	2742.181005
995.426859	2782.447221
995.722345	2829.705518
996.017795	2881.289125
996.313208	2918.434867
996.608586	2945.704989
996.903928	2961.768625
997.199234	2956.137657
997.494504	2955.631021
997.789738	2944.134669
998.084936	2915.783220
998.380099	2882.602345
998.675225	2853.668643
998.970316	2825.183603
999.265371	2792.020372
999.560390	2752.722058
999.855373	2723.241390
1000.150320	2697.148378
1000.445232	2669.298523
1000.740108	2650.653816
1001.034948	2630.020373
1001.329752	2616.958743
1001.624521	2603.113214
1001.919254	2593.136771
1002.213951	2588.957654
1002.508613	2576.304358
1002.803239	2570.002916
1003.097829	2564.160219
1003.392384	2560.228119
1003.686903	2556.535473
1003.981386	2554.392983
1004.275834	2548.177240
1004.570246	2544.446787
1004.864623	2544.096426
1005.158964	2542.200952
1005.453270	2538.074768
1005.747540	2538.117618
1006.041775	2536.232226
1006.335974	2534.994623
1006.630138	2534.185518
1006.924266	2534.639222
1007.218359	2530.835671
1007.512416	2527.846267
1007.806438	2527.294261
1008.100425	2527.511030
1008.394376	2524.476256
1008.688292	2529.542615
1008.982172	2527.962213
1009.276017	2527.256452
1009.569827	2526.162522
1009.863602	2524.635052
1010.157341	2525.439116
1010.451045	2521.113806
1010.744714	2523.331914
1011.038347	2524.100690
1011.331945	2522.742099
1011.625508	2519.016686
1011.919036	2520.566841
1012.212528	2519.024248
1012.505986	2521.620442
1012.799408	2520.521470
1013.092795	2517.022910
1013.386147	2519.145235
1013.679464	2517.048115
1013.972745	2517.685821
1014.265992	2518.615914
1014.559204	2515.800430
1014.852380	2517.635410
1015.145521	2517.098527
1015.438628	2517.383352
1015.731699	2514.091479
1016.024736	2517.227076
1016.317737	2521.726306
1016.610703	2521.128929
1016.903635	2523.190761
1017.196531	2524.163704
1017.489393	2524.345186
1017.782219	2527.513551
1018.075011	2525.602953
1018.367768	2526.359127
1018.660490	2527.405166
1018.953177	2527.405166
1019.245829	2527.405166
