Dividing Wavelength (nm)	Counts (n)	Blue Motor Position (mm): 25.100000	Red Motor Position (mm): 0.000000	
326.493990	2133.229785
326.888308	2133.229785
327.282561	2133.229785
327.676750	2099.504466
328.070874	2097.825762
328.464933	2099.277614
328.858929	2105.410178
329.252859	2117.335027
329.646726	2127.934053
330.040528	2140.529376
330.434265	2159.136275
330.827938	2177.332319
331.221547	2192.642304
331.615091	2210.581250
332.008571	2230.685371
332.401986	2253.305028
332.795338	2273.386465
333.188625	2289.676953
333.581847	2307.207566
333.975006	2324.735658
334.368100	2344.945644
334.761129	2363.232429
335.154095	2378.749101
335.546996	2402.739952
335.939833	2422.123188
336.332606	2437.271856
336.725315	2450.653599
337.117960	2457.872531
337.510540	2468.287555
337.903056	2480.509832
338.295508	2486.435709
338.687896	2497.067502
339.080220	2505.392968
339.472480	2510.882784
339.864676	2513.330264
340.256807	2519.977026
340.648875	2522.187572
341.040879	2525.423992
341.432818	2526.376771
341.824694	2530.235774
342.216506	2526.603623
342.608253	2529.464477
342.999937	2529.633356
343.391557	2526.946421
343.783113	2524.526667
344.174605	2525.973478
344.566033	2524.241842
344.957397	2523.430216
345.348697	2517.721109
345.739934	2521.617921
346.131106	2519.067098
346.522215	2517.126253
346.913260	2515.142559
347.304241	2513.090810
347.695159	2508.110150
348.086012	2509.519152
348.476802	2505.604696
348.867528	2505.256857
349.258191	2504.750221
349.648789	2503.129490
350.039324	2503.217710
350.429796	2498.473984
350.820203	2496.575990
351.210548	2497.566576
351.600828	2499.028511
351.991045	2496.354179
352.381198	2496.165136
352.771288	2496.777636
353.161314	2493.896616
353.551276	2494.819148
353.941175	2495.724035
354.331010	2493.357213
354.720782	2495.161946
355.110490	2494.751092
355.500135	2495.529950
355.889717	2497.591782
356.279235	2494.904847
356.668689	2497.904334
357.058080	2493.213540
357.447408	2494.201606
357.836672	2490.178765
358.225873	2495.971051
358.615010	2491.522233
359.004084	2496.323932
359.393095	2496.631442
359.782043	2500.462719
360.170927	2497.488438
360.559748	2497.478356
360.948505	2500.971876
361.337199	2500.198059
361.725830	2501.791063
362.114398	2501.173522
362.502903	2501.934736
362.891344	2502.438852
363.279722	2505.287103
363.668037	2503.290807
364.056289	2504.727535
364.444478	2507.101919
364.832603	2503.580673
365.220665	2507.701816
365.608665	2503.837772
365.996601	2506.217196
366.384474	2506.186949
366.772284	2504.601507
367.160031	2504.402381
367.547715	2508.331960
367.935336	2507.671569
368.322893	2506.171826
368.710388	2508.407578
369.097820	2512.863958
369.485189	2509.723319
369.872495	2509.826663
370.259738	2510.461848
370.646918	2510.429080
371.034035	2508.374810
371.421090	2510.955881
371.808081	2511.104595
372.195010	2510.852537
372.581875	2510.267763
372.968678	2511.593587
373.355418	2513.390758
373.742096	2513.443690
374.128710	2512.291787
374.515262	2511.477640
374.901751	2513.294976
375.288177	2513.970491
375.674540	2511.941427
376.060841	2513.783968
376.447079	2513.181550
376.833254	2512.062414
377.219367	2507.187618
377.605417	2512.707682
377.991404	2508.929337
378.377329	2509.877074
378.763191	2511.419667
379.148991	2514.300687
379.534727	2512.909328
379.920402	2513.973012
380.306013	2514.290604
380.691563	2514.640964
381.077049	2516.092817
381.462474	2514.673732
381.847835	2517.005266
382.233134	2516.049967
382.618371	2515.674401
383.003545	2518.507529
383.388657	2517.090965
383.773706	2517.118692
384.158693	2517.688342
384.543618	2519.926614
384.928480	2517.953002
385.313280	2519.291429
385.698017	2518.068949
386.082692	2520.077849
386.467305	2518.346213
386.851856	2519.167921
387.236344	2518.779752
387.620770	2519.500637
388.005133	2520.342509
388.389435	2519.011645
388.773674	2520.057684
389.157851	2519.893847
389.541965	2522.565658
389.926018	2521.464166
390.310008	2521.524660
390.693936	2520.418127
391.077802	2523.115144
391.461606	2521.842253
391.845348	2519.878723
392.229027	2523.861235
392.612645	2522.021214
392.996200	2524.859383
393.379694	2521.880061
393.763125	2523.515916
394.146494	2521.380987
394.529801	2521.864938
394.913047	2524.042716
395.296230	2524.014990
395.679351	2523.226049
396.062410	2524.735875
396.445408	2521.373425
396.828343	2524.539270
397.211217	2521.859897
397.594028	2521.766635
397.976778	2521.005421
398.359466	2523.652027
398.742092	2522.394259
399.124656	2526.248221
399.507158	2527.374919
399.889598	2525.411390
400.271977	2527.095135
400.654294	2529.983716
401.036549	2525.721421
401.418742	2528.652852
401.800874	2525.849970
402.182944	2530.102183
402.564952	2525.779394
402.946898	2529.277955
403.328783	2528.025228
403.710606	2525.192099
404.092367	2528.854498
404.474067	2528.806607
404.855705	2531.929602
405.237282	2532.370703
405.618797	2527.707635
406.000250	2528.310053
406.381642	2526.646472
406.762972	2528.095804
407.144240	2528.897348
407.525447	2532.156453
407.906593	2530.223171
408.287677	2531.392719
408.668700	2531.657379
409.049661	2532.224509
409.430560	2530.465146
409.811399	2532.756351
410.192176	2530.739889
410.572891	2529.701412
410.953545	2532.176618
411.334138	2530.951618
411.714669	2532.887421
412.095139	2530.838192
412.475547	2529.817358
412.855894	2530.739889
413.236180	2531.241484
413.616405	2533.494880
413.996568	2532.443799
414.376670	2530.719725
414.756711	2532.360620
415.136691	2534.687113
415.516609	2533.383974
415.896466	2535.534027
416.276262	2533.870446
416.655997	2532.600075
417.035670	2528.158818
417.415283	2534.389685
417.794834	2531.823737
418.174324	2532.610157
418.553753	2533.600744
418.933121	2535.173584
419.312428	2536.466640
419.691674	2534.062010
420.070859	2536.391023
420.449983	2535.990251
420.829045	2537.454706
421.208047	2535.720549
421.586988	2534.384643
421.965867	2539.035108
422.344686	2535.896990
422.723444	2536.943029
423.102141	2537.318595
423.480777	2539.350180
423.859352	2536.630477
424.237866	2539.357742
424.616319	2537.928575
424.994712	2537.149716
425.373044	2540.807073
425.751314	2540.333205
426.129524	2540.373534
426.507673	2539.400592
426.885762	2539.065355
427.263789	2540.597866
427.641756	2539.254398
428.019662	2537.905889
428.397508	2538.475540
428.775292	2540.350849
429.153016	2540.328164
429.530679	2541.628782
429.908282	2540.854964
430.285824	2538.213400
430.663305	2540.736497
431.040726	2540.744059
431.418086	2539.251877
431.795385	2544.164482
432.172624	2539.914789
432.549802	2542.639533
432.926920	2542.016950
433.303977	2543.937630
433.680974	2541.268339
434.057910	2543.519214
434.434786	2542.115253
434.811601	2541.991745
435.188355	2543.315048
435.565050	2542.614327
435.941683	2544.809750
436.318257	2542.793288
436.694770	2540.151723
437.071222	2541.913607
437.447614	2540.214738
437.823946	2540.955787
438.200218	2545.182795
438.576429	2547.151366
438.952580	2542.571477
439.328670	2544.063659
439.704700	2545.268495
440.080670	2547.123639
440.456580	2546.617003
440.832429	2545.591128
441.208218	2547.032898
441.583947	2551.398538
441.959616	2547.910059
442.335224	2547.713454
442.710773	2549.001469
443.086261	2548.406613
443.461689	2549.460214
443.837057	2550.193702
444.212365	2549.745039
444.587612	2549.682025
444.962800	2552.933569
445.337927	2552.812581
445.712995	2551.774104
446.088002	2552.978939
446.462949	2549.924000
446.837837	2552.946172
447.212664	2555.953220
447.587431	2554.821481
447.962139	2558.730896
448.336786	2563.613253
448.711374	2565.304561
449.085901	2561.213664
449.460369	2566.058213
449.834776	2566.726166
450.209124	2568.669531
450.583412	2571.573235
450.957640	2577.620099
451.331808	2577.670511
451.705917	2579.167734
452.079965	2583.341809
452.453954	2587.979671
452.827883	2592.378077
453.201752	2601.152206
453.575562	2600.214551
453.949311	2610.032198
454.323001	2613.964298
454.696632	2620.512757
455.070202	2630.910137
455.443713	2641.015130
455.817164	2646.981335
456.190556	2656.458704
456.563888	2668.375992
456.937160	2677.097188
457.310373	2680.812519
457.683526	2689.309383
458.056619	2698.212061
458.429653	2710.043649
458.802628	2716.390462
459.175542	2732.154150
459.548398	2757.090217
459.921194	2782.180040
460.293930	2800.008081
460.666607	2854.392048
461.039224	2893.226577
461.411782	2914.482602
461.784280	2936.265428
462.156719	2945.707509
462.529099	2957.723099
462.901419	2948.396965
463.273680	2957.410548
463.645882	2974.875625
464.018024	2995.980416
464.390106	3032.833771
464.762130	3098.230139
465.134094	3188.751618
465.505999	3360.352495
465.877845	3556.153431
466.249631	3662.057991
466.621358	3644.015702
466.993026	3603.890638
467.364634	3601.964917
467.736184	3593.795727
468.107674	3595.736571
468.479105	3658.027589
468.850477	3653.649347
469.221790	3664.223167
469.593043	3655.144049
469.964238	3683.767720
470.335373	3731.474680
470.706449	3789.674801
471.077467	3836.451668
471.448425	4182.486550
471.819324	4486.856296
472.190164	4541.726735
472.560945	4314.111077
472.931667	4196.546328
473.302330	4210.923699
473.672934	4183.305737
474.043479	4330.714117
474.413965	4376.429821
474.784393	4409.918206
475.154761	4514.391078
475.525070	4602.248307
475.895321	4610.291468
476.265513	4728.619952
476.635645	4849.030432
477.005719	4931.629738
477.375734	5033.544224
477.745691	5188.214386
478.115588	5313.388757
478.485427	5489.380479
478.855207	5780.244973
479.224928	6209.201795
479.594591	6552.708539
479.964194	6570.307207
480.333739	6626.100177
480.703226	6708.288629
481.072653	6831.428894
481.442022	7056.932308
481.811333	7223.713842
482.180584	7231.925882
482.549777	7202.346912
482.918912	7191.763009
483.287988	7298.786705
483.657005	7391.243987
484.025964	7317.882596
484.394864	7478.158521
484.763706	7557.105511
485.132489	7501.473857
485.501213	7574.948675
485.869879	7691.495110
486.238487	7703.777882
486.607036	7835.294024
486.975527	7800.240361
487.343959	7999.378540
487.712333	8112.544882
488.080648	8141.728122
488.448905	8258.493848
488.817104	8292.299826
489.185244	8550.220380
489.553326	8745.212211
489.921350	9187.213018
490.289315	9994.775618
490.657222	10310.603906
491.025070	10345.980203
491.392861	10339.104069
491.760593	10168.955045
492.128267	10001.361885
492.495883	9845.360859
492.863440	9650.837855
493.230939	9469.552922
493.598380	9477.888470
493.965763	9447.397051
494.333088	9415.491588
494.700354	9415.993183
495.067563	9513.360549
495.434713	9442.396226
495.801805	9593.015821
496.168839	9585.668339
496.535815	9588.440973
496.902733	9634.444023
497.269593	9630.436306
497.636395	9750.413247
498.003139	9795.876892
498.369825	9721.272857
498.736453	9900.904292
499.103023	9873.132575
499.469535	9940.628584
499.835989	9972.125713
500.202385	9978.999327
500.568723	9881.485767
500.935003	10112.053021
501.301226	9975.820879
501.667390	10234.447195
502.033497	10358.073931
502.399546	10258.203632
502.765537	10201.596516
503.131470	10295.997163
503.497345	10494.618624
503.863163	10151.202621
504.228923	10470.221960
504.594625	10549.105936
504.960269	10341.468370
505.325856	10565.106558
505.691385	10396.734540
506.056856	10552.183560
506.422270	10604.949317
506.787625	10514.987406
507.152924	10641.522888
507.518164	10635.710438
507.883347	10580.040976
508.248472	10519.116111
508.613540	10756.622513
508.978550	10657.246247
509.343503	10640.920471
509.708398	10771.645152
510.073236	10887.846268
510.438016	10917.024467
510.802738	10865.503874
511.167403	10929.276991
511.532010	10840.552683
511.896561	11071.772766
512.261053	11143.881431
512.625488	11023.528924
512.989866	11014.848057
513.354186	11009.895123
513.718449	10918.209138
514.082655	11106.927253
514.446803	11019.672441
514.810894	11144.471246
515.174927	11019.241423
515.538904	11039.219515
515.902822	11197.791530
516.266684	11087.062586
516.630488	11032.706345
516.994235	11091.546692
517.357925	11152.050621
517.721558	11237.528425
518.085133	11264.057497
518.448651	11277.368664
518.812112	11155.718060
519.175516	11185.213851
519.538863	11302.793724
519.902152	11212.972965
520.265385	11382.690971
520.628560	11292.827362
520.991678	11272.256934
521.354739	11329.915131
521.717743	11272.821543
522.080690	11253.909655
522.443580	11391.150027
522.806413	11352.300375
523.169189	11377.097811
523.531908	11433.853641
523.894569	11261.831828
524.257174	11270.767273
524.619722	11376.689477
524.982213	11332.390338
525.344647	11378.405990
525.707025	11336.728251
526.069345	11434.756008
526.431608	11354.069820
526.793815	11459.750049
527.155964	11244.651576
527.518057	11302.435802
527.880093	11249.700291
528.242072	11324.180819
528.603995	11229.371838
528.965860	11143.142902
529.327669	11209.781915
529.689421	11150.863429
530.051117	11122.975766
530.412755	11220.121321
530.774337	11113.909251
531.135862	11102.175965
531.497331	11122.791764
531.858743	10976.154681
532.220098	11143.427727
532.581396	11015.649601
532.942638	11004.680050
533.303824	10957.890580
533.664953	10974.733075
534.026025	10889.880374
534.387040	10986.486526
534.747999	10991.497433
535.108902	11050.993130
535.469748	10812.178549
535.830537	10911.643035
536.191270	10894.109902
536.551947	10909.941646
536.912567	10909.790411
537.273131	10841.112252
537.633638	10811.462705
537.994089	10805.700666
538.354483	10758.155024
538.714821	10901.835470
539.075103	10908.935935
539.435328	10874.570390
539.795497	10701.880623
540.155609	10856.644047
540.515665	10948.188880
540.875665	10688.035094
541.235609	10751.205793
541.595496	10743.119783
541.955328	10897.631148
542.315102	10784.220310
542.674821	10731.575540
543.034483	10737.650131
543.394090	10744.236398
543.753640	10667.855356
544.113134	10895.428164
544.472571	10743.691953
544.831953	10887.669828
545.191278	10692.090703
545.550548	10721.737728
545.909761	10852.701864
546.268918	10835.012455
546.628019	10913.286451
546.987064	10775.181521
547.346053	10704.103772
547.704986	10801.012393
548.063863	10788.709457
548.422684	10782.788622
548.781449	10696.962978
549.140158	10810.373816
549.498811	10678.782057
549.857408	10535.779645
550.215949	10764.869841
550.574434	10616.317119
550.932864	10712.593075
551.291237	10773.321335
551.649555	10720.427028
552.007817	10740.248845
552.366022	10698.412310
552.724173	10691.899139
553.082267	10677.201655
553.440305	10810.522530
553.798288	10615.094639
554.156215	10765.278174
554.514086	10744.135575
554.871902	10591.340723
555.229661	10629.408996
555.587365	10608.208423
555.945014	10505.605819
556.302606	10630.681887
556.660143	10521.271205
557.017625	10669.040027
557.375050	10569.517567
557.732421	10705.376664
558.089735	10613.173960
558.446994	10616.155802
558.804197	10656.485033
559.161345	10660.969139
559.518437	10504.635397
559.875474	10593.752915
560.232455	10624.592173
560.589381	10583.045504
560.946251	10572.023021
561.303065	10676.130410
561.659825	10612.281676
562.016528	10544.014370
562.373177	10422.716647
562.729770	10541.808865
563.086307	10454.561616
563.442789	10548.833713
563.799216	10427.248644
564.155587	10472.671961
564.511904	10431.188306
564.868164	10418.855123
565.224370	10440.259862
565.580520	10354.416574
565.936615	10363.099962
566.292654	10236.796373
566.648638	10363.636844
567.004567	10321.339043
567.360441	10316.065996
567.716260	10213.972548
568.072023	10311.876797
568.427732	10259.882337
568.783385	10168.897071
569.138982	10243.299461
569.494525	10263.030537
569.850013	10135.305343
570.205445	10216.508249
570.560823	10110.853226
570.916145	10026.308035
571.271412	10100.695301
571.626625	10051.017250
571.981782	10023.268219
572.336884	10003.640487
572.691931	9998.972378
573.046923	9950.080748
573.401860	9900.831195
573.756743	9837.741155
574.111570	9884.081961
574.466342	9868.789621
574.821059	9897.393128
575.175722	9780.481209
575.530330	9797.258169
575.884882	9788.756263
576.239380	9721.809740
576.593823	9693.445688
576.948211	9713.872443
577.302544	9591.221170
577.656823	9611.254715
578.011047	9606.742882
578.365216	9583.722453
578.719330	9505.577007
579.073389	9514.862812
579.427394	9464.047982
579.781344	9442.308006
580.135239	9392.398062
580.489080	9402.891224
580.842866	9307.512593
581.196597	9308.112490
581.550273	9348.875260
581.903895	9314.756731
582.257463	9386.457062
582.610975	9261.607846
582.964434	9293.215881
583.317837	9206.455103
583.671186	9187.492802
584.024481	9188.654788
584.377721	9104.691850
584.730906	9083.496319
585.084037	9112.543448
585.437113	9051.285867
585.790135	9067.493176
586.143103	8966.213875
586.496016	8941.570194
586.848874	9001.207044
587.201679	8989.504006
587.554428	8880.489054
587.907124	8929.607536
588.259765	8893.434737
588.612352	8894.087566
588.964884	8767.335314
589.317362	8790.819530
589.669786	8789.060167
590.022155	8833.508020
590.374470	8849.780865
590.726731	8791.172410
591.078937	8644.109350
591.431090	8756.827029
591.783188	8627.034962
592.135232	8618.243189
592.487222	8620.955330
592.839157	8673.411057
593.191038	8607.659287
593.542866	8553.550062
593.894639	8452.069115
594.246358	8504.608020
594.598022	8524.737347
594.949633	8414.935975
595.301190	8393.150629
595.652692	8424.786390
596.004141	8530.393522
596.355535	8310.526118
596.706876	8290.134650
597.058162	8225.597799
597.409395	8304.504459
597.760573	8364.678192
598.111698	8276.596632
598.462768	8261.064837
598.813785	8224.095535
599.164748	8186.788476
599.515657	8181.260851
599.866511	8094.681554
600.217312	8217.562199
600.568060	8080.715037
600.918753	8183.574740
601.269392	8152.281778
601.619978	8061.535967
601.970510	8130.534240
602.320988	8120.807334
602.671412	8176.454110
603.021783	8120.257848
603.372100	8090.149557
603.722363	8092.478570
604.072572	8065.815907
604.422728	8075.265550
604.772830	8011.444542
605.122878	8019.495265
605.472872	8008.346753
605.822813	8039.231382
606.172701	7987.864545
606.522534	8057.114875
606.872314	8058.178559
607.222041	8032.309878
607.571714	8085.640244
607.921333	8038.893625
608.270899	8048.938124
608.620411	8135.658573
608.969870	8043.153400
609.319276	8032.874487
609.668627	8052.308135
610.017926	8090.192406
610.367171	8129.828478
610.716362	8112.726364
611.065500	8098.807738
611.414585	8127.257490
611.763616	8114.999924
612.112594	8097.330680
612.461518	8111.294676
612.810389	8169.802308
613.159207	8118.942107
613.507971	8058.919608
613.856682	8180.439142
614.205340	8134.168912
614.553945	8212.440387
614.902496	8112.272660
615.250994	8169.812390
615.599439	8145.110736
615.947830	8161.862491
616.296169	8134.466340
616.644454	8145.929924
616.992686	8148.931931
617.340864	8199.225002
617.688990	8110.006662
618.037063	8199.061165
618.385082	8146.292887
618.733048	8231.533757
619.080961	8167.808532
619.428821	8193.533540
619.776628	8193.987243
620.124382	8143.144686
620.472083	8127.519630
620.819731	8152.750605
621.167326	8048.401241
621.514868	8057.019093
621.862357	7934.355217
622.209793	7957.564690
622.557176	7897.648056
622.904506	7868.154785
623.251783	7805.813356
623.599007	7755.316118
623.946179	7762.441789
624.293297	7720.186838
624.640363	7636.410422
624.987376	7618.776466
625.334336	7563.485091
625.681243	7514.233018
626.028097	7504.019640
626.374899	7482.846794
626.721647	7472.151986
627.068343	7405.228148
627.414987	7379.296453
627.761577	7336.212231
628.108115	7374.053653
628.454600	7268.169257
628.801032	7316.957544
629.147412	7276.073787
629.493739	7268.756552
629.840014	7204.479320
630.186236	7257.930674
630.532405	7141.353991
630.878521	7192.811569
631.224585	7151.295147
631.570597	7069.648619
631.916556	7106.396110
632.262462	7105.173630
632.608316	7061.429018
632.954117	7043.351440
633.299866	7032.444903
633.645562	7021.873604
633.991206	6940.741274
634.336797	6887.584827
634.682336	6840.694535
635.027823	6808.552138
635.373257	6804.161293
635.718639	6734.169913
636.063968	6740.814153
636.409245	6642.781355
636.754470	6635.897660
637.099642	6599.498008
637.444762	6544.204112
637.789829	6552.794238
638.134845	6494.526062
638.479808	6479.185831
638.824719	6486.130020
639.169577	6410.265696
639.514383	6430.773110
639.859137	6361.300968
640.203839	6367.942689
640.548489	6357.706626
640.893086	6334.971022
641.237632	6311.733823
641.582125	6328.641853
641.926566	6296.045752
642.270955	6307.915149
642.615292	6303.373070
642.959576	6320.460061
643.303809	6309.482948
643.647990	6317.442930
643.992118	6303.728471
644.336195	6251.338280
644.680219	6275.825684
645.024192	6264.649446
645.368112	6364.592842
645.711981	6385.422890
646.055797	6460.341997
646.399562	6420.000164
646.743274	6545.658485
647.086935	6594.759324
647.430544	6590.890238
647.774101	6612.645337
648.117606	6620.653210
648.461059	6608.574606
648.804460	6571.532207
649.147810	6484.176573
649.491108	6451.363702
649.834354	6431.022647
650.177548	6345.630542
650.520690	6256.389516
650.863781	6236.905456
651.206820	6254.730976
651.549807	6176.119223
651.892742	6122.919927
652.235626	6128.931502
652.578458	6113.739985
652.921238	6021.209607
653.263967	6054.629936
653.606644	5996.003837
653.949269	6002.663202
654.291843	5938.814468
654.634365	5993.780688
654.976836	5947.139933
655.319255	5942.310508
655.661622	5924.754689
656.003938	5920.593217
656.346203	5880.548811
656.688416	5915.907464
657.030577	5866.277305
657.372687	5840.128840
657.714746	5824.332384
658.056753	5868.253437
658.398708	5808.314118
658.740612	5797.652078
659.082465	5845.792576
659.424266	5838.432492
659.766016	5838.349313
660.107715	5813.277134
660.449362	5824.055121
660.790958	5818.746786
661.132503	5804.203057
661.473996	5846.568914
661.815438	5831.304300
662.156829	5831.158107
662.498168	5822.704092
662.839456	5799.502181
663.180693	5834.523077
663.521879	5834.253375
663.863013	5819.903731
664.204097	5844.028172
664.545129	5883.760026
664.886110	5875.842894
665.227040	5910.533594
665.567918	5876.659561
665.908746	5906.795579
666.249522	5910.649541
666.590248	5899.745525
666.930922	5921.503145
667.271545	5936.457728
667.612118	5939.628614
667.952639	5905.772225
668.293109	5927.063538
668.633528	5891.011726
668.973896	5889.529627
669.314213	5883.611312
669.654480	5866.552048
669.994695	5860.512745
670.334859	5850.241394
670.674973	5846.505899
671.015035	5850.722825
671.355047	5844.033213
671.695008	5830.349001
672.034918	5801.730371
672.374777	5815.648997
672.714585	5800.727181
673.054342	5808.747657
673.394049	5795.582684
673.733705	5831.354712
674.073310	5815.830478
674.412864	5774.019148
674.752368	5765.701244
675.091820	5774.598881
675.431223	5707.007090
675.770574	5709.694025
676.109875	5656.774513
676.449125	5665.036964
676.788324	5632.221573
677.127473	5574.265948
677.466571	5566.608435
677.805619	5560.143155
678.144616	5546.537081
678.483562	5526.516138
678.822458	5495.071941
679.161303	5487.684130
679.500098	5475.527388
679.838842	5458.826045
680.177535	5467.373322
680.516179	5477.722810
680.854771	5491.855685
681.193314	5573.497172
681.531805	5680.185631
681.870247	5828.065359
682.208638	5934.952944
682.546978	5942.088697
682.885268	5918.183545
683.223508	5832.549465
683.561697	5782.059789
683.899836	5753.990644
684.237925	5708.920208
684.575963	5672.956617
684.913951	5629.295183
685.251889	5691.770203
685.589776	5661.525800
685.927614	5633.141583
686.265401	5705.472059
686.603137	5689.836920
686.940824	5762.086737
687.278460	5783.040293
687.616046	5798.461183
687.953582	5862.607345
688.291068	5841.774777
688.628504	5911.188944
688.965889	5873.453387
689.303224	5819.825593
689.640510	5767.584115
689.977745	5692.057548
690.314930	5593.439976
690.652065	5539.847470
690.989150	5444.368016
691.326185	5374.603488
691.663170	5316.587369
692.000105	5238.784721
692.336990	5163.490047
692.673825	5140.751923
693.010610	5070.511006
693.347345	5002.205892
693.684030	4988.972863
694.020665	4951.305361
694.357251	4862.044171
694.693786	4868.075911
695.030272	4839.308567
695.366707	4799.460766
695.703093	4767.499851
696.039429	4790.106905
696.375716	4773.909678
696.711952	4747.380606
697.048139	4737.068926
697.384276	4718.308272
697.720363	4728.453594
698.056400	4735.480962
698.392388	4686.828786
698.728326	4666.182741
699.064214	4640.853463
699.400053	4639.862877
699.735842	4605.754430
700.071581	4581.753496
700.407270	4552.802150
700.742910	4536.647772
701.078501	4481.661387
701.414042	4485.212879
701.749533	4453.241882
702.084974	4386.328126
702.420366	4444.767702
702.755709	4384.823342
703.091002	4331.944158
703.426246	4378.312692
703.761440	4337.723841
704.096584	4300.885610
704.431679	4315.817507
704.766725	4302.052637
705.101721	4291.284732
705.436668	4321.125842
705.771565	4270.182462
706.106413	4294.374959
706.441212	4329.781503
706.775961	4343.289275
707.110661	4320.989731
707.445311	4343.803473
707.779913	4369.137792
708.114465	4381.092888
708.448967	4406.205396
708.783421	4463.737564
709.117825	4507.008308
709.452180	4511.847816
709.786485	4554.853899
710.120742	4639.504955
710.454949	4626.024909
710.789107	4692.031257
711.123216	4765.256537
711.457275	4750.223817
711.791286	4830.821784
712.125247	4842.572714
712.459159	4747.201645
712.793023	4818.607068
713.126837	4779.417138
713.460602	4772.878762
713.794318	4695.713820
714.127985	4703.482238
714.461602	4619.741111
714.795171	4587.452521
715.128691	4523.762583
715.462162	4471.248883
715.795584	4420.479423
716.128957	4403.158018
716.462281	4349.867981
716.795556	4322.335719
717.128782	4288.189464
717.461960	4219.954926
717.795088	4224.693610
718.128167	4189.831511
718.461198	4129.773725
718.794180	4124.077221
719.127113	4105.855970
719.459997	4084.478957
719.792833	4043.849778
720.125619	4031.168755
720.458357	3997.277078
720.791046	4000.999970
721.123686	3973.160198
721.456278	3935.427162
721.788821	3948.889563
722.121315	3924.258485
722.453761	3898.901481
722.786158	3911.244747
723.118506	3936.203499
723.450805	3887.183319
723.783056	3905.497831
724.115259	3925.680091
724.447412	3928.152777
724.779518	3920.618772
725.111574	3928.480452
725.443582	3958.127477
725.775542	3939.661731
726.107453	3990.874813
726.439315	3992.487982
726.771129	4005.040455
727.102895	4041.127555
727.434612	4089.028599
727.766281	4097.969085
728.097901	4101.850773
728.429473	4107.804376
728.760996	4114.125983
729.092471	4107.970734
729.423897	4091.070266
729.755276	4101.243314
730.086606	4097.376749
730.417887	4135.392091
730.749120	4199.434909
731.080305	4264.866565
731.411442	4291.733395
731.742530	4256.896501
732.073570	4262.650978
732.404562	4318.708609
732.735506	4307.665962
733.066401	4273.217237
733.397249	4209.025704
733.728048	4128.679794
734.058798	4045.899007
734.389501	3979.217144
734.720156	3914.876898
735.050762	3872.821072
735.381320	3865.972664
735.711831	3817.330571
736.042293	3787.035757
736.372707	3808.243891
736.703073	3777.399591
737.033391	3768.809465
737.363661	3787.023154
737.693883	3810.905620
738.024056	3824.940193
738.354182	3819.825942
738.684260	3880.997823
739.014290	3903.519178
739.344272	3896.698497
739.674207	3939.369344
740.004093	3947.757824
740.333931	3938.769447
740.663722	3939.623922
740.993464	3936.384981
741.323159	3913.127617
741.652806	3886.122156
741.982405	3857.458156
742.311956	3827.859021
742.641460	3818.810150
742.970915	3790.786375
743.300323	3751.777927
743.629683	3719.275087
743.958996	3706.246225
744.288260	3684.818801
744.617477	3649.616424
744.946647	3633.736789
745.275768	3610.653346
745.604842	3611.195270
745.933869	3558.721899
746.262847	3551.006413
746.591778	3591.086107
746.920662	3561.121488
747.249498	3533.196017
747.578286	3577.023808
747.907027	3591.582661
748.235720	3594.443515
748.564365	3616.506125
748.892963	3620.823873
749.221514	3603.010956
749.550017	3573.857964
749.878473	3574.634301
750.206881	3544.185732
750.535242	3543.346380
750.863555	3545.103222
751.191821	3539.484856
751.520039	3518.027185
751.848210	3499.170749
752.176334	3530.498999
752.504411	3536.606357
752.832440	3497.655882
753.160421	3478.156699
753.488356	3489.395952
753.816243	3502.875997
754.144082	3457.535859
754.471875	3443.274435
754.799620	3466.975420
755.127318	3455.829429
755.454969	3451.655353
755.782572	3461.604070
756.110129	3437.404011
756.437638	3427.805654
756.765100	3440.637912
757.092515	3451.781382
757.419882	3458.297073
757.747203	3431.168104
758.074477	3430.096859
758.401703	3451.221814
758.728882	3469.158239
759.056014	3477.889518
759.383099	3479.825321
759.710138	3475.222747
760.037129	3492.322341
760.364073	3524.860469
760.690970	3509.822707
761.017820	3485.693224
761.344623	3505.681399
761.671379	3550.479613
761.998088	3602.113631
762.324751	3726.584761
762.651366	3972.885455
762.977935	4439.479532
763.304456	4883.653077
763.630931	4970.829750
763.957359	4612.524699
764.283740	4270.114407
764.610074	4084.904935
764.936362	3890.775141
765.262602	3731.822519
765.588796	3619.198101
765.914943	3537.947304
766.241044	3447.198973
766.567097	3418.295518
766.893104	3373.963611
767.219064	3339.426666
767.544978	3312.469096
767.870845	3257.843152
768.196665	3237.998650
768.522438	3249.837800
768.848165	3244.219434
769.173846	3206.945143
769.499479	3191.655323
769.825066	3177.184691
770.150607	3156.291629
770.476101	3172.924916
770.801548	3168.372754
771.126949	3122.215949
771.452303	3108.052828
771.777611	3113.736729
772.102872	3118.621607
772.428087	3094.277875
772.753256	3086.007862
773.078378	3078.756162
773.403453	3045.512273
773.728482	3033.239584
774.053465	3053.648695
774.378401	3040.347611
774.703291	3010.534227
775.028135	3011.744104
775.352932	3005.354442
775.677683	2992.812051
776.002388	2989.552945
776.327046	2992.978409
776.651658	2981.608086
776.976224	2968.511169
777.300743	2971.024184
777.625216	2961.004891
777.949643	2954.912656
778.274024	2959.280816
778.598359	2947.328240
778.922647	2952.024075
779.246889	2950.693210
779.571086	2935.410953
779.895236	2933.570931
780.219339	2944.795060
780.543397	2954.728654
780.867409	2959.134623
781.191374	2951.265381
781.515294	2945.457972
781.839167	2946.544341
782.162995	2942.473609
782.486776	2946.733384
782.810511	2945.488219
783.134201	2932.257711
783.457844	2938.912034
783.781441	2930.541198
784.104993	2912.178795
784.428498	2913.348343
784.751958	2924.448963
785.075372	2918.870927
785.398739	2901.141189
785.722061	2919.130546
786.045337	2930.039603
786.368568	2915.826070
786.691752	2908.120666
787.014891	2957.158490
787.337983	2983.616986
787.661030	3007.754031
787.984031	3079.333374
788.306987	3119.846607
788.629897	3113.870319
788.952760	3102.429421
789.275579	3085.765887
789.598351	3024.198275
789.921078	2980.176399
790.243759	2973.285141
790.566395	2956.997173
790.888984	2932.222423
791.211529	2916.332706
791.534027	2907.707292
791.856480	2895.732031
792.178888	2883.295504
792.501249	2874.039946
792.823566	2870.407794
793.145836	2866.397556
793.468062	2861.953779
793.790241	2865.164994
794.112375	2867.768750
794.434464	2880.502705
794.756507	2884.195350
795.078505	2889.183572
795.400457	2904.307033
795.722364	2940.535285
796.044226	2965.441106
796.366042	2965.546970
796.687812	2957.690332
797.009538	2975.480564
797.331218	2963.752319
797.652852	2952.066925
797.974442	2929.941301
798.295986	2924.925353
798.617484	2923.392842
798.938938	2907.976993
799.260346	2892.001577
799.581709	2885.720299
799.903026	2879.343239
800.224299	2875.060779
800.545526	2862.485621
800.866708	2850.349043
801.187845	2839.757579
801.508936	2839.896211
801.829983	2847.863754
802.150984	2834.565190
802.471940	2823.484734
802.792851	2824.840805
803.113717	2820.480207
803.434538	2828.319201
803.755314	2822.950372
804.076045	2814.372849
804.396731	2817.324444
804.717372	2814.261943
805.037967	2809.472847
805.358518	2816.568271
805.679024	2828.293995
805.999485	2823.928356
806.319901	2828.273830
806.640272	2820.303766
806.960598	2824.366936
807.280879	2833.514110
807.601115	2842.081551
807.921306	2828.956907
808.241453	2824.866010
808.561554	2830.330621
808.881611	2833.562001
809.201623	2827.552945
809.521590	2825.574292
809.841513	2820.318890
810.161390	2826.932883
810.481223	2819.320741
810.801011	2808.512507
811.120755	2806.014616
811.440453	2808.285655
811.760107	2809.755152
812.079716	2808.915800
812.399281	2798.238636
812.718801	2790.750002
813.038276	2786.833025
813.357707	2791.483490
813.677093	2797.724438
813.996434	2797.134623
814.315731	2789.076339
814.634983	2786.931328
814.954191	2788.536935
815.273354	2799.259469
815.592473	2805.956642
815.911547	2807.305151
816.230577	2819.789568
816.549562	2828.362051
816.868502	2823.726710
817.187399	2837.922599
817.506250	2851.238807
817.825058	2844.092971
818.143821	2855.357429
818.462539	2872.343597
818.781213	2898.544994
819.099843	2934.659821
819.418429	2992.101248
819.736970	3051.823798
820.055466	3124.580251
820.373919	3230.789800
820.692327	3370.512941
821.010691	3536.205586
821.329011	3970.243891
821.647286	4858.527966
821.965517	6224.012705
822.283704	6952.557738
822.601847	6926.757113
822.919945	6302.057328
823.237999	5803.051153
823.556010	5227.679059
823.873976	4682.846275
824.191897	4281.583032
824.509775	3992.956809
824.827609	3724.545614
825.145398	3603.903241
825.463144	3593.573916
825.780845	3685.338040
826.098502	3790.095737
826.416116	4067.782656
826.733685	4377.085171
827.051210	4435.363430
827.368692	4324.745391
827.686129	4061.120771
828.003522	3741.574632
828.320872	3486.560303
828.638177	3294.376394
828.955439	3158.827329
829.272656	3077.117787
829.589830	3009.009278
829.906960	2963.323821
830.224046	2921.406627
830.541088	2885.115361
830.858086	2874.276880
831.175041	2852.806606
831.491952	2854.374404
831.808819	2866.624408
832.125642	2889.360012
832.442421	2935.042948
832.759157	3014.758714
833.075849	3190.730271
833.392497	3468.870894
833.709101	3671.099301
834.025662	3617.768934
834.342179	3463.595326
834.658653	3287.361629
834.975083	3139.691109
835.291469	3045.429094
835.607811	2961.158646
835.924110	2903.432393
836.240366	2850.832994
836.556578	2810.571819
836.872746	2791.349899
837.188871	2763.928543
837.504952	2751.686101
837.820990	2743.295100
838.136984	2728.277503
838.452935	2719.032027
838.768842	2720.448591
839.084706	2737.412073
839.400526	2815.852427
839.716303	2944.139710
840.032037	3026.522247
840.347727	3009.069772
840.663373	2948.664146
840.978977	2877.442724
841.294537	2802.511014
841.610054	2758.433685
841.925527	2737.462485
842.240957	2714.885677
842.556344	2690.751153
842.871687	2677.296314
843.186987	2667.609737
843.502244	2667.967659
843.817458	2659.463232
844.132629	2645.738691
844.447756	2638.726446
844.762840	2633.193779
845.077881	2637.945067
845.392879	2634.151599
845.707833	2630.423665
846.022745	2621.894033
846.337613	2627.303191
846.652438	2624.540639
846.967221	2622.957717
847.281960	2624.676750
847.596656	2621.563838
847.911309	2619.547376
848.225919	2617.420009
848.540485	2610.957250
848.855009	2612.015892
849.169490	2614.367590
849.483928	2615.350615
849.798323	2614.327261
850.112675	2611.317692
850.426984	2612.121756
850.741251	2611.708382
851.055474	2611.612600
851.369654	2618.171141
851.683792	2614.468413
851.997887	2615.027982
852.311938	2611.521859
852.625947	2615.227107
852.939914	2617.271295
853.253837	2618.912191
853.567718	2611.993207
853.881555	2609.210490
854.195350	2613.999586
854.509103	2613.533279
854.822812	2610.311982
855.136479	2608.729060
855.450103	2611.993207
855.763685	2615.456480
856.077224	2611.002620
856.390720	2607.715788
856.704173	2613.578650
857.017584	2616.116871
857.330953	2616.321037
857.644278	2619.567541
857.957561	2619.103754
858.270802	2615.612755
858.584000	2613.271139
858.897155	2617.571244
859.210268	2620.653909
859.523339	2611.758793
859.836367	2606.715119
860.149352	2611.267281
860.462295	2612.540172
860.775195	2606.977259
861.088054	2608.240068
861.400869	2606.717639
861.713642	2605.013729
862.026373	2607.241919
862.339062	2608.839965
862.651708	2612.484719
862.964312	2616.177365
863.276873	2614.934720
863.589392	2614.833897
863.901869	2620.308590
864.214303	2624.349075
864.526696	2627.368726
864.839045	2627.840074
865.151353	2633.375261
865.463619	2629.380147
865.775842	2630.746299
866.088023	2631.724283
866.400162	2633.261835
866.712258	2632.205713
867.024313	2631.426855
867.336325	2625.367388
867.648296	2628.079529
867.960224	2633.828965
868.272110	2633.322329
868.583954	2627.456946
868.895755	2627.404014
869.207515	2632.067082
869.519233	2639.714512
869.830909	2636.415077
870.142542	2629.012142
870.454134	2632.435086
870.765684	2637.665283
871.077191	2636.863739
871.388657	2644.531334
871.700081	2639.855664
872.011463	2642.575367
872.322803	2641.272228
872.634101	2643.427322
872.945357	2652.778662
873.256571	2658.996925
873.567744	2655.773107
873.878874	2652.912253
874.189963	2656.970382
874.501010	2658.288643
874.812015	2665.477329
875.122979	2664.577483
875.433900	2656.851914
875.744780	2656.599857
876.055618	2661.905671
876.366415	2665.063954
876.677169	2664.544715
876.987882	2660.438695
877.298554	2656.723365
877.609183	2668.383554
877.919771	2676.572908
878.230317	2683.736388
878.540822	2692.649148
878.851285	2706.207331
879.161707	2729.384036
879.472087	2766.784356
879.782425	2812.792447
880.092722	2924.610280
880.402977	3110.134824
880.713191	3367.170656
881.023363	3651.005262
881.333494	3837.643900
881.643583	4010.926002
881.953631	4009.345600
882.263637	3830.530832
882.573602	3614.552678
882.883526	3487.813029
883.193408	3375.909496
883.503248	3278.121194
883.813048	3162.557783
884.122806	3052.799261
884.432522	2969.312712
884.742197	2905.466499
885.051831	2868.247660
885.361424	2834.169460
885.670975	2798.150416
885.980485	2767.840478
886.289954	2750.453538
886.599382	2738.011971
886.908768	2726.308932
887.218113	2709.254709
887.527417	2696.329190
887.836680	2686.879547
888.145901	2681.445183
888.455082	2672.083761
888.764221	2662.540857
889.073319	2654.585916
889.382376	2655.334527
889.691392	2654.510298
890.000366	2656.335196
890.309300	2652.604742
890.618193	2655.347130
890.927044	2659.246462
891.235855	2657.406441
891.544625	2659.130516
891.853353	2658.371822
892.162041	2665.973882
892.470687	2684.953827
892.779293	2696.576207
893.087858	2705.080633
893.396381	2726.954200
893.704864	2766.925509
894.013306	2837.547033
894.321707	2927.571958
894.630068	2978.013744
894.938387	2993.520333
895.246665	2987.561689
895.554903	2944.875719
895.863100	2903.155130
896.171256	2846.066583
896.479371	2788.080711
896.787446	2748.926069
897.095480	2731.269427
897.403473	2727.954869
897.711425	2713.327961
898.019336	2693.042358
898.327207	2679.153979
898.635038	2678.055007
898.942827	2674.924451
899.250576	2665.845333
899.558284	2654.780000
899.865952	2651.629279
900.173579	2648.342447
900.481165	2646.489823
900.788711	2636.483132
901.096216	2632.172946
901.403681	2627.469549
901.711105	2632.157822
902.018489	2628.326545
902.325832	2630.804273
902.633135	2634.932977
902.940397	2647.029226
903.247619	2683.728826
903.554800	2750.992942
903.861941	2876.598331
904.169041	2996.184583
904.476101	3059.836712
904.783121	3051.899415
905.090100	2996.539984
905.397039	2920.970567
905.703938	2852.491533
906.010796	2788.640279
906.317614	2741.354256
906.624391	2705.481405
906.931129	2678.954853
907.237826	2658.656647
907.544483	2640.770634
907.851099	2624.522995
908.157675	2615.441356
908.464211	2609.391972
908.770707	2601.295878
909.077163	2595.531319
909.383578	2590.575865
909.689954	2588.914805
909.996289	2589.925556
910.302584	2589.532346
910.608839	2583.712334
910.915054	2587.805751
911.221229	2587.430185
911.527363	2592.020155
911.833458	2586.018662
912.139513	2592.672985
912.445527	2590.769949
912.751502	2596.358068
913.057436	2601.951228
913.363331	2607.138576
913.669186	2615.219545
913.975000	2630.869807
914.280775	2647.072076
914.586510	2664.887514
914.892205	2702.549974
915.197859	2765.796290
915.503475	2846.979032
915.809050	2914.656522
916.114585	2924.501896
916.420081	2935.983123
916.725536	2947.542489
917.030952	2924.963161
917.336328	2878.125801
917.641665	2829.934891
917.946961	2783.977212
918.252218	2747.731315
918.557435	2723.410269
918.862612	2701.685416
919.167750	2683.340657
919.472848	2668.852381
919.777906	2653.570123
920.082925	2642.230048
920.387904	2630.305198
920.692843	2627.008284
920.997743	2621.911677
921.302603	2615.816922
921.607423	2607.804008
921.912204	2603.811414
922.216946	2601.714294
922.521647	2601.205138
922.826310	2595.392687
923.130932	2590.006214
923.435516	2584.410534
923.740059	2584.637386
924.044564	2581.070769
924.349028	2580.453228
924.653454	2572.520972
924.957840	2569.501321
925.262186	2566.128789
925.566493	2572.173133
925.870761	2565.942267
926.174989	2566.146433
926.479178	2563.958572
926.783328	2561.395146
927.087438	2561.533777
927.391509	2562.887327
927.695541	2559.663509
927.999533	2559.287943
928.303486	2555.086142
928.607400	2556.588406
928.911275	2558.186451
929.215110	2556.676626
929.518906	2558.688046
929.822663	2554.420709
930.126381	2556.003632
930.430060	2555.801986
930.733699	2556.744681
931.037299	2557.815927
931.340861	2556.855587
931.644383	2558.355330
931.947866	2556.422048
932.251309	2557.049671
932.554714	2554.791234
932.858080	2555.706204
933.161407	2556.094372
933.464694	2555.834753
933.767943	2557.699980
934.071153	2554.183775
934.374323	2553.175544
934.677455	2554.798796
934.980548	2552.237890
935.283602	2551.605225
935.586617	2553.452808
935.889593	2553.120092
936.192530	2551.789227
936.495428	2551.771583
936.798287	2554.203940
937.101108	2553.110009
937.403890	2560.699467
937.706632	2562.683161
938.009336	2563.023438
938.312002	2564.770198
938.614628	2570.139027
938.917216	2575.417115
939.219765	2572.289079
939.522275	2578.414081
939.824747	2572.150447
940.127179	2569.062741
940.429573	2566.983265
940.731929	2566.567370
941.034246	2563.635939
941.336524	2566.821948
941.638763	2564.722307
941.940964	2564.442523
942.243126	2565.579303
942.545250	2563.285578
942.847335	2561.080074
943.149381	2563.525033
943.451389	2560.437327
943.753359	2556.898437
944.055290	2558.254507
944.357182	2557.836091
944.659036	2557.586554
944.960851	2553.427602
945.262628	2554.806358
945.564367	2555.580175
945.866067	2557.631924
946.167729	2557.384908
946.469352	2556.696790
946.770937	2557.533622
947.072484	2555.423899
947.373992	2556.275854
947.675462	2555.600339
947.976893	2555.446584
948.278286	2555.209650
948.579641	2553.631769
948.880958	2554.536656
949.182236	2553.294012
949.483476	2552.563044
949.784678	2554.375339
950.085841	2553.692263
950.386967	2553.256203
950.688054	2553.079762
950.989103	2555.260062
951.290114	2554.183775
951.591087	2555.544887
951.892021	2555.496996
952.192917	2557.271482
952.493776	2558.224260
952.794596	2559.729044
953.095378	2561.916905
953.396122	2561.911864
953.696828	2559.585372
953.997496	2554.576985
954.298126	2557.349620
954.598718	2555.696121
954.899272	2554.602191
955.199788	2554.375339
955.500266	2554.118240
955.800706	2547.229503
956.101108	2544.708927
956.401472	2549.669422
956.701798	2543.781354
957.002087	2544.565254
957.302337	2543.761190
957.602550	2542.692465
957.902724	2542.516025
958.202861	2545.505429
958.502960	2543.509132
958.803022	2541.868236
959.103045	2542.649615
959.403031	2542.170706
959.702979	2543.592311
960.002889	2541.933771
960.302762	2539.514018
960.602596	2541.744728
960.902393	2541.064172
961.202153	2539.917310
961.501875	2540.464275
961.801559	2540.595345
962.101205	2540.882691
962.400814	2540.537372
962.700385	2537.608461
962.999918	2541.641384
963.299414	2538.911600
963.598873	2538.788091
963.898293	2538.619213
964.197677	2539.002340
964.497022	2539.075437
964.796331	2540.378575
965.095601	2537.661393
965.394835	2539.292207
965.694030	2535.067720
965.993189	2540.406302
966.292309	2537.994110
966.591393	2539.047711
966.890439	2535.715508
967.189447	2536.907741
967.488419	2538.510828
967.787353	2537.212731
968.086249	2533.426824
968.385108	2539.819007
968.683930	2539.110725
968.982714	2540.814635
969.281462	2538.944367
969.580172	2540.365972
969.878844	2540.880170
970.177480	2538.841023
970.476078	2540.602907
970.774639	2540.020653
971.073162	2540.741538
971.371649	2537.474871
971.670098	2536.330529
971.968510	2537.837834
972.266885	2535.516383
972.565223	2539.897145
972.863524	2539.377906
973.161788	2538.838503
973.460014	2540.693648
973.758204	2539.569470
974.056356	2539.473688
974.354471	2539.924872
974.652550	2538.561239
974.950591	2539.594676
975.248595	2538.969573
975.546563	2540.592824
975.844493	2539.211548
976.142386	2537.621064
976.440243	2540.771785
976.738062	2539.151054
977.035845	2538.926723
977.333590	2539.786240
977.631299	2536.728780
977.928971	2538.354552
978.226606	2533.714170
978.524204	2537.484953
978.821765	2538.374717
979.119290	2542.397558
979.416777	2536.968235
979.714228	2536.456558
980.011642	2537.817669
980.309020	2539.965201
980.606360	2541.543082
980.903664	2538.596528
981.200931	2540.181970
981.498162	2542.616848
981.795356	2540.895294
982.092513	2543.095757
982.389633	2546.251520
982.686717	2549.732436
982.983764	2554.259392
983.280775	2553.339382
983.577749	2553.299053
983.874686	2551.108671
984.171587	2548.724206
984.468451	2546.410316
984.765279	2546.566592
985.062070	2541.442259
985.358824	2541.346477
985.655543	2540.678524
985.952224	2540.260108
986.248869	2535.551671
986.545478	2532.627801
986.842050	2536.786753
987.138586	2534.465302
987.435086	2533.494880
987.731549	2531.879190
988.027975	2536.189377
988.324366	2535.281969
988.620719	2536.138965
988.917037	2537.096784
989.213318	2534.046886
989.509563	2535.778523
989.805772	2535.130734
990.101944	2535.365148
990.398080	2534.888759
990.694180	2537.124511
990.990244	2536.585107
991.286271	2534.273738
991.582262	2534.881197
991.878217	2535.738193
992.174136	2534.188038
992.470019	2533.459592
992.765865	2535.561753
993.061676	2536.360776
993.357450	2535.740714
993.653188	2534.170394
993.948890	2536.380940
994.244556	2536.801877
994.540186	2536.461599
994.835780	2534.679551
995.131337	2534.026722
995.426859	2533.850281
995.722345	2534.742565
996.017795	2538.445293
996.313208	2541.326312
996.608586	2538.364634
996.903928	2538.173071
997.199234	2539.362783
997.494504	2537.767258
997.789738	2537.363965
998.084936	2538.851106
998.380099	2533.658717
998.675225	2536.285158
998.970316	2535.050076
999.265371	2534.913965
999.560390	2535.876825
999.855373	2537.739531
1000.150320	2532.781557
1000.445232	2534.787936
1000.740108	2535.425642
1001.034948	2533.797349
1001.329752	2534.256094
1001.624521	2534.543440
1001.919254	2527.846267
1002.213951	2533.585621
1002.508613	2530.944056
1002.803239	2530.775177
1003.097829	2529.764426
1003.392384	2534.460261
1003.686903	2533.015970
1003.981386	2534.714839
1004.275834	2533.358769
1004.570246	2531.584282
1004.864623	2532.358100
1005.158964	2534.651825
1005.453270	2531.732997
1005.747540	2533.305837
1006.041775	2534.243491
1006.335974	2532.007739
1006.630138	2534.631660
1006.924266	2530.719725
1007.218359	2534.147709
1007.512416	2533.101670
1007.806438	2531.937163
1008.100425	2532.857174
1008.394376	2534.684592
1008.688292	2532.857174
1008.982172	2533.794828
1009.276017	2531.400280
1009.569827	2533.820034
1009.863602	2534.145189
1010.157341	2532.602596
1010.451045	2532.993285
1010.744714	2534.180477
1011.038347	2530.775177
1011.331945	2534.180477
1011.625508	2530.959179
1011.919036	2534.125024
1012.212528	2532.116124
1012.505986	2534.520755
1012.799408	2532.970600
1013.092795	2532.337935
1013.386147	2532.645445
1013.679464	2534.467823
1013.972745	2532.814324
1014.265992	2533.227699
1014.559204	2531.848943
1014.852380	2531.899355
1015.145521	2534.271217
1015.438628	2531.193593
1015.731699	2532.521937
1016.024736	2532.650487
1016.317737	2531.947246
1016.610703	2531.589324
1016.903635	2531.697708
1017.196531	2529.429189
1017.489393	2528.599919
1017.782219	2529.098994
1018.075011	2531.440610
1018.367768	2532.779036
1018.660490	2529.149405
1018.953177	2529.149405
1019.245829	2529.149405
