Dividing Wavelength (nm)	Counts (n)	Blue Motor Position (mm): 4.700000	Red Motor Position (mm): 0.000000	
326.493990	2139.969808
326.888308	2139.969808
327.282561	2139.969808
327.676750	2064.352500
328.070874	2026.543846
328.464933	2157.613846
328.858929	2074.434808
329.252859	2084.517115
329.646726	2084.517115
330.040528	2081.996538
330.434265	2137.449231
330.827938	2129.887500
331.221547	2145.010962
331.615091	2129.887500
332.008571	2230.710577
332.401986	2233.231154
332.795338	2157.613846
333.188625	2235.751731
333.581847	2278.601538
333.975006	2298.766154
334.368100	2225.669423
334.761129	2278.601538
335.154095	2346.657115
335.546996	2283.642692
335.939833	2349.177692
336.332606	2361.780577
336.725315	2318.930769
337.117960	2432.356731
337.510540	2376.904038
337.903056	2439.918462
338.295508	2490.330000
338.687896	2434.877308
339.080220	2500.412308
339.472480	2442.439038
339.864676	2434.877308
340.256807	2465.124231
340.648875	2507.974038
341.040879	2444.959615
341.432818	2495.371154
341.824694	2452.521346
342.216506	2513.015192
342.608253	2457.562500
342.999937	2437.397885
343.391557	2437.397885
343.783113	2581.070769
344.174605	2404.630385
344.566033	2477.727115
344.957397	2502.932885
345.348697	2523.097500
345.739934	2434.877308
346.131106	2462.603654
346.522215	2518.056346
346.913260	2465.124231
347.304241	2495.371154
347.695159	2487.809423
348.086012	2374.383462
348.476802	2497.891731
348.867528	2412.192115
349.258191	2452.521346
349.648789	2467.644808
350.039324	2518.056346
350.429796	2482.768269
350.820203	2470.165385
351.210548	2505.453462
351.600828	2402.109808
351.991045	2412.192115
352.381198	2369.342308
352.771288	2455.041923
353.161314	2487.809423
353.551276	2424.795000
353.941175	2399.589231
354.331010	2414.712692
354.720782	2457.562500
355.110490	2442.439038
355.500135	2487.809423
355.889717	2460.083077
356.279235	2447.480192
356.668689	2427.315577
357.058080	2404.630385
357.447408	2392.027500
357.836672	2429.836154
358.225873	2417.233269
358.615010	2462.603654
359.004084	2427.315577
359.393095	2500.412308
359.782043	2525.618077
360.170927	2407.150962
360.559748	2485.288846
360.948505	2432.356731
361.337199	2389.506923
361.725830	2371.862885
362.114398	2402.109808
362.502903	2462.603654
362.891344	2394.548077
363.279722	2495.371154
363.668037	2434.877308
364.056289	2525.618077
364.444478	2308.848462
364.832603	2402.109808
365.220665	2397.068654
365.608665	2402.109808
365.996601	2361.780577
366.384474	2480.247692
366.772284	2455.041923
367.160031	2366.821731
367.547715	2409.671538
367.935336	2460.083077
368.322893	2460.083077
368.710388	2437.397885
369.097820	2472.685962
369.485189	2480.247692
369.872495	2480.247692
370.259738	2510.494615
370.646918	2487.809423
371.034035	2455.041923
371.421090	2439.918462
371.808081	2450.000769
372.195010	2369.342308
372.581875	2497.891731
372.968678	2553.344423
373.355418	2480.247692
373.742096	2515.535769
374.128710	2455.041923
374.515262	2467.644808
374.901751	2490.330000
375.288177	2470.165385
375.674540	2513.015192
376.060841	2467.644808
376.447079	2442.439038
376.833254	2409.671538
377.219367	2409.671538
377.605417	2475.206538
377.991404	2417.233269
378.377329	2490.330000
378.763191	2424.795000
379.148991	2550.823846
379.534727	2452.521346
379.920402	2427.315577
380.306013	2429.836154
380.691563	2442.439038
381.077049	2480.247692
381.462474	2434.877308
381.847835	2467.644808
382.233134	2475.206538
382.618371	2419.753846
383.003545	2490.330000
383.388657	2442.439038
383.773706	2492.850577
384.158693	2452.521346
384.543618	2480.247692
384.928480	2455.041923
385.313280	2455.041923
385.698017	2520.576923
386.082692	2470.165385
386.467305	2429.836154
386.851856	2477.727115
387.236344	2477.727115
387.620770	2429.836154
388.005133	2515.535769
388.389435	2434.877308
388.773674	2477.727115
389.157851	2386.986346
389.541965	2530.659231
389.926018	2452.521346
390.310008	2462.603654
390.693936	2442.439038
391.077802	2492.850577
391.461606	2540.741538
391.845348	2510.494615
392.229027	2555.865000
392.612645	2424.795000
392.996200	2354.218846
393.379694	2429.836154
393.763125	2460.083077
394.146494	2376.904038
394.529801	2432.356731
394.913047	2563.426731
395.296230	2450.000769
395.679351	2460.083077
396.062410	2407.150962
396.445408	2444.959615
396.828343	2394.548077
397.211217	2490.330000
397.594028	2535.700385
397.976778	2492.850577
398.359466	2533.179808
398.742092	2422.274423
399.124656	2505.453462
399.507158	2457.562500
399.889598	2485.288846
400.271977	2414.712692
400.654294	2480.247692
401.036549	2412.192115
401.418742	2392.027500
401.800874	2422.274423
402.182944	2432.356731
402.564952	2444.959615
402.946898	2545.782692
403.328783	2475.206538
403.710606	2399.589231
404.092367	2455.041923
404.474067	2412.192115
404.855705	2533.179808
405.237282	2523.097500
405.618797	2490.330000
406.000250	2507.974038
406.381642	2490.330000
406.762972	2485.288846
407.144240	2480.247692
407.525447	2470.165385
407.906593	2392.027500
408.287677	2520.576923
408.668700	2407.150962
409.049661	2419.753846
409.430560	2419.753846
409.811399	2480.247692
410.192176	2414.712692
410.572891	2507.974038
410.953545	2510.494615
411.334138	2510.494615
411.714669	2439.918462
412.095139	2371.862885
412.475547	2518.056346
412.855894	2470.165385
413.236180	2525.618077
413.616405	2460.083077
413.996568	2434.877308
414.376670	2533.179808
414.756711	2555.865000
415.136691	2412.192115
415.516609	2379.424615
415.896466	2427.315577
416.276262	2439.918462
416.655997	2477.727115
417.035670	2429.836154
417.415283	2414.712692
417.794834	2457.562500
418.174324	2429.836154
418.553753	2523.097500
418.933121	2500.412308
419.312428	2487.809423
419.691674	2482.768269
420.070859	2470.165385
420.449983	2495.371154
420.829045	2490.330000
421.208047	2427.315577
421.586988	2510.494615
421.965867	2450.000769
422.344686	2351.698269
422.723444	2399.589231
423.102141	2371.862885
423.480777	2460.083077
423.859352	2424.795000
424.237866	2424.795000
424.616319	2545.782692
424.994712	2409.671538
425.373044	2570.988462
425.751314	2361.780577
426.129524	2386.986346
426.507673	2578.550192
426.885762	2550.823846
427.263789	2429.836154
427.641756	2490.330000
428.019662	2427.315577
428.397508	2497.891731
428.775292	2485.288846
429.153016	2505.453462
429.530679	2409.671538
429.908282	2492.850577
430.285824	2437.397885
430.663305	2513.015192
431.040726	2427.315577
431.418086	2515.535769
431.795385	2545.782692
432.172624	2482.768269
432.549802	2510.494615
432.926920	2412.192115
433.303977	2502.932885
433.680974	2482.768269
434.057910	2490.330000
434.434786	2530.659231
434.811601	2520.576923
435.188355	2444.959615
435.565050	2530.659231
435.941683	2480.247692
436.318257	2419.753846
436.694770	2419.753846
437.071222	2513.015192
437.447614	2434.877308
437.823946	2550.823846
438.200218	2399.589231
438.576429	2465.124231
438.952580	2535.700385
439.328670	2502.932885
439.704700	2495.371154
440.080670	2520.576923
440.456580	2533.179808
440.832429	2502.932885
441.208218	2480.247692
441.583947	2457.562500
441.959616	2495.371154
442.335224	2545.782692
442.710773	2495.371154
443.086261	2565.947308
443.461689	2452.521346
443.837057	2507.974038
444.212365	2447.480192
444.587612	2422.274423
444.962800	2467.644808
445.337927	2475.206538
445.712995	2523.097500
446.088002	2538.220962
446.462949	2455.041923
446.837837	2487.809423
447.212664	2482.768269
447.587431	2495.371154
447.962139	2467.644808
448.336786	2563.426731
448.711374	2477.727115
449.085901	2429.836154
449.460369	2497.891731
449.834776	2502.932885
450.209124	2530.659231
450.583412	2502.932885
450.957640	2394.548077
451.331808	2417.233269
451.705917	2530.659231
452.079965	2424.795000
452.453954	2505.453462
452.827883	2417.233269
453.201752	2437.397885
453.575562	2495.371154
453.949311	2518.056346
454.323001	2548.303269
454.696632	2548.303269
455.070202	2563.426731
455.443713	2482.768269
455.817164	2457.562500
456.190556	2507.974038
456.563888	2467.644808
456.937160	2515.535769
457.310373	2500.412308
457.683526	2381.945192
458.056619	2523.097500
458.429653	2447.480192
458.802628	2442.439038
459.175542	2480.247692
459.548398	2500.412308
459.921194	2495.371154
460.293930	2417.233269
460.666607	2505.453462
461.039224	2450.000769
461.411782	2455.041923
461.784280	2538.220962
462.156719	2407.150962
462.529099	2538.220962
462.901419	2465.124231
463.273680	2452.521346
463.645882	2502.932885
464.018024	2608.797115
464.390106	2553.344423
464.762130	2462.603654
465.134094	2475.206538
465.505999	2490.330000
465.877845	2563.426731
466.249631	2460.083077
466.621358	2419.753846
466.993026	2407.150962
467.364634	2596.194231
467.736184	2439.918462
468.107674	2530.659231
468.479105	2500.412308
468.850477	2472.685962
469.221790	2502.932885
469.593043	2495.371154
469.964238	2465.124231
470.335373	2480.247692
470.706449	2404.630385
471.077467	2485.288846
471.448425	2492.850577
471.819324	2442.439038
472.190164	2505.453462
472.560945	2497.891731
472.931667	2497.891731
473.302330	2465.124231
473.672934	2525.618077
474.043479	2538.220962
474.413965	2482.768269
474.784393	2487.809423
475.154761	2432.356731
475.525070	2502.932885
475.895321	2467.644808
476.265513	2450.000769
476.635645	2563.426731
477.005719	2485.288846
477.375734	2535.700385
477.745691	2442.439038
478.115588	2550.823846
478.485427	2505.453462
478.855207	2558.385577
479.224928	2427.315577
479.594591	2434.877308
479.964194	2429.836154
480.333739	2366.821731
480.703226	2422.274423
481.072653	2533.179808
481.442022	2427.315577
481.811333	2485.288846
482.180584	2477.727115
482.549777	2500.412308
482.918912	2535.700385
483.287988	2462.603654
483.657005	2417.233269
484.025964	2497.891731
484.394864	2586.111923
484.763706	2407.150962
485.132489	2495.371154
485.501213	2603.755962
485.869879	2598.714808
486.238487	2513.015192
486.607036	2568.467885
486.975527	2442.439038
487.343959	2510.494615
487.712333	2568.467885
488.080648	2530.659231
488.448905	2497.891731
488.817104	2419.753846
489.185244	2444.959615
489.553326	2467.644808
489.921350	2470.165385
490.289315	2543.262115
490.657222	2450.000769
491.025070	2518.056346
491.392861	2573.509038
491.760593	2470.165385
492.128267	2545.782692
492.495883	2520.576923
492.863440	2518.056346
493.230939	2515.535769
493.598380	2510.494615
493.965763	2538.220962
494.333088	2500.412308
494.700354	2381.945192
495.067563	2482.768269
495.434713	2555.865000
495.801805	2467.644808
496.168839	2485.288846
496.535815	2419.753846
496.902733	2480.247692
497.269593	2543.262115
497.636395	2457.562500
498.003139	2487.809423
498.369825	2490.330000
498.736453	2510.494615
499.103023	2480.247692
499.469535	2457.562500
499.835989	2538.220962
500.202385	2444.959615
500.568723	2424.795000
500.935003	2510.494615
501.301226	2518.056346
501.667390	2447.480192
502.033497	2487.809423
502.399546	2502.932885
502.765537	2444.959615
503.131470	2553.344423
503.497345	2492.850577
503.863163	2523.097500
504.228923	2520.576923
504.594625	2442.439038
504.960269	2429.836154
505.325856	2550.823846
505.691385	2540.741538
506.056856	2540.741538
506.422270	2475.206538
506.787625	2550.823846
507.152924	2470.165385
507.518164	2550.823846
507.883347	2480.247692
508.248472	2422.274423
508.613540	2555.865000
508.978550	2530.659231
509.343503	2414.712692
509.708398	2505.453462
510.073236	2470.165385
510.438016	2492.850577
510.802738	2475.206538
511.167403	2472.685962
511.532010	2548.303269
511.896561	2510.494615
512.261053	2515.535769
512.625488	2477.727115
512.989866	2545.782692
513.354186	2538.220962
513.718449	2485.288846
514.082655	2497.891731
514.446803	2553.344423
514.810894	2467.644808
515.174927	2457.562500
515.538904	2381.945192
515.902822	2528.138654
516.266684	2495.371154
516.630488	2513.015192
516.994235	2376.904038
517.357925	2470.165385
517.721558	2477.727115
518.085133	2437.397885
518.448651	2460.083077
518.812112	2548.303269
519.175516	2525.618077
519.538863	2502.932885
519.902152	2462.603654
520.265385	2450.000769
520.628560	2457.562500
520.991678	2442.439038
521.354739	2555.865000
521.717743	2545.782692
522.080690	2525.618077
522.443580	2402.109808
522.806413	2485.288846
523.169189	2477.727115
523.531908	2497.891731
523.894569	2497.891731
524.257174	2414.712692
524.619722	2487.809423
524.982213	2558.385577
525.344647	2442.439038
525.707025	2543.262115
526.069345	2447.480192
526.431608	2487.809423
526.793815	2558.385577
527.155964	2475.206538
527.518057	2505.453462
527.880093	2513.015192
528.242072	2482.768269
528.603995	2432.356731
528.965860	2518.056346
529.327669	2482.768269
529.689421	2505.453462
530.051117	2540.741538
530.412755	2460.083077
530.774337	2548.303269
531.135862	2586.111923
531.497331	2553.344423
531.858743	2515.535769
532.220098	2475.206538
532.581396	2397.068654
532.942638	2497.891731
533.303824	2490.330000
533.664953	2432.356731
534.026025	2497.891731
534.387040	2502.932885
534.747999	2462.603654
535.108902	2475.206538
535.469748	2485.288846
535.830537	2513.015192
536.191270	2520.576923
536.551947	2470.165385
536.912567	2533.179808
537.273131	2467.644808
537.633638	2500.412308
537.994089	2500.412308
538.354483	2545.782692
538.714821	2404.630385
539.075103	2553.344423
539.435328	2525.618077
539.795497	2465.124231
540.155609	2507.974038
540.515665	2553.344423
540.875665	2505.453462
541.235609	2472.685962
541.595496	2462.603654
541.955328	2497.891731
542.315102	2495.371154
542.674821	2528.138654
543.034483	2455.041923
543.394090	2460.083077
543.753640	2528.138654
544.113134	2502.932885
544.472571	2492.850577
544.831953	2507.974038
545.191278	2419.753846
545.550548	2507.974038
545.909761	2465.124231
546.268918	2555.865000
546.628019	2452.521346
546.987064	2455.041923
547.346053	2528.138654
547.704986	2427.315577
548.063863	2452.521346
548.422684	2500.412308
548.781449	2548.303269
549.140158	2573.509038
549.498811	2457.562500
549.857408	2525.618077
550.215949	2510.494615
550.574434	2533.179808
550.932864	2525.618077
551.291237	2533.179808
551.649555	2437.397885
552.007817	2550.823846
552.366022	2455.041923
552.724173	2507.974038
553.082267	2455.041923
553.440305	2492.850577
553.798288	2475.206538
554.156215	2563.426731
554.514086	2533.179808
554.871902	2467.644808
555.229661	2384.465769
555.587365	2513.015192
555.945014	2460.083077
556.302606	2560.906154
556.660143	2578.550192
557.017625	2528.138654
557.375050	2429.836154
557.732421	2576.029615
558.089735	2515.535769
558.446994	2513.015192
558.804197	2447.480192
559.161345	2495.371154
559.518437	2482.768269
559.875474	2482.768269
560.232455	2460.083077
560.589381	2538.220962
560.946251	2452.521346
561.303065	2480.247692
561.659825	2414.712692
562.016528	2510.494615
562.373177	2487.809423
562.729770	2495.371154
563.086307	2530.659231
563.442789	2528.138654
563.799216	2409.671538
564.155587	2452.521346
564.511904	2523.097500
564.868164	2470.165385
565.224370	2528.138654
565.580520	2465.124231
565.936615	2555.865000
566.292654	2404.630385
566.648638	2596.194231
567.004567	2427.315577
567.360441	2518.056346
567.716260	2432.356731
568.072023	2472.685962
568.427732	2381.945192
568.783385	2507.974038
569.138982	2558.385577
569.494525	2455.041923
569.850013	2515.535769
570.205445	2480.247692
570.560823	2598.714808
570.916145	2497.891731
571.271412	2598.714808
571.626625	2482.768269
571.981782	2495.371154
572.336884	2533.179808
572.691931	2437.397885
573.046923	2482.768269
573.401860	2490.330000
573.756743	2513.015192
574.111570	2485.288846
574.466342	2538.220962
574.821059	2495.371154
575.175722	2586.111923
575.530330	2470.165385
575.884882	2502.932885
576.239380	2442.439038
576.593823	2472.685962
576.948211	2432.356731
577.302544	2470.165385
577.656823	2475.206538
578.011047	2500.412308
578.365216	2495.371154
578.719330	2505.453462
579.073389	2460.083077
579.427394	2472.685962
579.781344	2515.535769
580.135239	2482.768269
580.489080	2543.262115
580.842866	2409.671538
581.196597	2475.206538
581.550273	2513.015192
581.903895	2419.753846
582.257463	2560.906154
582.610975	2540.741538
582.964434	2477.727115
583.317837	2560.906154
583.671186	2500.412308
584.024481	2460.083077
584.377721	2475.206538
584.730906	2457.562500
585.084037	2576.029615
585.437113	2550.823846
585.790135	2455.041923
586.143103	2482.768269
586.496016	2447.480192
586.848874	2487.809423
587.201679	2480.247692
587.554428	2518.056346
587.907124	2515.535769
588.259765	2507.974038
588.612352	2492.850577
588.964884	2500.412308
589.317362	2518.056346
589.669786	2538.220962
590.022155	2502.932885
590.374470	2465.124231
590.726731	2540.741538
591.078937	2467.644808
591.431090	2548.303269
591.783188	2540.741538
592.135232	2492.850577
592.487222	2500.412308
592.839157	2533.179808
593.191038	2462.603654
593.542866	2565.947308
593.894639	2480.247692
594.246358	2601.235385
594.598022	2485.288846
594.949633	2444.959615
595.301190	2568.467885
595.652692	2586.111923
596.004141	2490.330000
596.355535	2533.179808
596.706876	2543.262115
597.058162	2417.233269
597.409395	2462.603654
597.760573	2434.877308
598.111698	2545.782692
598.462768	2530.659231
598.813785	2492.850577
599.164748	2545.782692
599.515657	2507.974038
599.866511	2452.521346
600.217312	2460.083077
600.568060	2465.124231
600.918753	2548.303269
601.269392	2563.426731
601.619978	2616.358846
601.970510	2525.618077
602.320988	2528.138654
602.671412	2432.356731
603.021783	2460.083077
603.372100	2518.056346
603.722363	2492.850577
604.072572	2472.685962
604.422728	2550.823846
604.772830	2470.165385
605.122878	2467.644808
605.472872	2470.165385
605.822813	2495.371154
606.172701	2535.700385
606.522534	2520.576923
606.872314	2518.056346
607.222041	2490.330000
607.571714	2467.644808
607.921333	2553.344423
608.270899	2555.865000
608.620411	2513.015192
608.969870	2555.865000
609.319276	2507.974038
609.668627	2505.453462
610.017926	2472.685962
610.367171	2530.659231
610.716362	2452.521346
611.065500	2538.220962
611.414585	2437.397885
611.763616	2434.877308
612.112594	2510.494615
612.461518	2475.206538
612.810389	2452.521346
613.159207	2457.562500
613.507971	2533.179808
613.856682	2434.877308
614.205340	2538.220962
614.553945	2555.865000
614.902496	2492.850577
615.250994	2490.330000
615.599439	2543.262115
615.947830	2452.521346
616.296169	2523.097500
616.644454	2490.330000
616.992686	2515.535769
617.340864	2429.836154
617.688990	2570.988462
618.037063	2439.918462
618.385082	2560.906154
618.733048	2563.426731
619.080961	2439.918462
619.428821	2530.659231
619.776628	2429.836154
620.124382	2525.618077
620.472083	2500.412308
620.819731	2520.576923
621.167326	2520.576923
621.514868	2470.165385
621.862357	2427.315577
622.209793	2439.918462
622.557176	2540.741538
622.904506	2450.000769
623.251783	2490.330000
623.599007	2548.303269
623.946179	2495.371154
624.293297	2545.782692
624.640363	2510.494615
624.987376	2555.865000
625.334336	2538.220962
625.681243	2492.850577
626.028097	2487.809423
626.374899	2565.947308
626.721647	2487.809423
627.068343	2528.138654
627.414987	2444.959615
627.761577	2543.262115
628.108115	2548.303269
628.454600	2437.397885
628.801032	2432.356731
629.147412	2487.809423
629.493739	2460.083077
629.840014	2497.891731
630.186236	2487.809423
630.532405	2530.659231
630.878521	2538.220962
631.224585	2530.659231
631.570597	2462.603654
631.916556	2472.685962
632.262462	2540.741538
632.608316	2518.056346
632.954117	2485.288846
633.299866	2485.288846
633.645562	2525.618077
633.991206	2475.206538
634.336797	2533.179808
634.682336	2518.056346
635.027823	2518.056346
635.373257	2452.521346
635.718639	2538.220962
636.063968	2515.535769
636.409245	2507.974038
636.754470	2457.562500
637.099642	2510.494615
637.444762	2432.356731
637.789829	2558.385577
638.134845	2457.562500
638.479808	2487.809423
638.824719	2450.000769
639.169577	2485.288846
639.514383	2523.097500
639.859137	2447.480192
640.203839	2472.685962
640.548489	2429.836154
640.893086	2452.521346
641.237632	2525.618077
641.582125	2507.974038
641.926566	2480.247692
642.270955	2465.124231
642.615292	2475.206538
642.959576	2598.714808
643.303809	2507.974038
643.647990	2636.523462
643.992118	2502.932885
644.336195	2477.727115
644.680219	2553.344423
645.024192	2583.591346
645.368112	2538.220962
645.711981	2439.918462
646.055797	2533.179808
646.399562	2500.412308
646.743274	2475.206538
647.086935	2533.179808
647.430544	2500.412308
647.774101	2490.330000
648.117606	2535.700385
648.461059	2502.932885
648.804460	2520.576923
649.147810	2399.589231
649.491108	2515.535769
649.834354	2497.891731
650.177548	2545.782692
650.520690	2520.576923
650.863781	2505.453462
651.206820	2457.562500
651.549807	2432.356731
651.892742	2437.397885
652.235626	2450.000769
652.578458	2558.385577
652.921238	2538.220962
653.263967	2455.041923
653.606644	2487.809423
653.949269	2460.083077
654.291843	2543.262115
654.634365	2548.303269
654.976836	2467.644808
655.319255	2573.509038
655.661622	2480.247692
656.003938	2444.959615
656.346203	2467.644808
656.688416	2523.097500
657.030577	2450.000769
657.372687	2550.823846
657.714746	2472.685962
658.056753	2492.850577
658.398708	2424.795000
658.740612	2525.618077
659.082465	2475.206538
659.424266	2485.288846
659.766016	2379.424615
660.107715	2523.097500
660.449362	2487.809423
660.790958	2432.356731
661.132503	2518.056346
661.473996	2550.823846
661.815438	2490.330000
662.156829	2487.809423
662.498168	2480.247692
662.839456	2558.385577
663.180693	2500.412308
663.521879	2515.535769
663.863013	2513.015192
664.204097	2505.453462
664.545129	2523.097500
664.886110	2510.494615
665.227040	2507.974038
665.567918	2505.453462
665.908746	2462.603654
666.249522	2490.330000
666.590248	2490.330000
666.930922	2639.044038
667.271545	2452.521346
667.612118	2460.083077
667.952639	2505.453462
668.293109	2404.630385
668.633528	2472.685962
668.973896	2460.083077
669.314213	2475.206538
669.654480	2588.632500
669.994695	2467.644808
670.334859	2460.083077
670.674973	2520.576923
671.015035	2523.097500
671.355047	2422.274423
671.695008	2533.179808
672.034918	2550.823846
672.374777	2535.700385
672.714585	2485.288846
673.054342	2480.247692
673.394049	2455.041923
673.733705	2490.330000
674.073310	2422.274423
674.412864	2432.356731
674.752368	2505.453462
675.091820	2447.480192
675.431223	2576.029615
675.770574	2510.494615
676.109875	2525.618077
676.449125	2553.344423
676.788324	2538.220962
677.127473	2502.932885
677.466571	2429.836154
677.805619	2492.850577
678.144616	2520.576923
678.483562	2513.015192
678.822458	2465.124231
679.161303	2555.865000
679.500098	2485.288846
679.838842	2490.330000
680.177535	2520.576923
680.516179	2518.056346
680.854771	2487.809423
681.193314	2593.673654
681.531805	2465.124231
681.870247	2439.918462
682.208638	2472.685962
682.546978	2502.932885
682.885268	2601.235385
683.223508	2442.439038
683.561697	2485.288846
683.899836	2550.823846
684.237925	2490.330000
684.575963	2389.506923
684.913951	2495.371154
685.251889	2492.850577
685.589776	2495.371154
685.927614	2505.453462
686.265401	2520.576923
686.603137	2502.932885
686.940824	2581.070769
687.278460	2492.850577
687.616046	2452.521346
687.953582	2505.453462
688.291068	2439.918462
688.628504	2455.041923
688.965889	2535.700385
689.303224	2399.589231
689.640510	2588.632500
689.977745	2480.247692
690.314930	2528.138654
690.652065	2477.727115
690.989150	2540.741538
691.326185	2477.727115
691.663170	2465.124231
692.000105	2462.603654
692.336990	2543.262115
692.673825	2515.535769
693.010610	2533.179808
693.347345	2518.056346
693.684030	2465.124231
694.020665	2450.000769
694.357251	2462.603654
694.693786	2525.618077
695.030272	2528.138654
695.366707	2482.768269
695.703093	2455.041923
696.039429	2349.177692
696.375716	2487.809423
696.711952	2417.233269
697.048139	2414.712692
697.384276	2492.850577
697.720363	2490.330000
698.056400	2548.303269
698.392388	2518.056346
698.728326	2518.056346
699.064214	2485.288846
699.400053	2475.206538
699.735842	2432.356731
700.071581	2497.891731
700.407270	2568.467885
700.742910	2432.356731
701.078501	2437.397885
701.414042	2515.535769
701.749533	2472.685962
702.084974	2477.727115
702.420366	2470.165385
702.755709	2487.809423
703.091002	2507.974038
703.426246	2470.165385
703.761440	2553.344423
704.096584	2424.795000
704.431679	2523.097500
704.766725	2442.439038
705.101721	2530.659231
705.436668	2465.124231
705.771565	2502.932885
706.106413	2490.330000
706.441212	2515.535769
706.775961	2434.877308
707.110661	2583.591346
707.445311	2444.959615
707.779913	2525.618077
708.114465	2457.562500
708.448967	2427.315577
708.783421	2545.782692
709.117825	2447.480192
709.452180	2477.727115
709.786485	2553.344423
710.120742	2502.932885
710.454949	2497.891731
710.789107	2487.809423
711.123216	2523.097500
711.457275	2465.124231
711.791286	2455.041923
712.125247	2518.056346
712.459159	2553.344423
712.793023	2450.000769
713.126837	2507.974038
713.460602	2487.809423
713.794318	2558.385577
714.127985	2540.741538
714.461602	2414.712692
714.795171	2578.550192
715.128691	2518.056346
715.462162	2462.603654
715.795584	2525.618077
716.128957	2487.809423
716.462281	2477.727115
716.795556	2538.220962
717.128782	2429.836154
717.461960	2492.850577
717.795088	2487.809423
718.128167	2462.603654
718.461198	2518.056346
718.794180	2475.206538
719.127113	2525.618077
719.459997	2563.426731
719.792833	2510.494615
720.125619	2533.179808
720.458357	2507.974038
720.791046	2523.097500
721.123686	2439.918462
721.456278	2480.247692
721.788821	2485.288846
722.121315	2528.138654
722.453761	2490.330000
722.786158	2550.823846
723.118506	2525.618077
723.450805	2437.397885
723.783056	2583.591346
724.115259	2515.535769
724.447412	2500.412308
724.779518	2412.192115
725.111574	2427.315577
725.443582	2515.535769
725.775542	2543.262115
726.107453	2535.700385
726.439315	2490.330000
726.771129	2462.603654
727.102895	2492.850577
727.434612	2439.918462
727.766281	2502.932885
728.097901	2535.700385
728.429473	2404.630385
728.760996	2520.576923
729.092471	2480.247692
729.423897	2530.659231
729.755276	2417.233269
730.086606	2563.426731
730.417887	2515.535769
730.749120	2510.494615
731.080305	2475.206538
731.411442	2538.220962
731.742530	2470.165385
732.073570	2518.056346
732.404562	2565.947308
732.735506	2533.179808
733.066401	2528.138654
733.397249	2596.194231
733.728048	2452.521346
734.058798	2407.150962
734.389501	2490.330000
734.720156	2467.644808
735.050762	2608.797115
735.381320	2419.753846
735.711831	2583.591346
736.042293	2515.535769
736.372707	2593.673654
736.703073	2392.027500
737.033391	2470.165385
737.363661	2444.959615
737.693883	2492.850577
738.024056	2530.659231
738.354182	2560.906154
738.684260	2444.959615
739.014290	2467.644808
739.344272	2495.371154
739.674207	2455.041923
740.004093	2525.618077
740.333931	2578.550192
740.663722	2548.303269
740.993464	2497.891731
741.323159	2578.550192
741.652806	2482.768269
741.982405	2563.426731
742.311956	2467.644808
742.641460	2447.480192
742.970915	2462.603654
743.300323	2505.453462
743.629683	2515.535769
743.958996	2618.879423
744.288260	2482.768269
744.617477	2470.165385
744.946647	2528.138654
745.275768	2558.385577
745.604842	2502.932885
745.933869	2550.823846
746.262847	2439.918462
746.591778	2513.015192
746.920662	2477.727115
747.249498	2555.865000
747.578286	2465.124231
747.907027	2495.371154
748.235720	2505.453462
748.564365	2467.644808
748.892963	2442.439038
749.221514	2513.015192
749.550017	2437.397885
749.878473	2513.015192
750.206881	2447.480192
750.535242	2505.453462
750.863555	2525.618077
751.191821	2553.344423
751.520039	2490.330000
751.848210	2563.426731
752.176334	2528.138654
752.504411	2533.179808
752.832440	2444.959615
753.160421	2450.000769
753.488356	2510.494615
753.816243	2477.727115
754.144082	2490.330000
754.471875	2513.015192
754.799620	2530.659231
755.127318	2555.865000
755.454969	2477.727115
755.782572	2525.618077
756.110129	2480.247692
756.437638	2550.823846
756.765100	2578.550192
757.092515	2507.974038
757.419882	2492.850577
757.747203	2505.453462
758.074477	2510.494615
758.401703	2462.603654
758.728882	2462.603654
759.056014	2500.412308
759.383099	2442.439038
759.710138	2485.288846
760.037129	2520.576923
760.364073	2530.659231
760.690970	2565.947308
761.017820	2515.535769
761.344623	2487.809423
761.671379	2505.453462
761.998088	2500.412308
762.324751	2462.603654
762.651366	2583.591346
762.977935	2472.685962
763.304456	2452.521346
763.630931	2530.659231
763.957359	2475.206538
764.283740	2490.330000
764.610074	2465.124231
764.936362	2465.124231
765.262602	2510.494615
765.588796	2437.397885
765.914943	2500.412308
766.241044	2497.891731
766.567097	2447.480192
766.893104	2480.247692
767.219064	2497.891731
767.544978	2465.124231
767.870845	2487.809423
768.196665	2492.850577
768.522438	2409.671538
768.848165	2548.303269
769.173846	2482.768269
769.499479	2502.932885
769.825066	2470.165385
770.150607	2545.782692
770.476101	2497.891731
770.801548	2545.782692
771.126949	2530.659231
771.452303	2596.194231
771.777611	2492.850577
772.102872	2578.550192
772.428087	2578.550192
772.753256	2455.041923
773.078378	2432.356731
773.403453	2570.988462
773.728482	2467.644808
774.053465	2467.644808
774.378401	2538.220962
774.703291	2545.782692
775.028135	2520.576923
775.352932	2422.274423
775.677683	2513.015192
776.002388	2518.056346
776.327046	2487.809423
776.651658	2414.712692
776.976224	2510.494615
777.300743	2560.906154
777.625216	2472.685962
777.949643	2502.932885
778.274024	2482.768269
778.598359	2434.877308
778.922647	2470.165385
779.246889	2490.330000
779.571086	2525.618077
779.895236	2490.330000
780.219339	2492.850577
780.543397	2450.000769
780.867409	2555.865000
781.191374	2533.179808
781.515294	2570.988462
781.839167	2495.371154
782.162995	2530.659231
782.486776	2513.015192
782.810511	2460.083077
783.134201	2379.424615
783.457844	2452.521346
783.781441	2429.836154
784.104993	2540.741538
784.428498	2510.494615
784.751958	2540.741538
785.075372	2505.453462
785.398739	2414.712692
785.722061	2429.836154
786.045337	2495.371154
786.368568	2505.453462
786.691752	2437.397885
787.014891	2568.467885
787.337983	2455.041923
787.661030	2513.015192
787.984031	2573.509038
788.306987	2427.315577
788.629897	2507.974038
788.952760	2538.220962
789.275579	2424.795000
789.598351	2515.535769
789.921078	2432.356731
790.243759	2417.233269
790.566395	2457.562500
790.888984	2507.974038
791.211529	2487.809423
791.534027	2444.959615
791.856480	2548.303269
792.178888	2603.755962
792.501249	2492.850577
792.823566	2507.974038
793.145836	2487.809423
793.468062	2528.138654
793.790241	2460.083077
794.112375	2576.029615
794.434464	2477.727115
794.756507	2513.015192
795.078505	2513.015192
795.400457	2475.206538
795.722364	2513.015192
796.044226	2442.439038
796.366042	2505.453462
796.687812	2505.453462
797.009538	2462.603654
797.331218	2475.206538
797.652852	2485.288846
797.974442	2513.015192
798.295986	2507.974038
798.617484	2515.535769
798.938938	2497.891731
799.260346	2482.768269
799.581709	2470.165385
799.903026	2467.644808
800.224299	2502.932885
800.545526	2502.932885
800.866708	2560.906154
801.187845	2495.371154
801.508936	2417.233269
801.829983	2455.041923
802.150984	2450.000769
802.471940	2434.877308
802.792851	2467.644808
803.113717	2477.727115
803.434538	2518.056346
803.755314	2530.659231
804.076045	2487.809423
804.396731	2407.150962
804.717372	2548.303269
805.037967	2477.727115
805.358518	2455.041923
805.679024	2397.068654
805.999485	2462.603654
806.319901	2432.356731
806.640272	2543.262115
806.960598	2487.809423
807.280879	2487.809423
807.601115	2495.371154
807.921306	2560.906154
808.241453	2520.576923
808.561554	2492.850577
808.881611	2482.768269
809.201623	2492.850577
809.521590	2545.782692
809.841513	2565.947308
810.161390	2601.235385
810.481223	2455.041923
810.801011	2500.412308
811.120755	2487.809423
811.440453	2497.891731
811.760107	2500.412308
812.079716	2487.809423
812.399281	2414.712692
812.718801	2457.562500
813.038276	2553.344423
813.357707	2450.000769
813.677093	2543.262115
813.996434	2452.521346
814.315731	2553.344423
814.634983	2591.153077
814.954191	2560.906154
815.273354	2470.165385
815.592473	2510.494615
815.911547	2505.453462
816.230577	2384.465769
816.549562	2490.330000
816.868502	2490.330000
817.187399	2515.535769
817.506250	2447.480192
817.825058	2492.850577
818.143821	2399.589231
818.462539	2505.453462
818.781213	2538.220962
819.099843	2528.138654
819.418429	2475.206538
819.736970	2550.823846
820.055466	2492.850577
820.373919	2502.932885
820.692327	2513.015192
821.010691	2528.138654
821.329011	2505.453462
821.647286	2495.371154
821.965517	2485.288846
822.283704	2505.453462
822.601847	2457.562500
822.919945	2563.426731
823.237999	2472.685962
823.556010	2487.809423
823.873976	2472.685962
824.191897	2538.220962
824.509775	2520.576923
824.827609	2515.535769
825.145398	2543.262115
825.463144	2475.206538
825.780845	2523.097500
826.098502	2490.330000
826.416116	2538.220962
826.733685	2460.083077
827.051210	2553.344423
827.368692	2470.165385
827.686129	2525.618077
828.003522	2553.344423
828.320872	2460.083077
828.638177	2500.412308
828.955439	2465.124231
829.272656	2538.220962
829.589830	2535.700385
829.906960	2490.330000
830.224046	2530.659231
830.541088	2447.480192
830.858086	2568.467885
831.175041	2613.838269
831.491952	2530.659231
831.808819	2570.988462
832.125642	2442.439038
832.442421	2513.015192
832.759157	2520.576923
833.075849	2535.700385
833.392497	2475.206538
833.709101	2455.041923
834.025662	2505.453462
834.342179	2510.494615
834.658653	2533.179808
834.975083	2467.644808
835.291469	2558.385577
835.607811	2412.192115
835.924110	2480.247692
836.240366	2409.671538
836.556578	2502.932885
836.872746	2543.262115
837.188871	2470.165385
837.504952	2475.206538
837.820990	2520.576923
838.136984	2515.535769
838.452935	2460.083077
838.768842	2540.741538
839.084706	2588.632500
839.400526	2525.618077
839.716303	2497.891731
840.032037	2460.083077
840.347727	2601.235385
840.663373	2492.850577
840.978977	2548.303269
841.294537	2492.850577
841.610054	2429.836154
841.925527	2495.371154
842.240957	2530.659231
842.556344	2487.809423
842.871687	2409.671538
843.186987	2429.836154
843.502244	2487.809423
843.817458	2485.288846
844.132629	2518.056346
844.447756	2500.412308
844.762840	2485.288846
845.077881	2432.356731
845.392879	2482.768269
845.707833	2457.562500
846.022745	2485.288846
846.337613	2442.439038
846.652438	2550.823846
846.967221	2429.836154
847.281960	2492.850577
847.596656	2442.439038
847.911309	2490.330000
848.225919	2465.124231
848.540485	2525.618077
848.855009	2495.371154
849.169490	2485.288846
849.483928	2510.494615
849.798323	2452.521346
850.112675	2568.467885
850.426984	2558.385577
850.741251	2482.768269
851.055474	2550.823846
851.369654	2460.083077
851.683792	2548.303269
851.997887	2462.603654
852.311938	2515.535769
852.625947	2505.453462
852.939914	2560.906154
853.253837	2477.727115
853.567718	2470.165385
853.881555	2674.332115
854.195350	2477.727115
854.509103	2485.288846
854.822812	2518.056346
855.136479	2500.412308
855.450103	2490.330000
855.763685	2452.521346
856.077224	2487.809423
856.390720	2533.179808
856.704173	2470.165385
857.017584	2505.453462
857.330953	2560.906154
857.644278	2588.632500
857.957561	2470.165385
858.270802	2470.165385
858.584000	2533.179808
858.897155	2485.288846
859.210268	2543.262115
859.523339	2515.535769
859.836367	2525.618077
860.149352	2495.371154
860.462295	2472.685962
860.775195	2505.453462
861.088054	2518.056346
861.400869	2442.439038
861.713642	2482.768269
862.026373	2550.823846
862.339062	2513.015192
862.651708	2513.015192
862.964312	2570.988462
863.276873	2465.124231
863.589392	2424.795000
863.901869	2455.041923
864.214303	2424.795000
864.526696	2530.659231
864.839045	2462.603654
865.151353	2548.303269
865.463619	2432.356731
865.775842	2462.603654
866.088023	2434.877308
866.400162	2550.823846
866.712258	2467.644808
867.024313	2510.494615
867.336325	2419.753846
867.648296	2507.974038
867.960224	2586.111923
868.272110	2507.974038
868.583954	2500.412308
868.895755	2530.659231
869.207515	2437.397885
869.519233	2467.644808
869.830909	2487.809423
870.142542	2510.494615
870.454134	2510.494615
870.765684	2553.344423
871.077191	2497.891731
871.388657	2462.603654
871.700081	2389.506923
872.011463	2444.959615
872.322803	2475.206538
872.634101	2477.727115
872.945357	2576.029615
873.256571	2535.700385
873.567744	2482.768269
873.878874	2472.685962
874.189963	2397.068654
874.501010	2538.220962
874.812015	2462.603654
875.122979	2510.494615
875.433900	2460.083077
875.744780	2422.274423
876.055618	2497.891731
876.366415	2550.823846
876.677169	2470.165385
876.987882	2570.988462
877.298554	2460.083077
877.609183	2412.192115
877.919771	2520.576923
878.230317	2515.535769
878.540822	2404.630385
878.851285	2414.712692
879.161707	2439.918462
879.472087	2520.576923
879.782425	2507.974038
880.092722	2417.233269
880.402977	2553.344423
880.713191	2520.576923
881.023363	2505.453462
881.333494	2472.685962
881.643583	2437.397885
881.953631	2500.412308
882.263637	2480.247692
882.573602	2467.644808
882.883526	2530.659231
883.193408	2417.233269
883.503248	2485.288846
883.813048	2570.988462
884.122806	2427.315577
884.432522	2414.712692
884.742197	2447.480192
885.051831	2553.344423
885.361424	2439.918462
885.670975	2492.850577
885.980485	2593.673654
886.289954	2442.439038
886.599382	2485.288846
886.908768	2429.836154
887.218113	2414.712692
887.527417	2510.494615
887.836680	2465.124231
888.145901	2507.974038
888.455082	2540.741538
888.764221	2502.932885
889.073319	2424.795000
889.382376	2558.385577
889.691392	2618.879423
890.000366	2450.000769
890.309300	2505.453462
890.618193	2447.480192
890.927044	2568.467885
891.235855	2477.727115
891.544625	2520.576923
891.853353	2422.274423
892.162041	2472.685962
892.470687	2452.521346
892.779293	2407.150962
893.087858	2515.535769
893.396381	2419.753846
893.704864	2455.041923
894.013306	2540.741538
894.321707	2482.768269
894.630068	2472.685962
894.938387	2525.618077
895.246665	2538.220962
895.554903	2500.412308
895.863100	2535.700385
896.171256	2560.906154
896.479371	2523.097500
896.787446	2513.015192
897.095480	2424.795000
897.403473	2518.056346
897.711425	2540.741538
898.019336	2525.618077
898.327207	2550.823846
898.635038	2472.685962
898.942827	2523.097500
899.250576	2465.124231
899.558284	2402.109808
899.865952	2429.836154
900.173579	2475.206538
900.481165	2545.782692
900.788711	2492.850577
901.096216	2505.453462
901.403681	2510.494615
901.711105	2472.685962
902.018489	2502.932885
902.325832	2444.959615
902.633135	2457.562500
902.940397	2460.083077
903.247619	2485.288846
903.554800	2480.247692
903.861941	2593.673654
904.169041	2442.439038
904.476101	2495.371154
904.783121	2457.562500
905.090100	2500.412308
905.397039	2505.453462
905.703938	2530.659231
906.010796	2432.356731
906.317614	2447.480192
906.624391	2424.795000
906.931129	2417.233269
907.237826	2500.412308
907.544483	2394.548077
907.851099	2467.644808
908.157675	2422.274423
908.464211	2578.550192
908.770707	2450.000769
909.077163	2533.179808
909.383578	2523.097500
909.689954	2495.371154
909.996289	2507.974038
910.302584	2460.083077
910.608839	2485.288846
910.915054	2510.494615
911.221229	2523.097500
911.527363	2482.768269
911.833458	2565.947308
912.139513	2447.480192
912.445527	2470.165385
912.751502	2545.782692
913.057436	2465.124231
913.363331	2502.932885
913.669186	2523.097500
913.975000	2530.659231
914.280775	2477.727115
914.586510	2548.303269
914.892205	2444.959615
915.197859	2515.535769
915.503475	2480.247692
915.809050	2507.974038
916.114585	2492.850577
916.420081	2482.768269
916.725536	2563.426731
917.030952	2505.453462
917.336328	2568.467885
917.641665	2429.836154
917.946961	2414.712692
918.252218	2500.412308
918.557435	2492.850577
918.862612	2502.932885
919.167750	2465.124231
919.472848	2507.974038
919.777906	2515.535769
920.082925	2455.041923
920.387904	2470.165385
920.692843	2472.685962
920.997743	2513.015192
921.302603	2553.344423
921.607423	2492.850577
921.912204	2485.288846
922.216946	2429.836154
922.521647	2586.111923
922.826310	2530.659231
923.130932	2515.535769
923.435516	2462.603654
923.740059	2450.000769
924.044564	2402.109808
924.349028	2444.959615
924.653454	2518.056346
924.957840	2550.823846
925.262186	2434.877308
925.566493	2510.494615
925.870761	2533.179808
926.174989	2523.097500
926.479178	2510.494615
926.783328	2397.068654
927.087438	2500.412308
927.391509	2450.000769
927.695541	2500.412308
927.999533	2515.535769
928.303486	2407.150962
928.607400	2510.494615
928.911275	2475.206538
929.215110	2560.906154
929.518906	2502.932885
929.822663	2442.439038
930.126381	2500.412308
930.430060	2487.809423
930.733699	2520.576923
931.037299	2460.083077
931.340861	2480.247692
931.644383	2455.041923
931.947866	2497.891731
932.251309	2389.506923
932.554714	2455.041923
932.858080	2510.494615
933.161407	2487.809423
933.464694	2563.426731
933.767943	2434.877308
934.071153	2497.891731
934.374323	2460.083077
934.677455	2502.932885
934.980548	2570.988462
935.283602	2407.150962
935.586617	2477.727115
935.889593	2460.083077
936.192530	2525.618077
936.495428	2470.165385
936.798287	2386.986346
937.101108	2502.932885
937.403890	2596.194231
937.706632	2518.056346
938.009336	2480.247692
938.312002	2462.603654
938.614628	2520.576923
938.917216	2548.303269
939.219765	2497.891731
939.522275	2510.494615
939.824747	2450.000769
940.127179	2490.330000
940.429573	2502.932885
940.731929	2477.727115
941.034246	2404.630385
941.336524	2470.165385
941.638763	2490.330000
941.940964	2560.906154
942.243126	2513.015192
942.545250	2507.974038
942.847335	2444.959615
943.149381	2470.165385
943.451389	2510.494615
943.753359	2500.412308
944.055290	2482.768269
944.357182	2507.974038
944.659036	2535.700385
944.960851	2490.330000
945.262628	2500.412308
945.564367	2550.823846
945.866067	2563.426731
946.167729	2417.233269
946.469352	2490.330000
946.770937	2470.165385
947.072484	2545.782692
947.373992	2530.659231
947.675462	2462.603654
947.976893	2555.865000
948.278286	2419.753846
948.579641	2502.932885
948.880958	2555.865000
949.182236	2490.330000
949.483476	2482.768269
949.784678	2495.371154
950.085841	2470.165385
950.386967	2462.603654
950.688054	2545.782692
950.989103	2510.494615
951.290114	2553.344423
951.591087	2525.618077
951.892021	2540.741538
952.192917	2492.850577
952.493776	2485.288846
952.794596	2520.576923
953.095378	2518.056346
953.396122	2434.877308
953.696828	2505.453462
953.997496	2507.974038
954.298126	2465.124231
954.598718	2477.727115
954.899272	2518.056346
955.199788	2417.233269
955.500266	2467.644808
955.800706	2467.644808
956.101108	2467.644808
956.401472	2487.809423
956.701798	2507.974038
957.002087	2578.550192
957.302337	2457.562500
957.602550	2558.385577
957.902724	2487.809423
958.202861	2518.056346
958.502960	2568.467885
958.803022	2538.220962
959.103045	2326.492500
959.403031	2437.397885
959.702979	2472.685962
960.002889	2487.809423
960.302762	2533.179808
960.602596	2427.315577
960.902393	2447.480192
961.202153	2394.548077
961.501875	2487.809423
961.801559	2525.618077
962.101205	2417.233269
962.400814	2558.385577
962.700385	2588.632500
962.999918	2487.809423
963.299414	2538.220962
963.598873	2487.809423
963.898293	2437.397885
964.197677	2427.315577
964.497022	2538.220962
964.796331	2558.385577
965.095601	2477.727115
965.394835	2437.397885
965.694030	2538.220962
965.993189	2447.480192
966.292309	2492.850577
966.591393	2538.220962
966.890439	2472.685962
967.189447	2513.015192
967.488419	2457.562500
967.787353	2480.247692
968.086249	2538.220962
968.385108	2475.206538
968.683930	2455.041923
968.982714	2447.480192
969.281462	2565.947308
969.580172	2548.303269
969.878844	2528.138654
970.177480	2457.562500
970.476078	2548.303269
970.774639	2507.974038
971.073162	2417.233269
971.371649	2457.562500
971.670098	2578.550192
971.968510	2447.480192
972.266885	2467.644808
972.565223	2538.220962
972.863524	2472.685962
973.161788	2487.809423
973.460014	2502.932885
973.758204	2477.727115
974.056356	2447.480192
974.354471	2525.618077
974.652550	2502.932885
974.950591	2475.206538
975.248595	2361.780577
975.546563	2538.220962
975.844493	2598.714808
976.142386	2545.782692
976.440243	2588.632500
976.738062	2475.206538
977.035845	2437.397885
977.333590	2457.562500
977.631299	2558.385577
977.928971	2477.727115
978.226606	2487.809423
978.524204	2497.891731
978.821765	2518.056346
979.119290	2437.397885
979.416777	2422.274423
979.714228	2558.385577
980.011642	2523.097500
980.309020	2553.344423
980.606360	2497.891731
980.903664	2500.412308
981.200931	2392.027500
981.498162	2414.712692
981.795356	2520.576923
982.092513	2492.850577
982.389633	2535.700385
982.686717	2470.165385
982.983764	2548.303269
983.280775	2505.453462
983.577749	2394.548077
983.874686	2447.480192
984.171587	2475.206538
984.468451	2467.644808
984.765279	2477.727115
985.062070	2437.397885
985.358824	2477.727115
985.655543	2497.891731
985.952224	2543.262115
986.248869	2437.397885
986.545478	2442.439038
986.842050	2467.644808
987.138586	2417.233269
987.435086	2505.453462
987.731549	2477.727115
988.027975	2485.288846
988.324366	2477.727115
988.620719	2518.056346
988.917037	2447.480192
989.213318	2477.727115
989.509563	2472.685962
989.805772	2497.891731
990.101944	2472.685962
990.398080	2457.562500
990.694180	2538.220962
990.990244	2364.301154
991.286271	2568.467885
991.582262	2455.041923
991.878217	2528.138654
992.174136	2477.727115
992.470019	2492.850577
992.765865	2487.809423
993.061676	2422.274423
993.357450	2583.591346
993.653188	2386.986346
993.948890	2460.083077
994.244556	2447.480192
994.540186	2545.782692
994.835780	2525.618077
995.131337	2548.303269
995.426859	2475.206538
995.722345	2437.397885
996.017795	2492.850577
996.313208	2477.727115
996.608586	2513.015192
996.903928	2432.356731
997.199234	2558.385577
997.494504	2540.741538
997.789738	2467.644808
998.084936	2495.371154
998.380099	2515.535769
998.675225	2407.150962
998.970316	2419.753846
999.265371	2487.809423
999.560390	2492.850577
999.855373	2568.467885
1000.150320	2437.397885
1000.445232	2525.618077
1000.740108	2492.850577
1001.034948	2444.959615
1001.329752	2533.179808
1001.624521	2437.397885
1001.919254	2457.562500
1002.213951	2444.959615
1002.508613	2482.768269
1002.803239	2485.288846
1003.097829	2492.850577
1003.392384	2457.562500
1003.686903	2497.891731
1003.981386	2535.700385
1004.275834	2412.192115
1004.570246	2495.371154
1004.864623	2502.932885
1005.158964	2578.550192
1005.453270	2442.439038
1005.747540	2475.206538
1006.041775	2482.768269
1006.335974	2490.330000
1006.630138	2467.644808
1006.924266	2480.247692
1007.218359	2472.685962
1007.512416	2565.947308
1007.806438	2520.576923
1008.100425	2563.426731
1008.394376	2555.865000
1008.688292	2460.083077
1008.982172	2492.850577
1009.276017	2475.206538
1009.569827	2490.330000
1009.863602	2523.097500
1010.157341	2485.288846
1010.451045	2520.576923
1010.744714	2472.685962
1011.038347	2525.618077
1011.331945	2450.000769
1011.625508	2492.850577
1011.919036	2490.330000
1012.212528	2510.494615
1012.505986	2513.015192
1012.799408	2495.371154
1013.092795	2465.124231
1013.386147	2505.453462
1013.679464	2475.206538
1013.972745	2434.877308
1014.265992	2487.809423
1014.559204	2507.974038
1014.852380	2518.056346
1015.145521	2386.986346
1015.438628	2598.714808
1015.731699	2427.315577
1016.024736	2598.714808
1016.317737	2507.974038
1016.610703	2518.056346
1016.903635	2417.233269
1017.196531	2618.879423
1017.489393	2397.068654
1017.782219	2518.056346
1018.075011	2467.644808
1018.367768	2442.439038
1018.660490	2568.467885
1018.953177	2568.467885
1019.245829	2568.467885
