Dividing Wavelength (nm)	Counts (n)	Blue Motor Position (mm): 21.800000	Red Motor Position (mm): 0.000000	
326.493990	2058.938301
326.888308	2058.938301
327.282561	2058.938301
327.676750	2034.329908
328.070874	2035.572553
328.464933	2043.794675
328.858929	2048.949254
329.252859	2061.524413
329.646726	2076.577298
330.040528	2091.035327
330.434265	2108.986876
330.827938	2131.218365
331.221547	2150.271406
331.615091	2170.491474
332.008571	2194.159691
332.401986	2214.193236
332.795338	2232.371637
333.188625	2251.391911
333.581847	2269.928233
333.975006	2287.685698
334.368100	2305.947278
334.761129	2321.358085
335.154095	2340.222083
335.546996	2387.646737
335.939833	2482.901860
336.332606	2494.672954
336.725315	2505.390447
337.117960	2517.224556
337.510540	2526.238139
337.903056	2535.276928
338.295508	2541.291024
338.687896	2545.880995
339.080220	2554.317366
339.472480	2557.468087
339.864676	2561.806000
340.256807	2565.294478
340.648875	2567.074006
341.040879	2568.256156
341.432818	2568.528378
341.824694	2569.203893
342.216506	2568.709860
342.608253	2568.803121
342.999937	2569.410580
343.391557	2568.004098
343.783113	2564.114848
344.174605	2565.576783
344.566033	2562.726010
344.957397	2561.385063
345.348697	2559.638304
345.739934	2556.492624
346.131106	2557.838612
346.522215	2553.296532
346.913260	2556.515309
347.304241	2550.533980
347.695159	2548.807385
348.086012	2549.709751
348.476802	2544.295552
348.867528	2542.311858
349.258191	2541.606096
349.648789	2541.661549
350.039324	2535.899510
350.429796	2541.626261
350.820203	2540.252547
351.210548	2541.616179
351.600828	2539.430838
351.991045	2538.730118
352.381198	2536.668286
352.771288	2536.509490
353.161314	2534.999664
353.551276	2535.849099
353.941175	2536.658204
354.331010	2537.366486
354.720782	2536.811959
355.110490	2540.217258
355.500135	2536.549819
355.889717	2540.580222
356.279235	2538.117618
356.668689	2537.242978
357.058080	2536.741383
357.447408	2537.810108
357.836672	2537.401774
358.225873	2535.844058
358.615010	2539.607279
359.004084	2542.637012
359.393095	2540.986034
359.782043	2537.454706
360.170927	2541.863195
360.559748	2540.867567
360.948505	2541.464944
361.337199	2544.459389
361.725830	2543.655325
362.114398	2544.444266
362.502903	2545.699513
362.891344	2547.085831
363.279722	2546.478372
363.668037	2544.799667
364.056289	2545.631458
364.444478	2544.308155
364.832603	2544.262784
365.220665	2548.522559
365.608665	2547.544576
365.996601	2547.209339
366.384474	2547.902497
366.772284	2547.668084
367.160031	2548.028526
367.547715	2549.913918
367.935336	2548.056253
368.322893	2549.135060
368.710388	2547.715975
369.097820	2548.784699
369.485189	2549.732436
369.872495	2553.198230
370.259738	2549.518187
370.646918	2552.764690
371.034035	2550.218908
371.421090	2552.661347
371.808081	2551.764021
372.195010	2552.767211
372.581875	2553.044474
372.968678	2554.365257
373.355418	2551.118754
373.742096	2554.708055
374.128710	2554.493806
374.515262	2554.899619
374.901751	2555.446584
375.288177	2557.253838
375.674540	2555.741492
376.060841	2553.752757
376.447079	2556.873231
376.833254	2556.376677
377.219367	2554.982798
377.605417	2559.829867
377.991404	2555.428940
378.377329	2556.790052
378.763191	2557.147974
379.148991	2555.408776
379.534727	2558.451112
379.920402	2556.038920
380.306013	2558.746019
380.691563	2561.437996
381.077049	2558.052861
381.462474	2557.674774
381.847835	2561.390105
382.233134	2559.731565
382.618371	2557.571431
383.003545	2559.111503
383.388657	2559.981102
383.773706	2558.957748
384.158693	2562.262224
384.543618	2562.579817
384.928480	2563.071329
385.313280	2560.623849
385.698017	2560.538150
386.082692	2565.430589
386.467305	2563.824982
386.851856	2561.327090
387.236344	2562.751216
387.620770	2561.006977
388.005133	2561.851370
388.389435	2558.511606
388.773674	2558.224260
389.157851	2563.877914
389.541965	2561.780794
389.926018	2566.887483
390.310008	2564.291289
390.693936	2564.218192
391.077802	2565.899417
391.461606	2567.076526
391.845348	2563.751885
392.229027	2569.763461
392.612645	2566.774057
392.996200	2567.603327
393.379694	2564.031669
393.763125	2564.187945
394.146494	2566.355641
394.529801	2569.375292
394.913047	2568.775395
395.296230	2569.503842
395.679351	2568.233471
396.062410	2567.358831
396.445408	2569.743297
396.828343	2570.156671
397.211217	2567.016032
397.594028	2569.481157
397.976778	2568.732545
398.359466	2570.960735
398.742092	2567.494942
399.124656	2568.500652
399.507158	2570.070972
399.889598	2569.050138
400.271977	2572.599110
400.654294	2573.042732
401.036549	2570.832186
401.418742	2572.278997
401.800874	2570.383523
402.182944	2571.038873
402.564952	2572.659604
402.946898	2573.756055
403.328783	2571.316137
403.710606	2573.561971
404.092367	2574.383679
404.474067	2573.337639
404.855705	2574.106415
405.237282	2573.869481
405.618797	2575.424677
406.000250	2577.073134
406.381642	2573.491394
406.762972	2571.782443
407.144240	2572.374779
407.525447	2571.810170
407.906593	2571.328739
408.287677	2574.565160
408.668700	2575.999368
409.049661	2578.502301
409.430560	2577.826787
409.811399	2577.110943
410.192176	2579.495409
410.572891	2576.523648
410.953545	2578.139338
411.334138	2577.133628
411.714669	2577.365521
412.095139	2578.182188
412.475547	2578.038515
412.855894	2577.017682
413.236180	2575.757393
413.616405	2578.378793
413.996568	2577.400809
414.376670	2579.238310
414.756711	2579.160172
415.136691	2578.618248
415.516609	2581.695872
415.896466	2580.554051
416.276262	2578.106571
416.655997	2580.044894
417.035670	2579.775193
417.415283	2582.361305
417.794834	2579.019020
418.174324	2579.087075
418.553753	2580.501119
418.933121	2580.206211
419.312428	2580.934658
419.691674	2579.969277
420.070859	2581.474062
420.449983	2582.454566
420.829045	2580.049936
421.208047	2580.899370
421.586988	2582.114288
421.965867	2582.636047
422.344686	2580.480954
422.723444	2582.293249
423.102141	2586.001018
423.480777	2584.975143
423.859352	2580.332240
424.237866	2584.108064
424.616319	2585.287694
424.994712	2585.902715
425.373044	2584.254258
425.751314	2581.448856
426.129524	2581.617734
426.507673	2579.535738
426.885762	2577.481468
427.263789	2582.121850
427.641756	2583.684607
428.019662	2584.818867
428.397508	2584.501274
428.775292	2584.455904
429.153016	2585.794330
429.530679	2583.172930
429.908282	2587.531008
430.285824	2587.573858
430.663305	2583.026737
431.040726	2584.728126
431.418086	2585.726275
431.795385	2586.321131
432.172624	2584.599577
432.549802	2587.480596
432.926920	2585.214598
433.303977	2584.760894
433.680974	2586.545462
434.057910	2587.470514
434.434786	2586.837849
434.811601	2588.561924
435.188355	2587.387335
435.565050	2587.704928
435.941683	2585.960688
436.318257	2586.547983
436.694770	2588.798858
437.071222	2587.054619
437.447614	2588.297263
437.823946	2584.904567
438.200218	2588.390525
438.576429	2589.827253
438.952580	2589.101327
439.328670	2589.958323
439.704700	2588.629979
440.080670	2586.613518
440.456580	2589.310535
440.832429	2589.176945
441.208218	2585.398600
441.583947	2592.367995
441.959616	2592.582244
442.335224	2591.543766
442.710773	2589.807089
443.086261	2590.205340
443.461689	2593.782039
443.837057	2591.606781
444.212365	2591.465628
444.587612	2590.293560
444.962800	2590.134764
445.337927	2590.795155
445.712995	2587.442788
446.088002	2593.575351
446.462949	2595.574169
446.837837	2593.368664
447.212664	2593.625763
447.587431	2593.189703
447.962139	2597.966196
448.336786	2598.414859
448.711374	2598.878645
449.085901	2598.732452
449.460369	2596.461412
449.834776	2597.351176
450.209124	2598.833275
450.583412	2599.022318
450.957640	2598.709767
451.331808	2600.270004
451.705917	2601.048862
452.079965	2601.426948
452.453954	2599.133223
452.827883	2599.677668
453.201752	2599.828903
453.575562	2603.559357
453.949311	2602.503235
454.323001	2603.108173
454.696632	2603.937443
455.070202	2606.571446
455.443713	2606.468102
455.817164	2607.405757
456.190556	2606.473143
456.563888	2609.976745
456.937160	2606.611775
457.310373	2608.620675
457.683526	2610.558999
458.056619	2609.089502
458.429653	2612.819956
458.802628	2610.858947
459.175542	2612.393979
459.548398	2613.495471
459.921194	2612.935903
460.293930	2618.087962
460.666607	2621.715072
461.039224	2624.656585
461.411782	2623.885289
461.784280	2623.577778
462.156719	2622.546862
462.529099	2625.203551
462.901419	2624.883437
463.273680	2624.641462
463.645882	2621.044599
464.018024	2625.352265
464.390106	2625.712707
464.762130	2632.435086
465.134094	2638.078657
465.505999	2646.671304
465.877845	2655.042140
466.249631	2657.648417
466.621358	2656.204126
466.993026	2655.964671
467.364634	2658.253355
467.736184	2657.756802
468.107674	2657.323262
468.479105	2654.517860
468.850477	2659.548932
469.221790	2662.404745
469.593043	2656.662871
469.964238	2661.298212
470.335373	2664.711073
470.706449	2672.993689
471.077467	2681.520801
471.448425	2690.894826
471.819324	2706.479553
472.190164	2708.959801
472.560945	2703.971579
472.931667	2700.709953
473.302330	2706.890407
473.672934	2709.158927
474.043479	2719.936914
474.413965	2727.082749
474.784393	2731.740775
475.154761	2746.017323
475.525070	2751.250041
475.895321	2758.700866
476.265513	2774.724174
476.635645	2791.866617
477.005719	2804.189718
477.375734	2821.523725
477.745691	2840.959894
478.115588	2863.229191
478.485427	2900.183369
478.855207	2948.744804
479.224928	2998.657269
479.594591	3035.727393
479.964194	3046.835576
480.333739	3074.690472
480.703226	3106.671552
481.072653	3151.283242
481.442022	3196.956096
481.811333	3234.570666
482.180584	3256.978595
482.549777	3291.966723
482.918912	3321.215498
483.287988	3364.428268
483.657005	3399.527302
484.025964	3430.137188
484.394864	3476.699806
484.763706	3524.189995
485.132489	3554.701579
485.501213	3608.460444
485.869879	3670.285154
486.238487	3723.892784
486.607036	3790.693114
486.975527	3839.418387
487.343959	3914.972680
487.712333	3996.286491
488.080648	4063.386770
488.448905	4158.601563
488.817104	4231.055547
489.185244	4364.535218
489.553326	4532.821536
489.921350	4765.443060
490.289315	5039.109658
490.657222	5195.569430
491.025070	5331.017672
491.392861	5406.564403
491.760593	5447.947235
492.128267	5465.475327
492.495883	5491.838041
492.863440	5531.864803
493.230939	5555.696857
493.598380	5622.439214
493.965763	5725.709771
494.333088	5800.770031
494.700354	5898.286111
495.067563	6021.978382
495.434713	6135.351412
495.801805	6298.760414
496.168839	6413.169400
496.535815	6530.734149
496.902733	6687.375402
497.269593	6797.643081
497.636395	6961.672145
498.003139	7150.977554
498.369825	7268.171778
498.736453	7477.903943
499.103023	7614.025179
499.469535	7790.024462
499.835989	7976.721074
500.202385	8109.931044
500.568723	8285.794217
500.935003	8520.838015
501.301226	8671.213113
501.667390	8995.379470
502.033497	9216.769303
502.399546	9358.526549
502.765537	9445.317575
503.131470	9736.151822
503.497345	10036.004694
503.863163	9985.361263
504.228923	10360.067707
504.594625	10659.620631
504.960269	10730.673174
505.325856	11104.134453
505.691385	11227.683052
506.056856	11510.343069
506.422270	11870.573840
506.787625	11949.301540
507.152924	12301.738687
507.518164	12584.174373
507.883347	12661.331753
508.248472	12947.303808
508.613540	13397.675451
508.978550	13711.797309
509.343503	13888.242735
509.708398	14239.921189
510.073236	14695.835581
510.438016	14973.167098
510.802738	15080.747842
511.167403	15539.697009
511.532010	15884.955553
511.896561	16317.675597
512.261053	16881.143006
512.625488	17047.528809
512.989866	17270.360412
513.354186	17548.213689
513.718449	17786.440975
514.082655	18452.175752
514.446803	18576.876254
514.810894	19115.049674
515.174927	19379.722854
515.538904	19630.142172
515.902822	20208.022240
516.266684	20305.445058
516.630488	20750.997359
516.994235	21014.080055
517.357925	21565.720917
517.721558	21959.326648
518.085133	22395.285632
518.448651	22783.845168
518.812112	22959.852013
519.175516	23312.334531
519.538863	23834.590508
519.902152	24107.755512
520.265385	24691.032135
520.628560	24960.388547
520.991678	25177.818553
521.354739	25561.790639
521.717743	26044.304679
522.080690	26233.889873
522.443580	26911.811639
522.806413	27177.760231
523.169189	27515.575512
523.531908	27900.853256
523.894569	28060.594818
524.257174	28420.260981
524.619722	28900.642613
524.982213	29232.171575
525.344647	29496.081020
525.707025	29822.100001
526.069345	30330.621354
526.431608	30523.233760
526.793815	31029.897448
527.155964	30938.173654
527.518057	31330.153613
527.880093	31444.794492
528.242072	32125.803965
528.603995	32154.548624
528.965860	32315.225321
529.327669	32681.805426
529.689421	32937.550722
530.051117	33091.343723
530.412755	33511.448279
530.774337	33776.227323
531.135862	33926.857000
531.497331	34237.084566
531.858743	34434.450781
532.220098	34938.815702
532.581396	34922.641160
532.942638	34916.808545
533.303824	35299.689221
533.664953	35534.221342
534.026025	35459.443386
534.387040	36086.235250
534.747999	36322.372978
535.108902	36748.078256
535.469748	36384.666516
535.830537	36757.517817
536.191270	37132.030177
536.551947	37069.923162
536.912567	37467.438307
537.273131	37758.774149
537.633638	37582.185051
537.994089	37914.006400
538.354483	37835.008998
538.714821	38539.742142
539.075103	38934.073798
539.435328	38968.686361
539.795497	38901.540712
540.155609	39138.482504
540.515665	39813.445113
540.875665	39340.705870
541.235609	39730.959234
541.595496	39967.429678
541.955328	40607.053799
542.315102	40254.213359
542.674821	40261.666705
543.034483	40284.273759
543.394090	40428.380183
543.753640	40522.652281
544.113134	41608.426078
544.472571	40914.692733
544.831953	42079.156422
545.191278	41505.808351
545.550548	41322.322953
545.909761	42048.246587
546.268918	42286.723411
546.628019	42780.189358
546.987064	42344.512678
547.346053	41790.648666
547.704986	42730.629774
548.063863	42515.397711
548.422684	42797.341884
548.781449	42516.723534
549.140158	43123.698622
549.498811	42999.144313
549.857408	42508.486289
550.215949	43398.368410
550.574434	43349.123898
550.932864	43362.372051
551.291237	44141.225279
551.649555	43984.168131
552.007817	44232.845729
552.366022	43988.828677
552.724173	44129.784380
553.082267	44602.460609
553.440305	44993.611298
553.798288	44362.398342
554.156215	44813.750490
554.514086	45068.958903
554.871902	44779.306806
555.229661	45018.774217
555.587365	44770.603254
555.945014	44969.154140
556.302606	45048.199432
556.660143	45212.858640
557.017625	45461.029603
557.375050	45244.234782
557.732421	45696.249841
558.089735	45808.458364
558.446994	45726.095993
558.804197	46251.583349
559.161345	46174.546956
559.518437	45578.317088
559.875474	45879.941926
560.232455	46168.265679
560.589381	46269.774352
560.946251	46118.096116
561.303065	46807.688153
561.659825	46547.993113
562.016528	46402.550783
562.373177	46033.616459
562.729770	46689.321861
563.086307	46264.811337
563.442789	46825.387644
563.799216	46738.122751
564.155587	46647.908782
564.511904	46665.845207
564.868164	46756.817870
565.224370	47079.199658
565.580520	46845.219543
565.936615	47075.476766
566.292654	46766.116278
566.648638	47128.930641
567.004567	47100.881661
567.360441	47217.854074
567.716260	46975.445150
568.072023	47371.551293
568.427732	47336.946293
568.783385	46892.530772
569.138982	47325.936412
569.494525	47477.377715
569.850013	47078.037672
570.205445	47221.342552
570.560823	47035.729788
570.916145	46934.316897
571.271412	47180.126079
571.626625	46854.543158
571.981782	46938.465766
572.336884	46553.437559
572.691931	46896.974549
573.046923	46586.527693
573.401860	46438.005218
573.756743	46459.997252
574.111570	46623.502036
574.466342	46538.868624
574.821059	46693.851337
575.175722	46219.163688
575.530330	46330.333734
575.884882	45981.014540
576.239380	45899.423465
576.593823	45999.417272
576.948211	45941.529702
577.302544	45502.886303
577.656823	45522.382966
578.011047	45794.411189
578.365216	45587.802019
578.719330	45338.280027
579.073389	45322.060115
579.427394	45386.700310
579.781344	45299.238811
580.135239	45085.032622
580.489080	45140.094625
580.842866	44654.560934
581.196597	45154.895453
581.550273	45145.171067
581.903895	45073.180870
582.257463	45531.827567
582.610975	44966.260517
582.964434	45302.598740
583.317837	44803.423686
583.671186	44759.192603
584.024481	45067.033183
584.377721	44608.565446
584.730906	44819.066387
585.084037	44935.670796
585.437113	44678.007340
585.790135	44805.137679
586.143103	44345.097102
586.496016	44517.950706
586.848874	44616.948885
587.201679	44645.567515
587.554428	44171.444476
587.907124	44444.770796
588.259765	44205.774733
588.612352	44388.045212
588.964884	43832.744472
589.317362	44139.183612
589.669786	44154.294470
590.022155	43988.044778
590.374470	44466.062109
590.726731	44037.014547
591.078937	43391.875404
591.431090	43709.337026
591.783188	43261.148202
592.135232	43052.192375
592.487222	43329.644880
592.839157	43479.054598
593.191038	43111.443577
593.542866	42934.035291
593.894639	42330.092457
594.246358	42634.258036
594.598022	42631.689568
594.949633	42216.424520
595.301190	42201.028836
595.652692	42150.198882
596.004141	42623.522899
596.355535	41540.385625
596.706876	41561.838255
597.058162	41270.154573
597.409395	41795.084882
597.760573	41994.638957
598.111698	41592.669952
598.462768	41523.286031
598.813785	41533.131404
599.164748	41136.170786
599.515657	41417.290730
599.866511	40934.708634
600.217312	41619.809004
600.568060	40559.089741
600.918753	41394.973542
601.269392	41314.806593
601.619978	41035.569520
601.970510	41233.049160
602.320988	41371.078473
602.671412	41623.909982
603.021783	41504.648885
603.372100	41070.361043
603.722363	41185.369927
604.072572	41224.509445
604.422728	41220.221944
604.772830	41010.199913
605.122878	41157.285659
605.472872	41030.145238
605.822813	41294.982256
606.172701	41038.768132
606.522534	41356.622964
606.872314	41566.130798
607.222041	41400.395303
607.571714	41738.145049
607.921333	41219.740514
608.270899	41447.777108
608.620411	41829.702485
608.969870	41560.051166
609.319276	41583.878180
609.668627	41606.223094
610.017926	42016.119313
610.367171	42134.767910
610.716362	42194.550954
611.065500	42073.215422
611.414585	42314.043944
611.763616	42490.859894
612.112594	42405.281267
612.461518	42519.324770
612.810389	42897.123962
613.159207	42700.665156
613.507971	42672.462421
613.856682	43166.361907
614.205340	43008.238555
614.553945	43682.082028
614.902496	43007.212680
615.250994	43431.191363
615.599439	43490.555990
615.947830	43601.841982
616.296169	43608.229124
616.644454	43648.974250
616.992686	43817.139580
617.340864	44274.573880
617.688990	43782.385866
618.037063	44464.421214
618.385082	44283.385817
618.733048	44626.295184
619.080961	44501.947563
619.428821	44537.177667
619.776628	44536.149271
620.124382	44340.653325
620.472083	44449.393534
620.819731	44560.777828
621.167326	44119.621414
621.514868	44112.636895
621.862357	43596.122793
622.209793	43668.417980
622.557176	43246.228907
622.904506	42993.465453
623.251783	42617.589461
623.599007	42313.605363
623.946179	42224.994482
624.293297	41962.589821
624.640363	41419.123190
624.987376	41273.237238
625.334336	41077.859759
625.681243	40672.046875
626.028097	40568.055433
626.374899	40388.918031
626.721647	40356.498370
627.068343	40152.866002
627.414987	39843.888642
627.761577	39601.346127
628.108115	39931.425758
628.454600	39177.380048
628.801032	39405.462012
629.147412	39305.264038
629.493739	39208.678051
629.840014	38780.563102
630.186236	39201.706135
630.532405	38640.280393
630.878521	38877.580108
631.224585	38650.813884
631.570597	38311.592121
631.916556	38481.342895
632.262462	38363.921819
632.608316	38296.594689
632.954117	38157.267279
633.299866	38128.447002
633.645562	38036.045173
633.991206	37502.456682
634.336797	37088.714062
634.682336	36981.259348
635.027823	36757.976562
635.373257	36630.654659
635.718639	36310.364950
636.063968	36179.587337
636.409245	35540.588319
636.754470	35490.418756
637.099642	35282.317405
637.444762	34709.813727
637.789829	34849.388154
638.134845	34474.855629
638.479808	34379.635794
638.824719	34330.973536
639.169577	33827.427802
639.514383	33915.277469
639.859137	33539.467012
640.203839	33705.119327
640.548489	33405.291661
640.893086	33417.392951
641.237632	33131.322594
641.582125	33232.712800
641.926566	33012.656353
642.270955	33053.721592
642.615292	32974.870384
642.959576	32858.553321
643.303809	32875.700806
643.647990	32972.435507
643.992118	32921.519853
644.336195	32764.220729
644.680219	32857.913094
645.024192	33058.845925
645.368112	33572.630243
645.711981	33594.687811
646.055797	34312.439734
646.399562	34123.537617
646.743274	34981.849512
647.086935	35385.862705
647.430544	35349.019432
647.774101	35397.041463
648.117606	35696.710333
648.461059	35825.935271
648.804460	35418.015184
649.147810	34902.211884
649.491108	34556.471909
649.834354	34398.351078
650.177548	33586.145576
650.520690	33102.600620
650.863781	33101.458798
651.206820	32900.667120
651.549807	32504.102232
651.892742	31908.169792
652.235626	31813.408702
652.578458	31684.483713
652.921238	30999.491729
653.263967	31304.017750
653.606644	31013.536383
653.949269	30925.850553
654.291843	30521.245025
654.634365	30896.405174
654.976836	30431.830079
655.319255	30517.363337
655.661622	30381.395856
656.003938	30237.720451
656.346203	30062.822659
656.688416	30314.562759
657.030577	30073.497302
657.372687	29908.076880
657.714746	30067.132846
658.056753	30256.150909
658.398708	29641.717434
658.740612	29703.292608
659.082465	29911.315821
659.424266	29798.419181
659.766016	29817.893158
660.107715	29670.701548
660.449362	29771.088565
660.790958	29742.195192
661.132503	29683.538847
661.473996	29747.168290
661.815438	29833.677011
662.156829	29951.536667
662.498168	29759.123387
662.839456	29737.706045
663.180693	29855.522851
663.521879	29955.534302
663.863013	29913.143240
664.204097	29894.559026
664.545129	30314.567800
664.886110	30238.925286
665.227040	30343.728354
665.567918	30330.775109
665.908746	30416.320970
666.249522	30491.872742
666.590248	30524.171415
666.930922	30626.075819
667.271545	30617.972165
667.612118	30665.248105
667.952639	30481.591309
668.293109	30525.179646
668.633528	30386.137061
668.973896	30350.150784
669.314213	30314.409003
669.654480	30126.878080
669.994695	30125.746341
670.334859	30038.100841
670.674973	29870.041374
671.015035	30047.800021
671.355047	29994.366310
671.695008	29919.432079
672.034918	29827.128552
672.374777	29938.366653
672.714585	29788.735124
673.054342	29940.869586
673.394049	29787.157243
673.733705	29991.316412
674.073310	29704.280674
674.412864	29761.165054
674.752368	29477.012856
675.091820	29697.649036
675.431223	29300.799323
675.770574	29096.073024
676.109875	28946.842268
676.449125	28729.392096
676.788324	28641.376071
677.127473	28145.994485
677.466571	28044.153095
677.805619	27781.418239
678.144616	27716.677221
678.483562	27672.970417
678.822458	27345.222320
679.161303	27280.388041
679.500098	27186.690635
679.838842	27128.901368
680.177535	27207.460188
680.516179	27456.218446
680.854771	27594.217512
681.193314	28343.824486
681.531805	29364.148983
681.870247	30117.446082
682.208638	30834.812356
682.546978	31101.471751
682.885268	31243.899470
683.223508	30809.813274
683.561697	30519.848626
683.899836	30368.261129
684.237925	29970.405706
684.575963	29807.001745
684.913951	29450.561922
685.251889	29615.384967
685.589776	29634.717792
685.927614	29641.331786
686.265401	29823.834158
686.603137	29945.651120
686.940824	30440.301738
687.278460	30773.698448
687.616046	30934.816246
687.953582	31600.203183
688.291068	31512.119102
688.628504	31841.659329
688.965889	31838.813597
689.303224	31572.756621
689.640510	31301.076237
689.977745	30665.651398
690.314930	29922.502142
690.652065	29500.943213
690.989150	28818.436517
691.326185	27981.363003
691.663170	27342.306013
692.000105	26611.925999
692.336990	26010.420564
692.673825	25570.131228
693.010610	25093.636325
693.347345	24593.684934
693.684030	23961.720846
694.020665	23769.332772
694.357251	23093.795471
694.693786	23096.000976
695.030272	22860.528680
695.366707	22376.797201
695.703093	22100.632711
696.039429	22152.417963
696.375716	21918.132859
696.711952	21925.039240
697.048139	21766.270620
697.384276	21616.689503
697.720363	21745.165829
698.056400	21623.346347
698.392388	21471.655507
698.728326	21476.432000
699.064214	21302.797018
699.400053	21313.990900
699.735842	20915.996845
700.071581	20728.450798
700.407270	20481.199846
700.742910	20313.031995
701.078501	20059.073788
701.414042	19848.819864
701.749533	19541.306958
702.084974	19229.831706
702.420366	19464.172263
702.755709	19057.406601
703.091002	18746.067460
703.426246	18820.074119
703.761440	18737.505060
704.096584	18512.856121
704.431679	18441.085214
704.766725	18386.144199
705.101721	18319.013673
705.436668	18444.162838
705.771565	18162.843768
706.106413	18482.841091
706.441212	18553.389519
706.775961	18654.555394
707.110661	18728.345283
707.445311	19094.259956
707.779913	18980.970106
708.114465	19261.480070
708.448967	19585.333876
708.783421	20205.491581
709.117825	20567.045655
709.452180	20791.041764
709.786485	21239.225547
710.120742	22022.895598
710.454949	22111.635029
710.789107	22619.687555
711.123216	23337.366381
711.457275	23542.543863
711.791286	24105.340799
712.125247	24250.972172
712.459159	23979.624504
712.793023	24730.552261
713.126837	23709.900088
713.460602	23969.648061
713.794318	23626.295072
714.127985	23367.872923
714.461602	22461.692752
714.795171	22450.108180
715.128691	21482.015078
715.462162	20957.057043
715.795584	20523.802637
716.128957	20256.576113
716.462281	19883.382014
716.795556	19597.041955
717.128782	19124.070819
717.461960	18532.657773
717.795088	18478.422520
718.128167	18143.090007
718.461198	17690.669135
718.794180	17561.557623
719.127113	17225.899956
719.459997	17038.966409
719.792833	16668.507137
720.125619	16705.418465
720.458357	16380.322015
720.791046	16238.267341
721.123686	16080.496870
721.456278	15853.859196
721.788821	15863.523088
722.121315	15589.213742
722.453761	15687.019689
722.786158	15566.152984
723.118506	15660.258723
723.450805	15540.440579
723.783056	15722.048146
724.115259	15617.978566
724.447412	15613.255005
724.779518	15814.510469
725.111574	15879.506066
725.443582	16140.148843
725.775542	16097.054540
726.107453	16610.717870
726.439315	16533.666354
726.771129	16942.166173
727.102895	17367.173251
727.434612	17629.260319
727.766281	17799.716854
728.097901	18113.236294
728.429473	18199.235858
728.760996	18220.257470
729.092471	18337.983535
729.423897	18233.316579
729.755276	18109.319317
730.086606	18221.343838
730.417887	18799.617117
730.749120	19351.958699
731.080305	19568.844261
731.411442	19965.419232
731.742530	20086.517829
732.073570	20242.478526
732.404562	20572.422046
732.735506	20405.423742
733.066401	20208.748166
733.397249	19703.382575
733.728048	19082.249407
734.058798	18228.184684
734.389501	17467.063715
734.720156	16959.106971
735.050762	16378.940739
735.381320	16004.440982
735.711831	15724.631738
736.042293	15364.698394
736.372707	15394.310132
736.703073	15176.305434
737.033391	15374.311874
737.363661	15379.116094
737.693883	15501.389281
738.024056	15700.472008
738.354182	15911.535037
738.684260	16274.936694
739.014290	16559.033440
739.344272	16770.315759
739.674207	17122.377341
740.004093	17293.625337
740.333931	17344.286413
740.663722	17424.148372
740.993464	17471.164693
741.323159	17320.789595
741.652806	17024.412598
741.982405	16858.793050
742.311956	16495.419119
742.641460	16394.243162
742.970915	16066.769808
743.300323	15720.563526
743.629683	15501.180073
743.958996	15192.611046
744.288260	14876.465165
744.617477	14571.490480
744.946647	14533.843143
745.275768	14224.565834
745.604842	14024.069064
745.933869	13846.403679
746.262847	13816.791941
746.591778	13733.938057
746.920662	13610.472637
747.249498	13624.474442
747.578286	13782.600315
747.907027	13951.794041
748.235720	14221.210947
748.564365	14285.621769
748.892963	14208.449266
749.221514	14309.322754
749.550017	14178.761911
749.878473	14155.897757
750.206881	13925.206996
750.535242	13843.522659
750.863555	13766.153551
751.191821	13667.467923
751.520039	13686.946941
751.848210	13618.818268
752.176334	13659.974248
752.504411	13584.999687
752.832440	13414.391917
753.160421	13526.910471
753.488356	13410.840425
753.816243	13327.563084
754.144082	13159.387671
754.471875	13108.025875
754.799620	13075.618817
755.127318	13051.587637
755.454969	13043.068087
755.782572	13008.828570
756.110129	13027.243905
756.437638	12930.662959
756.765100	12931.908124
757.092515	12966.072024
757.419882	13005.254392
757.747203	13011.155063
758.074477	13102.490688
758.401703	13083.528388
758.728882	13281.552473
759.056014	13325.037466
759.383099	13488.718690
759.710138	13611.972381
760.037129	13743.654881
760.364073	13793.542139
760.690970	13824.066326
761.017820	13839.454448
761.344623	14058.142222
761.671379	14448.796358
761.998088	15139.227747
762.324751	16911.831030
762.651366	20309.576284
762.977935	24770.037098
763.304456	27714.176808
763.630931	28760.929555
763.957359	27571.731445
764.283740	25322.635780
764.610074	23072.410896
764.936362	20448.518046
765.262602	18579.908508
765.588796	16646.590720
765.914943	15376.366145
766.241044	14271.763637
766.567097	13484.393380
766.893104	12761.174326
767.219064	12302.905715
767.544978	11825.160606
767.870845	11442.201792
768.196665	11224.625592
768.522438	10986.917544
768.848165	10789.863882
769.173846	10584.036091
769.499479	10456.252923
769.825066	10286.237489
770.150607	10055.859279
770.476101	9976.261980
770.801548	9854.235810
771.126949	9694.060708
771.452303	9582.580632
771.777611	9383.245847
772.102872	9378.504642
772.428087	9234.700688
772.753256	9071.125327
773.078378	8986.870003
773.403453	8804.798649
773.728482	8691.319756
774.053465	8619.316955
774.378401	8519.958333
774.703291	8392.797748
775.028135	8273.622351
775.352932	8240.388544
775.677683	8132.676730
776.002388	8029.073457
776.327046	8039.617030
776.651658	7940.636495
776.976224	7836.176226
777.300743	7839.044642
777.625216	7754.834688
777.949643	7709.860034
778.274024	7726.596665
778.598359	7636.760782
778.922647	7651.952300
779.246889	7598.511028
779.571086	7608.764735
779.895236	7613.349664
780.219339	7629.945143
780.543397	7627.414483
780.867409	7709.613017
781.191374	7718.104841
781.515294	7687.305912
781.839167	7778.964171
782.162995	7750.181703
782.486776	7695.016356
782.810511	7650.129923
783.134201	7560.120121
783.457844	7562.539874
783.781441	7503.134917
784.104993	7436.596728
784.428498	7415.093686
784.751958	7395.528968
785.075372	7373.665484
785.398739	7313.237173
785.722061	7364.425049
786.045337	7366.013012
786.368568	7521.618308
786.691752	7550.456229
787.014891	7887.351499
787.337983	8246.851303
787.661030	8835.970624
787.984031	9459.500861
788.306987	9865.497748
788.629897	10062.785824
788.952760	10012.477629
789.275579	9796.070977
789.598351	9401.063806
789.921078	9050.380979
790.243759	8636.575345
790.566395	8347.031633
790.888984	8096.577028
791.211529	7890.303095
791.534027	7666.770771
791.856480	7463.697971
792.178888	7390.434882
792.501249	7287.648276
792.823566	7139.080431
793.145836	7139.392982
793.468062	7113.909950
793.790241	7061.696199
794.112375	7130.986858
794.434464	7285.594006
794.756507	7323.727814
795.078505	7485.034655
795.400457	7795.027808
795.722364	8144.619224
796.044226	8429.502389
796.366042	8707.267446
796.687812	8657.062595
797.009538	8731.311229
797.331218	8627.632338
797.652852	8545.348105
797.974442	8387.333138
798.295986	8301.545302
798.617484	8112.902804
798.938938	7969.033315
799.260346	7867.070937
799.581709	7666.150709
799.903026	7590.145233
800.224299	7479.582647
800.545526	7311.135012
800.866708	7224.611167
801.187845	7150.228942
801.508936	7044.914197
801.829983	7007.942375
802.150984	6854.771957
802.471940	6810.981974
802.792851	6795.480426
803.113717	6762.927175
803.434538	6728.274283
803.755314	6674.649009
804.076045	6673.968453
804.396731	6621.061544
804.717372	6653.508931
805.037967	6649.423075
805.358518	6694.334715
805.679024	6778.915194
805.999485	6781.541635
806.319901	6825.170301
806.640272	6850.081163
806.960598	6935.942095
807.280879	6934.202897
807.601115	7010.856162
807.921306	6961.334387
808.241453	6967.524924
808.561554	6994.598441
808.881611	6956.585620
809.201623	6964.006199
809.521590	6905.359936
809.841513	6892.298306
810.161390	6931.329440
810.481223	6796.108049
810.801011	6790.343490
811.120755	6763.421208
811.440453	6683.211409
811.760107	6650.932901
812.079716	6621.666482
812.399281	6553.389095
812.718801	6546.061777
813.038276	6502.952350
813.357707	6444.512774
813.677093	6480.715821
813.996434	6388.669393
814.315731	6432.217400
814.634983	6421.883035
814.954191	6434.180930
815.273354	6544.950203
815.592473	6606.452280
815.911547	6739.170737
816.230577	6814.425082
816.549562	6960.699202
816.868502	7055.677061
817.187399	7156.729510
817.506250	7311.482851
817.825058	7342.987542
818.143821	7607.204498
818.462539	7884.818319
818.781213	8244.023216
819.099843	8795.399418
819.418429	9795.256831
819.736970	10760.887329
820.055466	11940.683687
820.373919	13460.266417
820.692327	15824.859958
821.010691	19956.783735
821.329011	28952.339646
821.647286	41936.297683
821.965517	55369.220882
822.283704	60768.717588
822.601847	62745.843003
822.919945	60062.827500
823.237999	55862.356634
823.556010	49718.137832
823.873976	43001.322092
824.191897	36481.872565
824.509775	31639.007465
824.827609	27107.720960
825.145398	24521.097359
825.463144	23150.919306
825.780845	23462.427325
826.098502	25224.582817
826.416116	28992.999072
826.733685	32622.433236
827.051210	33766.513019
827.368692	31968.421663
827.686129	28027.396300
828.003522	23927.514097
828.320872	20232.804552
828.638177	17387.655459
828.955439	15243.415794
829.272656	13424.317949
829.589830	11961.266718
829.906960	10691.389982
830.224046	9752.386858
830.541088	9007.420266
830.858086	8546.426912
831.175041	8173.066455
831.491952	8050.536170
831.808819	8091.805576
832.125642	8494.079570
832.442421	9387.692145
832.759157	11176.701863
833.075849	14086.957458
833.392497	17293.736243
833.709101	19460.948446
834.025662	19296.551377
834.342179	17609.524202
834.658653	15426.490337
834.975083	13506.115712
835.291469	11898.602656
835.607811	10584.368807
835.924110	9672.950877
836.240366	8807.344432
836.556578	8007.595621
836.872746	7363.038732
837.188871	6864.705550
837.504952	6443.363391
837.820990	6136.362163
838.136984	5919.133803
838.452935	5820.196118
838.768842	5851.322722
839.084706	6285.660976
839.400526	7481.722617
839.716303	9052.175630
840.032037	10150.161623
840.347727	10072.686650
840.663373	9098.892003
840.978977	8064.595948
841.294537	7255.732731
841.610054	6658.615619
841.925527	6226.863478
842.240957	5867.938365
842.556344	5529.593763
842.871687	5253.615796
843.186987	4972.168176
843.502244	4744.882714
843.817458	4582.489505
844.132629	4445.269297
844.447756	4353.905945
844.762840	4273.096249
845.077881	4198.562789
845.392879	4138.333604
845.707833	4090.601439
846.022745	4040.499931
846.337613	4014.328781
846.652438	3973.303871
846.967221	3954.056746
847.281960	3920.719595
847.596656	3903.249477
847.911309	3887.390007
848.225919	3864.188096
848.540485	3845.341742
848.855009	3831.191223
849.169490	3809.841937
849.483928	3796.477838
849.798323	3792.467600
850.112675	3770.367182
850.426984	3779.247174
850.741251	3763.969957
851.055474	3760.335286
851.369654	3765.147067
851.683792	3762.669340
851.997887	3766.314094
852.311938	3768.426338
852.625947	3768.615381
852.939914	3757.280346
853.253837	3765.804938
853.567718	3766.422479
853.881555	3757.078700
854.195350	3775.904889
854.509103	3767.493724
854.822812	3765.199999
855.136479	3755.997373
855.450103	3770.934312
855.763685	3752.962598
856.077224	3757.517281
856.390720	3774.367337
856.704173	3794.332827
857.017584	3806.431596
857.330953	3821.088751
857.644278	3840.497193
857.957561	3846.652442
858.270802	3845.931557
858.584000	3848.678986
858.897155	3843.169005
859.210268	3824.055470
859.523339	3800.987150
859.836367	3805.163746
860.149352	3796.513126
860.462295	3789.576498
860.775195	3779.005199
861.088054	3772.550001
861.400869	3773.119652
861.713642	3771.927419
862.026373	3783.774130
862.339062	3788.258237
862.651708	3802.902789
862.964312	3840.550126
863.276873	3850.246785
863.589392	3910.975045
863.901869	3956.826860
864.214303	3999.943848
864.526696	4033.414589
864.839045	4076.289603
865.151353	4104.356227
865.463619	4111.489460
865.775842	4125.110657
866.088023	4140.155981
866.400162	4128.591574
866.712258	4141.358296
867.024313	4137.705980
867.336325	4135.387049
867.648296	4144.115807
867.960224	4143.563801
868.272110	4155.909587
868.583954	4156.522087
868.895755	4172.399201
869.207515	4165.258407
869.519233	4209.643246
869.830909	4219.685224
870.142542	4247.240171
870.454134	4263.455042
870.765684	4286.757776
871.077191	4328.606915
871.388657	4352.824618
871.700081	4386.497005
872.011463	4431.058284
872.322803	4466.127071
872.634101	4497.225949
872.945357	4539.596847
873.256571	4589.161472
873.567744	4619.360504
873.878874	4638.900016
874.189963	4674.631715
874.501010	4685.702088
874.812015	4682.707643
875.122979	4725.441504
875.433900	4727.452925
875.744780	4740.131427
876.055618	4768.717289
876.366415	4768.692084
876.677169	4788.077841
876.987882	4836.732537
877.298554	4885.672059
877.609183	4969.977795
877.919771	5073.339093
878.230317	5216.308737
878.540822	5431.223207
878.851285	5756.654894
879.161707	6212.478545
879.472087	6975.580688
879.782425	8206.254891
880.092722	10379.972703
880.402977	13697.326677
880.713191	17458.284545
881.023363	21164.697129
881.333494	23370.698490
881.643583	24594.055458
881.953631	24594.514203
882.263637	23756.986986
882.573602	22267.376436
882.883526	20714.053263
883.193408	19048.687925
883.503248	17347.104418
883.813048	15800.337265
884.122806	14384.766142
884.432522	12906.145307
884.742197	11637.901905
885.051831	10556.284539
885.361424	9550.647443
885.670975	8732.879028
885.980485	8038.152575
886.289954	7455.705222
886.599382	6992.289592
886.908768	6617.353775
887.218113	6256.513024
887.527417	5964.915042
887.836680	5695.503177
888.145901	5479.489735
888.455082	5313.761802
888.764221	5164.291591
889.073319	5036.087487
889.382376	4963.071414
889.691392	4895.093975
890.000366	4872.928022
890.309300	4857.277760
890.618193	4857.255074
890.927044	4846.487170
891.235855	4867.334862
891.544625	4901.065222
891.853353	4961.279284
892.162041	5078.165998
892.470687	5265.391931
892.779293	5517.270662
893.087858	5885.698350
893.396381	6466.343491
893.704864	7264.307733
894.013306	8411.757528
894.321707	9575.568387
894.630068	10394.103058
894.938387	10596.883471
895.246665	10363.964519
895.554903	9759.542776
895.863100	9067.808248
896.171256	8508.850151
896.479371	8005.357349
896.787446	7508.458376
897.095480	7083.829385
897.403473	6762.148317
897.711425	6444.822805
898.019336	6181.316653
898.327207	5906.233490
898.635038	5679.434499
898.942827	5432.796047
899.250576	5240.060133
899.558284	5048.163571
899.865952	4926.487761
900.173579	4779.782622
900.481165	4672.232125
900.788711	4580.132765
901.096216	4506.088298
901.403681	4442.970531
901.711105	4418.694854
902.018489	4405.040889
902.325832	4470.349037
902.633135	4595.967029
902.940397	4939.614925
903.247619	5732.779989
903.554800	7170.733836
903.861941	9082.805681
904.169041	10604.868659
904.476101	11229.596170
904.783121	10871.470080
905.090100	10135.811979
905.397039	9306.075864
905.703938	8548.133342
906.010796	7857.465018
906.317614	7303.348949
906.624391	6774.423526
906.931129	6347.145408
907.237826	5949.622701
907.544483	5574.646555
907.851099	5200.439184
908.157675	4845.794011
908.464211	4521.990617
908.770707	4287.130821
909.077163	4087.286880
909.383578	3945.166671
909.689954	3828.423630
909.996289	3762.228239
910.302584	3694.220553
910.608839	3659.759225
910.915054	3627.024493
911.221229	3617.408492
911.527363	3628.564565
911.833458	3643.425887
912.139513	3666.922705
912.445527	3699.365050
912.751502	3781.432514
913.057436	3883.470509
913.363331	4015.248792
913.669186	4224.275195
913.975000	4480.537209
914.280775	4904.152929
914.586510	5479.537626
914.892205	6274.348626
915.197859	7310.446894
915.503475	8530.511989
915.809050	9582.648688
916.114585	10223.611235
916.420081	10482.683692
916.725536	10451.511718
917.030952	10002.100414
917.336328	9596.615204
917.641665	9191.802989
917.946961	8713.236172
918.252218	8291.437788
918.557435	7783.881816
918.862612	7349.130188
919.167750	6981.587223
919.472848	6553.832716
919.777906	6187.759247
920.082925	5828.551830
920.387904	5464.754442
920.692843	5195.995407
920.997743	4951.040701
921.302603	4718.429259
921.607423	4555.335329
921.912204	4391.369280
922.216946	4273.297895
922.521647	4151.952281
922.826310	4049.717681
923.130932	3956.499185
923.435516	3856.568392
923.740059	3787.053401
924.044564	3709.175136
924.349028	3650.980056
924.653454	3588.810026
924.957840	3518.289325
925.262186	3470.993219
925.566493	3410.370824
925.870761	3355.379397
926.174989	3316.350784
926.479178	3281.045063
926.783328	3239.972262
927.087438	3212.558467
927.391509	3176.252077
927.695541	3149.140752
927.999533	3121.600929
928.303486	3100.954883
928.607400	3087.069025
928.911275	3074.355235
929.215110	3054.218346
929.518906	3045.272818
929.822663	3046.618806
930.126381	3044.814073
930.430060	3050.820608
930.733699	3052.222049
931.037299	3061.870817
931.340861	3058.462997
931.644383	3068.502455
931.947866	3065.971796
932.251309	3060.003070
932.554714	3059.980385
932.858080	3055.231618
933.161407	3046.434804
933.464694	3039.820810
933.767943	3034.330994
934.071153	3026.882689
934.374323	3017.150742
934.677455	3011.328209
934.980548	3000.855212
935.283602	2999.264728
935.586617	2995.408245
935.889593	3005.944257
936.192530	3011.020698
936.495428	3024.137781
936.798287	3043.684855
937.101108	3077.445462
937.403890	3129.339100
937.706632	3191.022658
938.009336	3268.865635
938.312002	3341.375072
938.614628	3399.615522
938.917216	3458.269347
939.219765	3488.712875
939.522275	3518.168337
939.824747	3523.547248
940.127179	3525.077238
940.429573	3516.940816
940.731929	3516.197246
941.034246	3499.548835
941.336524	3488.760766
941.638763	3474.141420
941.940964	3457.218267
942.243126	3416.006834
942.545250	3394.649986
942.847335	3357.549614
943.149381	3322.957216
943.451389	3289.244500
943.753359	3254.097575
944.055290	3231.286354
944.357182	3206.390616
944.659036	3193.865869
944.960851	3183.740712
945.262628	3167.603978
945.564367	3168.347548
945.866067	3163.092145
946.167729	3156.614263
946.469352	3157.814057
946.770937	3153.854231
947.072484	3140.661531
947.373992	3140.543064
947.675462	3135.154071
947.976893	3118.548510
948.278286	3110.631378
948.579641	3103.737600
948.880958	3095.374326
949.182236	3099.364399
949.483476	3095.575972
949.784678	3090.444077
950.085841	3093.695622
950.386967	3104.425718
950.688054	3120.149076
950.989103	3139.214720
951.290114	3160.863955
951.591087	3186.893953
951.892021	3217.138356
952.192917	3243.720360
952.493776	3268.729524
952.794596	3274.864608
953.095378	3283.966412
953.396122	3277.231430
953.696828	3271.539967
953.997496	3256.650920
954.298126	3236.307343
954.598718	3216.793037
954.899272	3190.805889
955.199788	3165.269924
955.500266	3132.633494
955.800706	3097.158894
956.101108	3060.635735
956.401472	3026.053419
956.701798	2998.697598
957.002087	2953.579271
957.302337	2927.758481
957.602550	2899.941394
957.902724	2871.438710
958.202861	2847.475585
958.502960	2824.419868
958.803022	2801.495221
959.103045	2783.495781
959.403031	2768.253853
959.702979	2754.488982
960.002889	2740.333422
960.302762	2729.162225
960.602596	2714.164792
960.902393	2707.180274
961.202153	2696.518233
961.501875	2690.622604
961.801559	2685.218487
962.101205	2678.574246
962.400814	2671.128462
962.700385	2669.245591
962.999918	2658.946514
963.299414	2653.418889
963.598873	2650.767242
963.898293	2645.201808
964.197677	2650.744557
964.497022	2643.268525
964.796331	2640.432876
965.095601	2640.440438
965.394835	2636.944398
965.694030	2633.541619
965.993189	2631.973820
966.292309	2633.097997
966.591393	2633.811321
966.890439	2629.619601
967.189447	2631.194962
967.488419	2631.953656
967.787353	2634.504479
968.086249	2632.157822
968.385108	2635.805097
968.683930	2637.085550
968.982714	2641.221817
969.281462	2646.280615
969.580172	2649.834628
969.878844	2655.069867
970.177480	2664.998419
970.476078	2671.511590
970.774639	2680.656243
971.073162	2686.544311
971.371649	2696.276258
971.670098	2697.541588
971.968510	2702.580221
972.266885	2707.664225
972.565223	2715.631768
972.863524	2715.200750
973.161788	2721.676112
973.460014	2721.260217
973.758204	2723.294322
974.056356	2727.554097
974.354471	2728.428737
974.652550	2725.882955
974.950591	2726.291288
975.248595	2724.748695
975.546563	2726.245918
975.844493	2719.682335
976.142386	2711.918958
976.440243	2708.864019
976.738062	2705.088195
977.035845	2695.666278
977.333590	2690.562110
977.631299	2684.943744
977.928971	2682.450894
978.226606	2672.988648
978.524204	2671.569563
978.821765	2665.999088
979.119290	2666.001609
979.416777	2664.731238
979.714228	2673.180212
980.011642	2674.107784
980.309020	2684.542972
980.606360	2697.854139
980.903664	2720.453632
981.200931	2757.049888
981.498162	2803.549491
981.795356	2881.054711
982.092513	2966.688792
982.389633	3071.060841
982.686717	3167.629184
982.983764	3242.313878
983.280775	3290.270375
983.577749	3299.525933
983.874686	3285.181330
984.171587	3250.268819
984.468451	3212.235834
984.765279	3170.215296
985.062070	3121.835342
985.358824	3077.657191
985.655543	3020.901360
985.952224	2971.460244
986.248869	2906.212589
986.545478	2847.319310
986.842050	2796.640590
987.138586	2748.132087
987.435086	2708.811087
987.731549	2677.825635
988.027975	2655.016934
988.324366	2639.210397
988.620719	2620.898405
988.917037	2612.494802
989.213318	2602.994747
989.509563	2594.691967
989.805772	2589.928077
990.101944	2587.624269
990.398080	2587.258786
990.694180	2580.964905
990.990244	2582.247879
991.286271	2582.147056
991.582262	2584.559248
991.878217	2585.380956
992.174136	2591.803386
992.470019	2593.030907
992.765865	2599.264293
993.061676	2602.329315
993.357450	2610.624534
993.653188	2619.640637
993.948890	2632.740076
994.244556	2652.574495
994.540186	2674.211128
994.835780	2707.429811
995.131337	2744.799884
995.426859	2786.810340
995.722345	2835.094512
996.017795	2880.447252
996.313208	2920.065680
996.608586	2946.488888
996.903928	2960.893985
997.199234	2960.462967
997.494504	2955.479786
997.789738	2941.412446
998.084936	2918.525608
998.380099	2887.484703
998.675225	2857.641072
998.970316	2825.065136
999.265371	2790.596247
999.560390	2755.686256
999.855373	2724.647872
1000.150320	2698.837164
1000.445232	2671.859429
1000.740108	2651.659526
1001.034948	2635.454737
1001.329752	2618.032509
1001.624521	2608.310644
1001.919254	2593.451843
1002.213951	2588.362798
1002.508613	2577.678073
1002.803239	2573.561971
1003.097829	2565.917061
1003.392384	2561.773232
1003.686903	2554.934907
1003.981386	2554.345092
1004.275834	2548.451983
1004.570246	2546.780841
1004.864623	2545.409647
1005.158964	2544.293031
1005.453270	2540.028215
1005.747540	2537.371527
1006.041775	2534.619057
1006.335974	2536.338091
1006.630138	2534.757689
1006.924266	2535.758358
1007.218359	2534.351876
1007.512416	2533.678882
1007.806438	2528.725948
1008.100425	2531.884231
1008.394376	2526.323838
1008.688292	2532.476567
1008.982172	2530.339117
1009.276017	2530.298788
1009.569827	2528.811648
1009.863602	2529.409025
1010.157341	2525.769312
1010.451045	2528.322656
1010.744714	2525.973478
1011.038347	2524.693025
1011.331945	2523.820906
1011.625508	2522.870648
1011.919036	2525.086235
1012.212528	2521.990967
1012.505986	2521.534742
1012.799408	2520.486182
1013.092795	2520.483662
1013.386147	2518.711696
1013.679464	2518.847807
1013.972745	2517.784124
1014.265992	2516.135667
1014.559204	2517.670698
1014.852380	2519.765297
1015.145521	2518.777231
1015.438628	2517.050636
1015.731699	2518.164731
1016.024736	2518.157169
1016.317737	2523.558766
1016.610703	2519.031809
1016.903635	2525.250073
1017.196531	2525.565145
1017.489393	2523.120185
1017.782219	2528.894827
1018.075011	2529.028418
1018.367768	2526.822913
1018.660490	2530.114786
1018.953177	2530.114786
1019.245829	2530.114786
