Dividing Wavelength (nm)	Counts (n)	Blue Motor Position (mm): 6.200000	Red Motor Position (mm): 0.000000	
326.493990	2142.550878
326.888308	2142.550878
327.282561	2142.550878
327.676750	2109.135590
328.070874	2110.771445
328.464933	2113.014758
328.858929	2119.785028
329.252859	2127.167798
329.646726	2137.663480
330.040528	2151.836684
330.434265	2170.125990
330.827938	2189.357992
331.221547	2205.451876
331.615091	2225.989536
332.008571	2240.777761
332.401986	2265.013108
332.795338	2284.028341
333.188625	2302.269756
333.581847	2318.789617
333.975006	2339.274346
334.368100	2358.571883
334.761129	2373.649974
335.154095	2391.203271
335.546996	2410.989800
335.939833	2423.466656
336.332606	2440.510797
336.725315	2446.867692
337.117960	2460.982923
337.510540	2468.126238
337.903056	2480.446818
338.295508	2487.897643
338.687896	2495.441730
339.080220	2503.389109
339.472480	2508.334481
339.864676	2515.472755
340.256807	2516.884278
340.648875	2522.109434
341.040879	2523.904085
341.432818	2525.436595
341.824694	2525.638242
342.216506	2523.316790
342.608253	2528.355423
342.999937	2526.578417
343.391557	2528.307532
343.783113	2525.829805
344.174605	2525.295443
344.566033	2523.808303
344.957397	2521.665812
345.348697	2523.026924
345.739934	2521.731347
346.131106	2518.464680
346.522215	2514.835049
346.913260	2512.203567
347.304241	2510.582836
347.695159	2510.323216
348.086012	2508.528565
348.476802	2509.529234
348.867528	2504.858605
349.258191	2505.128307
349.648789	2503.288286
350.039324	2500.278717
350.429796	2501.551608
350.820203	2499.315857
351.210548	2498.002636
351.600828	2495.121617
351.991045	2495.270331
352.381198	2495.895434
352.771288	2495.101452
353.161314	2494.632625
353.551276	2495.966010
353.941175	2494.988026
354.331010	2493.410145
354.720782	2495.824858
355.110490	2494.463746
355.500135	2494.428458
355.889717	2493.553818
356.279235	2494.604898
356.668689	2494.267141
357.058080	2493.939466
357.447408	2496.016422
357.836672	2492.595999
358.225873	2493.258910
358.615010	2493.911740
359.004084	2496.911226
359.393095	2497.039776
359.782043	2498.957935
360.170927	2497.198572
360.559748	2500.364417
360.948505	2499.409118
361.337199	2498.854591
361.725830	2501.115549
362.114398	2502.978255
362.502903	2503.479850
362.891344	2503.570591
363.279722	2502.932885
363.668037	2503.563029
364.056289	2503.658811
364.444478	2499.905672
364.832603	2503.442041
365.220665	2504.535972
365.608665	2502.824500
365.996601	2504.505725
366.384474	2507.527896
366.772284	2505.881960
367.160031	2507.114522
367.547715	2507.948833
367.935336	2506.572598
368.322893	2508.659635
368.710388	2508.952022
369.097820	2511.686848
369.485189	2505.884480
369.872495	2507.638802
370.259738	2508.110150
370.646918	2510.010665
371.034035	2510.466889
371.421090	2510.741632
371.808081	2508.715088
372.195010	2508.455469
372.581875	2510.855058
372.968678	2510.164420
373.355418	2510.877743
373.742096	2509.919924
374.128710	2512.692558
374.515262	2509.733401
374.901751	2511.535614
375.288177	2508.500839
375.674540	2512.246416
376.060841	2510.729029
376.447079	2512.556447
376.833254	2513.617610
377.219367	2512.032167
377.605417	2512.785820
377.991404	2508.667197
378.377329	2511.354132
378.763191	2510.179543
379.148991	2511.747342
379.534727	2515.510563
379.920402	2513.867147
380.306013	2515.747498
380.691563	2512.753052
381.077049	2515.422343
381.462474	2514.958557
381.847835	2512.558968
382.233134	2516.949813
382.618371	2516.244051
383.003545	2515.908815
383.388657	2519.026768
383.773706	2515.185409
384.158693	2517.605163
384.543618	2519.649351
384.928480	2516.249093
385.313280	2517.204391
385.698017	2516.415451
386.082692	2519.394773
386.467305	2515.923938
386.851856	2518.623476
387.236344	2518.620955
387.620770	2518.273116
388.005133	2516.763290
388.389435	2516.864113
388.773674	2518.124402
389.157851	2517.552231
389.541965	2514.565347
389.926018	2519.853518
390.310008	2522.858045
390.693936	2522.421985
391.077802	2518.953672
391.461606	2521.819568
391.845348	2521.191944
392.229027	2519.412417
392.612645	2518.598270
392.996200	2523.009280
393.379694	2520.592047
393.763125	2521.476769
394.146494	2522.968951
394.529801	2524.791328
394.913047	2520.138343
395.296230	2521.746471
395.679351	2523.347037
396.062410	2523.914167
396.445408	2520.385359
396.828343	2522.873169
397.211217	2518.885616
397.594028	2519.409896
397.976778	2518.787313
398.359466	2520.748322
398.742092	2520.322345
399.124656	2525.091276
399.507158	2523.992305
399.889598	2528.047913
400.271977	2525.275278
400.654294	2527.377440
401.036549	2524.937521
401.418742	2523.583971
401.800874	2523.606657
402.182944	2522.462315
402.564952	2523.273940
402.946898	2523.611698
403.328783	2525.887779
403.710606	2526.069260
404.092367	2525.771832
404.474067	2526.928777
404.855705	2527.614374
405.237282	2526.258303
405.618797	2526.512882
406.000250	2527.304343
406.381642	2527.410207
406.762972	2527.228726
407.144240	2529.015815
407.525447	2529.552698
407.906593	2528.710825
408.287677	2526.044054
408.668700	2526.270906
409.049661	2526.280989
409.430560	2529.393901
409.811399	2524.995494
410.192176	2530.785260
410.572891	2527.417769
410.953545	2529.330887
411.334138	2529.061185
411.714669	2530.490352
412.095139	2531.911958
412.475547	2531.357431
412.855894	2529.058664
413.236180	2532.345497
413.616405	2531.221319
413.996568	2529.799714
414.376670	2530.777698
414.756711	2532.093439
415.136691	2530.649148
415.516609	2532.083357
415.896466	2531.556556
416.276262	2534.490508
416.655997	2529.310722
417.035670	2528.768798
417.415283	2527.271575
417.794834	2526.906092
418.174324	2530.835671
418.553753	2528.131092
418.933121	2534.223327
419.312428	2533.245343
419.691674	2535.322298
420.070859	2528.972965
420.449983	2533.346166
420.829045	2534.029242
421.208047	2533.119314
421.586988	2533.865405
421.965867	2533.048738
422.344686	2533.638553
422.723444	2533.784746
423.102141	2531.364992
423.480777	2534.563604
423.859352	2534.888759
424.237866	2533.172246
424.616319	2533.784746
424.994712	2536.028060
425.373044	2533.724252
425.751314	2537.242978
426.129524	2530.850795
426.507673	2534.908923
426.885762	2533.147040
427.263789	2537.300951
427.641756	2534.278779
428.019662	2535.279448
428.397508	2533.913296
428.775292	2536.708615
429.153016	2534.871115
429.530679	2538.233564
429.908282	2532.101001
430.285824	2537.845396
430.663305	2535.196269
431.040726	2537.454706
431.418086	2535.186187
431.795385	2535.435724
432.172624	2536.285158
432.549802	2536.746424
432.926920	2536.136444
433.303977	2535.644932
433.680974	2538.515869
434.057910	2535.670138
434.434786	2539.425797
434.811601	2536.406146
435.188355	2536.040662
435.565050	2538.808256
435.941683	2537.888245
436.318257	2538.079809
436.694770	2530.225692
437.071222	2537.132072
437.447614	2532.595034
437.823946	2534.621578
438.200218	2537.610982
438.576429	2539.178781
438.952580	2537.941178
439.328670	2535.866743
439.704700	2537.527803
440.080670	2539.297248
440.456580	2540.171888
440.832429	2537.870601
441.208218	2537.857998
441.583947	2540.287835
441.959616	2540.091230
442.335224	2540.945705
442.710773	2538.185673
443.086261	2538.803215
443.461689	2537.931095
443.837057	2539.060314
444.212365	2538.281455
444.587612	2541.616179
444.962800	2539.685417
445.337927	2540.207176
445.712995	2540.686086
446.088002	2540.676003
446.462949	2541.946374
446.837837	2538.039480
447.212664	2540.653318
447.587431	2543.947712
447.962139	2538.309182
448.336786	2541.003678
448.711374	2541.326312
449.085901	2539.516538
449.460369	2542.871426
449.834776	2540.434028
450.209124	2543.143648
450.583412	2539.750952
450.957640	2539.642567
451.331808	2540.300437
451.705917	2539.032587
452.079965	2543.587270
452.453954	2544.484595
452.827883	2542.021992
453.201752	2541.462423
453.575562	2541.578370
453.949311	2540.839841
454.323001	2539.135931
454.696632	2539.355221
455.070202	2543.715819
455.443713	2542.271529
455.817164	2537.832793
456.190556	2541.369162
456.563888	2540.411343
456.937160	2539.708102
457.310373	2541.611138
457.683526	2543.738504
458.056619	2543.267157
458.429653	2543.385624
458.802628	2543.473844
459.175542	2541.517876
459.548398	2543.645243
459.921194	2542.296734
460.293930	2545.437373
460.666607	2544.124153
461.039224	2543.650284
461.411782	2543.501570
461.784280	2543.748587
462.156719	2542.790767
462.529099	2541.555685
462.901419	2544.819832
463.273680	2542.947043
463.645882	2541.855633
464.018024	2542.384955
464.390106	2541.742208
464.762130	2544.673638
465.134094	2543.443597
465.505999	2545.036602
465.877845	2543.252033
466.249631	2544.502239
466.621358	2544.063659
466.993026	2546.138094
467.364634	2546.982487
467.736184	2546.496016
468.107674	2542.110212
468.479105	2540.083668
468.850477	2543.393185
469.221790	2545.331509
469.593043	2543.725902
469.964238	2546.117929
470.335373	2543.052908
470.706449	2544.396375
471.077467	2543.834286
471.448425	2545.893598
471.819324	2543.194060
472.190164	2545.545758
472.560945	2544.572815
472.931667	2545.732281
473.302330	2544.335881
473.672934	2547.100954
474.043479	2546.185985
474.413965	2542.334543
474.784393	2543.488967
475.154761	2542.780685
475.525070	2540.373534
475.895321	2543.042825
476.265513	2541.805222
476.635645	2544.872764
477.005719	2546.415357
477.375734	2546.080120
477.745691	2544.408978
478.115588	2545.260933
478.485427	2547.153886
478.855207	2543.907383
479.224928	2545.510470
479.594591	2546.778320
479.964194	2544.615665
480.333739	2546.798485
480.703226	2546.569112
481.072653	2546.884184
481.442022	2543.589790
481.811333	2546.062476
482.180584	2547.652960
482.549777	2547.995759
482.918912	2546.067518
483.287988	2547.463917
483.657005	2543.252033
484.025964	2546.556509
484.394864	2545.669266
484.763706	2549.228321
485.132489	2548.202446
485.501213	2547.284956
485.869879	2546.518701
486.238487	2547.879812
486.607036	2545.702034
486.975527	2546.208670
487.343959	2547.085831
487.712333	2546.627086
488.080648	2545.150027
488.448905	2545.659184
488.817104	2547.443752
489.185244	2547.874771
489.553326	2549.213197
489.921350	2544.504760
490.289315	2547.388300
490.657222	2547.496685
491.025070	2548.429298
491.392861	2552.615976
491.760593	2548.343598
492.128267	2548.777138
492.495883	2545.369318
492.863440	2545.568443
493.230939	2546.198587
493.598380	2549.445091
493.965763	2544.661036
494.333088	2547.284956
494.700354	2546.125491
495.067563	2546.732950
495.434713	2542.185829
495.801805	2548.648588
496.168839	2548.661191
496.535815	2547.809236
496.902733	2549.266130
497.269593	2549.566078
497.636395	2548.570450
498.003139	2546.271684
498.369825	2549.636654
498.736453	2548.174720
499.103023	2548.825029
499.469535	2547.632796
499.835989	2549.760163
500.202385	2547.884853
500.568723	2548.068856
500.935003	2547.237065
501.301226	2549.682025
501.667390	2548.799823
502.033497	2552.653785
502.399546	2549.152704
502.765537	2548.406613
503.131470	2548.187323
503.497345	2548.678835
503.863163	2547.957950
504.228923	2546.032229
504.594625	2551.154042
504.960269	2547.398382
505.325856	2548.073897
505.691385	2549.699669
506.056856	2551.383414
506.422270	2549.442570
506.787625	2548.477189
507.152924	2550.710420
507.518164	2548.688917
507.883347	2548.769576
508.248472	2552.621017
508.613540	2547.136242
508.978550	2551.239741
509.343503	2550.493651
509.708398	2549.019113
510.073236	2549.359391
510.438016	2548.273022
510.802738	2548.106664
511.167403	2550.773435
511.532010	2547.799154
511.896561	2550.410472
512.261053	2548.986346
512.625488	2547.950388
512.989866	2543.741025
513.354186	2547.965512
513.718449	2544.061138
514.082655	2550.937272
514.446803	2548.406613
514.810894	2549.107333
515.174927	2550.755791
515.538904	2547.942827
515.902822	2550.067673
516.266684	2551.665719
516.630488	2550.733105
516.994235	2550.284443
517.357925	2549.180430
517.721558	2553.941800
518.085133	2549.674463
518.448651	2551.537169
518.812112	2551.711089
519.175516	2550.075235
519.538863	2551.327962
519.902152	2552.351316
520.265385	2552.101779
520.628560	2550.874258
520.991678	2550.980122
521.354739	2550.896943
521.717743	2547.045501
522.080690	2553.039433
522.443580	2551.133877
522.806413	2549.397200
523.169189	2550.037426
523.531908	2550.884340
523.894569	2550.619679
524.257174	2550.977601
524.619722	2549.631613
524.982213	2552.794937
525.344647	2550.667570
525.707025	2550.614638
526.069345	2550.980122
526.431608	2550.347457
526.793815	2552.883158
527.155964	2552.005997
527.518057	2548.774617
527.880093	2551.191850
528.242072	2551.070863
528.603995	2548.948537
528.965860	2554.937428
529.327669	2550.995245
529.689421	2549.913918
530.051117	2554.481203
530.412755	2551.252344
530.774337	2549.722354
531.135862	2553.533466
531.497331	2551.340564
531.858743	2546.566592
532.220098	2548.361242
532.581396	2549.409803
532.942638	2550.014741
533.303824	2551.627910
533.664953	2554.221584
534.026025	2549.987015
534.387040	2550.917108
534.747999	2552.552962
535.108902	2550.750749
535.469748	2553.808209
535.830537	2551.864844
536.191270	2550.176058
536.551947	2551.542211
536.912567	2549.820657
537.273131	2552.361398
537.633638	2550.362581
537.994089	2551.970709
538.354483	2552.840308
538.714821	2554.599670
539.075103	2549.820657
539.435328	2551.562375
539.795497	2549.926521
540.155609	2551.514484
540.515665	2551.499361
540.875665	2549.916438
541.235609	2552.966337
541.595496	2551.033054
541.955328	2549.767724
542.315102	2551.837118
542.674821	2550.032385
543.034483	2551.401058
543.394090	2551.209494
543.753640	2555.227294
544.113134	2549.079607
544.472571	2552.132026
544.831953	2549.162786
545.191278	2552.157231
545.550548	2553.475493
545.909761	2551.209494
546.268918	2553.147818
546.628019	2553.402396
546.987064	2550.186140
547.346053	2553.009186
547.704986	2553.440205
548.063863	2551.711089
548.422684	2554.062787
548.781449	2549.639175
549.140158	2553.883827
549.498811	2554.415668
549.857408	2552.479865
550.215949	2550.778476
550.574434	2548.870399
550.932864	2548.968702
551.291237	2546.158258
551.649555	2553.367108
552.007817	2549.893753
552.366022	2554.206460
552.724173	2552.038764
553.082267	2552.066491
553.440305	2551.849721
553.798288	2552.038764
554.156215	2550.881819
554.514086	2552.767211
554.871902	2550.677653
555.229661	2552.132026
555.587365	2550.700338
555.945014	2550.332334
556.302606	2551.353167
556.660143	2551.983312
557.017625	2550.707900
557.375050	2552.860472
557.732421	2549.515667
558.089735	2553.394835
558.446994	2553.949362
558.804197	2551.224618
559.161345	2553.115051
559.518437	2554.493806
559.875474	2552.621017
560.232455	2549.314021
560.589381	2553.004145
560.946251	2557.039589
561.303065	2552.091696
561.659825	2553.863662
562.016528	2552.351316
562.373177	2551.292673
562.729770	2552.552962
563.086307	2552.563044
563.442789	2552.769732
563.799216	2551.471634
564.155587	2551.597663
564.511904	2554.052705
564.868164	2551.295194
565.224370	2553.495658
565.580520	2552.742005
565.936615	2551.312838
566.292654	2554.781152
566.648638	2555.769218
567.004567	2552.938610
567.360441	2554.508930
567.716260	2552.789896
568.072023	2552.729402
568.427732	2547.484082
568.783385	2551.159083
569.138982	2547.012734
569.494525	2549.999617
569.850013	2547.925183
570.205445	2552.192519
570.560823	2552.719320
570.916145	2552.971378
571.271412	2552.709238
571.626625	2554.365257
571.981782	2553.089845
572.336884	2552.505071
572.691931	2548.993907
573.046923	2554.677808
573.401860	2551.307797
573.756743	2552.631100
574.111570	2552.522715
574.466342	2551.501881
574.821059	2553.205791
575.175722	2551.771583
575.530330	2553.082283
575.884882	2554.098076
576.239380	2550.846531
576.593823	2554.440874
576.948211	2550.894422
577.302544	2552.673950
577.656823	2550.584391
578.011047	2553.351985
578.365216	2552.898281
578.719330	2554.040102
579.073389	2551.249824
579.427394	2553.830894
579.781344	2553.104968
580.135239	2555.665874
580.489080	2550.644885
580.842866	2555.567572
581.196597	2555.842315
581.550273	2553.775442
581.903895	2552.011038
582.257463	2553.528425
582.610975	2552.457180
582.964434	2552.552962
583.317837	2550.065153
583.671186	2556.172510
584.024481	2552.958775
584.377721	2553.901471
584.730906	2553.629248
585.084037	2554.738302
585.437113	2552.305945
585.790135	2553.215874
586.143103	2552.736964
586.496016	2555.423899
586.848874	2547.995759
587.201679	2550.889381
587.554428	2548.124308
587.907124	2552.739485
588.259765	2549.850903
588.612352	2550.972560
588.964884	2552.754608
589.317362	2553.304094
589.669786	2552.384083
590.022155	2554.564382
590.374470	2550.055070
590.726731	2552.484906
591.078937	2553.954403
591.431090	2554.302242
591.783188	2552.656306
592.135232	2554.196378
592.487222	2552.631100
592.839157	2553.566234
593.191038	2550.831408
593.542866	2555.159238
593.894639	2554.135884
594.246358	2553.704866
594.598022	2552.888199
594.949633	2552.096738
595.301190	2551.196892
595.652692	2554.670247
596.004141	2553.263765
596.355535	2554.151008
596.706876	2552.805020
597.058162	2553.641851
597.409395	2552.280740
597.760573	2551.333003
598.111698	2553.301573
598.462768	2551.191850
598.813785	2552.104299
599.164748	2552.908363
599.515657	2555.557490
599.866511	2553.505740
600.217312	2551.829556
600.568060	2554.365257
600.918753	2553.755277
601.269392	2551.753939
601.619978	2553.984650
601.970510	2554.771070
602.320988	2551.980791
602.671412	2551.557334
603.021783	2549.056922
603.372100	2549.924000
603.722363	2551.990873
604.072572	2554.307283
604.422728	2553.596481
604.772830	2551.665719
605.122878	2546.881664
605.472872	2551.035575
605.822813	2546.848896
606.172701	2550.849052
606.522534	2548.983825
606.872314	2553.762839
607.222041	2551.731254
607.571714	2554.791234
607.921333	2553.833415
608.270899	2554.955072
608.620411	2553.896429
608.969870	2554.705535
609.319276	2553.467931
609.668627	2556.003632
610.017926	2558.995557
610.367171	2558.448591
610.716362	2558.307439
611.065500	2558.622511
611.414585	2557.150494
611.763616	2556.285936
612.112594	2555.423899
612.461518	2555.272664
612.810389	2553.445246
613.159207	2554.040102
613.507971	2554.844166
613.856682	2554.307283
614.205340	2554.655123
614.553945	2556.779969
614.902496	2553.455328
615.250994	2552.996583
615.599439	2552.502550
615.947830	2551.264947
616.296169	2550.206305
616.644454	2554.634958
616.992686	2551.222097
617.340864	2556.122099
617.688990	2552.870555
618.037063	2553.324258
618.385082	2553.626728
618.733048	2554.559341
619.080961	2554.047664
619.428821	2553.944320
619.776628	2554.788714
620.124382	2554.203940
620.472083	2553.674619
620.819731	2549.051881
621.167326	2552.245452
621.514868	2553.909032
621.862357	2550.879299
622.209793	2554.967675
622.557176	2552.210163
622.904506	2552.946172
623.251783	2548.431819
623.599007	2552.363919
623.946179	2550.660009
624.293297	2551.101110
624.640363	2552.762170
624.987376	2551.305276
625.334336	2551.832077
625.681243	2553.082283
626.028097	2552.033723
626.374899	2554.317366
626.721647	2550.901984
627.068343	2555.234856
627.414987	2552.333672
627.761577	2553.470452
628.108115	2553.346944
628.454600	2554.529094
628.801032	2554.758467
629.147412	2555.449105
629.493739	2554.294681
629.840014	2553.445246
630.186236	2552.678991
630.532405	2553.117571
630.878521	2553.034392
631.224585	2554.869372
631.570597	2554.753426
631.916556	2552.731923
632.262462	2552.139587
632.608316	2551.045657
632.954117	2552.739485
633.299866	2552.182437
633.645562	2551.905174
633.991206	2554.231666
634.336797	2553.447767
634.682336	2552.946172
635.027823	2553.447767
635.373257	2553.856100
635.718639	2550.493651
636.063968	2553.760318
636.409245	2553.084804
636.754470	2551.887530
637.099642	2552.011038
637.444762	2552.565565
637.789829	2552.590771
638.134845	2551.179247
638.479808	2550.730585
638.824719	2555.368446
639.169577	2552.999104
639.514383	2552.356357
639.859137	2551.264947
640.203839	2551.637992
640.548489	2553.609084
640.893086	2547.852086
641.237632	2548.310831
641.582125	2549.724875
641.926566	2549.407282
642.270955	2552.328631
642.615292	2553.437684
642.959576	2551.791748
643.303809	2552.898281
643.647990	2552.870555
643.992118	2552.094217
644.336195	2552.747046
644.680219	2550.077755
645.024192	2551.106151
645.368112	2553.190668
645.711981	2553.364588
646.055797	2553.147818
646.399562	2553.793086
646.743274	2551.494320
647.086935	2552.948693
647.430544	2552.124464
647.774101	2552.250493
648.117606	2553.830894
648.461059	2552.053888
648.804460	2551.917777
649.147810	2551.900133
649.491108	2552.217725
649.834354	2554.382901
650.177548	2554.123281
650.520690	2552.421892
650.863781	2551.932900
651.206820	2557.465566
651.549807	2549.225800
651.892742	2555.002963
652.235626	2551.459032
652.578458	2552.850390
652.921238	2551.993394
653.263967	2552.366439
653.606644	2552.880637
653.949269	2551.794268
654.291843	2553.152859
654.634365	2552.318548
654.976836	2550.244113
655.319255	2555.834753
655.661622	2551.116233
656.003938	2550.975081
656.346203	2551.942982
656.688416	2551.438867
657.030577	2552.459701
657.372687	2552.931048
657.714746	2551.338044
658.056753	2551.784186
658.398708	2547.965512
658.740612	2549.361912
659.082465	2551.438867
659.424266	2547.834442
659.766016	2548.976263
660.107715	2550.355019
660.449362	2551.423743
660.790958	2552.951213
661.132503	2550.874258
661.473996	2555.383570
661.815438	2550.808723
662.156829	2553.861141
662.498168	2553.261244
662.839456	2552.517674
663.180693	2552.530277
663.521879	2553.677139
663.863013	2548.318393
664.204097	2551.292673
664.545129	2550.907025
664.886110	2552.003476
665.227040	2552.578168
665.567918	2553.334341
665.908746	2551.630431
666.249522	2556.328786
666.590248	2553.513302
666.930922	2554.357695
667.271545	2550.322251
667.612118	2551.821995
667.952639	2553.571275
668.293109	2552.253013
668.633528	2551.655637
668.973896	2551.602704
669.314213	2551.186809
669.654480	2555.544887
669.994695	2551.721172
670.334859	2552.447098
670.674973	2551.953065
671.015035	2553.115051
671.355047	2551.680842
671.695008	2551.451470
672.034918	2553.377191
672.374777	2551.842159
672.714585	2552.991542
673.054342	2550.171017
673.394049	2552.875596
673.733705	2553.006666
674.073310	2552.142108
674.412864	2553.717468
674.752368	2551.648075
675.091820	2552.933569
675.431223	2552.936090
675.770574	2550.344937
676.109875	2545.863351
676.449125	2548.416695
676.788324	2546.440563
677.127473	2550.458363
677.466571	2550.816284
677.805619	2554.176213
678.144616	2549.903836
678.483562	2551.985832
678.822458	2553.656975
679.161303	2554.057746
679.500098	2549.624052
679.838842	2551.731254
680.177535	2553.145297
680.516179	2553.369629
680.854771	2555.320555
681.193314	2550.975081
681.531805	2552.220246
681.870247	2553.919115
682.208638	2552.747046
682.546978	2552.920966
682.885268	2551.151521
683.223508	2553.074721
683.561697	2551.960626
683.899836	2553.755277
684.237925	2550.932231
684.575963	2553.649413
684.913951	2554.372818
685.251889	2555.978426
685.589776	2552.426933
685.927614	2554.070349
686.265401	2552.694114
686.603137	2552.905843
686.940824	2553.437684
687.278460	2555.854918
687.616046	2554.120761
687.953582	2553.641851
688.291068	2552.305945
688.628504	2552.570606
688.965889	2553.183106
689.303224	2553.863662
689.640510	2549.682025
689.977745	2553.420040
690.314930	2554.332489
690.652065	2554.755946
690.989150	2553.956923
691.326185	2555.565051
691.663170	2549.871068
692.000105	2553.485575
692.336990	2552.938610
692.673825	2554.266954
693.010610	2552.676470
693.347345	2550.244113
693.684030	2548.356201
694.020665	2549.009031
694.357251	2546.163299
694.693786	2551.806871
695.030272	2552.588250
695.366707	2551.854762
695.703093	2553.510781
696.039429	2550.629762
696.375716	2551.882488
696.711952	2549.281253
697.048139	2553.283929
697.384276	2554.730740
697.720363	2555.617983
698.056400	2552.953734
698.392388	2553.306614
698.728326	2553.588919
699.064214	2552.159752
699.400053	2552.510112
699.735842	2552.013558
700.071581	2551.701007
700.407270	2553.437684
700.742910	2551.360729
701.078501	2552.111861
701.414042	2554.904660
701.749533	2554.355174
702.084974	2553.941800
702.420366	2552.583209
702.755709	2554.433312
703.091002	2552.386604
703.426246	2553.760318
703.761440	2553.609084
704.096584	2551.852242
704.431679	2553.457849
704.766725	2556.353992
705.101721	2552.628579
705.436668	2554.032541
705.771565	2554.420709
706.106413	2554.990360
706.441212	2553.190668
706.775961	2555.068498
707.110661	2552.464742
707.445311	2559.131668
707.779913	2554.055226
708.114465	2555.126471
708.448967	2552.288301
708.783421	2551.494320
709.117825	2553.137736
709.452180	2552.215205
709.786485	2554.259392
710.120742	2554.904660
710.454949	2555.938097
710.789107	2554.793755
711.123216	2552.762170
711.457275	2551.232180
711.791286	2552.653785
712.125247	2551.441387
712.459159	2557.059753
712.793023	2555.870041
713.126837	2554.198899
713.460602	2553.906512
713.794318	2556.606050
714.127985	2557.173179
714.461602	2556.510268
714.795171	2555.761656
715.128691	2552.870555
715.462162	2555.088662
715.795584	2556.593447
716.128957	2553.082283
716.462281	2555.781821
716.795556	2554.592109
717.128782	2554.622356
717.461960	2556.225443
717.795088	2555.771739
718.128167	2555.239897
718.461198	2552.633620
718.794180	2553.034392
719.127113	2552.328631
719.459997	2557.331976
719.792833	2554.564382
720.125619	2555.597819
720.458357	2556.177552
720.791046	2555.131512
721.123686	2556.399362
721.456278	2557.231153
721.788821	2554.269475
722.121315	2556.094372
722.453761	2554.254351
722.786158	2555.859959
723.118506	2554.377860
723.450805	2555.764177
723.783056	2554.692932
724.115259	2555.476831
724.447412	2557.198385
724.779518	2554.019938
725.111574	2554.811399
725.443582	2555.403734
725.775542	2554.602191
726.107453	2555.134033
726.439315	2555.917932
726.771129	2558.385577
727.102895	2555.469269
727.434612	2557.500854
727.766281	2555.769218
728.097901	2555.670916
728.429473	2552.532797
728.760996	2555.859959
729.092471	2553.682180
729.423897	2556.417006
729.755276	2557.989846
730.086606	2556.487582
730.417887	2556.855587
730.749120	2558.015052
731.080305	2557.248797
731.411442	2562.010167
731.742530	2559.688715
732.073570	2561.412790
732.404562	2559.136709
732.735506	2557.876420
733.066401	2557.742830
733.397249	2558.597305
733.728048	2558.980433
734.058798	2557.934394
734.389501	2557.682336
734.720156	2558.032696
735.050762	2555.517160
735.381320	2555.265103
735.711831	2557.848694
736.042293	2555.950700
736.372707	2557.037068
736.703073	2558.998077
737.033391	2554.491286
737.363661	2556.043961
737.693883	2555.844835
738.024056	2558.183931
738.354182	2558.289795
738.684260	2558.312480
739.014290	2557.982285
739.344272	2557.135371
739.674207	2555.814588
740.004093	2558.539332
740.333931	2560.477656
740.663722	2560.220557
740.993464	2559.424055
741.323159	2557.982285
741.652806	2558.791390
741.982405	2559.908005
742.311956	2558.625032
742.641460	2557.626883
742.970915	2559.814744
743.300323	2557.321893
743.629683	2557.097562
743.958996	2558.209137
744.288260	2556.890875
744.617477	2557.155535
744.946647	2551.900133
745.275768	2554.128322
745.604842	2552.530277
745.933869	2551.748898
746.262847	2555.123950
746.591778	2557.815927
746.920662	2557.581513
747.249498	2558.166287
747.578286	2555.975905
747.907027	2557.553787
748.235720	2559.154353
748.564365	2557.145453
748.892963	2557.732747
749.221514	2558.062943
749.550017	2559.552604
749.878473	2561.193500
750.206881	2558.055381
750.535242	2557.722665
750.863555	2558.647717
751.191821	2557.142932
751.520039	2560.631411
751.848210	2555.222253
752.176334	2558.670402
752.504411	2563.315825
752.832440	2558.004970
753.160421	2555.446584
753.488356	2557.803324
753.816243	2559.436657
754.144082	2558.592264
754.471875	2556.613611
754.799620	2557.210988
755.127318	2556.648899
755.454969	2557.331976
755.782572	2558.178890
756.110129	2556.543035
756.437638	2558.045299
756.765100	2558.614949
757.092515	2557.858776
757.419882	2556.769887
757.747203	2558.194013
758.074477	2555.733930
758.401703	2561.143088
758.728882	2557.720145
759.056014	2560.001267
759.383099	2558.889692
759.710138	2558.519167
760.037129	2558.168807
760.364073	2561.034703
760.690970	2561.624518
761.017820	2560.830537
761.344623	2558.688046
761.671379	2559.797100
761.998088	2556.764846
762.324751	2559.789538
762.651366	2561.327090
762.977935	2564.989488
763.304456	2571.558112
763.630931	2578.129256
763.957359	2574.696230
764.283740	2571.537947
764.610074	2570.897721
764.936362	2565.102914
765.262602	2563.751885
765.588796	2562.380691
765.914943	2561.390105
766.241044	2562.209292
766.567097	2559.192162
766.893104	2560.686864
767.219064	2560.596123
767.544978	2558.322562
767.870845	2556.732078
768.196665	2557.069836
768.522438	2560.142419
768.848165	2558.141081
769.173846	2557.268961
769.499479	2555.872562
769.825066	2555.020607
770.150607	2554.385421
770.476101	2557.793241
770.801548	2559.464384
771.126949	2556.457336
771.452303	2557.115206
771.777611	2557.798282
772.102872	2556.051523
772.428087	2556.724517
772.753256	2559.285423
773.078378	2556.885834
773.403453	2553.430123
773.728482	2553.775442
774.053465	2556.890875
774.378401	2559.590413
774.703291	2555.060936
775.028135	2556.588406
775.352932	2556.870710
775.677683	2555.280226
776.002388	2555.484393
776.327046	2560.031514
776.651658	2559.187120
776.976224	2557.427758
777.300743	2556.913560
777.625216	2554.544218
777.949643	2553.150339
778.274024	2556.056564
778.598359	2553.009186
778.922647	2549.016592
779.246889	2555.675957
779.571086	2551.214536
779.895236	2552.310987
780.219339	2555.181924
780.543397	2558.529250
780.867409	2556.157387
781.191374	2556.081770
781.515294	2556.787531
781.839167	2555.507078
782.162995	2555.481872
782.486776	2557.450443
782.810511	2555.363405
783.134201	2557.377346
783.457844	2556.762325
783.781441	2556.595967
784.104993	2554.798796
784.428498	2553.619166
784.751958	2553.435164
785.075372	2555.675957
785.398739	2554.927345
785.722061	2558.564538
786.045337	2555.759136
786.368568	2555.882644
786.691752	2551.630431
787.014891	2554.652603
787.337983	2554.206460
787.661030	2555.476831
787.984031	2556.943807
788.306987	2560.470094
788.629897	2558.342727
788.952760	2558.617470
789.275579	2557.750392
789.598351	2556.835422
789.921078	2557.762994
790.243759	2556.691749
790.566395	2553.523384
790.888984	2556.900957
791.211529	2555.101265
791.534027	2556.139743
791.856480	2553.656975
792.178888	2557.105124
792.501249	2556.109496
792.823566	2558.161246
793.145836	2554.697973
793.468062	2556.119578
793.790241	2553.785524
794.112375	2556.467418
794.434464	2553.150339
794.756507	2554.680329
795.078505	2555.615463
795.400457	2553.200750
795.722364	2551.194371
796.044226	2552.396686
796.366042	2552.666388
796.687812	2554.014897
797.009538	2553.755277
797.331218	2556.631255
797.652852	2557.100083
797.974442	2556.449774
798.295986	2557.425237
798.617484	2554.760987
798.938938	2556.507747
799.260346	2552.212684
799.581709	2554.070349
799.903026	2556.714434
800.224299	2553.064639
800.545526	2557.246276
800.866708	2554.907181
801.187845	2553.117571
801.508936	2551.156562
801.829983	2555.353323
802.150984	2554.080432
802.471940	2554.912222
802.792851	2554.839125
803.113717	2554.788714
803.434538	2555.683518
803.755314	2552.489947
804.076045	2554.203940
804.396731	2554.697973
804.717372	2554.140925
805.037967	2554.788714
805.358518	2552.202602
805.679024	2555.189485
805.999485	2555.524722
806.319901	2555.280226
806.640272	2555.401214
806.960598	2556.691749
807.280879	2552.885678
807.601115	2551.247303
807.921306	2556.275854
808.241453	2554.430792
808.561554	2553.944320
808.881611	2554.425751
809.201623	2554.216543
809.521590	2557.795762
809.841513	2554.786193
810.161390	2554.733261
810.481223	2555.093703
810.801011	2551.640513
811.120755	2555.824671
811.440453	2553.709907
811.760107	2554.390462
812.079716	2552.008517
812.399281	2549.528270
812.718801	2551.902653
813.038276	2549.019113
813.357707	2553.367108
813.677093	2553.803168
813.996434	2553.306614
814.315731	2552.512633
814.634983	2555.330638
814.954191	2554.239228
815.273354	2555.711245
815.592473	2554.468600
815.911547	2555.658313
816.230577	2557.611760
816.549562	2555.708724
816.868502	2557.077398
817.187399	2556.900957
817.506250	2557.079918
817.825058	2559.575289
818.143821	2555.953220
818.462539	2558.196534
818.781213	2557.510937
819.099843	2557.004301
819.418429	2558.231822
819.736970	2557.647048
820.055466	2563.588048
820.373919	2566.413614
820.692327	2569.753379
821.010691	2575.759914
821.329011	2583.447673
821.647286	2603.372834
821.965517	2620.603498
822.283704	2630.249746
822.601847	2639.260808
822.919945	2637.443472
823.237999	2637.209058
823.556010	2621.213477
823.873976	2607.993051
824.191897	2599.617174
824.509775	2593.870259
824.827609	2582.510019
825.145398	2582.079000
825.463144	2580.796026
825.780845	2579.263516
826.098502	2584.249217
826.416116	2588.783735
826.733685	2595.372523
827.051210	2599.561722
827.368692	2599.597010
827.686129	2592.688108
828.003522	2583.946747
828.320872	2574.013154
828.638177	2571.220355
828.955439	2563.726679
829.272656	2563.628377
829.589830	2556.777449
829.906960	2562.496638
830.224046	2562.451267
830.541088	2559.600495
830.858086	2559.928170
831.175041	2558.133519
831.491952	2557.851215
831.808819	2559.504713
832.125642	2557.190823
832.442421	2561.417831
832.759157	2562.529405
833.075849	2567.830179
833.392497	2574.691189
833.709101	2578.900552
834.025662	2580.972467
834.342179	2577.688155
834.658653	2573.037691
834.975083	2570.275138
835.291469	2570.741445
835.607811	2561.493448
835.924110	2558.849363
836.240366	2560.563355
836.556578	2557.528581
836.872746	2558.526729
837.188871	2554.481203
837.504952	2554.710576
837.820990	2555.111347
838.136984	2553.427602
838.452935	2554.055226
838.768842	2552.366439
839.084706	2555.330638
839.400526	2555.126471
839.716303	2557.221070
840.032037	2561.009497
840.347727	2563.260373
840.663373	2562.088304
840.978977	2561.470763
841.294537	2555.181924
841.610054	2557.200906
841.925527	2554.665205
842.240957	2553.924156
842.556344	2553.788045
842.871687	2551.985832
843.186987	2549.674463
843.502244	2549.737478
843.817458	2550.324772
844.132629	2548.905687
844.447756	2551.247303
844.762840	2546.148176
845.077881	2548.908208
845.392879	2547.627755
845.707833	2548.189843
846.022745	2545.069369
846.337613	2550.080276
846.652438	2551.050698
846.967221	2552.328631
847.281960	2547.040460
847.596656	2551.718651
847.911309	2547.438711
848.225919	2551.436346
848.540485	2546.163299
848.855009	2551.050698
849.169490	2548.124308
849.483928	2548.520039
849.798323	2548.134391
850.112675	2547.405944
850.426984	2548.114226
850.741251	2550.780996
851.055474	2549.314021
851.369654	2548.583053
851.683792	2549.883671
851.997887	2550.554144
852.311938	2549.089689
852.625947	2552.275698
852.939914	2548.693959
853.253837	2551.305276
853.567718	2550.649926
853.881555	2548.963660
854.195350	2549.019113
854.509103	2548.749411
854.822812	2550.486089
855.136479	2545.732281
855.450103	2551.106151
855.763685	2549.051881
856.077224	2547.537014
856.390720	2548.572971
856.704173	2549.480379
857.017584	2547.731098
857.330953	2549.888712
857.644278	2549.639175
857.957561	2549.848383
858.270802	2547.647919
858.584000	2550.062632
858.897155	2549.699669
859.210268	2547.126160
859.523339	2544.993752
859.836367	2547.098433
860.149352	2550.604556
860.462295	2548.804864
860.775195	2544.953423
861.088054	2546.682538
861.400869	2544.663556
861.713642	2545.041643
862.026373	2549.230842
862.339062	2549.555996
862.651708	2548.179761
862.964312	2549.346788
863.276873	2548.441901
863.589392	2551.126315
863.901869	2551.128836
864.214303	2548.459545
864.526696	2550.952396
864.839045	2549.840821
865.151353	2552.177396
865.463619	2549.447611
865.775842	2551.637992
866.088023	2549.258568
866.400162	2549.918959
866.712258	2549.800492
867.024313	2549.256047
867.336325	2549.210677
867.648296	2550.856614
867.960224	2549.961809
868.272110	2550.528939
868.583954	2551.925338
868.895755	2551.083466
869.207515	2550.987684
869.519233	2553.104968
869.830909	2552.023641
870.142542	2552.578168
870.454134	2551.179248
870.765684	2553.069680
871.077191	2553.392314
871.388657	2551.698486
871.700081	2549.979453
872.011463	2549.540872
872.322803	2551.985832
872.634101	2552.908363
872.945357	2549.593805
873.256571	2554.319886
873.567744	2551.890050
873.878874	2553.225956
874.189963	2552.474824
874.501010	2555.297870
874.812015	2551.156562
875.122979	2551.295194
875.433900	2550.894422
875.744780	2552.026161
876.055618	2549.916438
876.366415	2552.376522
876.677169	2553.251162
876.987882	2550.266799
877.298554	2552.038764
877.609183	2553.402396
877.919771	2552.610935
878.230317	2553.299053
878.540822	2556.434650
878.851285	2554.796275
879.161707	2558.622511
879.472087	2560.805331
879.782425	2563.459498
880.092722	2567.873028
880.402977	2573.720767
880.713191	2584.859196
881.023363	2589.449167
881.333494	2592.161308
881.643583	2597.270517
881.953631	2599.465940
882.263637	2602.115066
882.573602	2594.069384
882.883526	2592.904878
883.193408	2587.478076
883.503248	2584.770976
883.813048	2578.537589
884.122806	2574.088771
884.432522	2570.726322
884.742197	2567.827658
885.051831	2568.155333
885.361424	2562.138716
885.670975	2561.977399
885.980485	2562.524364
886.289954	2560.880948
886.599382	2558.942624
886.908768	2557.644527
887.218113	2555.310473
887.527417	2555.547407
887.836680	2555.532284
888.145901	2555.194527
888.455082	2552.356357
888.764221	2554.277037
889.073319	2550.639844
889.382376	2553.238559
889.691392	2554.929866
890.000366	2554.370298
890.309300	2552.081614
890.618193	2551.277550
890.927044	2552.638662
891.235855	2554.065308
891.544625	2552.222766
891.853353	2554.972716
892.162041	2552.071532
892.470687	2554.042623
892.779293	2554.312325
893.087858	2551.627910
893.396381	2550.546583
893.704864	2557.281564
894.013306	2556.384239
894.321707	2563.489745
894.630068	2569.042576
894.938387	2569.158523
895.246665	2574.124059
895.554903	2569.425704
895.863100	2568.430076
896.171256	2563.618295
896.479371	2563.893037
896.787446	2559.958417
897.095480	2554.314845
897.403473	2556.855587
897.711425	2557.974723
898.019336	2556.301060
898.327207	2552.711758
898.635038	2554.095555
898.942827	2552.782334
899.250576	2554.549259
899.558284	2551.322920
899.865952	2553.409958
900.173579	2551.461552
900.481165	2553.006666
900.788711	2551.577499
901.096216	2550.780996
901.403681	2549.039278
901.711105	2552.149670
902.018489	2550.513815
902.325832	2554.740823
902.633135	2551.204453
902.940397	2550.859134
903.247619	2554.924825
903.554800	2556.774928
903.861941	2563.454457
904.169041	2569.849161
904.476101	2569.680282
904.783121	2572.747824
905.090100	2568.135168
905.397039	2569.443348
905.703938	2565.055023
906.010796	2564.755075
906.317614	2557.266441
906.624391	2558.141081
906.931129	2557.299208
907.237826	2552.305945
907.544483	2553.745195
907.851099	2549.225800
908.157675	2549.130018
908.464211	2549.193033
908.770707	2546.997610
909.077163	2547.174051
909.383578	2542.931920
909.689954	2544.993752
909.996289	2545.659184
910.302584	2548.202446
910.608839	2546.561551
910.915054	2549.515667
911.221229	2546.528783
911.527363	2548.905687
911.833458	2547.516849
912.139513	2547.647919
912.445527	2549.558517
912.751502	2549.268650
913.057436	2550.730585
913.363331	2548.885522
913.669186	2546.594318
913.975000	2552.094217
914.280775	2552.048847
914.586510	2553.452808
914.892205	2554.574465
915.197859	2558.839281
915.503475	2562.378171
915.809050	2566.063254
916.114585	2568.674572
916.420081	2570.743966
916.725536	2569.735735
917.030952	2571.600962
917.336328	2566.562328
917.641665	2563.134344
917.946961	2556.938766
918.252218	2556.802655
918.557435	2555.731409
918.862612	2556.923642
919.167750	2555.781821
919.472848	2553.427602
919.777906	2552.121943
920.082925	2552.162273
920.387904	2549.555996
920.692843	2550.967519
920.997743	2552.878116
921.302603	2548.830070
921.607423	2547.416026
921.912204	2548.625903
922.216946	2549.888712
922.521647	2549.301418
922.826310	2548.146993
923.130932	2549.056922
923.435516	2545.155069
923.740059	2549.913918
924.044564	2545.760007
924.349028	2547.141283
924.653454	2542.281611
924.957840	2544.794626
925.262186	2543.073072
925.566493	2545.071890
925.870761	2541.485109
926.174989	2547.184133
926.479178	2547.347971
926.783328	2547.209339
927.087438	2546.080120
927.391509	2547.224462
927.695541	2544.729091
927.999533	2546.584236
928.303486	2546.259081
928.607400	2542.689944
928.911275	2543.186498
929.215110	2546.725388
929.518906	2543.559543
929.822663	2544.920655
930.126381	2544.610624
930.430060	2546.032229
930.733699	2547.703372
931.037299	2545.162630
931.340861	2544.088865
931.644383	2548.109185
931.947866	2544.804708
932.251309	2545.553320
932.554714	2545.901159
932.858080	2545.795295
933.161407	2544.494678
933.464694	2545.235727
933.767943	2543.322609
934.071153	2545.749925
934.374323	2542.929399
934.677455	2541.754810
934.980548	2541.172557
935.283602	2542.906714
935.586617	2545.974256
935.889593	2542.276570
936.192530	2543.773793
936.495428	2542.405119
936.798287	2542.901673
937.101108	2544.383772
937.403890	2546.009544
937.706632	2547.393341
938.009336	2546.218752
938.312002	2544.943340
938.614628	2545.480223
938.917216	2544.378731
939.219765	2543.998124
939.522275	2547.297559
939.824747	2547.975594
940.127179	2543.171375
940.429573	2542.700027
940.731929	2544.532486
941.034246	2541.500232
941.336524	2545.843186
941.638763	2546.478372
941.940964	2546.395193
942.243126	2548.005841
942.545250	2545.848227
942.847335	2545.954092
943.149381	2545.989380
943.451389	2543.080634
943.753359	2546.513660
944.055290	2544.880326
944.357182	2545.132383
944.659036	2542.727753
944.960851	2545.845707
945.262628	2545.603731
945.564367	2545.071890
945.866067	2544.061138
946.167729	2544.172044
946.469352	2547.292518
946.770937	2543.962836
947.072484	2542.838658
947.373992	2545.510470
947.675462	2545.936448
947.976893	2545.023999
948.278286	2545.313865
948.579641	2546.553989
948.880958	2545.444935
949.182236	2544.527445
949.483476	2542.205994
949.784678	2543.771272
950.085841	2545.449976
950.386967	2546.306972
950.688054	2542.400078
950.989103	2547.320244
951.290114	2543.282280
951.591087	2545.512991
951.892021	2543.672969
952.192917	2548.217570
952.493776	2546.871582
952.794596	2545.510470
953.095378	2546.410316
953.396122	2545.311344
953.696828	2545.417209
953.997496	2544.953423
954.298126	2544.913093
954.598718	2546.496016
954.899272	2542.929399
955.199788	2544.459389
955.500266	2542.533669
955.800706	2545.727240
956.101108	2540.446631
956.401472	2543.005017
956.701798	2540.681045
957.002087	2542.271529
957.302337	2542.142979
957.602550	2545.071890
957.902724	2544.482075
958.202861	2544.494677
958.502960	2541.711961
958.803022	2545.707075
959.103045	2544.434184
959.403031	2543.859492
959.702979	2542.684903
960.002889	2546.092723
960.302762	2542.684903
960.602596	2543.322609
960.902393	2542.838658
961.202153	2542.153062
961.501875	2543.254554
961.801559	2542.324461
962.101205	2539.924872
962.400814	2543.776313
962.700385	2544.623227
962.999918	2542.750438
963.299414	2544.250182
963.598873	2542.490819
963.898293	2543.040305
964.197677	2544.996272
964.497022	2541.661549
964.796331	2544.761859
965.095601	2540.507125
965.394835	2542.440407
965.694030	2546.029709
965.993189	2544.471992
966.292309	2542.654656
966.591393	2543.302445
966.890439	2541.412012
967.189447	2541.938812
967.488419	2542.442928
967.787353	2540.925541
968.086249	2545.447456
968.385108	2543.367980
968.683930	2541.830428
968.982714	2543.471323
969.281462	2545.671787
969.580172	2542.579039
969.878844	2543.635161
970.177480	2541.548123
970.476078	2545.815460
970.774639	2541.946374
971.073162	2542.306817
971.371649	2541.772454
971.670098	2539.191384
971.968510	2541.016281
972.266885	2540.396219
972.565223	2542.669780
972.863524	2542.165664
973.161788	2543.720860
973.460014	2541.800181
973.758204	2544.845038
974.056356	2543.753628
974.354471	2541.928730
974.652550	2541.815304
974.950591	2543.768751
975.248595	2543.360418
975.546563	2541.744728
975.844493	2542.647095
976.142386	2543.380583
976.440243	2544.010727
976.738062	2545.631458
977.035845	2542.097609
977.333590	2542.884029
977.631299	2542.326981
977.928971	2542.516025
978.226606	2542.009389
978.524204	2542.979811
978.821765	2541.926210
979.119290	2543.302445
979.416777	2542.722712
979.714228	2542.074924
980.011642	2541.933771
980.309020	2545.381921
980.606360	2540.204656
980.903664	2545.749925
981.200931	2542.279090
981.498162	2544.537527
981.795356	2542.374872
982.092513	2545.308824
982.389633	2543.254554
982.686717	2544.235058
982.983764	2541.238092
983.280775	2543.267157
983.577749	2544.535007
983.874686	2543.456200
984.171587	2543.683052
984.468451	2544.930737
984.765279	2544.499719
985.062070	2544.272867
985.358824	2543.236910
985.655543	2541.399409
985.952224	2540.035777
986.248869	2540.728936
986.545478	2536.791794
986.842050	2544.252702
987.138586	2540.388658
987.435086	2539.667773
987.731549	2536.696012
988.027975	2543.864533
988.324366	2538.490663
988.620719	2542.092568
988.917037	2541.767413
989.213318	2543.690613
989.509563	2542.644574
989.805772	2542.316899
990.101944	2544.388813
990.398080	2540.363452
990.694180	2542.614327
990.990244	2544.333361
991.286271	2546.064997
991.582262	2544.038453
991.878217	2542.909235
992.174136	2540.323123
992.470019	2544.398896
992.765865	2540.597866
993.061676	2541.064172
993.357450	2542.770603
993.653188	2542.216076
993.948890	2539.761034
994.244556	2543.494008
994.540186	2540.865047
994.835780	2543.113401
995.131337	2544.071221
995.426859	2541.336395
995.722345	2542.785726
996.017795	2539.700540
996.313208	2542.168185
996.608586	2541.409491
996.903928	2543.768751
997.199234	2541.023843
997.494504	2544.688762
997.789738	2542.959646
998.084936	2543.572146
998.380099	2540.043339
998.675225	2542.344625
998.970316	2542.851261
999.265371	2541.348998
999.560390	2540.847403
999.855373	2541.018802
1000.150320	2543.589790
1000.445232	2541.984183
1000.740108	2541.359080
1001.034948	2539.330015
1001.329752	2541.306148
1001.624521	2546.319575
1001.919254	2536.932947
1002.213951	2540.736497
1002.508613	2539.647608
1002.803239	2538.795653
1003.097829	2537.207690
1003.392384	2543.811601
1003.686903	2541.855633
1003.981386	2540.834800
1004.275834	2542.362269
1004.570246	2545.825542
1004.864623	2543.521735
1005.158964	2541.769934
1005.453270	2544.154400
1005.747540	2540.413863
1006.041775	2542.369831
1006.335974	2542.765562
1006.630138	2541.127187
1006.924266	2540.829759
1007.218359	2540.154244
1007.512416	2539.577032
1007.806438	2542.029553
1008.100425	2541.769934
1008.394376	2543.042825
1008.688292	2543.504091
1008.982172	2544.645912
1009.276017	2538.793132
1009.569827	2543.574667
1009.863602	2543.357897
1010.157341	2540.640715
1010.451045	2540.204656
1010.744714	2540.708771
1011.038347	2543.385624
1011.331945	2540.544933
1011.625508	2537.684079
1011.919036	2543.214224
1012.212528	2543.662887
1012.505986	2542.994934
1012.799408	2540.355890
1013.092795	2539.942516
1013.386147	2545.911242
1013.679464	2541.598535
1013.972745	2543.093237
1014.265992	2542.349667
1014.559204	2543.400747
1014.852380	2542.190870
1015.145521	2542.740356
1015.438628	2540.169367
1015.731699	2544.245140
1016.024736	2544.386293
1016.317737	2537.810107
1016.610703	2542.483257
1016.903635	2539.438400
1017.196531	2538.914120
1017.489393	2538.888914
1017.782219	2537.764737
1018.075011	2539.566950
1018.367768	2542.072403
1018.660490	2543.310006
1018.953177	2543.310006
1019.245829	2543.310006
