Dividing Wavelength (nm)	Counts (n)	Blue Motor Position (mm): 35.400000	Red Motor Position (mm): 0.000000	
326.493990	2052.304142
326.888308	2052.304142
327.282561	2052.304142
327.676750	2025.533095
328.070874	2029.364372
328.464933	2033.891328
328.858929	2043.756866
329.252859	2052.410007
329.646726	2068.927347
330.040528	2086.722620
330.434265	2100.610999
330.827938	2123.886006
331.221547	2142.659263
331.615091	2161.886224
332.008571	2182.275171
332.401986	2203.299303
332.795338	2222.107848
333.188625	2243.545355
333.581847	2261.819537
333.975006	2280.975922
334.368100	2297.271452
334.761129	2316.979843
335.154095	2332.660352
335.546996	2384.319576
335.939833	2490.995432
336.332606	2501.977586
336.725315	2517.249762
337.117960	2522.021214
337.510540	2532.544622
337.903056	2543.259595
338.295508	2549.150183
338.687896	2557.296688
339.080220	2563.272976
339.472480	2566.884962
339.864676	2573.221693
340.256807	2570.433935
340.648875	2575.442321
341.040879	2576.821077
341.432818	2576.347208
341.824694	2581.126222
342.216506	2579.656726
342.608253	2576.465675
342.999937	2577.307548
343.391557	2575.994327
343.783113	2575.139852
344.174605	2571.399316
344.566033	2567.494942
344.957397	2569.556774
345.348697	2569.435786
345.739934	2563.933367
346.131106	2564.351782
346.522215	2563.802297
346.913260	2560.369271
347.304241	2562.494117
347.695159	2557.120247
348.086012	2556.147305
348.476802	2554.277037
348.867528	2550.478527
349.258191	2546.763197
349.648789	2550.017262
350.039324	2545.510470
350.429796	2552.237890
350.820203	2547.751263
351.210548	2550.715461
351.600828	2545.603731
351.991045	2549.676984
352.381198	2545.838145
352.771288	2547.068187
353.161314	2544.517363
353.551276	2544.419060
353.941175	2545.452497
354.331010	2547.625234
354.720782	2548.451983
355.110490	2548.613300
355.500135	2545.011396
355.889717	2546.133053
356.279235	2544.948381
356.668689	2544.958464
357.058080	2548.187323
357.447408	2547.831921
357.836672	2548.618341
358.225873	2548.162117
358.615010	2547.564740
359.004084	2550.924669
359.393095	2550.821326
359.782043	2550.750749
360.170927	2552.931048
360.559748	2550.702858
360.948505	2549.238403
361.337199	2555.328117
361.725830	2553.997252
362.114398	2555.983467
362.502903	2554.496327
362.891344	2555.156718
363.279722	2555.824671
363.668037	2556.878272
364.056289	2556.734599
364.444478	2557.296688
364.832603	2558.425906
365.220665	2557.400031
365.608665	2557.631924
365.996601	2559.353478
366.384474	2554.342572
366.772284	2560.341545
367.160031	2560.986812
367.547715	2560.112172
367.935336	2560.233160
368.322893	2558.597305
368.710388	2555.496996
369.097820	2557.107644
369.485189	2558.274672
369.872495	2564.961762
370.259738	2560.374312
370.646918	2564.258521
371.034035	2563.779612
371.421090	2559.686195
371.808081	2566.237174
372.195010	2563.272976
372.581875	2565.579303
372.968678	2563.235167
373.355418	2564.944118
373.742096	2566.890003
374.128710	2567.134499
374.515262	2566.295147
374.901751	2565.183573
375.288177	2565.339849
375.674540	2567.605847
376.060841	2569.060220
376.447079	2568.772874
376.833254	2570.459140
377.219367	2569.125755
377.605417	2569.299675
377.991404	2569.728173
378.377329	2571.142217
378.763191	2570.660787
379.148991	2569.970148
379.534727	2570.653225
379.920402	2569.564336
380.306013	2570.512073
380.691563	2572.397464
381.077049	2569.778585
381.462474	2569.292113
381.847835	2571.278328
382.233134	2576.342167
382.618371	2570.406208
383.003545	2571.835375
383.388657	2574.918041
383.773706	2572.964594
384.158693	2574.466858
384.543618	2577.047928
384.928480	2574.421487
385.313280	2576.846282
385.698017	2578.812332
386.082692	2576.122877
386.467305	2578.167065
386.851856	2576.553895
387.236344	2575.132290
387.620770	2580.067580
388.005133	2576.120356
388.389435	2577.756211
388.773674	2575.255798
389.157851	2582.971284
389.541965	2579.596232
389.926018	2581.705955
390.310008	2581.665625
390.693936	2581.796695
391.077802	2582.285687
391.461606	2585.081007
391.845348	2582.711665
392.229027	2585.383476
392.612645	2585.335585
392.996200	2586.240472
393.379694	2583.248548
393.763125	2582.784762
394.146494	2587.442788
394.529801	2587.006728
394.913047	2590.311204
395.296230	2588.723241
395.679351	2586.290884
396.062410	2588.244331
396.445408	2590.149887
396.828343	2589.512181
397.211217	2590.152408
397.594028	2590.774990
397.976778	2591.077460
398.359466	2592.012594
398.742092	2591.208530
399.124656	2592.804055
399.507158	2592.191555
399.889598	2593.645927
400.271977	2596.141299
400.654294	2595.531319
401.036549	2594.699529
401.418742	2595.443099
401.800874	2598.671958
402.182944	2598.281268
402.564952	2600.456526
402.946898	2601.807556
403.328783	2600.393512
403.710606	2604.018102
404.092367	2605.182608
404.474067	2604.925509
404.855705	2609.931375
405.237282	2610.279215
405.618797	2611.864658
406.000250	2616.636110
406.381642	2621.911677
406.762972	2620.003600
407.144240	2621.944445
407.525447	2625.304374
407.906593	2626.937707
408.287677	2636.808287
408.668700	2641.368010
409.049661	2651.795637
409.430560	2659.017090
409.811399	2664.025476
410.192176	2673.701971
410.572891	2685.505833
410.953545	2697.518902
411.334138	2704.573997
411.714669	2719.329455
412.095139	2728.204406
412.475547	2745.167889
412.855894	2759.129364
413.236180	2780.735750
413.616405	2792.184210
413.996568	2815.426450
414.376670	2835.034018
414.756711	2853.356091
415.136691	2879.257540
415.516609	2911.266346
415.896466	2938.922116
416.276262	2972.221458
416.655997	3011.522293
417.035670	3048.927655
417.415283	3100.838937
417.794834	3136.794966
418.174324	3157.700631
418.553753	3190.256403
418.933121	3250.306628
419.312428	3289.171403
419.691674	3304.264618
420.070859	3391.650499
420.449983	3403.081315
420.829045	3485.466372
421.208047	3508.108715
421.586988	3585.724840
421.965867	3650.049963
422.344686	3716.941033
422.723444	3807.079385
423.102141	3734.973241
423.480777	3902.029517
423.859352	3889.688773
424.237866	4059.532807
424.616319	4110.980303
424.994712	4218.188001
425.373044	4238.584510
425.751314	4411.919544
426.129524	4352.275132
426.507673	4523.245865
426.885762	4593.995938
427.263789	4669.363709
427.641756	4770.401035
428.019662	4856.640054
428.397508	4934.084780
428.775292	4995.042412
429.153016	5130.868741
429.530679	5163.757228
429.908282	5247.198407
430.285824	5278.057830
430.663305	5477.306915
431.040726	5485.483667
431.418086	5540.465011
431.795385	5682.481877
432.172624	5855.406057
432.549802	5837.409137
432.926920	5983.164018
433.303977	6015.142578
433.680974	6101.142142
434.057910	6285.066119
434.434786	6377.546087
434.811601	6407.404841
435.188355	6708.727209
435.565050	6686.999836
435.941683	6749.174907
436.318257	7046.343365
436.694770	7056.229067
437.071222	7281.838346
437.447614	7160.132289
437.823946	7189.166815
438.200218	7355.978596
438.576429	7323.301836
438.952580	7496.780543
439.328670	7559.396715
439.704700	7673.941813
440.080670	7632.054865
440.456580	7887.225470
440.832429	7921.628825
441.208218	7744.707010
441.583947	7883.933597
441.959616	8015.353957
442.335224	8089.053106
442.710773	8205.052576
443.086261	8398.090960
443.461689	8196.974127
443.837057	8360.327676
444.212365	8582.957633
444.587612	8605.768854
444.962800	8537.315026
445.337927	8695.088018
445.712995	8302.790467
446.088002	8941.870143
446.462949	9025.883492
446.837837	9066.265655
447.212664	9138.454978
447.587431	10038.467298
447.962139	10991.260498
448.336786	11731.818601
448.711374	11370.370391
449.085901	10285.652715
449.460369	10296.392893
449.834776	10232.282019
450.209124	11170.370174
450.583412	10945.867428
450.957640	11165.190388
451.331808	10784.603438
451.705917	10329.102420
452.079965	10262.380228
452.453954	10469.748092
452.827883	10439.032341
453.201752	10413.216592
453.575562	10446.026942
453.949311	10805.068002
454.323001	10896.118802
454.696632	10814.111832
455.070202	11411.465877
455.443713	11477.941052
455.817164	11644.805765
456.190556	11963.872995
456.563888	11794.220524
456.937160	12016.386695
457.310373	11527.780420
457.683526	11570.912532
458.056619	11612.854932
458.429653	11701.173427
458.802628	11874.359747
459.175542	11938.831063
459.548398	12505.890295
459.921194	13090.873349
460.293930	13421.688988
460.666607	14264.196865
461.039224	14989.399614
461.411782	15253.598925
461.784280	14857.543194
462.156719	14768.113124
462.529099	14677.173230
462.901419	14095.287965
463.273680	13744.113626
463.645882	13989.159073
464.018024	13950.886633
464.390106	14365.491290
464.762130	15560.456480
465.134094	17247.271928
465.505999	19552.389935
465.877845	21583.821180
466.249631	22476.380154
466.621358	21816.820790
466.993026	20986.842700
467.364634	20276.483630
467.736184	19565.723787
468.107674	19022.942753
468.479105	18877.777686
468.850477	18610.571327
469.221790	18184.235905
469.593043	17541.456022
469.964238	17193.089606
470.335373	17305.651010
470.706449	18209.161890
471.077467	19352.548514
471.448425	21726.097665
471.819324	23237.044899
472.190164	22699.960368
472.560945	20997.792087
472.931667	19578.929090
473.302330	19341.853707
473.672934	18883.824550
474.043479	19323.748403
474.413965	19127.947467
474.784393	18967.885791
475.154761	19610.501836
475.525070	19755.150184
475.895321	19581.333720
476.265513	20107.753690
476.635645	20708.412212
477.005719	20775.845206
477.375734	21156.084317
477.745691	21774.959049
478.115588	22453.082461
478.485427	23740.288164
478.855207	25638.849717
479.224928	27379.267753
479.594591	28571.384691
479.964194	28020.288273
480.333739	28412.149764
480.703226	28701.295225
481.072653	29226.969104
481.442022	29712.235615
481.811333	30007.932055
482.180584	29510.599543
482.549777	29305.240580
482.918912	29118.460788
483.287988	29056.502487
483.657005	28883.328770
484.025964	28530.077476
484.394864	28733.818229
484.763706	28677.047275
485.132489	28180.155864
485.501213	28261.179809
485.869879	28456.194325
486.238487	28416.288552
486.607036	28696.070069
486.975527	28410.967614
487.343959	28736.275792
487.712333	29071.908253
488.080648	29052.076354
488.448905	29497.232924
488.817104	29421.156871
489.185244	30329.315695
489.553326	31511.977949
489.921350	33483.545492
490.289315	35905.532570
490.657222	36574.617193
491.025070	36976.888667
491.392861	36579.232370
491.760593	35760.405312
492.128267	34736.594857
492.495883	33799.000735
492.863440	32957.367498
493.230939	32063.623853
493.598380	31553.262479
493.965763	31435.571701
494.333088	30968.211369
494.700354	30806.894446
495.067563	30776.866813
495.434713	30691.749451
495.801805	30996.341008
496.168839	30861.757323
496.535815	30725.439482
496.902733	30880.744829
497.269593	30699.217921
497.636395	30863.574659
498.003139	31158.494762
498.369825	30944.306218
498.736453	31360.937418
499.103023	31210.564840
499.469535	31314.780614
499.835989	31442.473041
500.202385	31304.935240
500.568723	31395.605433
500.935003	31729.284448
501.301226	31623.889044
501.667390	32328.491117
502.033497	32537.116749
502.399546	32334.424555
502.765537	31934.540068
503.131470	32433.349638
503.497345	32864.043137
503.863163	31835.062979
504.228923	32621.727475
504.594625	33040.196176
504.960269	32517.567154
505.325856	33208.638770
505.691385	32897.120668
506.056856	33214.597414
506.422270	33725.170517
506.787625	33272.585807
507.152924	33740.447733
507.518164	33943.515493
507.883347	33504.244470
508.248472	33668.853267
508.613540	34365.107189
508.978550	34611.034838
509.343503	34465.627797
509.708398	34839.767112
510.073236	35458.898942
510.438016	35569.075880
510.802738	35251.654587
511.167403	35826.522565
511.532010	36099.400223
511.896561	36588.452640
512.261053	37348.678805
512.625488	37131.642008
512.989866	37081.096879
513.354186	37117.123485
513.718449	37095.418797
514.082655	37998.206272
514.446803	37707.311530
514.810894	38333.503497
515.174927	38361.756643
515.538904	38349.446146
515.902822	39021.527735
516.266684	38719.756704
516.630488	39088.431408
516.994235	39117.962488
517.357925	39711.502900
517.721558	39976.274383
518.085133	40357.519204
518.448651	40556.526314
518.812112	40444.955497
519.175516	40610.348193
519.538863	41058.332850
519.902152	41127.507563
520.265385	41682.377285
520.628560	41698.685417
520.991678	41674.490399
521.354739	41899.519945
521.717743	42279.610343
522.080690	42184.700539
522.443580	42868.883418
522.806413	42901.174529
523.169189	43046.652147
523.531908	43285.577634
523.894569	43136.939213
524.257174	43349.877551
524.619722	43706.161099
524.982213	43839.272766
525.344647	43866.517682
525.707025	44003.193445
526.069345	44450.991580
526.431608	44371.021236
526.793815	44748.432260
527.155964	44293.740347
527.518057	44571.391978
527.880093	44420.510243
528.242072	45061.329117
528.603995	44794.392459
528.965860	44720.355553
529.327669	44939.491990
529.689421	44988.716337
530.051117	44947.830059
530.412755	45246.805770
530.774337	45310.102498
531.135862	45245.777375
531.497331	45405.952476
531.858743	45389.964457
532.220098	45792.087217
532.581396	45534.504420
532.942638	45281.302386
533.303824	45547.291307
533.664953	45598.146467
534.026025	45273.412980
534.387040	45847.968407
534.747999	45942.979034
535.108902	46242.219406
535.469748	45573.361634
535.830537	45838.586820
536.191270	46083.397854
536.551947	45805.582386
536.912567	46100.265554
537.273131	46240.575989
537.633638	45860.281426
537.994089	46063.228197
538.354483	45823.231465
538.714821	46464.534290
539.075103	46758.889784
539.435328	46617.911396
539.795497	46358.344905
540.155609	46503.671288
540.515665	47098.212370
540.875665	46391.828249
541.235609	46675.839295
541.595496	46789.482026
541.955328	47360.218779
542.315102	46810.549008
542.674821	46693.316975
543.034483	46581.514265
543.394090	46597.764425
543.753640	46569.927173
544.113134	47655.479160
544.472571	46749.951818
544.831953	47904.307993
545.191278	47143.318094
545.550548	46847.924122
545.909761	47492.004623
546.268918	47636.496695
546.628019	48066.141635
546.987064	47473.611973
547.346053	46752.303516
547.704986	47675.797531
548.063863	47318.024322
548.422684	47540.939103
548.781449	47128.799571
549.140158	47646.936925
549.498811	47425.274870
549.857408	46802.455435
550.215949	47669.528856
550.574434	47502.228083
550.932864	47427.036753
551.291237	48164.502108
551.649555	47907.488961
552.007817	48099.294783
552.366022	47764.927651
552.724173	47820.463523
553.082267	48254.544677
553.440305	48581.324873
553.798288	47835.728136
554.156215	48230.354701
554.514086	48434.637378
554.871902	48059.666272
555.229661	48244.119571
555.587365	47912.283099
555.945014	48052.472546
556.302606	48056.787774
556.660143	48169.220628
557.017625	48385.531498
557.375050	48092.713557
557.732421	48506.264612
558.089735	48557.495338
558.446994	48420.504503
558.804197	48923.568807
559.161345	48780.873906
559.518437	48112.346330
559.875474	48372.290908
560.232455	48611.894429
560.589381	48664.697995
560.946251	48441.594170
561.303065	49124.292430
561.659825	48825.929219
562.016528	48618.493300
562.373177	48205.554744
562.729770	48833.127987
563.086307	48347.581692
563.442789	48914.361140
563.799216	48755.660575
564.155587	48627.038056
564.511904	48611.357547
564.868164	48651.389349
565.224370	48980.327158
565.580520	48707.424295
565.936615	48908.896529
566.292654	48545.948575
566.648638	48933.131876
567.004567	48870.805570
567.360441	48956.376636
567.716260	48682.888999
568.072023	49052.609743
568.427732	48978.673660
568.783385	48514.615284
569.138982	48907.721940
569.494525	49063.513758
569.850013	48639.144387
570.205445	48772.409809
570.560823	48554.190862
570.916145	48419.153474
571.271412	48649.745933
571.626625	48306.493768
571.981782	48386.365809
572.336884	47963.508783
572.691931	48302.037388
573.046923	47964.209504
573.401860	47803.242941
573.756743	47809.683015
574.111570	47956.352866
574.466342	47875.732213
574.821059	48024.763844
575.175722	47525.818162
575.530330	47617.186555
575.884882	47250.251049
576.239380	47156.737645
576.593823	47230.913183
576.948211	47177.834874
577.302544	46721.986017
577.656823	46724.047849
578.011047	46965.337637
578.365216	46783.097405
578.719330	46519.137548
579.073389	46482.042218
579.427394	46543.461115
579.781344	46463.256358
580.135239	46225.076962
580.489080	46292.280584
580.842866	45764.728875
581.196597	46261.980729
581.550273	46246.340549
581.903895	46189.282249
582.257463	46631.940927
582.610975	46049.029787
582.964434	46402.727223
583.317837	45902.478404
583.671186	45831.604822
584.024481	46129.842004
584.377721	45656.984294
584.730906	45888.267391
585.084037	46001.020359
585.437113	45700.643207
585.790135	45823.102916
586.143103	45373.255553
586.496016	45531.033586
586.848874	45645.026677
587.201679	45667.212795
587.554428	45169.575293
587.907124	45428.577175
588.259765	45210.217075
588.612352	45369.709101
588.964884	44819.383979
589.317362	45139.272917
589.669786	45129.666999
590.022155	44979.559081
590.374470	45444.837417
590.726731	45003.431465
591.078937	44347.108522
591.431090	44693.029979
591.783188	44210.009302
592.135232	43991.170293
592.487222	44272.643118
592.839157	44425.203557
593.191038	44058.285695
593.542866	43861.973082
593.894639	43265.173563
594.246358	43553.436823
594.598022	43540.992734
594.949633	43135.421825
595.301190	43088.604629
595.652692	43048.688773
596.004141	43531.084347
596.355535	42417.664861
596.706876	42429.894700
597.058162	42137.225473
597.409395	42649.600788
597.760573	42866.637584
598.111698	42471.721154
598.462768	42402.107860
598.813785	42413.271496
599.164748	42001.336130
599.515657	42283.116465
599.866511	41771.134360
600.217312	42483.204902
600.568060	41403.356981
600.918753	42252.614964
601.269392	42162.111129
601.619978	41882.727862
601.970510	42081.251021
602.320988	42223.585479
602.671412	42499.989424
603.021783	42360.954401
603.372100	41913.247007
603.722363	42045.257183
604.072572	42056.897207
604.422728	42051.145250
604.772830	41835.996366
605.122878	42004.257478
605.472872	41861.809594
605.822813	42121.587813
606.172701	41865.242620
606.522534	42205.765000
606.872314	42413.833584
607.222041	42234.751635
607.571714	42582.641662
607.921333	42065.842734
608.270899	42290.529482
608.620411	42674.325127
608.969870	42410.624890
609.319276	42432.165740
609.668627	42456.638022
610.017926	42872.641599
610.367171	43004.866023
610.716362	43050.692632
611.065500	42945.987867
611.414585	43163.251515
611.763616	43332.099922
612.112594	43241.674225
612.461518	43359.238974
612.810389	43761.308802
613.159207	43535.853278
613.507971	43516.303683
613.856682	44009.701575
614.205340	43857.420920
614.553945	44539.138675
614.902496	43845.967419
615.250994	44287.116271
615.599439	44353.750243
615.947830	44463.685205
616.296169	44444.813646
616.644454	44490.741078
616.992686	44649.449204
617.340864	45114.712416
617.688990	44608.348677
618.037063	45303.029759
618.385082	45127.597605
618.733048	45458.380476
619.080961	45337.796076
619.428821	45357.096134
619.776628	45376.018105
620.124382	45170.838102
620.472083	45295.372246
620.819731	45370.770264
621.167326	44937.276403
621.514868	44923.173775
621.862357	44393.698866
622.209793	44479.748842
622.557176	44041.634764
622.904506	43792.546311
623.251783	43409.935337
623.599007	43096.854478
623.946179	43032.362997
624.293297	42756.185904
624.640363	42211.368243
624.987376	42053.965776
625.334336	41840.515760
625.681243	41432.351177
626.028097	41355.972655
626.374899	41168.217401
626.721647	41128.704837
627.068343	40910.133009
627.414987	40630.742181
627.761577	40354.386127
628.108115	40695.243744
628.454600	39928.217063
628.801032	40165.428557
629.147412	40049.461854
629.493739	39961.513884
629.840014	39524.902070
630.186236	39954.695724
630.532405	39382.713805
630.878521	39621.180547
631.224585	39395.722503
631.570597	39043.633195
631.916556	39211.049914
632.262462	39092.764280
632.608316	39021.348774
632.954117	38886.200481
633.299866	38831.395577
633.645562	38738.368644
633.991206	38212.273829
634.336797	37799.703277
634.682336	37687.761936
635.027823	37439.669111
635.373257	37313.771335
635.718639	36978.461507
636.063968	36875.511063
636.409245	36207.825360
636.754470	36154.918450
637.099642	35943.144618
637.444762	35369.781424
637.789829	35508.564389
638.134845	35132.632944
638.479808	35049.738731
638.824719	34990.421994
639.169577	34466.946058
639.514383	34573.868931
639.859137	34192.084707
640.203839	34359.529152
640.548489	34045.056934
640.893086	34050.796288
641.237632	33778.805873
641.582125	33878.797160
641.926566	33674.978268
642.270955	33705.502455
642.615292	33628.859272
642.959576	33524.177192
643.303809	33532.782442
643.647990	33620.072541
643.992118	33566.283430
644.336195	33409.415325
644.680219	33499.510827
645.024192	33704.012794
645.368112	34245.599075
645.711981	34253.017133
646.055797	35000.438767
646.399562	34795.200791
646.743274	35681.662489
647.086935	36102.263598
647.430544	36027.745262
647.774101	36064.061735
648.117606	36363.551643
648.461059	36507.622779
648.804460	36094.724553
649.147810	35587.730669
649.491108	35226.151389
649.834354	35071.307308
650.177548	34228.660798
650.520690	33730.304932
650.863781	33719.259764
651.206820	33546.569998
651.549807	33147.761796
651.892742	32540.128838
652.235626	32427.567434
652.578458	32309.314568
652.921238	31614.540224
653.263967	31920.248397
653.606644	31624.078088
653.949269	31530.179035
654.291843	31126.425462
654.634365	31505.316065
654.976836	31034.106812
655.319255	31115.798710
655.661622	30977.088841
656.003938	30845.580261
656.346203	30655.339717
656.688416	30906.711813
657.030577	30673.722285
657.372687	30487.776805
657.714746	30655.206127
658.056753	30853.343638
658.398708	30225.498173
658.740612	30283.947831
659.082465	30494.189153
659.424266	30392.940098
659.766016	30409.427192
660.107715	30266.369328
660.449362	30362.020181
660.790958	30353.767812
661.132503	30267.569122
661.473996	30359.832320
661.815438	30421.571331
662.156829	30549.374664
662.498168	30351.373264
662.839456	30333.298207
663.180693	30454.532916
663.521879	30540.724044
663.863013	30507.359167
664.204097	30485.825878
664.545129	30910.142318
664.886110	30831.490236
665.227040	30940.810178
665.567918	30934.007140
665.908746	31013.942196
666.249522	31089.801479
666.590248	31121.661572
666.930922	31224.554042
667.271545	31222.184700
667.612118	31269.566505
667.952639	31091.601171
668.293109	31114.576230
668.633528	30976.836783
668.973896	30943.665991
669.314213	30918.969378
669.654480	30732.587838
669.994695	30710.593284
670.334859	30634.045884
670.674973	30458.971652
671.015035	30641.484106
671.355047	30578.454560
671.695008	30517.600271
672.034918	30435.116912
672.374777	30527.296930
672.714585	30388.332483
673.054342	30540.156914
673.394049	30365.059997
673.733705	30595.473495
674.073310	30313.504116
674.412864	30377.244466
674.752368	30051.641380
675.091820	30298.909976
675.431223	29883.614681
675.770574	29680.115903
676.109875	29514.806386
676.449125	29315.138885
676.788324	29208.500837
677.127473	28717.588235
677.466571	28618.912689
677.805619	28339.549587
678.144616	28270.314380
678.483562	28230.285098
678.822458	27900.535663
679.161303	27844.485594
679.500098	27757.069466
679.838842	27688.613117
680.177535	27781.821531
680.516179	28019.703499
680.854771	28158.390682
681.193314	28956.362487
681.531805	29973.695059
681.870247	30734.251419
682.208638	31461.112707
682.546978	31732.097412
682.885268	31874.999000
683.223508	31417.642838
683.561697	31144.598822
683.899836	30980.284933
684.237925	30558.441179
684.575963	30406.783107
684.913951	30034.869461
685.251889	30212.106348
685.589776	30228.807691
685.927614	30234.557127
686.265401	30416.235270
686.603137	30531.700378
686.940824	31037.156710
687.278460	31367.856402
687.616046	31542.053473
687.953582	32204.876984
688.291068	32106.849227
688.628504	32449.929993
688.965889	32444.679631
689.303224	32154.704900
689.640510	31861.128265
689.977745	31219.212940
690.314930	30473.981687
690.652065	30031.368380
690.989150	29353.633136
691.326185	28508.566873
691.663170	27860.912194
692.000105	27105.444879
692.336990	26486.018141
692.673825	26063.256897
693.010610	25559.469188
693.347345	25053.896909
693.684030	24409.027468
694.020665	24216.977151
694.357251	23524.385627
694.693786	23536.383573
695.030272	23304.916473
695.366707	22797.083238
695.703093	22516.263242
696.039429	22586.587338
696.375716	22346.996420
696.711952	22338.224812
697.048139	22201.584337
697.384276	22027.072194
697.720363	22160.032626
698.056400	22033.368595
698.392388	21880.326726
698.728326	21871.398842
699.064214	21720.756563
699.400053	21709.618133
699.735842	21323.095224
700.071581	21121.436467
700.407270	20860.975171
700.742910	20682.871206
701.078501	20435.471540
701.414042	20224.360619
701.749533	19917.951727
702.084974	19599.290310
702.420366	19838.926599
702.755709	19429.388302
703.091002	19116.904819
703.426246	19183.193472
703.761440	19112.387945
704.096584	18875.884733
704.431679	18807.173806
704.766725	18757.914171
705.101721	18690.937401
705.436668	18800.446386
705.771565	18533.613072
706.106413	18857.174491
706.441212	18929.653680
706.775961	19030.184370
707.110661	19106.903170
707.445311	19480.372011
707.779913	19354.421303
708.114465	19657.462705
708.448967	19967.042483
708.783421	20617.313521
709.117825	20992.579533
709.452180	21207.796473
709.786485	21679.353566
710.120742	22453.450465
710.454949	22550.737173
710.789107	23054.804667
711.123216	23785.698878
711.457275	23992.557584
711.791286	24568.280039
712.125247	24707.647778
712.459159	24437.812457
712.793023	25180.903739
713.126837	24142.932683
713.460602	24410.870010
713.794318	24056.560074
714.127985	23780.758547
714.461602	22867.016645
714.795171	22859.220500
715.128691	21855.040298
715.462162	21339.340342
715.795584	20896.497662
716.128957	20639.570215
716.462281	20251.764332
716.795556	19968.726228
717.128782	19487.865687
717.461960	18884.147184
717.795088	18832.896294
718.128167	18492.230240
718.461198	18034.952216
718.794180	17891.039877
719.127113	17560.078044
719.459997	17360.491202
719.792833	16987.070251
720.125619	17032.140687
720.458357	16682.418201
720.791046	16546.511214
721.123686	16398.041671
721.456278	16175.850295
721.788821	16163.713717
722.121315	15886.384720
722.453761	15995.190464
722.786158	15869.481732
723.118506	15956.587829
723.450805	15843.950808
723.783056	16018.979669
724.115259	15908.165026
724.447412	15904.626136
724.779518	16131.604087
725.111574	16176.430027
725.443582	16449.519414
725.775542	16401.739358
726.107453	16919.748162
726.439315	16855.503697
726.771129	17269.521060
727.102895	17695.488478
727.434612	17975.511971
727.766281	18142.404410
728.097901	18468.975397
728.429473	18547.940031
728.760996	18569.309483
729.092471	18687.317853
729.423897	18585.080732
729.755276	18462.989027
730.086606	18573.274350
730.417887	19160.367127
730.749120	19726.418128
731.080305	19945.035326
731.411442	20348.524239
731.742530	20468.586879
732.073570	20629.591251
732.404562	20962.181376
732.735506	20790.797268
733.066401	20574.501522
733.397249	20077.242106
733.728048	19449.457135
734.058798	18583.817923
734.389501	17805.599881
734.720156	17289.090819
735.050762	16690.728543
735.381320	16298.889737
735.711831	16028.661205
736.042293	15639.267359
736.372707	15689.542786
736.703073	15473.814169
737.033391	15679.326888
737.363661	15672.581824
737.693883	15802.041175
738.024056	16002.144736
738.354182	16220.489712
738.684260	16586.114518
739.014290	16870.579268
739.344272	17088.601610
739.674207	17444.829706
740.004093	17628.713354
740.333931	17672.223553
740.663722	17763.856606
740.993464	17794.698385
741.323159	17640.955796
741.652806	17340.437492
741.982405	17167.251172
742.311956	16804.777087
742.641460	16699.754729
742.970915	16352.242788
743.300323	16004.274624
743.629683	15778.612413
743.958996	15462.355626
744.288260	15140.730011
744.617477	14836.390512
744.946647	14803.370954
745.275768	14482.199043
745.604842	14265.245425
745.933869	14096.334004
746.262847	14061.844950
746.591778	13985.521881
746.920662	13872.534500
747.249498	13864.740876
747.578286	14037.105487
747.907027	14211.337847
748.235720	14481.037057
748.564365	14556.727461
748.892963	14470.911899
749.221514	14583.412809
749.550017	14444.410554
749.878473	14414.183795
750.206881	14182.212580
750.535242	14111.049132
750.863555	14027.124003
751.191821	13927.213375
751.520039	13936.118573
751.848210	13866.399415
752.176334	13910.600252
752.504411	13837.306917
752.832440	13655.686746
753.160421	13773.611938
753.488356	13658.091377
753.816243	13566.995206
754.144082	13401.511769
754.471875	13351.803472
754.799620	13318.035303
755.127318	13295.632415
755.454969	13275.792954
755.782572	13251.973502
756.110129	13268.931944
756.437638	13170.785720
756.765100	13174.974918
757.092515	13201.294783
757.419882	13231.672776
757.747203	13247.663316
758.074477	13338.540196
758.401703	13314.561948
758.728882	13518.920243
759.056014	13554.561200
759.383099	13730.608375
759.710138	13853.015152
760.037129	13984.405265
760.364073	14041.428277
760.690970	14066.671855
761.017820	14086.962499
761.344623	14318.331296
761.671379	14707.851171
761.998088	15426.054278
762.324751	17237.978560
762.651366	20703.514731
762.977935	25247.633493
763.304456	28251.722605
763.630931	29341.350365
763.957359	28111.802859
764.283740	25809.679297
764.610074	23510.953472
764.936362	20817.061680
765.262602	18915.795548
765.588796	16961.987990
765.914943	15651.030891
766.241044	14517.361091
766.567097	13720.064802
766.893104	12994.247032
767.219064	12515.249197
767.544978	12022.322653
767.870845	11631.673559
768.196665	11405.726523
768.522438	11171.804382
768.848165	10962.125150
769.173846	10749.333005
769.499479	10616.077664
769.825066	10452.008271
770.150607	10215.217713
770.476101	10138.105704
770.801548	10010.950160
771.126949	9852.640285
771.452303	9736.683664
771.777611	9535.029948
772.102872	9523.848669
772.428087	9381.138645
772.753256	9221.134942
773.078378	9130.711766
773.403453	8946.145041
773.728482	8832.673709
774.053465	8757.810054
774.378401	8651.560175
774.703291	8534.459213
775.028135	8406.774347
775.352932	8363.339766
775.677683	8264.497862
776.002388	8154.058784
776.327046	8159.898961
776.651658	8060.285761
776.976224	7959.490411
777.300743	7959.019063
777.625216	7873.611834
777.949643	7825.249525
778.274024	7840.811567
778.598359	7752.195644
778.922647	7771.422605
779.246889	7716.421096
779.571086	7728.701346
779.895236	7741.808346
780.219339	7750.821929
780.543397	7746.068121
780.867409	7834.704209
781.191374	7838.301072
781.515294	7807.643295
781.839167	7899.730052
782.162995	7874.211732
782.486776	7814.269892
782.810511	7765.653004
783.134201	7679.540014
783.457844	7671.199425
783.781441	7623.106817
784.104993	7546.521608
784.428498	7530.914196
784.751958	7509.640527
785.075372	7487.948442
785.398739	7423.393946
785.722061	7477.039385
786.045337	7474.581822
786.368568	7637.887480
786.691752	7662.621902
787.014891	8009.155858
787.337983	8378.352322
787.661030	8973.773085
787.984031	9614.032391
788.306987	10033.010249
788.629897	10234.916022
788.952760	10187.093116
789.275579	9961.987953
789.598351	9557.324451
789.921078	9193.731230
790.243759	8778.440976
790.566395	8483.946851
790.888984	8229.091318
791.211529	8011.701641
791.534027	7786.772918
791.856480	7583.029644
792.178888	7507.387131
792.501249	7403.935092
792.823566	7245.206802
793.145836	7245.017758
793.468062	7216.590692
793.790241	7172.586460
794.112375	7239.227993
794.434464	7396.809421
794.756507	7441.526976
795.078505	7602.231399
795.400457	7918.941890
795.722364	8273.745859
796.044226	8566.369716
796.366042	8845.720216
796.687812	8791.641238
797.009538	8868.360037
797.331218	8766.556456
797.652852	8683.574023
797.974442	8528.261114
798.295986	8438.180736
798.617484	8239.652536
798.938938	8091.699711
799.260346	7990.498548
799.581709	7789.885831
799.903026	7707.838531
800.224299	7600.988755
800.545526	7426.602640
800.866708	7325.716549
801.187845	7258.180211
801.508936	7150.365054
801.829983	7108.899043
802.150984	6956.762061
802.471940	6912.662047
802.792851	6893.949284
803.113717	6861.829572
803.434538	6827.458985
803.755314	6765.029336
804.076045	6776.717251
804.396731	6716.770370
804.717372	6748.068374
805.037967	6750.878817
805.358518	6794.865405
805.679024	6873.409103
805.999485	6887.635239
806.319901	6930.263236
806.640272	6949.326359
806.960598	7031.403905
807.280879	7040.767848
807.601115	7110.655885
807.921306	7061.630664
808.241453	7072.980822
808.561554	7096.459996
808.881611	7052.496093
809.201623	7066.097126
809.521590	7014.707604
809.841513	6993.975858
810.161390	7038.179216
810.481223	6896.174953
810.801011	6878.828343
811.120755	6857.816814
811.440453	6775.199864
811.760107	6741.119143
812.079716	6713.589402
812.399281	6648.548435
812.718801	6635.557382
813.038276	6592.054745
813.357707	6531.386979
813.677093	6571.902732
813.996434	6476.264482
814.315731	6523.558067
814.634983	6513.969792
814.954191	6527.059148
815.273354	6633.543441
815.592473	6698.211362
815.911547	6827.390930
816.230577	6913.597181
816.549562	7058.795015
816.868502	7163.789646
817.187399	7268.501973
817.506250	7422.015190
817.825058	7461.489946
818.143821	7734.138231
818.462539	8012.679625
818.781213	8387.123930
819.099843	8951.536555
819.418429	9975.205858
819.736970	10959.604573
820.055466	12169.564675
820.373919	13743.990118
820.692327	16147.405584
821.010691	20373.319154
821.329011	29519.202272
821.647286	42659.559587
821.965517	56060.030358
822.283704	61319.846773
822.601847	63292.898936
822.919945	60665.452072
823.237999	56597.228315
823.556010	50559.445915
823.873976	43794.391374
824.191897	37168.565939
824.509775	32246.254775
824.827609	27644.785326
825.145398	24988.727393
825.463144	23613.946766
825.780845	23913.577827
826.098502	25711.190274
826.416116	29557.515042
826.733685	33267.022893
827.051210	34462.086386
827.368692	32673.011133
827.686129	28654.160437
828.003522	24441.321100
828.320872	20662.202475
828.638177	17743.959172
828.955439	15541.297575
829.272656	13686.160521
829.589830	12179.097497
829.906960	10878.260514
830.224046	9921.293238
830.541088	9154.763111
830.858086	8690.377060
831.175041	8294.296123
831.491952	8184.983743
831.808819	8228.385557
832.125642	8638.004512
832.442421	9549.833297
832.759157	11379.862884
833.075849	14360.019118
833.392497	17652.515162
833.709101	19871.338698
834.025662	19698.780002
834.342179	17998.020723
834.658653	15751.191057
834.975083	13778.587557
835.291469	12130.888942
835.607811	10780.618405
835.924110	9848.163740
836.240366	8964.978792
836.556578	8139.167216
836.872746	7483.497103
837.188871	6966.826724
837.504952	6541.270161
837.820990	6220.993054
838.136984	5997.697665
838.452935	5899.362398
838.768842	5935.636020
839.084706	6364.907914
839.400526	7595.529185
839.716303	9211.478612
840.032037	10332.890847
840.347727	10257.381924
840.663373	9261.703628
840.978977	8199.046041
841.294537	7368.377313
841.610054	6760.215034
841.925527	6316.648948
842.240957	5951.329132
842.556344	5609.362461
842.871687	5315.132996
843.186987	5028.964336
843.502244	4799.599398
843.817458	4631.310559
844.132629	4491.037933
844.447756	4398.449581
844.762840	4316.122497
845.077881	4242.914861
845.392879	4175.318029
845.707833	4127.996718
846.022745	4079.072320
846.337613	4053.062487
846.652438	4007.475332
846.967221	3990.290039
847.281960	3955.700162
847.596656	3941.910085
847.911309	3918.483843
848.225919	3892.486613
848.540485	3878.318450
848.855009	3859.411603
849.169490	3840.103983
849.483928	3830.775328
849.798323	3823.034637
850.112675	3802.013025
850.426984	3807.207934
850.741251	3792.938948
851.055474	3788.694297
851.369654	3796.709731
851.683792	3790.756128
851.997887	3791.227476
852.311938	3799.280720
852.625947	3799.174855
852.939914	3789.319400
853.253837	3801.667706
853.567718	3798.637973
853.881555	3788.646406
854.195350	3800.745175
854.509103	3798.862304
854.822812	3797.057571
855.136479	3789.538690
855.450103	3797.503713
855.763685	3784.943678
856.077224	3785.538534
856.390720	3805.824137
856.704173	3828.161490
857.017584	3840.466947
857.330953	3851.728884
857.644278	3875.760065
857.957561	3878.154613
858.270802	3879.997154
858.584000	3881.033112
858.897155	3872.117831
859.210268	3854.441025
859.523339	3830.989577
859.836367	3838.009384
860.149352	3829.409176
860.462295	3821.534893
860.775195	3810.550219
861.088054	3802.275165
861.400869	3802.106286
861.713642	3803.890855
862.026373	3811.515600
862.339062	3816.644974
862.651708	3837.049044
862.964312	3871.991802
863.276873	3885.920510
863.589392	3943.926547
863.901869	3989.059997
864.214303	4041.578738
864.526696	4071.810538
864.839045	4119.267960
865.151353	4146.714522
865.463619	4154.117457
865.775842	4162.669774
866.088023	4180.727187
866.400162	4167.405938
866.712258	4178.017567
867.024313	4180.212989
867.336325	4179.184594
867.648296	4186.058207
867.960224	4187.507539
868.272110	4200.228891
868.583954	4198.091442
868.895755	4214.344122
869.207515	4213.713977
869.519233	4254.242334
869.830909	4269.960651
870.142542	4294.029640
870.454134	4307.575221
870.765684	4333.988346
871.077191	4377.785891
871.388657	4401.204571
871.700081	4438.070529
872.011463	4482.475533
872.322803	4517.443497
872.634101	4551.730904
872.945357	4587.384465
873.256571	4644.213392
873.567744	4676.217157
873.878874	4697.896640
874.189963	4731.478286
874.501010	4746.765585
874.812015	4739.844081
875.122979	4783.750010
875.433900	4784.322181
875.744780	4799.186023
876.055618	4827.126618
876.366415	4826.458666
876.677169	4847.041697
876.987882	4896.639089
877.298554	4949.246050
877.609183	5032.120098
877.919771	5149.203417
878.230317	5296.609276
878.540822	5518.941805
878.851285	5851.292475
879.161707	6320.392005
879.472087	7099.388906
879.782425	8372.290334
880.092722	10596.369273
880.402977	13957.603971
880.713191	17794.945402
881.023363	21560.836039
881.333494	23818.491583
881.643583	25040.041298
881.953631	25049.412803
882.263637	24208.341654
882.573602	22704.315925
882.883526	21138.614199
883.193408	19433.917779
883.503248	17706.110189
883.813048	16118.217303
884.122806	14666.722918
884.432522	13171.735977
884.742197	11864.605114
885.051831	10749.048179
885.361424	9725.230162
885.670975	8893.439778
885.980485	8184.404010
886.289954	7596.378620
886.599382	7111.780062
886.908768	6727.208079
887.218113	6352.562128
887.527417	6062.151337
887.836680	5786.027177
888.145901	5562.653650
888.455082	5395.002517
888.764221	5236.173403
889.073319	5106.212457
889.382376	5025.306979
889.691392	4965.513853
890.000366	4942.072488
890.309300	4925.819808
890.618193	4924.468779
890.927044	4910.953445
891.235855	4933.134522
891.544625	4964.334223
891.853353	5026.844531
892.162041	5147.441534
892.470687	5342.972768
892.779293	5593.329071
893.087858	5978.251414
893.396381	6567.650519
893.704864	7387.790797
894.013306	8559.312101
894.321707	9769.972923
894.630068	10605.581982
894.938387	10824.446197
895.246665	10583.037942
895.554903	9968.160846
895.863100	9253.053008
896.171256	8680.153600
896.479371	8159.107500
896.787446	7653.167218
897.095480	7212.046092
897.403473	6887.204220
897.711425	6560.542492
898.019336	6288.284896
898.327207	6002.305280
898.635038	5769.161997
898.942827	5515.755796
899.250576	5319.090302
899.558284	5118.081854
899.865952	4993.789685
900.173579	4843.722097
900.481165	4733.857711
900.788711	4636.218122
901.096216	4561.079724
901.403681	4498.561855
901.711105	4470.089418
902.018489	4455.550730
902.325832	4531.692318
902.633135	4656.498684
902.940397	5008.517416
903.247619	5813.544315
903.554800	7291.852598
903.861941	9248.468079
904.169041	10800.808227
904.476101	11453.032711
904.783121	11090.266239
905.090100	10339.638432
905.397039	9484.361311
905.703938	8709.861119
906.010796	8004.018922
906.317614	7433.377951
906.624391	6887.229426
906.931129	6448.898578
907.237826	6041.648965
907.544483	5653.792670
907.851099	5271.685812
908.157675	4908.516047
908.464211	4574.814348
908.770707	4335.828368
909.077163	4132.163232
909.383578	3986.708299
909.689954	3864.828322
909.996289	3791.277888
910.302584	3725.720203
910.608839	3693.877754
910.915054	3662.347858
911.221229	3647.647853
911.527363	3658.478772
911.833458	3672.843540
912.139513	3699.475956
912.445527	3734.877459
912.751502	3818.600942
913.057436	3919.824790
913.363331	4059.563054
913.669186	4269.217081
913.975000	4535.599212
914.280775	4966.602743
914.586510	5560.485954
914.892205	6375.121292
915.197859	7435.369207
915.503475	8687.170886
915.809050	9768.188355
916.114585	10434.084449
916.420081	10703.927332
916.725536	10669.377784
917.030952	10221.899763
917.336328	9798.546183
917.641665	9382.582936
917.946961	8882.351760
918.252218	8453.364691
918.557435	7934.897142
918.862612	7493.287023
919.167750	7109.065401
919.472848	6673.431571
919.777906	6285.860101
920.082925	5917.739924
920.387904	5544.928953
920.692843	5273.039361
920.997743	5024.472668
921.302603	4778.184576
921.607423	4615.156182
921.912204	4444.631591
922.216946	4324.700020
922.521647	4202.938511
922.826310	4089.857868
923.130932	3992.646778
923.435516	3895.413003
923.740059	3822.124708
924.044564	3741.589755
924.349028	3682.598173
924.653454	3616.985035
924.957840	3545.025084
925.262186	3496.052795
925.566493	3434.462498
925.870761	3376.106101
926.174989	3338.350379
926.479178	3302.369144
926.783328	3258.727875
927.087438	3229.690829
927.391509	3194.778318
927.695541	3166.131961
927.999533	3133.843371
928.303486	3115.223869
928.607400	3101.229626
928.911275	3089.458532
929.215110	3066.067578
929.518906	3059.796382
929.822663	3058.737740
930.126381	3058.140363
930.430060	3063.632701
930.733699	3063.925087
931.037299	3077.052252
931.340861	3072.452199
931.644383	3084.722368
931.947866	3083.101637
932.251309	3075.580235
932.554714	3075.169381
932.858080	3065.787794
933.161407	3058.851166
933.464694	3052.549724
933.767943	3048.675597
934.071153	3039.046993
934.374323	3032.460726
934.677455	3024.490662
934.980548	3018.799199
935.283602	3011.653363
935.586617	3006.455934
935.889593	3017.952285
936.192530	3022.373377
936.495428	3039.997251
936.798287	3061.333934
937.101108	3093.201588
937.403890	3147.903149
937.706632	3207.265256
938.009336	3292.480921
938.312002	3366.848022
938.614628	3430.686674
938.917216	3486.837566
939.219765	3514.778161
939.522275	3549.751166
939.824747	3555.976991
940.127179	3556.680232
940.429573	3549.751166
940.731929	3543.958880
941.034246	3530.587220
941.336524	3517.754963
941.638763	3503.685102
941.940964	3485.889829
942.243126	3444.149075
942.545250	3422.247782
942.847335	3382.556258
943.149381	3346.406143
943.451389	3315.014878
943.753359	3277.813683
944.055290	3252.033223
944.357182	3224.594222
944.659036	3211.842624
944.960851	3200.989019
945.262628	3187.932431
945.564367	3188.923018
945.866067	3182.679549
946.167729	3180.773992
946.469352	3179.828776
946.770937	3173.199659
947.072484	3154.824653
947.373992	3157.380518
947.675462	3154.018068
947.976893	3134.987713
948.278286	3127.234418
948.579641	3120.844756
948.880958	3113.724126
949.182236	3118.072121
949.483476	3109.015688
949.784678	3109.126593
950.085841	3114.165227
950.386967	3122.301649
950.688054	3139.401243
950.989103	3159.142401
951.290114	3182.644261
951.591087	3209.069989
951.892021	3240.390678
952.192917	3265.258690
952.493776	3294.595685
952.794596	3297.937970
953.095378	3305.454330
953.396122	3298.449647
953.696828	3292.395221
953.997496	3281.655043
954.298126	3255.188985
954.598718	3235.115110
954.899272	3210.685679
955.199788	3178.051769
955.500266	3149.410454
955.800706	3113.121708
956.101108	3071.360789
956.401472	3041.580173
956.701798	3006.811335
957.002087	2966.192238
957.302337	2936.328443
957.602550	2906.462127
957.902724	2873.407281
958.202861	2850.893488
958.502960	2831.137206
958.803022	2807.952939
959.103045	2788.456277
959.403031	2770.978596
959.702979	2756.833119
960.002889	2742.818711
960.302762	2731.360168
960.602596	2716.642520
960.902393	2708.700182
961.202153	2699.994109
961.501875	2693.135619
961.801559	2686.115812
962.101205	2681.384690
962.400814	2673.437311
962.700385	2665.459685
962.999918	2662.172852
963.299414	2653.696152
963.598873	2653.870072
963.898293	2644.632157
964.197677	2649.000317
964.497022	2644.833804
964.796331	2640.256436
965.095601	2637.496404
965.394835	2635.994140
965.694030	2635.356434
965.993189	2632.125055
966.292309	2633.143368
966.591393	2630.917698
966.890439	2629.980044
967.189447	2633.052627
967.488419	2629.042389
967.787353	2633.806280
968.086249	2633.413070
968.385108	2633.488687
968.683930	2639.379275
968.982714	2642.136786
969.281462	2647.813126
969.580172	2650.754639
969.878844	2656.748571
970.177480	2666.477998
970.476078	2672.408915
970.774639	2679.733712
971.073162	2687.910463
971.371649	2693.357430
971.670098	2701.821527
971.968510	2707.848227
972.266885	2708.385110
972.565223	2714.633620
972.863524	2715.102447
973.161788	2717.174361
973.460014	2721.106461
973.758204	2727.319683
974.056356	2727.667523
974.354471	2730.898903
974.652550	2729.731876
974.950591	2727.733058
975.248595	2727.886813
975.546563	2726.046792
975.844493	2723.627038
976.142386	2714.588249
976.440243	2707.686910
976.738062	2705.045345
977.035845	2697.171063
977.333590	2693.284333
977.631299	2687.481965
977.928971	2680.232786
978.226606	2675.136179
978.524204	2671.584687
978.821765	2666.402380
979.119290	2670.866322
979.416777	2668.378513
979.714228	2673.891014
980.011642	2675.189112
980.309020	2685.284022
980.606360	2698.123841
980.903664	2722.255844
981.200931	2761.849067
981.498162	2809.520738
981.795356	2887.172151
982.092513	2978.611120
982.389633	3086.701021
982.686717	3183.977646
982.983764	3260.381373
983.280775	3312.854744
983.577749	3319.095692
983.874686	3304.385605
984.171587	3272.691871
984.468451	3228.274265
984.765279	3184.990918
985.062070	3137.283958
985.358824	3091.984150
985.655543	3031.195396
985.952224	2978.848055
986.248869	2911.732653
986.545478	2851.364836
986.842050	2796.940539
987.138586	2749.495719
987.435086	2709.592466
987.731549	2676.943433
988.027975	2651.069711
988.324366	2636.513379
988.620719	2619.290277
988.917037	2607.791405
989.213318	2596.952924
989.509563	2592.725917
989.805772	2589.900350
990.101944	2583.868610
990.398080	2584.796182
990.694180	2579.215625
990.990244	2582.043712
991.286271	2580.617065
991.582262	2580.896849
991.878217	2584.884402
992.174136	2587.115113
992.470019	2587.828436
992.765865	2594.465115
993.061676	2595.874118
993.357450	2609.011364
993.653188	2613.598814
993.948890	2632.742596
994.244556	2651.044505
994.540186	2674.410253
994.835780	2707.334029
995.131337	2744.699061
995.426859	2788.448715
995.722345	2836.266580
996.017795	2890.116185
996.313208	2929.338883
996.608586	2955.474745
996.903928	2966.784573
997.199234	2969.872280
997.494504	2967.076960
997.789738	2951.570371
998.084936	2926.316711
998.380099	2893.700446
998.675225	2867.574666
998.970316	2836.541323
999.265371	2793.497431
999.560390	2757.135588
999.855373	2726.487893
1000.150320	2698.874973
1000.445232	2674.380006
1000.740108	2651.586429
1001.034948	2629.869138
1001.329752	2617.500667
1001.624521	2602.072216
1001.919254	2589.693663
1002.213951	2582.920873
1002.508613	2574.955850
1002.803239	2567.812535
1003.097829	2562.816751
1003.392384	2558.342727
1003.686903	2553.846018
1003.981386	2550.836449
1004.275834	2543.851930
1004.570246	2541.482588
1004.864623	2540.320602
1005.158964	2539.017464
1005.453270	2538.692309
1005.747540	2536.436393
1006.041775	2530.132430
1006.335974	2531.349869
1006.630138	2528.249559
1006.924266	2529.303160
1007.218359	2529.156967
1007.512416	2524.304856
1007.806438	2523.394928
1008.100425	2521.242355
1008.394376	2521.754033
1008.688292	2525.156811
1008.982172	2523.163035
1009.276017	2522.505164
1009.569827	2523.455422
1009.863602	2521.990967
1010.157341	2521.441481
1010.451045	2519.450225
1010.744714	2521.869979
1011.038347	2520.403003
1011.331945	2518.207581
1011.625508	2519.372087
1011.919036	2516.546521
1012.212528	2516.975019
1012.505986	2516.092817
1012.799408	2514.343536
1013.092795	2514.991325
1013.386147	2515.034174
1013.679464	2514.194822
1013.972745	2512.528721
1014.265992	2514.456962
1014.559204	2513.035357
1014.852380	2509.032681
1015.145521	2513.804133
1015.438628	2511.134842
1015.731699	2512.082579
1016.024736	2513.289935
1016.317737	2516.924607
1016.610703	2517.708507
1016.903635	2518.099196
1017.196531	2517.925276
1017.489393	2521.181862
1017.782219	2520.438291
1018.075011	2523.190761
1018.367768	2522.779907
1018.660490	2522.142201
1018.953177	2522.142201
1019.245829	2522.142201
