Dividing Wavelength (nm)	Counts (n)	Blue Motor Position (mm): 1.400000	Red Motor Position (mm): 0.000000	
326.493990	2064.176060
326.888308	2064.176060
327.282561	2064.176060
327.676750	2041.059849
328.070874	2040.013809
328.464933	2047.973791
328.858929	2055.684236
329.252859	2068.287121
329.646726	2079.710375
330.040528	2097.467840
330.434265	2113.745725
330.827938	2135.026956
331.221547	2154.752991
331.615091	2173.556495
332.008571	2197.733869
332.401986	2214.838504
332.795338	2235.267780
333.188625	2255.530698
333.581847	2274.898811
333.975006	2291.867335
334.368100	2310.774182
334.761129	2328.249342
335.154095	2341.517659
335.546996	2356.497448
335.939833	2369.138141
336.332606	2383.460059
336.725315	2397.285423
337.117960	2408.290262
337.510540	2418.115471
337.903056	2423.123857
338.295508	2431.295568
338.687896	2436.024170
339.080220	2442.093719
339.472480	2448.180913
339.864676	2449.811726
340.256807	2454.162242
340.648875	2457.875052
341.040879	2455.193158
341.432818	2460.841771
341.824694	2459.483180
342.216506	2458.389249
342.608253	2459.475618
342.999937	2459.183231
343.391557	2460.733386
343.783113	2456.745833
344.174605	2453.837087
344.566033	2453.650565
344.957397	2449.804164
345.348697	2448.836263
345.739934	2448.652261
346.131106	2446.177054
346.522215	2446.388783
346.913260	2443.021292
347.304241	2442.088678
347.695159	2439.590787
348.086012	2438.489294
348.476802	2436.944181
348.867528	2433.380085
349.258191	2429.347162
349.648789	2432.268511
350.039324	2426.055288
350.429796	2431.242636
350.820203	2431.540064
351.210548	2429.619384
351.600828	2426.692994
351.991045	2428.838005
352.381198	2428.512851
352.771288	2425.251224
353.161314	2428.338931
353.551276	2427.965886
353.941175	2428.081832
354.331010	2429.616864
354.720782	2425.926739
355.110490	2427.222316
355.500135	2428.162491
355.889717	2429.150557
356.279235	2429.778181
356.668689	2430.199117
357.058080	2427.943201
357.447408	2430.894796
357.836672	2429.400094
358.225873	2430.751123
358.615010	2430.990578
359.004084	2431.943356
359.393095	2433.528799
359.782043	2434.181628
360.170927	2432.465116
360.559748	2434.428645
360.948505	2435.172215
361.337199	2434.166505
361.725830	2436.671958
362.114398	2436.679520
362.502903	2435.777154
362.891344	2437.531475
363.279722	2435.983841
363.668037	2437.113059
364.056289	2433.952256
364.444478	2439.689089
364.832603	2437.060127
365.220665	2439.943667
365.608665	2438.756476
365.996601	2437.299582
366.384474	2436.200611
366.772284	2437.649942
367.160031	2440.019285
367.547715	2442.098761
367.935336	2442.020623
368.322893	2441.602207
368.710388	2437.450817
369.097820	2439.784871
369.485189	2436.997113
369.872495	2445.022630
370.259738	2442.887701
370.646918	2441.461055
371.034035	2440.530962
371.421090	2443.001127
371.808081	2444.571447
372.195010	2441.662701
372.581875	2441.501384
372.968678	2445.367949
373.355418	2444.311827
373.742096	2444.120263
374.128710	2444.324430
374.515262	2445.178906
374.901751	2445.849379
375.288177	2446.726540
375.674540	2445.637651
376.060841	2445.342743
376.447079	2445.196550
376.833254	2447.777620
377.219367	2448.508588
377.605417	2447.921293
377.991404	2445.541869
378.377329	2446.235027
378.763191	2447.986828
379.148991	2447.119750
379.534727	2449.839452
379.920402	2448.576643
380.306013	2448.211160
380.691563	2449.484051
381.077049	2448.606890
381.462474	2449.158897
381.847835	2449.045471
382.233134	2452.201233
382.618371	2445.504060
383.003545	2451.261058
383.388657	2453.131326
383.773706	2451.485389
384.158693	2450.197374
384.543618	2452.135698
384.928480	2452.019751
385.313280	2449.932714
385.698017	2450.545214
386.082692	2453.436316
386.467305	2451.374484
386.851856	2453.958075
387.236344	2453.464042
387.620770	2450.520008
388.005133	2450.303238
388.389435	2451.785338
388.773674	2447.331478
389.157851	2454.434464
389.541965	2453.892540
389.926018	2455.611573
390.310008	2451.674432
390.693936	2454.104268
391.077802	2452.526387
391.461606	2454.736933
391.845348	2454.348764
392.229027	2452.906994
392.612645	2455.646862
392.996200	2456.803806
393.379694	2457.844805
393.763125	2456.612242
394.146494	2455.946810
394.529801	2459.760443
394.913047	2455.626697
395.296230	2456.680298
395.679351	2457.292798
396.062410	2458.038889
396.445408	2456.871862
396.828343	2457.537294
397.211217	2458.744651
397.594028	2457.559979
397.976778	2455.949331
398.359466	2458.905968
398.742092	2456.859259
399.124656	2456.619804
399.507158	2458.676595
399.889598	2456.017386
400.271977	2456.425720
400.654294	2457.665844
401.036549	2458.311111
401.418742	2459.397480
401.800874	2457.585185
402.182944	2461.164404
402.564952	2459.195834
402.946898	2458.842953
403.328783	2462.449899
403.710606	2458.442181
404.092367	2459.848663
404.474067	2459.808334
404.855705	2461.232460
405.237282	2457.630556
405.618797	2461.892851
406.000250	2461.774384
406.381642	2462.270938
406.762972	2456.922273
407.144240	2458.379167
407.525447	2457.315483
407.906593	2455.664506
408.287677	2459.715073
408.668700	2463.311936
409.049661	2463.261524
409.430560	2463.400156
409.811399	2463.574076
410.192176	2463.274127
410.572891	2462.805300
410.953545	2462.875876
411.334138	2461.996195
411.714669	2463.984930
412.095139	2464.380661
412.475547	2460.725824
412.855894	2465.950980
413.236180	2462.127265
413.616405	2466.515589
413.996568	2464.516772
414.376670	2461.189610
414.756711	2466.744962
415.136691	2463.874025
415.516609	2462.192800
415.896466	2464.141206
416.276262	2465.913171
416.655997	2465.028449
417.035670	2462.016359
417.415283	2465.744293
417.794834	2465.346042
418.174324	2464.836885
418.553753	2468.247226
418.933121	2466.197997
419.312428	2466.921402
419.691674	2467.748151
420.070859	2468.148923
420.449983	2463.518623
420.829045	2466.586165
421.208047	2465.593058
421.586988	2467.246557
421.965867	2467.218830
422.344686	2466.795373
422.723444	2468.713532
423.102141	2465.555249
423.480777	2466.296299
423.859352	2466.530713
424.237866	2468.322843
424.616319	2468.705971
424.994712	2468.171608
425.373044	2470.198152
425.751314	2467.062554
426.129524	2465.220013
426.507673	2466.558439
426.885762	2464.395784
427.263789	2471.521455
427.641756	2468.010291
428.019662	2468.501804
428.397508	2470.553553
428.775292	2467.594396
429.153016	2469.139510
429.530679	2468.153964
429.908282	2467.980044
430.285824	2472.562453
430.663305	2469.396609
431.040726	2469.580611
431.418086	2470.230920
431.795385	2469.358800
432.172624	2471.027422
432.549802	2470.019191
432.926920	2474.057155
433.303977	2471.246712
433.680974	2473.084213
434.057910	2469.615899
434.434786	2470.959366
434.811601	2468.723615
435.188355	2470.760241
435.565050	2470.120014
435.941683	2472.922896
436.318257	2471.972638
436.694770	2471.264356
437.071222	2470.248564
437.447614	2470.450210
437.823946	2472.040694
438.200218	2471.357618
438.576429	2473.376600
438.952580	2470.425004
439.328670	2473.026239
439.704700	2475.617393
440.080670	2472.265025
440.456580	2474.536065
440.832429	2473.260653
441.208218	2472.186887
441.583947	2471.503811
441.959616	2473.477423
442.335224	2476.522280
442.710773	2473.779892
443.086261	2473.109418
443.461689	2472.242340
443.837057	2471.574387
444.212365	2474.253760
444.587612	2471.095477
444.962800	2470.175467
445.337927	2470.344346
445.712995	2470.346866
446.088002	2473.926085
446.462949	2473.709316
446.837837	2474.039511
447.212664	2475.088071
447.587431	2475.196456
447.962139	2475.375417
448.336786	2476.759214
448.711374	2474.357104
449.085901	2476.610500
449.460369	2475.995479
449.834776	2473.439614
450.209124	2474.480612
450.583412	2474.697382
450.957640	2474.629326
451.331808	2477.318782
451.705917	2476.648308
452.079965	2473.041363
452.453954	2474.349542
452.827883	2475.022536
453.201752	2476.630664
453.575562	2477.044039
453.949311	2472.496918
454.323001	2476.391210
454.696632	2476.333236
455.070202	2476.217290
455.443713	2475.002372
455.817164	2480.076293
456.190556	2476.103864
456.563888	2476.928092
456.937160	2478.571509
457.310373	2475.418267
457.683526	2474.130252
458.056619	2474.853658
458.429653	2477.946406
458.802628	2474.896508
459.175542	2476.880202
459.548398	2478.730305
459.921194	2478.790799
460.293930	2478.206025
460.666607	2478.180819
461.039224	2479.483957
461.411782	2475.352732
461.784280	2476.998669
462.156719	2476.330716
462.529099	2478.687455
462.901419	2476.285345
463.273680	2475.413226
463.645882	2474.165540
464.018024	2474.412557
464.390106	2473.858030
464.762130	2479.178968
465.134094	2476.297948
465.505999	2477.253247
465.877845	2477.207877
466.249631	2476.550006
466.621358	2477.407002
466.993026	2477.989255
467.364634	2480.318268
467.736184	2475.934985
468.107674	2479.494040
468.479105	2479.103350
468.850477	2477.253247
469.221790	2477.724595
469.593043	2479.486478
469.964238	2479.902373
470.335373	2479.917497
470.706449	2478.974801
471.077467	2475.355252
471.448425	2478.967239
471.819324	2477.752321
472.190164	2478.001858
472.560945	2477.543113
472.931667	2481.031592
473.302330	2476.885243
473.672934	2478.863896
474.043479	2478.775675
474.413965	2481.316417
474.784393	2476.529841
475.154761	2482.128043
475.525070	2478.813484
475.895321	2480.333392
476.265513	2479.998155
476.635645	2482.249030
477.005719	2476.948257
477.375734	2479.673001
477.745691	2480.928248
478.115588	2480.048567
478.485427	2480.222487
478.855207	2481.586119
479.224928	2480.494709
479.594591	2479.736015
479.964194	2479.937661
480.333739	2478.634523
480.703226	2480.214925
481.072653	2480.179637
481.442022	2482.004534
481.811333	2474.873822
482.180584	2477.376755
482.549777	2478.513535
482.918912	2474.253760
483.287988	2482.314565
483.657005	2480.265336
484.025964	2483.118629
484.394864	2480.870275
484.763706	2478.546303
485.132489	2479.887250
485.501213	2482.695173
485.869879	2479.546972
486.238487	2479.133597
486.607036	2481.084524
486.975527	2480.814822
487.343959	2480.814822
487.712333	2484.394041
488.080648	2480.469503
488.448905	2480.933289
488.817104	2481.114771
489.185244	2484.386480
489.553326	2480.754328
489.921350	2482.700214
490.289315	2484.462097
490.657222	2481.208032
491.025070	2480.812302
491.392861	2481.228197
491.760593	2478.495891
492.128267	2480.436736
492.495883	2484.792292
492.863440	2482.899339
493.230939	2481.800368
493.598380	2481.765080
493.965763	2481.616366
494.333088	2482.206181
494.700354	2478.511015
495.067563	2480.925727
495.434713	2482.075111
495.801805	2479.524287
496.168839	2481.641571
496.535815	2481.843218
496.902733	2484.096613
497.269593	2483.751294
497.636395	2482.518732
498.003139	2484.041161
498.369825	2480.212404
498.736453	2482.606952
499.103023	2481.444966
499.469535	2483.552169
499.835989	2484.406644
500.202385	2481.107209
500.568723	2481.185347
500.935003	2479.670480
501.301226	2477.906076
501.667390	2481.228197
502.033497	2485.039309
502.399546	2484.933445
502.765537	2482.105358
503.131470	2482.818681
503.497345	2483.277426
503.863163	2481.729792
504.228923	2482.995121
504.594625	2482.722899
504.960269	2482.879175
505.325856	2484.968733
505.691385	2483.010245
506.056856	2481.921355
506.422270	2482.163331
506.787625	2483.753815
507.152924	2482.647282
507.518164	2483.910091
507.883347	2482.657364
508.248472	2483.060656
508.613540	2484.580564
508.978550	2482.412868
509.343503	2481.210553
509.708398	2482.594349
510.073236	2480.514873
510.438016	2483.595018
510.802738	2484.900677
511.167403	2483.910091
511.532010	2482.846407
511.896561	2484.273054
512.261053	2481.497898
512.625488	2486.135760
512.989866	2482.087713
513.354186	2482.846407
513.718449	2484.804895
514.082655	2483.882364
514.446803	2482.680049
514.810894	2484.157107
515.174927	2483.267343
515.538904	2484.963692
515.902822	2484.701552
516.266684	2483.630307
516.630488	2485.031747
516.994235	2486.465956
517.357925	2483.897488
517.721558	2485.717344
518.085133	2482.765749
518.448651	2480.721561
518.812112	2478.379945
519.175516	2480.391365
519.538863	2478.652167
519.902152	2486.339927
520.265385	2484.268013
520.628560	2483.325317
520.991678	2485.810606
521.354739	2481.233238
521.717743	2487.017962
522.080690	2483.549648
522.443580	2485.818167
522.806413	2483.668115
523.169189	2484.391521
523.531908	2485.566110
523.894569	2483.433702
524.257174	2485.006542
524.619722	2484.333548
524.982213	2485.142653
525.344647	2484.452015
525.707025	2484.275574
526.069345	2484.381438
526.431608	2484.104175
526.793815	2483.617704
527.155964	2483.937817
527.518057	2483.995790
527.880093	2484.567961
528.242072	2482.793475
528.603995	2483.015286
528.965860	2485.213229
529.327669	2484.089052
529.689421	2483.950420
530.051117	2485.931593
530.412755	2483.779021
530.774337	2484.348671
531.135862	2484.305821
531.497331	2485.490492
531.858743	2484.066366
532.220098	2485.692138
532.581396	2484.837663
532.942638	2482.123002
533.303824	2487.547283
533.664953	2484.676346
534.026025	2485.450163
534.387040	2485.389669
534.747999	2486.753301
535.108902	2485.394710
535.469748	2485.694659
535.830537	2485.659371
536.191270	2486.135760
536.551947	2482.427991
536.912567	2483.665595
537.273131	2482.758187
537.633638	2481.132415
537.994089	2482.186016
538.354483	2485.296408
538.714821	2482.541417
539.075103	2487.761532
539.435328	2486.264309
539.795497	2486.670122
540.155609	2486.155925
540.515665	2483.335399
540.875665	2486.450832
541.235609	2483.529483
541.595496	2485.898826
541.955328	2485.828250
542.315102	2485.440081
542.674821	2485.263640
543.034483	2486.886892
543.394090	2483.763897
543.753640	2483.307673
544.113134	2488.706748
544.472571	2487.254896
544.831953	2485.256079
545.191278	2484.194916
545.550548	2486.397900
545.909761	2487.136429
546.268918	2486.617190
546.628019	2485.407313
546.987064	2488.777325
547.346053	2484.109216
547.704986	2485.853455
548.063863	2484.126860
548.422684	2484.704072
548.781449	2484.509988
549.140158	2487.375884
549.498811	2484.207519
549.857408	2486.037458
550.215949	2484.855307
550.574434	2486.997797
550.932864	2486.221460
551.291237	2486.113075
551.649555	2483.479072
552.007817	2487.935452
552.366022	2485.729947
552.724173	2482.967395
553.082267	2483.887405
553.440305	2486.034937
553.798288	2484.522591
554.156215	2487.217087
554.514086	2482.992601
554.871902	2481.974287
555.229661	2482.624596
555.587365	2478.208546
555.945014	2484.212560
556.302606	2486.881851
556.660143	2486.339927
557.017625	2486.360091
557.375050	2482.599391
557.732421	2484.693990
558.089735	2485.309011
558.446994	2485.240955
558.804197	2487.484269
559.161345	2485.150214
559.518437	2488.096769
559.875474	2482.894298
560.232455	2485.974443
560.589381	2485.578713
560.946251	2485.545945
561.303065	2486.133239
561.659825	2484.898157
562.016528	2488.164824
562.373177	2484.136942
562.729770	2483.511839
563.086307	2486.473517
563.442789	2486.619711
563.799216	2487.496872
564.155587	2484.585605
564.511904	2486.080307
564.868164	2486.599546
565.224370	2487.544762
565.580520	2485.624083
565.936615	2484.378918
566.292654	2487.748929
566.648638	2487.993425
567.004567	2486.511326
567.360441	2487.827067
567.716260	2485.608959
568.072023	2487.771614
568.427732	2482.246510
568.783385	2486.095431
569.138982	2487.852273
569.494525	2486.508805
569.850013	2483.652992
570.205445	2485.550986
570.560823	2489.180617
570.916145	2487.257417
571.271412	2485.891264
571.626625	2489.354537
571.981782	2486.067704
572.336884	2486.649958
572.691931	2481.502940
573.046923	2484.542755
573.401860	2479.055459
573.756743	2484.005872
574.111570	2486.239104
574.466342	2485.888743
574.821059	2487.673312
575.175722	2485.372025
575.530330	2485.621562
575.884882	2487.370843
576.239380	2487.511995
576.593823	2486.022334
576.948211	2484.280615
577.302544	2486.123157
577.656823	2485.291367
578.011047	2484.338589
578.365216	2486.418065
578.719330	2485.606439
579.073389	2485.629124
579.427394	2484.787251
579.781344	2486.196254
580.135239	2485.614001
580.489080	2487.595174
580.842866	2485.734988
581.196597	2486.965030
581.550273	2486.092910
581.903895	2492.127171
582.257463	2487.474186
582.610975	2485.039309
582.964434	2486.816316
583.317837	2487.088538
583.671186	2486.927221
584.024481	2487.756491
584.377721	2487.343116
584.730906	2485.394710
585.084037	2487.373363
585.437113	2485.510657
585.790135	2487.418734
586.143103	2487.050729
586.496016	2484.141984
586.848874	2485.520739
587.201679	2486.738178
587.554428	2486.140801
587.907124	2483.393372
588.259765	2487.133908
588.612352	2486.022334
588.964884	2486.397900
589.317362	2486.463435
589.669786	2487.839670
590.022155	2484.235245
590.374470	2480.645943
590.726731	2483.431181
591.078937	2482.901860
591.431090	2486.052581
591.783188	2485.135091
592.135232	2485.361943
592.487222	2483.952940
592.839157	2484.441932
593.191038	2487.464104
593.542866	2487.640544
593.894639	2486.902015
594.246358	2486.269351
594.598022	2484.459576
594.949633	2487.385966
595.301190	2486.269351
595.652692	2486.382777
596.004141	2483.930255
596.355535	2485.654330
596.706876	2485.520739
597.058162	2484.759525
597.409395	2484.434371
597.760573	2485.626603
598.111698	2487.753970
598.462768	2486.566779
598.813785	2487.569968
599.164748	2488.018631
599.515657	2487.365802
599.866511	2485.707262
600.217312	2485.135091
600.568060	2486.450832
600.918753	2488.802530
601.269392	2486.289515
601.619978	2482.082672
601.970510	2488.757160
602.320988	2483.791623
602.671412	2488.716831
603.021783	2486.160966
603.372100	2490.519043
603.722363	2488.275730
604.072572	2485.818167
604.422728	2486.322283
604.772830	2486.319762
605.122878	2488.258086
605.472872	2486.836480
605.822813	2483.766418
606.172701	2484.583085
606.522534	2484.509988
606.872314	2487.307828
607.222041	2486.007211
607.571714	2482.801037
607.921333	2484.089052
608.270899	2484.257930
608.620411	2480.172075
608.969870	2489.775473
609.319276	2485.624083
609.668627	2488.474855
610.017926	2487.564927
610.367171	2485.445122
610.716362	2485.752632
611.065500	2487.403610
611.414585	2484.343630
611.763616	2486.745740
612.112594	2488.260606
612.461518	2485.964361
612.810389	2486.881851
613.159207	2486.266830
613.507971	2485.649289
613.856682	2486.614670
614.205340	2486.279433
614.553945	2487.060812
614.902496	2487.010400
615.250994	2484.073928
615.599439	2485.155256
615.947830	2488.515185
616.296169	2486.339927
616.644454	2485.737509
616.992686	2485.550986
617.340864	2485.979484
617.688990	2487.287664
618.037063	2486.183651
618.385082	2483.710965
618.733048	2487.426295
619.080961	2485.477889
619.428821	2488.197592
619.776628	2486.387818
620.124382	2485.886223
620.472083	2486.024855
620.819731	2486.289515
621.167326	2485.750112
621.514868	2485.460245
621.862357	2486.586943
622.209793	2485.571151
622.557176	2483.930255
622.904506	2485.861017
623.251783	2486.050060
623.599007	2485.044350
623.946179	2487.025524
624.293297	2487.171717
624.640363	2484.941007
624.987376	2484.096613
625.334336	2483.647951
625.681243	2484.842704
626.028097	2479.703248
626.374899	2487.126347
626.721647	2484.799854
627.068343	2484.658702
627.414987	2487.406131
627.761577	2484.734319
628.108115	2487.587612
628.454600	2485.487972
628.801032	2487.300267
629.147412	2488.237921
629.493739	2487.769094
629.840014	2485.921511
630.186236	2487.196923
630.532405	2486.463435
630.878521	2486.186172
631.224585	2486.176089
631.570597	2487.244814
631.916556	2484.696511
632.262462	2486.188692
632.608316	2486.463435
632.954117	2484.683908
633.299866	2488.573158
633.645562	2486.158445
633.991206	2487.209526
634.336797	2485.724906
634.682336	2486.145842
635.027823	2484.666264
635.373257	2485.929073
635.718639	2485.566110
636.063968	2488.089207
636.409245	2486.977633
636.754470	2487.481748
637.099642	2485.906388
637.444762	2486.551655
637.789829	2487.534680
638.134845	2485.208188
638.479808	2485.402272
638.824719	2483.128712
639.169577	2487.264978
639.514383	2487.509474
639.859137	2484.666264
640.203839	2487.648106
640.548489	2485.800523
640.893086	2486.907057
641.237632	2485.619042
641.582125	2486.544093
641.926566	2486.060143
642.270955	2486.223980
642.615292	2481.938999
642.959576	2483.804226
643.303809	2479.904894
643.647990	2488.479897
643.992118	2486.423106
644.336195	2488.449650
644.680219	2486.407982
645.024192	2483.279946
645.368112	2487.262458
645.711981	2487.726244
646.055797	2483.721047
646.399562	2487.562407
646.743274	2481.553351
647.086935	2487.396048
647.430544	2487.073415
647.774101	2486.896974
648.117606	2487.370843
648.461059	2486.728096
648.804460	2488.905874
649.147810	2484.121819
649.491108	2484.532673
649.834354	2485.697180
650.177548	2488.779845
650.520690	2485.210708
650.863781	2485.402272
651.206820	2485.392190
651.549807	2484.066366
651.892742	2483.872282
652.235626	2486.594505
652.578458	2483.784062
652.921238	2487.302787
653.263967	2486.254227
653.606644	2485.114926
653.949269	2485.518219
654.291843	2484.898157
654.634365	2486.846563
654.976836	2487.365802
655.319255	2485.641727
655.661622	2485.994608
656.003938	2486.687766
656.346203	2484.313383
656.688416	2486.541573
657.030577	2482.125522
657.372687	2488.684063
657.714746	2485.944196
658.056753	2486.531491
658.398708	2485.487972
658.740612	2484.900677
659.082465	2486.110554
659.424266	2485.205667
659.766016	2479.156282
660.107715	2484.603249
660.449362	2481.066880
660.790958	2486.783548
661.132503	2483.973105
661.473996	2485.712303
661.815438	2484.809937
662.156829	2486.849083
662.498168	2484.706593
662.839456	2486.602067
663.180693	2486.271871
663.521879	2486.087869
663.863013	2484.444453
664.204097	2482.266674
664.545129	2486.564258
664.886110	2484.704072
665.227040	2485.452684
665.567918	2484.527632
665.908746	2486.145842
666.249522	2485.641727
666.590248	2483.920173
666.930922	2487.562407
667.271545	2484.605770
667.612118	2484.522591
667.952639	2483.569813
668.293109	2486.332365
668.633528	2485.132570
668.973896	2486.143322
669.314213	2485.886223
669.654480	2485.306490
669.994695	2482.276757
670.334859	2487.766573
670.674973	2484.147025
671.015035	2487.385966
671.355047	2484.734319
671.695008	2484.076449
672.034918	2485.876141
672.374777	2483.753815
672.714585	2487.461583
673.054342	2487.239773
673.394049	2485.924032
673.733705	2484.157107
674.073310	2486.481079
674.412864	2486.115595
674.752368	2484.625934
675.091820	2486.198774
675.431223	2484.850266
675.770574	2486.314721
676.109875	2483.322796
676.449125	2481.213073
676.788324	2483.068218
677.127473	2481.918835
677.466571	2483.156438
677.805619	2485.883702
678.144616	2484.341109
678.483562	2485.397231
678.822458	2485.790441
679.161303	2487.028044
679.500098	2483.547128
679.838842	2484.958651
680.177535	2484.222642
680.516179	2485.432519
680.854771	2485.946717
681.193314	2485.926552
681.531805	2483.254741
681.870247	2485.616521
682.208638	2484.593167
682.546978	2486.957468
682.885268	2484.325986
683.223508	2484.739360
683.561697	2484.792293
683.899836	2487.958137
684.237925	2484.265492
684.575963	2484.711634
684.913951	2482.624596
685.251889	2482.528814
685.589776	2485.366984
685.927614	2486.289515
686.265401	2485.614001
686.603137	2483.610142
686.940824	2483.625265
687.278460	2484.618373
687.616046	2486.859166
687.953582	2481.437405
688.291068	2486.463435
688.628504	2484.643578
688.965889	2486.302118
689.303224	2486.798672
689.640510	2482.916983
689.977745	2485.195585
690.314930	2486.181130
690.652065	2485.198105
690.989150	2485.261120
691.326185	2484.681387
691.663170	2483.156438
692.000105	2486.352530
692.336990	2487.264978
692.673825	2485.256079
693.010610	2483.468990
693.347345	2481.225676
693.684030	2480.741725
694.020665	2482.559061
694.357251	2480.119143
694.693786	2485.205667
695.030272	2486.914618
695.366707	2485.248517
695.703093	2481.402117
696.039429	2483.768938
696.375716	2486.660040
696.711952	2486.899495
697.048139	2485.548466
697.384276	2484.308342
697.720363	2482.619555
698.056400	2483.315234
698.392388	2485.702221
698.728326	2482.886736
699.064214	2483.932776
699.400053	2485.240955
699.735842	2485.261120
700.071581	2486.622231
700.407270	2484.184833
700.742910	2482.879175
701.078501	2483.844556
701.414042	2485.372025
701.749533	2484.701552
702.084974	2485.175420
702.420366	2484.941007
702.755709	2485.099803
703.091002	2483.058136
703.426246	2486.271871
703.761440	2486.039978
704.096584	2482.070069
704.431679	2483.494195
704.766725	2485.215749
705.101721	2483.847076
705.436668	2482.884216
705.771565	2483.859679
706.106413	2484.517550
706.441212	2483.955461
706.775961	2483.668115
707.110661	2483.589977
707.445311	2484.293218
707.779913	2485.619042
708.114465	2484.948568
708.448967	2485.303970
708.783421	2484.020996
709.117825	2485.598877
709.452180	2484.628455
709.786485	2484.832622
710.120742	2481.674339
710.454949	2480.116622
710.789107	2480.459421
711.123216	2480.855151
711.457275	2484.976295
711.791286	2481.765080
712.125247	2486.380256
712.459159	2483.441263
712.793023	2484.194916
713.126837	2484.774648
713.460602	2483.842035
713.794318	2483.537045
714.127985	2486.372694
714.461602	2483.857158
714.795171	2485.934114
715.128691	2483.574854
715.462162	2485.074597
715.795584	2482.564102
716.128957	2481.558392
716.462281	2484.573002
716.795556	2483.766418
717.128782	2486.937303
717.461960	2483.567292
717.795088	2484.320945
718.128167	2484.883033
718.461198	2484.273054
718.794180	2483.665595
719.127113	2486.065184
719.459997	2481.870944
719.792833	2482.947230
720.125619	2482.672487
720.458357	2483.642909
720.791046	2482.624596
721.123686	2483.441263
721.456278	2484.683908
721.788821	2483.862200
722.121315	2486.904536
722.453761	2484.885554
722.786158	2486.259268
723.118506	2486.833960
723.450805	2483.353043
723.783056	2482.760708
724.115259	2483.693321
724.447412	2482.299442
724.779518	2485.387149
725.111574	2484.673825
725.443582	2483.194247
725.775542	2485.263640
726.107453	2486.907057
726.439315	2486.304639
726.771129	2485.714824
727.102895	2480.950933
727.434612	2482.243989
727.766281	2480.971098
728.097901	2485.364463
728.429473	2485.084679
728.760996	2484.273054
729.092471	2484.666264
729.423897	2483.665595
729.755276	2486.095431
730.086606	2482.826243
730.417887	2483.524442
730.749120	2484.739360
731.080305	2483.650471
731.411442	2484.699031
731.742530	2483.897488
732.073570	2482.375059
732.404562	2484.842704
732.735506	2484.111737
733.066401	2484.020996
733.397249	2482.859010
733.728048	2484.623414
734.058798	2484.797334
734.389501	2482.579226
734.720156	2485.009062
735.050762	2482.385142
735.381320	2482.407827
735.711831	2482.725419
736.042293	2481.855820
736.372707	2483.627786
736.703073	2485.619042
737.033391	2482.453197
737.363661	2484.966212
737.693883	2481.679380
738.024056	2483.872282
738.354182	2483.441263
738.684260	2485.233393
739.014290	2482.677528
739.344272	2483.731130
739.674207	2482.599391
740.004093	2482.947230
740.333931	2484.212560
740.663722	2485.356902
740.993464	2482.639720
741.323159	2484.184833
741.652806	2483.839514
741.982405	2483.400934
742.311956	2485.160297
742.641460	2482.485965
742.970915	2480.706437
743.300323	2480.126705
743.629683	2479.703248
743.958996	2481.346664
744.288260	2476.489512
744.617477	2482.236427
744.946647	2482.276757
745.275768	2482.680049
745.604842	2486.249186
745.933869	2482.057467
746.262847	2483.781541
746.591778	2484.147025
746.920662	2480.446818
747.249498	2483.900008
747.578286	2481.480254
747.907027	2483.100985
748.235720	2482.677528
748.564365	2482.609473
748.892963	2485.878661
749.221514	2483.131232
749.550017	2484.978815
749.878473	2481.147538
750.206881	2483.784062
750.535242	2484.232724
750.863555	2484.467138
751.191821	2485.913949
751.520039	2484.328506
751.848210	2484.167189
752.176334	2484.177272
752.504411	2483.342961
752.832440	2483.474031
753.160421	2480.134266
753.488356	2485.220791
753.816243	2480.918166
754.144082	2484.000831
754.471875	2484.081490
754.799620	2482.803557
755.127318	2482.589308
755.454969	2484.333547
755.782572	2485.087200
756.110129	2483.474031
756.437638	2484.522591
756.765100	2481.775162
757.092515	2482.972436
757.419882	2480.819863
757.747203	2482.299442
758.074477	2484.303301
758.401703	2484.172231
758.728882	2483.433702
759.056014	2483.234576
759.383099	2481.823053
759.710138	2481.273567
760.037129	2479.247023
760.364073	2481.875985
760.690970	2478.203504
761.017820	2483.443784
761.344623	2484.230204
761.671379	2484.688949
761.998088	2482.566623
762.324751	2482.526294
762.651366	2479.834318
762.977935	2483.534525
763.304456	2483.547128
763.630931	2483.905049
763.957359	2482.395224
764.283740	2481.838176
764.610074	2479.862044
764.936362	2483.080821
765.262602	2479.375573
765.588796	2480.393886
765.914943	2482.596870
766.241044	2483.514360
766.567097	2484.048722
766.893104	2481.525625
767.219064	2485.319093
767.544978	2481.732312
767.870845	2483.171562
768.196665	2483.249699
768.522438	2483.272385
768.848165	2482.700214
769.173846	2483.816829
769.499479	2480.252733
769.825066	2481.477734
770.150607	2484.704072
770.476101	2482.110399
770.801548	2480.966057
771.126949	2483.650471
771.452303	2482.869092
771.777611	2483.438743
772.102872	2481.966726
772.428087	2481.984370
772.753256	2482.488485
773.078378	2483.080821
773.403453	2479.909935
773.728482	2484.194916
774.053465	2482.816160
774.378401	2482.677528
774.703291	2482.554020
775.028135	2483.552169
775.352932	2484.484782
775.677683	2481.757518
776.002388	2478.803402
776.327046	2477.941364
776.651658	2481.245841
776.976224	2478.495891
777.300743	2481.991932
777.625216	2481.938999
777.949643	2483.113588
778.274024	2482.259113
778.598359	2481.893629
778.922647	2480.623258
779.246889	2481.951602
779.571086	2483.491675
779.895236	2480.910604
780.219339	2484.482262
780.543397	2484.015955
780.867409	2482.059987
781.191374	2481.379431
781.515294	2479.940182
781.839167	2481.268526
782.162995	2484.159628
782.486776	2481.444966
782.810511	2480.323310
783.134201	2480.645943
783.457844	2481.129894
783.781441	2482.463279
784.104993	2481.881026
784.428498	2481.056798
784.751958	2483.239617
785.075372	2484.351192
785.398739	2483.302632
785.722061	2481.523104
786.045337	2482.284318
786.368568	2482.284318
786.691752	2484.043681
787.014891	2480.948413
787.337983	2483.302632
787.661030	2480.721561
787.984031	2483.942858
788.306987	2482.397744
788.629897	2483.108547
788.952760	2482.914463
789.275579	2484.041161
789.598351	2483.365646
789.921078	2483.708444
790.243759	2483.327837
790.566395	2480.315748
790.888984	2483.421099
791.211529	2480.091417
791.534027	2480.976139
791.856480	2482.748105
792.178888	2482.233907
792.501249	2480.517394
792.823566	2478.672332
793.145836	2475.871971
793.468062	2481.049236
793.790241	2482.465800
794.112375	2480.973618
794.434464	2481.054277
794.756507	2481.175265
795.078505	2483.181644
795.400457	2483.678198
795.722364	2480.235089
796.044226	2483.005203
796.366042	2481.754997
796.687812	2481.437405
797.009538	2480.169554
797.331218	2482.952271
797.652852	2483.721047
797.974442	2482.949751
798.295986	2481.946561
798.617484	2481.875985
798.938938	2480.976139
799.260346	2481.306335
799.581709	2483.741212
799.903026	2483.330358
800.224299	2480.293063
800.545526	2481.192909
800.866708	2481.233238
801.187845	2480.716520
801.508936	2480.378762
801.829983	2483.751294
802.150984	2483.932776
802.471940	2483.128712
802.792851	2480.658546
803.113717	2482.339771
803.434538	2477.916159
803.755314	2482.256592
804.076045	2481.646613
804.396731	2481.954123
804.717372	2481.195429
805.037967	2482.503609
805.358518	2482.175934
805.679024	2480.167034
805.999485	2479.312558
806.319901	2481.376911
806.640272	2480.409009
806.960598	2481.497898
807.280879	2479.667960
807.601115	2484.434371
807.921306	2480.721561
808.241453	2480.600573
808.561554	2476.192084
808.881611	2477.381796
809.201623	2476.557568
809.521590	2481.137456
809.841513	2479.715851
810.161390	2481.291211
810.481223	2479.365490
810.801011	2478.649647
811.120755	2481.898670
811.440453	2479.778865
811.760107	2481.581077
812.079716	2481.351705
812.399281	2482.521253
812.718801	2483.746253
813.038276	2481.432363
813.357707	2480.542600
813.677093	2482.667446
813.996434	2480.895481
814.315731	2480.610655
814.634983	2482.049905
814.954191	2480.101499
815.273354	2479.879688
815.592473	2479.118474
815.911547	2480.199801
816.230577	2479.415902
816.549562	2481.386993
816.868502	2480.766931
817.187399	2479.017651
817.506250	2480.789616
817.825058	2481.409678
818.143821	2479.720892
818.462539	2483.100985
818.781213	2478.707620
819.099843	2479.851962
819.418429	2480.540079
819.736970	2481.318937
820.055466	2483.403455
820.373919	2482.559061
820.692327	2479.788947
821.010691	2483.199288
821.329011	2481.676859
821.647286	2479.438587
821.965517	2482.236428
822.283704	2480.898001
822.601847	2481.959164
822.919945	2482.170893
823.237999	2480.807260
823.556010	2483.363125
823.873976	2481.550831
824.191897	2480.529997
824.509775	2479.090747
824.827609	2478.213587
825.145398	2476.000520
825.463144	2482.044864
825.780845	2478.634523
826.098502	2482.934627
826.416116	2480.348515
826.733685	2480.822384
827.051210	2479.867085
827.368692	2478.894143
827.686129	2478.667291
828.003522	2483.012765
828.320872	2477.071765
828.638177	2481.591160
828.955439	2483.065697
829.272656	2477.301138
829.589830	2481.160141
829.906960	2479.214256
830.224046	2479.683083
830.541088	2478.349698
830.858086	2480.459421
831.175041	2481.785244
831.491952	2479.841879
831.808819	2481.679380
832.125642	2481.389514
832.442421	2480.898001
832.759157	2479.040336
833.075849	2479.559575
833.392497	2480.406489
833.709101	2481.911273
834.025662	2479.584781
834.342179	2479.060501
834.658653	2481.787765
834.975083	2479.980511
835.291469	2488.623569
835.607811	2480.595532
835.924110	2479.620069
836.240366	2481.248361
836.556578	2479.322641
836.872746	2480.393886
837.188871	2480.577888
837.504952	2480.517394
837.820990	2480.877837
838.136984	2483.680718
838.452935	2479.738536
838.768842	2480.827425
839.084706	2478.828608
839.400526	2479.897332
839.716303	2479.796509
840.032037	2478.100161
840.347727	2475.985397
840.663373	2481.329020
840.978977	2474.294090
841.294537	2481.427322
841.610054	2481.202991
841.925527	2477.880871
842.240957	2479.834318
842.556344	2480.542600
842.871687	2482.065028
843.186987	2482.193578
843.502244	2476.620582
843.817458	2481.117291
844.132629	2480.640902
844.447756	2480.782055
844.762840	2480.807260
845.077881	2482.362456
845.392879	2479.257106
845.707833	2480.550162
846.022745	2480.587970
846.337613	2479.700727
846.652438	2480.719040
846.967221	2480.063690
847.281960	2481.543269
847.596656	2478.886581
847.911309	2481.266005
848.225919	2479.020171
848.540485	2478.195943
848.855009	2483.335399
849.169490	2481.175265
849.483928	2478.831128
849.798323	2480.383803
850.112675	2481.150059
850.426984	2481.749956
850.741251	2480.711478
851.055474	2480.187198
851.369654	2481.525625
851.683792	2478.289204
851.997887	2479.105871
852.311938	2478.838690
852.625947	2480.000676
852.939914	2478.695017
853.253837	2481.205512
853.567718	2480.265336
853.881555	2480.802219
854.195350	2481.772641
854.509103	2479.191571
854.822812	2480.366159
855.136479	2478.490850
855.450103	2479.572178
855.763685	2476.045891
856.077224	2475.798874
856.390720	2477.444811
856.704173	2476.650829
857.017584	2481.593680
857.330953	2482.445635
857.644278	2482.223825
857.957561	2482.133084
858.270802	2480.154431
858.584000	2480.703917
858.897155	2481.565954
859.210268	2478.463124
859.523339	2480.401447
859.836367	2481.107209
860.149352	2480.114102
860.462295	2478.924389
860.775195	2478.705099
861.088054	2482.422950
861.400869	2480.766931
861.713642	2478.354739
862.026373	2479.557054
862.339062	2480.608135
862.651708	2475.357773
862.964312	2477.530510
863.276873	2480.141828
863.589392	2481.034112
863.901869	2480.769452
864.214303	2480.716520
864.526696	2480.497229
864.839045	2478.332054
865.151353	2478.279122
865.463619	2479.136118
865.775842	2480.345995
866.088023	2480.184678
866.400162	2477.974132
866.712258	2478.689976
867.024313	2479.428505
867.336325	2480.141828
867.648296	2480.673670
867.960224	2479.325161
868.272110	2478.919348
868.583954	2478.561426
868.895755	2479.609986
869.207515	2480.078814
869.519233	2477.149903
869.830909	2480.262816
870.142542	2481.999493
870.454134	2481.623927
870.765684	2480.043526
871.077191	2477.510346
871.388657	2478.269039
871.700081	2474.437763
872.011463	2477.356591
872.322803	2474.788123
872.634101	2479.277270
872.945357	2481.608804
873.256571	2480.295583
873.567744	2478.672332
873.878874	2481.452528
874.189963	2477.898515
874.501010	2479.499081
874.812015	2480.073772
875.122979	2479.287352
875.433900	2478.599235
875.744780	2480.209884
876.055618	2480.993783
876.366415	2478.241313
876.677169	2478.763072
876.987882	2477.444811
877.298554	2479.433546
877.609183	2478.526138
877.919771	2479.650316
878.230317	2480.265336
878.540822	2479.355408
878.851285	2476.227372
879.161707	2477.946406
879.472087	2477.490181
879.782425	2479.670480
880.092722	2479.977991
880.402977	2475.186374
880.713191	2477.343988
881.023363	2477.361632
881.333494	2478.851293
881.643583	2477.754842
881.953631	2481.046715
882.263637	2479.756180
882.573602	2480.368680
882.883526	2477.976652
883.193408	2479.587301
883.503248	2479.153762
883.813048	2481.271047
884.122806	2477.971611
884.432522	2480.227528
884.742197	2479.186529
885.051831	2476.003041
885.361424	2479.594863
885.670975	2476.270222
885.980485	2479.012610
886.289954	2478.004379
886.599382	2476.113946
886.908768	2477.117136
887.218113	2473.951291
887.527417	2478.006899
887.836680	2475.327526
888.145901	2479.103350
888.455082	2479.257106
888.764221	2478.740387
889.073319	2479.539410
889.382376	2479.201653
889.691392	2480.535038
890.000366	2477.553196
890.309300	2478.831128
890.618193	2480.330871
890.927044	2477.482619
891.235855	2481.462610
891.544625	2478.022023
891.853353	2478.747949
892.162041	2477.734677
892.470687	2479.635192
892.779293	2479.683083
893.087858	2478.989924
893.396381	2477.217959
893.704864	2477.908597
894.013306	2481.220635
894.321707	2477.376755
894.630068	2479.098309
894.938387	2477.117136
895.246665	2477.560757
895.554903	2477.570840
895.863100	2478.904225
896.171256	2478.347177
896.479371	2480.857672
896.787446	2480.167034
897.095480	2478.425315
897.403473	2476.620582
897.711425	2479.738536
898.019336	2477.767445
898.327207	2476.335757
898.635038	2477.520428
898.942827	2478.299286
899.250576	2480.918166
899.558284	2478.314410
899.865952	2480.540079
900.173579	2476.055973
900.481165	2479.688124
900.788711	2475.748463
901.096216	2478.425315
901.403681	2479.632672
901.711105	2478.861375
902.018489	2476.912969
902.325832	2474.818370
902.633135	2475.375417
902.940397	2477.979173
903.247619	2476.265181
903.554800	2478.752990
903.861941	2478.334574
904.169041	2479.947744
904.476101	2480.988742
904.783121	2477.805253
905.090100	2479.090747
905.397039	2477.666622
905.703938	2478.132928
906.010796	2479.320120
906.317614	2477.376755
906.624391	2476.691158
906.931129	2478.798361
907.237826	2478.001858
907.544483	2479.947744
907.851099	2479.168885
908.157675	2477.359111
908.464211	2479.262147
908.770707	2479.310038
909.077163	2477.157465
909.383578	2478.566467
909.689954	2477.366673
909.996289	2478.064873
910.302584	2477.258288
910.608839	2479.408340
910.915054	2476.585294
911.221229	2477.805253
911.527363	2479.370532
911.833458	2478.256437
912.139513	2479.647795
912.445527	2477.414564
912.751502	2478.309369
913.057436	2480.038484
913.363331	2475.796353
913.669186	2477.704430
913.975000	2477.313741
914.280775	2477.888432
914.586510	2480.603094
914.892205	2479.998155
915.197859	2477.792650
915.503475	2478.836169
915.809050	2479.098309
916.114585	2480.565285
916.420081	2477.981694
916.725536	2476.502115
917.030952	2480.114102
917.336328	2478.362301
917.641665	2475.128401
917.946961	2475.158647
918.252218	2477.185191
918.557435	2474.205869
918.862612	2479.020171
919.167750	2476.935654
919.472848	2477.074286
919.777906	2476.726446
920.082925	2477.177630
920.387904	2477.046560
920.692843	2476.892804
920.997743	2478.402630
921.302603	2479.572178
921.607423	2477.139821
921.912204	2477.404482
922.216946	2477.028916
922.521647	2478.652167
922.826310	2475.362814
923.130932	2479.206694
923.435516	2478.448000
923.740059	2474.679738
924.044564	2477.659060
924.349028	2478.097640
924.653454	2477.444811
924.957840	2480.008237
925.262186	2477.419605
925.566493	2480.590491
925.870761	2475.077989
926.174989	2477.001189
926.479178	2476.335757
926.783328	2476.865078
927.087438	2475.940026
927.391509	2478.780717
927.695541	2477.878350
927.999533	2479.229379
928.303486	2477.898515
928.607400	2477.560757
928.911275	2475.057824
929.215110	2478.821046
929.518906	2476.184522
929.822663	2479.073103
930.126381	2477.991776
930.430060	2475.491364
930.733699	2476.492033
931.037299	2477.230562
931.340861	2479.564616
931.644383	2477.434728
931.947866	2477.023874
932.251309	2477.510346
932.554714	2476.522280
932.858080	2477.908597
933.161407	2473.800057
933.464694	2476.620582
933.767943	2471.251753
934.071153	2479.118474
934.374323	2478.160655
934.677455	2478.163175
934.980548	2478.352218
935.283602	2477.258288
935.586617	2481.056798
935.889593	2475.211580
936.192530	2475.912300
936.495428	2478.410192
936.798287	2478.626961
937.101108	2475.360294
937.403890	2476.658391
937.706632	2477.797692
938.009336	2476.350880
938.312002	2478.508494
938.614628	2477.066724
938.917216	2477.875829
939.219765	2477.555716
939.522275	2476.444142
939.824747	2476.577732
940.127179	2476.509677
940.429573	2476.907928
940.731929	2479.078145
941.034246	2477.074286
941.336524	2476.925572
941.638763	2477.384317
941.940964	2476.824749
942.243126	2479.456231
942.545250	2479.491519
942.847335	2475.645119
943.149381	2476.285345
943.451389	2475.753504
943.753359	2480.073772
944.055290	2478.324492
944.357182	2478.586632
944.659036	2477.538072
944.960851	2480.121663
945.262628	2480.151910
945.564367	2479.347846
945.866067	2479.269708
946.167729	2475.168730
946.469352	2479.095789
946.770937	2476.620582
947.072484	2476.436580
947.373992	2476.955819
947.675462	2476.784420
947.976893	2473.893318
948.278286	2473.195118
948.579641	2477.427167
948.880958	2470.568677
949.182236	2480.696355
949.483476	2474.430201
949.784678	2476.658391
950.085841	2477.185191
950.386967	2478.889101
950.688054	2476.988586
950.989103	2478.674852
951.290114	2475.831642
951.591087	2475.632516
951.892021	2476.418936
952.192917	2475.871971
952.493776	2477.550675
952.794596	2478.742908
953.095378	2477.757362
953.396122	2480.955974
953.696828	2476.106384
953.997496	2480.466983
954.298126	2477.991776
954.598718	2476.928092
954.899272	2477.243165
955.199788	2476.817187
955.500266	2478.652167
955.800706	2475.130921
956.101108	2476.257619
956.401472	2478.195943
956.701798	2479.166365
957.002087	2476.227372
957.302337	2477.210397
957.602550	2475.193936
957.902724	2479.151241
958.202861	2477.994297
958.502960	2474.513380
958.803022	2476.819708
959.103045	2476.086220
959.403031	2478.725264
959.702979	2476.239975
960.002889	2477.659060
960.302762	2477.303658
960.602596	2479.680563
960.902393	2476.360963
961.202153	2477.873309
961.501875	2474.624285
961.801559	2477.354070
962.101205	2475.146045
962.400814	2477.545634
962.700385	2476.426498
962.999918	2477.356591
963.299414	2471.912144
963.598873	2474.596559
963.898293	2470.278811
964.197677	2476.199646
964.497022	2476.325675
964.796331	2477.316261
965.095601	2478.679893
965.394835	2478.329533
965.694030	2475.440952
965.993189	2475.309882
966.292309	2478.841210
966.591393	2476.486992
966.890439	2475.972794
967.189447	2475.728298
967.488419	2477.568319
967.787353	2477.525469
968.086249	2475.907259
968.385108	2475.287197
968.683930	2476.502115
968.982714	2477.386837
969.281462	2476.310551
969.580172	2475.516569
969.878844	2477.129739
970.177480	2475.292238
970.476078	2477.384317
970.774639	2476.575212
971.073162	2475.115798
971.371649	2474.803246
971.670098	2474.571353
971.968510	2476.338277
972.266885	2475.478761
972.565223	2478.218628
972.863524	2474.336939
973.161788	2475.803915
973.460014	2475.138483
973.758204	2477.134780
974.056356	2475.975314
974.354471	2476.965901
974.652550	2474.583956
974.950591	2475.859368
975.248595	2476.441621
975.546563	2479.378093
975.844493	2478.397589
976.142386	2473.711836
976.440243	2474.868781
976.738062	2474.803246
977.035845	2473.449696
977.333590	2477.908597
977.631299	2475.438432
977.928971	2475.040180
978.226606	2472.673359
978.524204	2475.919862
978.821765	2470.356948
979.119290	2476.751652
979.416777	2475.090592
979.714228	2476.625623
980.011642	2475.851806
980.309020	2476.169399
980.606360	2474.934316
980.903664	2479.257106
981.200931	2474.364666
981.498162	2477.167547
981.795356	2478.362301
982.092513	2481.255923
982.389633	2475.229224
982.686717	2477.618731
982.983764	2474.019347
983.280775	2477.737198
983.577749	2473.457258
983.874686	2477.036477
984.171587	2475.272073
984.468451	2480.613176
984.765279	2474.402474
985.062070	2476.000520
985.358824	2477.359111
985.655543	2474.062197
985.952224	2474.155458
986.248869	2476.302989
986.545478	2476.721405
986.842050	2476.930613
987.138586	2473.021198
987.435086	2475.627475
987.731549	2475.382979
988.027975	2479.728453
988.324366	2477.089409
988.620719	2476.355922
988.917037	2477.336426
989.213318	2476.524800
989.509563	2477.215438
989.805772	2476.187043
990.101944	2474.951960
990.398080	2476.040849
990.694180	2474.147896
990.990244	2475.239306
991.286271	2475.224182
991.582262	2475.340129
991.878217	2475.410705
992.174136	2476.257619
992.470019	2477.313741
992.765865	2475.052783
993.061676	2470.631691
993.357450	2473.686631
993.653188	2470.064562
993.948890	2476.497074
994.244556	2475.100674
994.540186	2475.118318
994.835780	2474.289048
995.131337	2475.932465
995.426859	2476.812146
995.722345	2472.015488
996.017795	2474.967084
996.313208	2474.954481
996.608586	2474.243678
996.903928	2476.839872
997.199234	2476.918010
997.494504	2475.221662
997.789738	2475.655201
998.084936	2474.367186
998.380099	2475.841724
998.675225	2474.364666
998.970316	2476.353401
999.265371	2476.295428
999.560390	2476.809625
999.855373	2476.267701
1000.150320	2473.490026
1000.445232	2476.756693
1000.740108	2474.619244
1001.034948	2476.963381
1001.329752	2477.061683
1001.624521	2474.213431
1001.919254	2474.813328
1002.213951	2476.819708
1002.508613	2475.173771
1002.803239	2473.202680
1003.097829	2476.149234
1003.392384	2474.195787
1003.686903	2473.273256
1003.981386	2471.143368
1004.275834	2476.285345
1004.570246	2475.877012
1004.864623	2475.272073
1005.158964	2477.046560
1005.453270	2476.587815
1005.747540	2476.159317
1006.041775	2476.214769
1006.335974	2475.998000
1006.630138	2473.590849
1006.924266	2477.432208
1007.218359	2475.095633
1007.512416	2472.711167
1007.806438	2469.925930
1008.100425	2474.422639
1008.394376	2471.161012
1008.688292	2477.177630
1008.982172	2476.534883
1009.276017	2474.861219
1009.569827	2475.110757
1009.863602	2474.536065
1010.157341	2474.667135
1010.451045	2477.616210
1010.744714	2477.170068
1011.038347	2476.560088
1011.331945	2476.739049
1011.625508	2474.369707
1011.919036	2475.660242
1012.212528	2475.982876
1012.505986	2472.580097
1012.799408	2477.822897
1013.092795	2474.594038
1013.386147	2475.456076
1013.679464	2476.517238
1013.972745	2476.459265
1014.265992	2473.905921
1014.559204	2475.249388
1014.852380	2473.656384
1015.145521	2474.795684
1015.438628	2476.129070
1015.731699	2474.268884
1016.024736	2476.255098
1016.317737	2476.469348
1016.610703	2475.229224
1016.903635	2477.621251
1017.196531	2472.592700
1017.489393	2473.777371
1017.782219	2477.767445
1018.075011	2475.879533
1018.367768	2475.032619
1018.660490	2475.151086
1018.953177	2475.151086
1019.245829	2475.151086
