Dividing Wavelength (nm)	Counts (n)	Blue Motor Position (mm): 19.600000	Red Motor Position (mm): 0.000000	
326.493990	2060.932077
326.888308	2060.932077
327.282561	2060.932077
327.676750	2036.177491
328.070874	2036.815197
328.464933	2043.648481
328.858929	2051.230377
329.252859	2061.577345
329.646726	2077.734243
330.040528	2093.069433
330.434265	2111.134408
330.827938	2132.481174
331.221547	2152.885244
331.615091	2174.494150
332.008571	2194.757068
332.401986	2212.123843
332.795338	2235.260218
333.188625	2254.262848
333.581847	2271.866557
333.975006	2288.378856
334.368100	2306.060703
334.761129	2323.838333
335.154095	2339.975066
335.546996	2389.847201
335.939833	2480.381283
336.332606	2486.597026
336.725315	2500.760147
337.117960	2512.173320
337.510540	2520.521470
337.903056	2527.009435
338.295508	2535.420601
338.687896	2541.797660
339.080220	2547.645399
339.472480	2554.624876
339.864676	2555.408776
340.256807	2556.956410
340.648875	2559.386246
341.040879	2560.765002
341.432818	2564.797925
341.824694	2566.012843
342.216506	2564.379509
342.608253	2563.295661
342.999937	2563.991340
343.391557	2562.360527
343.783113	2560.472615
344.174605	2557.112686
344.566033	2556.036399
344.957397	2555.612942
345.348697	2553.543549
345.739934	2551.491799
346.131106	2547.337888
346.522215	2550.027344
346.913260	2548.164637
347.304241	2546.974925
347.695159	2542.563916
348.086012	2544.913093
348.476802	2538.024357
348.867528	2540.207176
349.258191	2533.515044
349.648789	2534.251053
350.039324	2528.126051
350.429796	2536.111239
350.820203	2533.598223
351.210548	2536.073430
351.600828	2533.144520
351.991045	2531.115455
352.381198	2531.571680
352.771288	2530.253418
353.161314	2530.349200
353.551276	2527.533715
353.941175	2529.439272
354.331010	2531.780888
354.720782	2533.625950
355.110490	2536.927906
355.500135	2530.306350
355.889717	2532.811803
356.279235	2532.683254
356.668689	2529.530012
357.058080	2531.947246
357.447408	2531.387678
357.836672	2533.320960
358.225873	2533.389016
358.615010	2536.852288
359.004084	2532.811803
359.393095	2538.364634
359.782043	2535.002185
360.170927	2536.907741
360.559748	2535.702905
360.948505	2537.898328
361.337199	2540.285314
361.725830	2537.908410
362.114398	2538.195756
362.502903	2536.937988
362.891344	2542.117773
363.279722	2539.231713
363.668037	2542.115253
364.056289	2539.100643
364.444478	2539.700540
364.832603	2541.800181
365.220665	2543.816642
365.608665	2539.599717
365.996601	2541.099460
366.384474	2542.500901
366.772284	2544.098947
367.160031	2544.461910
367.547715	2542.702547
367.935336	2539.002340
368.322893	2542.420243
368.710388	2537.673996
369.097820	2541.774975
369.485189	2539.942516
369.872495	2545.288659
370.259738	2543.582229
370.646918	2546.669935
371.034035	2545.999462
371.421090	2543.357897
371.808081	2545.760007
372.195010	2545.918803
372.581875	2549.298897
372.968678	2548.162117
373.355418	2549.813095
373.742096	2547.776469
374.128710	2549.911397
374.515262	2547.990718
374.901751	2547.778989
375.288177	2549.107333
375.674540	2545.213042
376.060841	2547.854607
376.447079	2546.322096
376.833254	2551.655637
377.219367	2546.672456
377.605417	2551.580019
377.991404	2548.149514
378.377329	2552.968857
378.763191	2549.828218
379.148991	2552.605894
379.534727	2552.053888
379.920402	2554.143446
380.306013	2549.051881
380.691563	2553.813250
381.077049	2550.428116
381.462474	2551.325441
381.847835	2551.940462
382.233134	2556.202757
382.618371	2551.096068
383.003545	2554.072870
383.388657	2552.701676
383.773706	2554.536656
384.158693	2554.080432
384.543618	2553.994732
384.928480	2554.657644
385.313280	2555.128992
385.698017	2555.701163
386.082692	2552.729402
386.467305	2555.378529
386.851856	2557.004301
387.236344	2557.001780
387.620770	2554.760987
388.005133	2554.965154
388.389435	2555.310473
388.773674	2552.401727
389.157851	2556.434650
389.541965	2558.995557
389.926018	2557.543704
390.310008	2556.144784
390.693936	2559.300546
391.077802	2559.542522
391.461606	2557.805844
391.845348	2558.120916
392.229027	2560.006308
392.612645	2558.887172
392.996200	2559.512275
393.379694	2559.101421
393.763125	2560.195351
394.146494	2557.974723
394.529801	2560.555794
394.913047	2559.537481
395.296230	2560.359189
395.679351	2563.278017
396.062410	2563.141906
396.445408	2563.283058
396.828343	2563.973696
397.211217	2564.818089
397.594028	2561.735424
397.976778	2563.724159
398.359466	2562.312636
398.742092	2562.113510
399.124656	2562.239539
399.507158	2560.762481
399.889598	2563.333469
400.271977	2562.852039
400.654294	2564.974365
401.036549	2563.212482
401.418742	2565.236505
401.800874	2563.519992
402.182944	2563.086453
402.564952	2564.566032
402.946898	2566.070816
403.328783	2564.568552
403.710606	2566.819427
404.092367	2568.362020
404.474067	2565.241546
404.855705	2565.649880
405.237282	2566.315312
405.618797	2564.719787
406.000250	2566.496793
406.381642	2567.653738
406.762972	2563.850188
407.144240	2561.430434
407.525447	2566.872359
407.906593	2561.705177
408.287677	2565.644838
408.668700	2569.166084
409.049661	2568.979562
409.430560	2567.016032
409.811399	2568.351938
410.192176	2569.675241
410.572891	2568.140210
410.953545	2567.661300
411.334138	2570.847309
411.714669	2570.796898
412.095139	2569.148440
412.475547	2571.787484
412.855894	2570.118862
413.236180	2569.047617
413.616405	2570.781774
413.996568	2570.426373
414.376670	2570.726322
414.756711	2571.817731
415.136691	2572.488205
415.516609	2570.081054
415.896466	2567.187432
416.276262	2571.061558
416.655997	2570.151630
417.035670	2571.038873
417.415283	2570.252453
417.794834	2572.687330
418.174324	2574.202197
418.553753	2572.228585
418.933121	2569.163564
419.312428	2572.959553
419.691674	2570.698595
420.070859	2570.766651
420.449983	2572.127762
420.829045	2573.753534
421.208047	2574.665983
421.586988	2572.601631
421.965867	2576.359811
422.344686	2573.367886
422.723444	2577.219328
423.102141	2572.054666
423.480777	2572.536096
423.859352	2573.624985
424.237866	2573.521641
424.616319	2572.465520
424.994712	2572.979717
425.373044	2575.843093
425.751314	2570.990982
426.129524	2568.861095
426.507673	2570.300344
426.885762	2567.429407
427.263789	2574.628175
427.641756	2574.081209
428.019662	2577.166396
428.397508	2572.047104
428.775292	2574.330747
429.153016	2573.503997
429.530679	2574.464337
429.908282	2577.148752
430.285824	2574.335788
430.663305	2572.004254
431.040726	2575.928792
431.418086	2575.414595
431.795385	2577.133628
432.172624	2573.256981
432.549802	2575.752352
432.926920	2574.613051
433.303977	2577.945254
433.680974	2575.563309
434.057910	2575.548185
434.434786	2572.394943
434.811601	2576.682445
435.188355	2578.537589
435.565050	2576.251426
435.941683	2575.878381
436.318257	2575.759914
436.694770	2575.465006
437.071222	2577.720922
437.447614	2579.203022
437.823946	2577.171437
438.200218	2578.645974
438.576429	2576.377455
438.952580	2575.122208
439.328670	2579.008937
439.704700	2576.977352
440.080670	2578.779565
440.456580	2575.298648
440.832429	2577.667990
441.208218	2580.158320
441.583947	2577.415933
441.959616	2577.952816
442.335224	2578.492219
442.710773	2576.755542
443.086261	2577.562126
443.461689	2580.788465
443.837057	2579.830645
444.212365	2579.807960
444.587612	2578.131777
444.962800	2577.325192
445.337927	2574.025757
445.712995	2574.275294
446.088002	2578.724112
446.462949	2578.275449
446.837837	2578.461972
447.212664	2580.780903
447.587431	2578.938361
447.962139	2580.652353
448.336786	2578.436766
448.711374	2581.579926
449.085901	2584.181161
449.460369	2580.649833
449.834776	2580.450707
450.209124	2582.152097
450.583412	2582.368866
450.957640	2579.911304
451.331808	2580.901891
451.705917	2580.120512
452.079965	2583.082190
452.453954	2580.997672
452.827883	2580.606983
453.201752	2582.739391
453.575562	2582.048753
453.949311	2580.425502
454.323001	2579.737384
454.696632	2581.448856
455.070202	2583.755184
455.443713	2582.441963
455.817164	2584.788620
456.190556	2584.859196
456.563888	2588.088055
456.937160	2586.439598
457.310373	2585.325503
457.683526	2585.950606
458.056619	2587.130236
458.429653	2586.064032
458.802628	2587.467993
459.175542	2584.518918
459.548398	2588.723241
459.921194	2586.086717
460.293930	2589.489496
460.666607	2590.911102
461.039224	2587.939341
461.411782	2591.233735
461.784280	2589.880186
462.156719	2588.708117
462.529099	2586.870617
462.901419	2589.091245
463.273680	2590.989239
463.645882	2582.101685
464.018024	2587.475555
464.390106	2589.479414
464.762130	2591.919332
465.134094	2595.370002
465.505999	2596.519385
465.877845	2602.016763
466.249631	2604.905345
466.621358	2602.830910
466.993026	2601.437031
467.364634	2603.972731
467.736184	2600.965683
468.107674	2600.353183
468.479105	2600.953080
468.850477	2603.135900
469.221790	2600.259921
469.593043	2599.123141
469.964238	2601.701691
470.335373	2601.600868
470.706449	2604.529779
471.077467	2606.631940
471.448425	2611.536982
471.819324	2609.402054
472.190164	2611.345419
472.560945	2607.493977
472.931667	2609.616303
473.302330	2606.947012
473.672934	2608.023298
474.043479	2611.383227
474.413965	2613.815584
474.784393	2611.715943
475.154761	2614.433125
475.525070	2613.011520
475.895321	2614.402878
476.265513	2616.913373
476.635645	2616.439505
477.005719	2618.302211
477.375734	2618.196347
477.745691	2621.732716
478.115588	2622.420834
478.485427	2627.414097
478.855207	2632.099849
479.224928	2637.758544
479.594591	2636.634367
479.964194	2639.192752
480.333739	2638.479429
480.703226	2643.127373
481.072653	2646.688948
481.442022	2646.814977
481.811333	2648.778507
482.180584	2647.404792
482.549777	2649.733805
482.918912	2646.628454
483.287988	2653.607932
483.657005	2656.549445
484.025964	2657.953407
484.394864	2659.259065
484.763706	2661.547749
485.132489	2661.993891
485.501213	2666.218378
485.869879	2670.253822
486.238487	2670.737773
486.607036	2675.478978
486.975527	2678.715399
487.343959	2682.783610
487.712333	2689.914322
488.080648	2694.300126
488.448905	2698.010415
488.817104	2701.332535
489.185244	2712.191181
489.553326	2723.732902
489.921350	2738.410222
490.289315	2759.648603
490.657222	2770.991199
491.025070	2781.096192
491.392861	2787.221194
491.760593	2790.868469
492.128267	2796.990950
492.495883	2796.791825
492.863440	2802.415232
493.230939	2808.595686
493.598380	2815.824701
493.965763	2830.638132
494.333088	2837.531909
494.700354	2849.920545
495.067563	2863.372864
495.434713	2877.084802
495.801805	2898.308060
496.168839	2911.783064
496.535815	2932.663524
496.902733	2950.315124
497.269593	2969.476550
497.636395	2989.845332
498.003139	3017.266688
498.369825	3033.272352
498.736453	3065.210582
499.103023	3086.176741
499.469535	3115.687655
499.835989	3145.826193
500.202385	3173.981038
500.568723	3201.104966
500.935003	3239.332036
501.301226	3275.177160
501.667390	3326.901919
502.033497	3368.425903
502.399546	3403.323291
502.765537	3428.692898
503.131470	3482.517297
503.497345	3543.749672
503.863163	3550.436763
504.228923	3623.485603
504.594625	3687.230993
504.960269	3722.808936
505.325856	3799.132006
505.691385	3841.737317
506.056856	3907.398346
506.422270	3990.012775
506.787625	4029.278323
507.152924	4111.426445
507.518164	4185.007127
507.883347	4229.333993
508.248472	4305.173111
508.613540	4409.845109
508.978550	4497.311649
509.343503	4561.316658
509.708398	4659.936751
510.073236	4777.753558
510.438016	4864.007700
510.802738	4927.138070
511.167403	5047.364548
511.532010	5157.312113
511.896561	5280.598572
512.261053	5432.642292
512.625488	5509.381257
512.989866	5603.479434
513.354186	5701.300504
513.718449	5800.275998
514.082655	5983.781560
514.446803	6065.987656
514.810894	6230.417491
515.174927	6339.102248
515.538904	6453.687674
515.902822	6633.818184
516.266684	6718.491924
516.630488	6879.705504
516.994235	7000.100860
517.357925	7194.581014
517.721558	7356.555808
518.085133	7532.837396
518.448651	7689.271962
518.812112	7812.901218
519.175516	7970.674210
519.538863	8168.499170
519.902152	8321.518353
520.265385	8548.125781
520.628560	8700.734110
520.991678	8841.266356
521.354739	9023.947689
521.717743	9236.432324
522.080690	9380.551351
522.443580	9655.039657
522.806413	9818.267177
523.169189	10011.348411
523.531908	10215.489936
523.894569	10360.223983
524.257174	10568.297608
524.619722	10803.238063
524.982213	11004.659885
525.344647	11186.161588
525.707025	11395.384596
526.069345	11673.308449
526.431608	11842.156856
526.793815	12103.644027
527.155964	12190.500587
527.518057	12431.787854
527.880093	12589.636463
528.242072	12963.334677
528.603995	13092.970469
528.965860	13272.677521
529.327669	13522.479297
529.689421	13735.016864
530.051117	13927.536009
530.412755	14198.964335
530.774337	14425.564200
531.135862	14617.029744
531.497331	14866.609709
531.858743	15072.155195
532.220098	15404.463016
532.581396	15538.897986
532.942638	15674.782288
533.303824	15966.120651
533.664953	16195.152873
534.026025	16309.403063
534.387040	16710.038683
534.747999	16960.692414
535.108902	17300.383004
535.469748	17285.902289
535.830537	17600.679497
536.191270	17926.998427
536.551947	18056.606492
536.912567	18392.317092
537.273131	18686.886834
537.633638	18761.884080
537.994089	19067.803981
538.354483	19189.512558
538.714821	19685.620070
539.075103	20044.504853
539.435328	20212.410564
539.795497	20339.707261
540.155609	20624.792072
540.515665	21115.402206
540.875665	21044.702544
541.235609	21395.329917
541.595496	21699.533305
541.955328	22202.930325
542.315102	22170.893792
542.674821	22342.232529
543.034483	22520.336495
543.394090	22769.850925
543.753640	22996.470955
544.113134	23763.858078
544.472571	23556.089443
544.831953	24389.182966
545.191278	24222.724066
545.550548	24291.621516
545.909761	24865.876994
546.268918	25197.428642
546.628019	25661.323180
546.987064	25572.727422
547.346053	25407.916979
547.704986	26158.131413
548.063863	26183.843818
548.422684	26550.915435
548.781449	26536.376747
549.140158	27088.315038
549.498811	27177.982041
549.857408	27048.409264
550.215949	27796.173696
550.574434	27918.542665
550.932864	28099.567979
551.291237	28793.475244
551.649555	28861.218269
552.007817	29202.416165
552.366022	29223.276459
552.724173	29488.448713
553.082267	29989.950260
553.440305	30420.437072
553.798288	30159.829583
554.156215	30637.065535
554.514086	30990.936891
554.871902	30950.264862
555.229661	31293.491821
555.587365	31301.756793
555.945014	31597.112956
556.302606	31822.639055
556.660143	32111.114043
557.017625	32466.696871
557.375050	32479.698006
557.732421	32968.604230
558.089735	33209.871332
558.446994	33327.713345
558.804197	33901.414296
559.161345	34008.702653
559.518437	33722.929724
559.875474	34121.957215
560.232455	34494.440511
560.589381	34745.416876
560.946251	34794.245492
561.303065	35489.261811
561.659825	35452.373168
562.016528	35488.525803
562.373177	35357.581832
562.729770	36025.988420
563.086307	35848.912850
563.442789	36454.259645
563.799216	36531.308641
564.155587	36620.436241
564.511904	36791.162477
564.868164	37004.504108
565.224370	37438.986035
565.580520	37386.099290
565.936615	37728.002946
566.292654	37602.513504
566.648638	38079.318437
567.004567	38209.586894
567.360441	38441.963922
567.716260	38371.370124
568.072023	38849.251344
568.427732	38960.572623
568.783385	38725.780883
569.138982	39224.572809
569.494525	39492.827729
569.850013	39293.099734
570.205445	39553.397192
570.560823	39501.904326
570.916145	39563.615611
571.271412	39896.215818
571.626625	39739.471222
571.981782	39957.874171
572.336884	39740.950801
572.691931	40165.753712
573.046923	40023.245334
573.401860	40003.153815
573.756743	40152.263584
574.111570	40398.307180
574.466342	40447.324839
574.821059	40704.774046
575.175722	40397.379608
575.530330	40612.828441
575.884882	40409.740517
576.239380	40440.065578
576.593823	40645.429583
576.948211	40684.795953
577.302544	40401.833467
577.656823	40501.766780
578.011047	40841.850580
578.365216	40783.043000
578.719330	40649.724646
579.073389	40723.615358
579.427394	40873.299819
579.781344	40907.254510
580.135239	40784.091560
580.489080	40932.089755
580.842866	40570.482748
581.196597	41122.090843
581.550273	41182.088136
581.903895	41210.227857
582.257463	41719.021432
582.610975	41263.356577
582.964434	41672.562158
583.317837	41282.505400
583.671186	41324.470485
584.024481	41652.924343
584.377721	41322.201966
584.730906	41600.660181
585.084037	41787.187914
585.437113	41603.720161
585.790135	41799.637044
586.143103	41458.043418
586.496016	41670.097034
586.848874	41830.562002
587.201679	41919.951742
587.554428	41527.812987
587.907124	41852.266690
588.259765	41706.922663
588.612352	41923.417535
588.964884	41454.365896
589.317362	41816.136740
589.669786	41863.952084
590.022155	41786.025928
590.374470	42289.478401
590.726731	41937.600822
591.078937	41349.905627
591.431090	41721.904972
591.783188	41347.763136
592.135232	41203.480272
592.487222	41509.828671
592.839157	41698.556868
593.191038	41399.684500
593.542866	41269.262289
593.894639	40741.821485
594.246358	41078.845305
594.598022	41111.287651
594.949633	40762.848138
595.301190	40786.208845
595.652692	40778.324480
596.004141	41278.873248
596.355535	40265.026634
596.706876	40315.803656
597.058162	40071.700904
597.409395	40602.889806
597.760573	40860.061749
598.111698	40496.786120
598.462768	40443.803593
598.813785	40499.858703
599.164748	40137.445112
599.515657	40438.021390
599.866511	39995.128298
600.217312	40711.693029
600.568060	39678.750524
600.918753	40521.502897
601.269392	40468.263272
601.619978	40226.643288
601.970510	40446.664448
602.320988	40605.385177
602.671412	40887.745245
603.021783	40786.183639
603.372100	40376.456298
603.722363	40509.983861
604.072572	40573.547770
604.422728	40597.510895
604.772830	40397.016644
605.122878	40556.596890
605.472872	40441.986257
605.822813	40736.359395
606.172701	40498.777376
606.522534	40844.318225
606.872314	41043.277444
607.222041	40900.453994
607.571714	41244.679102
607.921333	40772.822061
608.270899	40994.277429
608.620411	41394.640826
608.969870	41128.109981
609.319276	41182.693074
609.668627	41222.918961
610.017926	41640.442446
610.367171	41779.253138
610.716362	41818.642194
611.065500	41717.922460
611.414585	41974.318066
611.763616	42155.862618
612.112594	42063.669997
612.461518	42195.279400
612.810389	42581.746857
613.159207	42381.595405
613.507971	42381.789490
613.856682	42864.888304
614.205340	42717.948752
614.553945	43416.819033
614.902496	42744.480344
615.250994	43174.561344
615.599439	43241.432249
615.947830	43356.925084
616.296169	43376.550296
616.644454	43427.052575
616.992686	43592.664561
617.340864	44055.838215
617.688990	43581.324486
618.037063	44250.119243
618.385082	44092.961272
618.733048	44445.174088
619.080961	44312.198532
619.428821	44345.243296
619.776628	44369.276997
620.124382	44174.201987
620.472083	44295.582889
620.819731	44406.979786
621.167326	43966.803876
621.514868	43963.882528
621.862357	43443.375831
622.209793	43535.001323
622.557176	43106.931744
622.904506	42866.549364
623.251783	42505.975794
623.599007	42182.253059
623.946179	42098.660646
624.293297	41866.772610
624.640363	41321.476040
624.987376	41170.732937
625.334336	40972.015693
625.681243	40551.684286
626.028097	40479.961269
626.374899	40321.575777
626.721647	40274.924939
627.068343	40085.967370
627.414987	39764.366960
627.761577	39540.401098
628.108115	39873.223116
628.454600	39135.026793
628.801032	39359.045588
629.147412	39268.806414
629.493739	39182.315337
629.840014	38731.217768
630.186236	39161.477728
630.532405	38609.242009
630.878521	38848.139769
631.224585	38627.755647
631.570597	38292.125706
631.916556	38449.505488
632.262462	38349.206691
632.608316	38282.655898
632.954117	38136.391861
633.299866	38095.427444
633.645562	38017.188737
633.991206	37484.154773
634.336797	37078.649399
634.682336	36995.372058
635.027823	36752.164111
635.373257	36620.960521
635.718639	36302.631820
636.063968	36183.690836
636.409245	35542.272065
636.754470	35508.715624
637.099642	35277.901354
637.444762	34716.311774
637.789829	34868.176534
638.134845	34489.790047
638.479808	34403.104886
638.824719	34347.246381
639.169577	33850.347408
639.514383	33942.935760
639.859137	33541.967424
640.203839	33729.631938
640.548489	33429.703449
640.893086	33453.850576
641.237632	33148.938906
641.582125	33263.879734
641.926566	33055.589339
642.270955	33088.011520
642.615292	33027.189999
642.959576	32909.930240
643.303809	32918.820315
643.647990	33009.513193
643.992118	32958.370687
644.336195	32805.197748
644.680219	32904.069899
645.024192	33108.395426
645.368112	33628.277019
645.711981	33636.703308
646.055797	34371.075915
646.399562	34166.740306
646.743274	35046.522475
647.086935	35457.084126
647.430544	35397.172533
647.774101	35449.731603
648.117606	35751.895844
648.461059	35874.582406
648.804460	35473.825798
649.147810	34965.468283
649.491108	34603.815906
649.834354	34468.042509
650.177548	33652.819877
650.520690	33148.409585
650.863781	33148.616272
651.206820	32966.118941
651.549807	32547.856927
651.892742	31965.578452
652.235626	31875.732487
652.578458	31744.680132
652.921238	31055.211602
653.263967	31379.551879
653.606644	31087.956417
653.949269	30991.317498
654.291843	30590.336559
654.634365	30964.846399
654.976836	30509.080721
655.319255	30567.905945
655.661622	30446.376329
656.003938	30318.046196
656.346203	30135.243875
656.688416	30381.897451
657.030577	30150.352213
657.372687	29980.757716
657.714746	30145.492541
658.056753	30335.168475
658.398708	29712.827950
658.740612	29778.851942
659.082465	29992.879170
659.424266	29893.336546
659.766016	29874.684277
660.107715	29741.002959
660.449362	29849.100421
660.790958	29826.127883
661.132503	29757.051473
661.473996	29826.780713
661.815438	29916.427551
662.156829	30048.634332
662.498168	29845.032210
662.839456	29811.722786
663.180693	29944.174062
663.521879	30045.705421
663.863013	29998.313534
664.204097	29974.466356
664.545129	30398.364380
664.886110	30322.283286
665.227040	30427.144327
665.567918	30409.568344
665.908746	30493.372486
666.249522	30583.382287
666.590248	30609.573602
666.930922	30726.230943
667.271545	30716.990508
667.612118	30763.873239
667.952639	30573.231924
668.293109	30608.736771
668.633528	30474.800875
668.973896	30425.024522
669.314213	30414.745609
669.654480	30223.736290
669.994695	30213.608612
670.334859	30131.616765
670.674973	29969.636930
671.015035	30140.287550
671.355047	30099.481930
671.695008	30018.699960
672.034918	29921.486349
672.374777	30035.401303
672.714585	29891.614992
673.054342	30023.340342
673.394049	29873.769308
673.733705	30098.327506
674.073310	29808.995522
674.412864	29872.045233
674.752368	29563.007379
675.091820	29797.993203
675.431223	29386.609844
675.770574	29183.809266
676.109875	29035.969868
676.449125	28827.215687
676.788324	28717.747031
677.127473	28239.187776
677.466571	28144.414083
677.805619	27867.521147
678.144616	27823.958016
678.483562	27753.359177
678.822458	27435.166587
679.161303	27386.529535
679.500098	27292.030585
679.838842	27221.945944
680.177535	27309.858626
680.516179	27556.199650
680.854771	27693.954220
681.193314	28458.588873
681.531805	29487.463168
681.870247	30243.192623
682.208638	30966.270525
682.546978	31212.417464
682.885268	31360.808869
683.223508	30912.725909
683.561697	30629.594545
683.899836	30466.876181
684.237925	30062.147144
684.575963	29937.181982
684.913951	29556.050586
685.251889	29733.214377
685.589776	29747.228784
685.927614	29754.435114
686.265401	29939.493351
686.603137	30061.133872
686.940824	30562.819421
687.278460	30889.282023
687.616046	31050.195654
687.953582	31712.026058
688.291068	31632.832051
688.628504	31962.082412
688.965889	31955.770887
689.303224	31674.484585
689.640510	31408.682187
689.977745	30776.942431
690.314930	30019.332625
690.652065	29587.199876
690.989150	28924.804863
691.326185	28075.703157
691.663170	27434.498634
692.000105	26697.844905
692.336990	26107.414884
692.673825	25663.362327
693.010610	25181.967423
693.347345	24681.937893
693.684030	24055.382964
694.020665	23848.925029
694.357251	23175.429396
694.693786	23171.068798
695.030272	22962.901911
695.366707	22451.776802
695.703093	22175.400584
696.039429	22248.409094
696.375716	22012.611644
696.711952	22000.248214
697.048139	21861.803006
697.384276	21708.715767
697.720363	21818.764155
698.056400	21709.933205
698.392388	21551.797250
698.728326	21554.317827
699.064214	21378.189994
699.400053	21395.660113
699.735842	21004.365751
700.071581	20796.435799
700.407270	20556.900333
700.742910	20386.234590
701.078501	20125.927049
701.414042	19932.656773
701.749533	19617.624987
702.084974	19306.908428
702.420366	19538.473830
702.755709	19135.322675
703.091002	18826.315067
703.426246	18893.790912
703.761440	18832.132559
704.096584	18588.112986
704.431679	18518.315691
704.766725	18469.512280
705.101721	18400.582063
705.436668	18526.321043
705.771565	18239.718844
706.106413	18565.150531
706.441212	18636.974370
706.775961	18739.952540
707.110661	18827.194749
707.445311	19175.808181
707.779913	19053.834943
708.114465	19356.513382
708.448967	19668.233130
708.783421	20303.179060
709.117825	20676.499187
709.452180	20898.403218
709.786485	21352.734688
710.120742	22128.664047
710.454949	22232.214388
710.789107	22736.581830
711.123216	23453.610347
711.457275	23661.227748
711.791286	24207.963568
712.125247	24363.251271
712.459159	24100.597073
712.793023	24852.429717
713.126837	23819.948477
713.460602	24076.011366
713.794318	23738.062494
714.127985	23457.865081
714.461602	22567.430954
714.795171	22549.852450
715.128691	21575.951939
715.462162	21038.693488
715.795584	20610.334043
716.128957	20345.340750
716.462281	19975.224276
716.795556	19682.996149
717.128782	19207.529642
717.461960	18611.561913
717.795088	18562.226661
718.128167	18220.665803
718.461198	17775.491589
718.794180	17641.248183
719.127113	17304.264692
719.459997	17110.205475
719.792833	16740.459526
720.125619	16780.766071
720.458357	16448.077644
720.791046	16305.833926
721.123686	16158.889333
721.456278	15939.415138
721.788821	15925.947696
722.121315	15658.418702
722.453761	15761.535504
722.786158	15654.065666
723.118506	15731.434775
723.450805	15611.919099
723.783056	15791.774866
724.115259	15690.407344
724.447412	15686.248392
724.779518	15896.996349
725.111574	15948.572394
725.443582	16215.070472
725.775542	16175.948597
726.107453	16696.251127
726.439315	16612.633508
726.771129	17025.498967
727.102895	17455.494267
727.434612	17721.364720
727.766281	17895.125732
728.097901	18206.517805
728.429473	18292.981155
728.760996	18315.605853
729.092471	18429.919058
729.423897	18323.591041
729.755276	18194.479529
730.086606	18309.700142
730.417887	18894.552126
730.749120	19446.069480
731.080305	19662.294651
731.411442	20077.053063
731.742530	20188.886020
732.073570	20352.768890
732.404562	20668.703043
732.735506	20513.342243
733.066401	20300.661003
733.397249	19797.649632
733.728048	19186.840746
734.058798	18312.792890
734.389501	17554.159730
734.720156	17038.162345
735.050762	16470.525902
735.381320	16067.727627
735.711831	15809.300437
736.042293	15430.666933
736.372707	15465.849146
736.703073	15247.292442
737.033391	15459.099041
737.363661	15449.641836
737.693883	15580.159830
738.024056	15778.551919
738.354182	15993.148797
738.684260	16357.699838
739.014290	16635.774925
739.344272	16871.595061
739.674207	17204.495217
740.004093	17387.673103
740.333931	17439.294519
740.663722	17526.617386
740.993464	17554.676448
741.323159	17406.852173
741.652806	17108.108355
741.982405	16941.692305
742.311956	16588.645178
742.641460	16466.916436
742.970915	16141.698998
743.300323	15793.319979
743.629683	15578.450879
743.958996	15254.460962
744.288260	14943.532675
744.617477	14638.855419
744.946647	14597.044089
745.275768	14288.913643
745.604842	14091.623046
745.933869	13916.263989
746.262847	13880.045819
746.591778	13790.086428
746.920662	13682.687166
747.249498	13685.749667
747.578286	13846.764121
747.907027	14014.833670
748.235720	14293.556545
748.564365	14355.872769
748.892963	14277.210604
749.221514	14380.340009
749.550017	14247.946706
749.878473	14218.768507
750.206881	13992.677799
750.535242	13908.919028
750.863555	13830.408098
751.191821	13734.991658
751.520039	13764.235392
751.848210	13680.763966
752.176334	13732.788674
752.504411	13652.654492
752.832440	13483.216270
753.160421	13591.780039
753.488356	13477.076145
753.816243	13389.274368
754.144082	13229.464750
754.471875	13174.647243
754.799620	13137.095688
755.127318	13110.901853
755.454969	13105.396913
755.782572	13076.785844
756.110129	13091.543822
756.437638	12989.077329
756.765100	12996.195438
757.092515	13031.296993
757.419882	13074.744177
757.747203	13078.250300
758.074477	13162.281293
758.401703	13150.250579
758.728882	13340.372656
759.056014	13386.111044
759.383099	13561.822982
759.710138	13678.999562
760.037129	13800.980362
760.364073	13862.832799
760.690970	13888.767015
761.017820	13917.194082
761.344623	14135.191218
761.671379	14518.921328
761.998088	15229.618156
762.324751	17018.048142
762.651366	20443.668456
762.977935	24931.462406
763.304456	27892.981494
763.630931	28934.493961
763.957359	27715.837869
764.283740	25438.831855
764.610074	23182.166898
764.936362	20541.446676
765.262602	18657.138985
765.588796	16718.568315
765.914943	15441.525579
766.241044	14335.178832
766.567097	13536.720557
766.893104	12818.114158
767.219064	12352.866070
767.544978	11876.875283
767.870845	11495.343115
768.196665	11261.000038
768.522438	11036.703980
768.848165	10826.921403
769.173846	10623.899015
769.499479	10502.066929
769.825066	10324.484723
770.150607	10094.106513
770.476101	10020.684628
770.801548	9893.753415
771.126949	9730.208302
771.452303	9617.800653
771.777611	9423.849821
772.102872	9414.251464
772.428087	9268.307540
772.753256	9112.029250
773.078378	9022.049695
773.403453	8836.278134
773.728482	8729.546825
774.053465	8654.995722
774.378401	8550.144763
774.703291	8424.902337
775.028135	8299.788460
775.352932	8268.563553
775.677683	8167.473295
776.002388	8064.404384
776.327046	8070.625168
776.651658	7971.271587
776.976224	7869.195783
777.300743	7864.857871
777.625216	7782.379552
777.949643	7734.939774
778.274024	7751.058864
778.598359	7664.918147
778.922647	7681.148142
779.246889	7628.649566
779.571086	7638.074003
779.895236	7641.199518
780.219339	7649.582957
780.543397	7655.090418
780.867409	7740.016216
781.191374	7748.961744
781.515294	7712.862041
781.839167	7811.401475
782.162995	7781.870396
782.486776	7726.397539
782.810511	7680.689397
783.134201	7588.511899
783.457844	7584.599964
783.781441	7532.648353
784.104993	7459.349976
784.428498	7444.465969
784.751958	7428.019205
785.075372	7398.352014
785.398739	7343.337902
785.722061	7387.732824
786.045337	7393.061323
786.368568	7549.062350
786.691752	7577.368428
787.014891	7922.599247
787.337983	8277.441025
787.661030	8875.377324
787.984031	9500.109876
788.306987	9902.119210
788.629897	10112.519327
788.952760	10058.173168
789.275579	9842.636115
789.598351	9435.739382
789.921078	9083.266947
790.243759	8671.913834
790.566395	8378.059935
790.888984	8127.133982
791.211529	7912.214470
791.534027	7692.457971
791.856480	7492.500603
792.178888	7420.417145
792.501249	7319.016856
792.823566	7161.400139
793.145836	7168.356932
793.468062	7134.608927
793.790241	7087.214519
794.112375	7157.420148
794.434464	7308.158210
794.756507	7357.445571
795.078505	7513.857452
795.400457	7828.710277
795.722364	8184.618259
796.044226	8471.086868
796.366042	8740.718022
796.687812	8691.397893
797.009538	8770.647352
797.331218	8657.733068
797.652852	8573.092095
797.974442	8420.357736
798.295986	8338.171805
798.617484	8139.215107
798.938938	7999.461719
799.260346	7899.737614
799.581709	7695.011315
799.903026	7617.518698
800.224299	7506.749425
800.545526	7337.870771
800.866708	7239.283446
801.187845	7171.840369
801.508936	7067.286838
801.829983	7034.194184
802.150984	6876.186778
802.471940	6830.166085
802.792851	6816.421379
803.113717	6790.792153
803.434538	6750.480566
803.755314	6696.772113
804.076045	6698.286980
804.396731	6648.649258
804.717372	6673.807137
805.037967	6678.066912
805.358518	6716.876234
805.679024	6801.055942
805.999485	6812.625390
806.319901	6858.540219
806.640272	6872.713423
806.960598	6957.266176
807.280879	6952.557738
807.601115	7035.046139
807.921306	6982.797100
808.241453	6995.089953
808.561554	7016.570310
808.881611	6978.312993
809.201623	6994.706826
809.521590	6935.276663
809.841513	6916.362254
810.161390	6958.715508
810.481223	6823.015208
810.801011	6809.421737
811.120755	6780.881244
811.440453	6705.314348
811.760107	6671.904101
812.079716	6643.610625
812.399281	6577.440440
812.718801	6567.579943
813.038276	6517.072622
813.357707	6462.933151
813.677093	6503.791703
813.996434	6409.196971
814.315731	6450.993178
814.634983	6441.246107
814.954191	6456.757737
815.273354	6560.900414
815.592473	6627.337780
815.911547	6749.774804
816.230577	6835.179512
816.549562	6985.602502
816.868502	7087.474139
817.187399	7182.603232
817.506250	7334.904052
817.825058	7369.655246
818.143821	7638.101729
818.462539	7917.459790
818.781213	8276.359697
819.099843	8838.428187
819.418429	9842.610909
819.736970	10820.783799
820.055466	11999.735763
820.373919	13536.276935
820.692327	15904.253090
821.010691	20078.094061
821.329011	29107.524005
821.647286	42087.116403
821.965517	55490.538770
822.283704	60837.375583
822.601847	62809.169978
822.919945	60138.490178
823.237999	55957.992363
823.556010	49805.863992
823.873976	43102.155251
824.191897	36553.187248
824.509775	31712.512529
824.827609	27188.971757
825.145398	24589.029428
825.463144	23229.339495
825.780845	23534.840980
826.098502	25332.803787
826.416116	29124.953795
826.733685	32763.464556
827.051210	33916.268056
827.368692	32113.896760
827.686129	28144.676223
828.003522	24020.059599
828.320872	20311.015533
828.638177	17458.486191
828.955439	15292.761129
829.272656	13477.083707
829.589830	11996.834579
829.906960	10716.936029
830.224046	9785.368607
830.541088	9027.695787
830.858086	8570.508504
831.175041	8186.221346
831.491952	8077.597083
831.808819	8121.218188
832.125642	8529.256742
832.442421	9424.573227
832.759157	11231.302600
833.075849	14161.632070
833.392497	17381.086836
833.709101	19558.497293
834.025662	19389.641324
834.342179	17684.738217
834.658653	15485.479399
834.975083	13566.193663
835.291469	11936.224787
835.607811	10616.153282
835.924110	9707.802894
836.240366	8832.673709
836.556578	8026.378960
836.872746	7379.014148
837.188871	6879.055195
837.504952	6468.833821
837.820990	6153.348331
838.136984	5931.585453
838.452935	5835.939641
838.768842	5869.044898
839.084706	6297.686648
839.400526	7511.883840
839.716303	9092.744316
840.032037	10191.851965
840.347727	10109.146795
840.663373	9128.329821
840.978977	8081.987928
841.294537	7275.753673
841.610054	6677.671181
841.925527	6243.290077
842.240957	5879.885900
842.556344	5544.003901
842.871687	5259.650057
843.186987	4979.419876
843.502244	4756.063993
843.817458	4589.912604
844.132629	4452.760452
844.447756	4362.271740
844.762840	4281.053710
845.077881	4207.936815
845.392879	4143.720077
845.707833	4094.972119
846.022745	4050.085685
846.337613	4020.922610
846.652438	3975.874859
846.967221	3963.042602
847.281960	3927.129422
847.596656	3910.014705
847.911309	3888.983011
848.225919	3869.486349
848.540485	3849.513297
848.855009	3835.055268
849.169490	3818.056497
849.483928	3801.037562
849.798323	3797.420534
850.112675	3775.093263
850.426984	3782.642391
850.741251	3767.067747
851.055474	3766.462808
851.369654	3769.343827
851.683792	3763.067591
851.997887	3769.467336
852.311938	3767.216461
852.625947	3777.560908
852.939914	3763.309566
853.253837	3772.502110
853.567718	3773.762399
853.881555	3761.494751
854.195350	3776.361114
854.509103	3772.192079
854.822812	3768.776698
855.136479	3763.072632
855.450103	3771.501441
855.763685	3762.008949
856.077224	3766.417438
856.390720	3781.349335
856.704173	3801.289619
857.017584	3813.020384
857.330953	3825.575378
857.644278	3846.234027
857.957561	3849.974563
858.270802	3849.984645
858.584000	3852.361549
858.897155	3847.080940
859.210268	3832.194413
859.523339	3809.242040
859.836367	3807.913696
860.149352	3800.558652
860.462295	3794.776449
860.775195	3781.424953
861.088054	3775.393212
861.400869	3774.657204
861.713642	3775.418418
862.026373	3785.644398
862.339062	3793.417858
862.651708	3812.223882
862.964312	3847.537165
863.276873	3857.271633
863.589392	3913.941764
863.901869	3961.497489
864.214303	4004.768233
864.526696	4040.714180
864.839045	4088.670677
865.151353	4113.546250
865.463619	4122.955564
865.775842	4127.681646
866.088023	4146.505314
866.400162	4136.002070
866.712258	4146.396929
867.024313	4147.662259
867.336325	4145.882732
867.648296	4150.016478
867.960224	4154.102333
868.272110	4157.515194
868.583954	4163.158766
868.895755	4178.085623
869.207515	4172.817617
869.519233	4218.603897
869.830909	4229.752408
870.142542	4255.386676
870.454134	4265.403448
870.765684	4299.050630
871.077191	4335.152853
871.388657	4356.396275
871.700081	4395.896236
872.011463	4438.246970
872.322803	4475.324656
872.634101	4508.145088
872.945357	4550.573960
873.256571	4598.994242
873.567744	4632.490189
873.878874	4646.307992
874.189963	4685.671842
874.501010	4695.814643
874.812015	4691.794323
875.122979	4737.547835
875.433900	4737.358792
875.744780	4748.124176
876.055618	4775.326242
876.366415	4775.749699
876.677169	4796.017658
876.987882	4844.700081
877.298554	4895.930807
877.609183	4976.614474
877.919771	5087.260239
878.230317	5232.465635
878.540822	5445.625784
878.851285	5772.315238
879.161707	6234.815898
879.472087	6996.211610
879.782425	8236.408553
880.092722	10421.587428
880.402977	13739.170775
880.713191	17479.724573
881.023363	21194.044206
881.333494	23382.562846
881.643583	24604.858651
881.953631	24608.909218
882.263637	23778.467342
882.573602	22285.847223
882.883526	20731.629246
883.193408	19066.967149
883.503248	17359.109926
883.813048	15809.620550
884.122806	14394.687133
884.432522	12919.194334
884.742197	11650.403967
885.051831	10561.824767
885.361424	9560.071880
885.670975	8744.040142
885.980485	8050.064822
886.289954	7478.075342
886.599382	6999.679924
886.908768	6629.150075
887.218113	6263.953767
887.527417	5973.316124
887.836680	5704.998190
888.145901	5491.260829
888.455082	5328.033309
888.764221	5168.667312
889.073319	5040.329618
889.382376	4963.101661
889.691392	4909.002519
890.000366	4880.283065
890.309300	4862.608780
890.618193	4867.165983
890.927044	4855.198284
891.235855	4879.554618
891.544625	4906.784411
891.853353	4973.514164
892.162041	5086.872070
892.470687	5274.980206
892.779293	5525.588566
893.087858	5902.193005
893.396381	6482.107179
893.704864	7279.980681
894.013306	8430.296371
894.321707	9610.909396
894.630068	10426.777296
894.938387	10627.175765
895.246665	10390.851513
895.554903	9784.690572
895.863100	9091.650385
896.171256	8529.140795
896.479371	8022.270420
896.787446	7528.640635
897.095480	7096.762465
897.403473	6778.925277
897.711425	6458.544826
898.019336	6189.279155
898.327207	5920.255460
898.635038	5687.374317
898.942827	5443.679898
899.250576	5249.373665
899.558284	5057.151948
899.865952	4932.945479
900.173579	4786.079023
900.481165	4678.881407
900.788711	4586.945885
901.096216	4518.945760
901.403681	4449.813897
901.711105	4423.914969
902.018489	4410.581117
902.325832	4481.928568
902.633135	4603.304429
902.940397	4949.417449
903.247619	5747.285909
903.554800	7186.114396
903.861941	9114.244837
904.169041	10629.071238
904.476101	11235.990873
904.783121	10884.289734
905.090100	10149.773454
905.397039	9318.189757
905.703938	8556.201709
906.010796	7871.287862
906.317614	7315.175496
906.624391	6783.109434
906.931129	6352.451223
907.237826	5951.104801
907.544483	5579.544036
907.851099	5202.911870
908.157675	4849.214434
908.464211	4527.228376
908.770707	4293.349085
909.077163	4091.886933
909.383578	3946.734470
909.689954	3835.493848
909.996289	3761.817385
910.302584	3696.305070
910.608839	3667.613343
910.915054	3633.514978
911.221229	3620.667598
911.527363	3627.770583
911.833458	3645.258346
912.139513	3673.498890
912.445527	3702.362016
912.751502	3781.193060
913.057436	3887.584091
913.363331	4020.841952
913.669186	4228.194692
913.975000	4486.117767
914.280775	4905.163680
914.586510	5488.621785
914.892205	6286.263393
915.197859	7318.984088
915.503475	8540.009523
915.809050	9599.294578
916.114585	10242.444985
916.420081	10501.759419
916.725536	10465.692483
917.030952	10024.425164
917.336328	9612.038615
917.641665	9203.377478
917.946961	8726.040703
918.252218	8306.281466
918.557435	7790.087477
918.862612	7362.368258
919.167750	6991.276321
919.472848	6567.257309
919.777906	6189.732859
920.082925	5833.396379
920.387904	5468.686542
920.692843	5204.575451
920.997743	4956.459941
921.302603	4722.878077
921.607423	4558.478489
921.912204	4395.800454
922.216946	4280.098412
922.521647	4157.671470
922.826310	4052.649112
923.130932	3957.240234
923.435516	3859.124257
923.740059	3787.222280
924.044564	3713.891135
924.349028	3653.213287
924.653454	3588.116867
924.957840	3518.390148
925.262186	3474.617809
925.566493	3411.515166
925.870761	3356.990046
926.174989	3319.793892
926.479178	3283.074128
926.783328	3240.819176
927.087438	3215.734394
927.391509	3178.220648
927.695541	3147.366266
927.999533	3122.969602
928.303486	3102.651231
928.607400	3085.481061
928.911275	3072.542940
929.215110	3057.137174
929.518906	3046.681821
929.822663	3047.879095
930.126381	3046.833055
930.430060	3049.283056
930.733699	3052.622821
931.037299	3062.899213
931.340861	3057.611042
931.644383	3071.922878
931.947866	3067.680747
932.251309	3063.796538
932.554714	3062.417783
932.858080	3055.967626
933.161407	3047.687531
933.464694	3037.932898
933.767943	3032.979965
934.071153	3026.670961
934.374323	3018.174096
934.677455	3014.794002
934.980548	3007.297806
935.283602	2999.758761
935.586617	2993.598471
935.889593	3007.776716
936.192530	3011.562623
936.495428	3023.626104
936.798287	3046.681821
937.101108	3079.751790
937.403890	3131.141312
937.706632	3195.058102
938.009336	3271.073661
938.312002	3343.411698
938.614628	3407.696492
938.917216	3459.910243
939.219765	3492.155983
939.522275	3520.900642
939.824747	3528.936242
940.127179	3526.675284
940.429573	3521.518184
940.731929	3518.725385
941.034246	3504.834485
941.336524	3491.737567
941.638763	3474.580000
941.940964	3461.341930
942.243126	3417.804005
942.545250	3395.953124
942.847335	3358.520036
943.149381	3320.575271
943.451389	3288.972278
943.753359	3257.475148
944.055290	3235.969586
944.357182	3206.385575
944.659036	3194.649768
944.960851	3182.830783
945.262628	3169.678413
945.564367	3170.482477
945.866067	3167.578772
946.167729	3159.528050
946.469352	3160.679953
946.770937	3154.060918
947.072484	3136.336221
947.373992	3145.712767
947.675462	3133.140130
947.976893	3116.156482
948.278286	3112.695730
948.579641	3104.113166
948.880958	3098.933380
949.182236	3100.430603
949.483476	3093.612442
949.784678	3094.088832
950.085841	3096.238884
950.386967	3104.473608
950.688054	3121.694190
950.989103	3140.787560
951.290114	3162.600633
951.591087	3190.082483
951.892021	3218.350753
952.192917	3246.452665
952.493776	3270.375461
952.794596	3279.358797
953.095378	3284.798202
953.396122	3279.520114
953.696828	3273.183384
953.997496	3258.939603
954.298126	3236.314905
954.598718	3216.961915
954.899272	3194.203626
955.199788	3167.926612
955.500266	3134.350007
955.800706	3096.669902
956.101108	3057.550548
956.401472	3027.495189
956.701798	2995.803976
957.002087	2954.577419
957.302337	2924.872420
957.602550	2898.330745
957.902724	2869.538195
958.202861	2844.032477
958.502960	2825.097903
958.803022	2805.192907
959.103045	2785.723971
959.403031	2766.217227
959.702979	2754.504106
960.002889	2738.823597
960.302762	2726.447564
960.602596	2717.285267
960.902393	2706.648432
961.202153	2699.242977
961.501875	2689.558921
961.801559	2683.819567
962.101205	2676.401509
962.400814	2670.221054
962.700385	2665.288285
962.999918	2659.609426
963.299414	2653.948210
963.598873	2651.442756
963.898293	2645.027888
964.197677	2644.501088
964.497022	2641.458751
964.796331	2641.851961
965.095601	2639.054121
965.394835	2635.676548
965.694030	2634.801907
965.993189	2634.804428
966.292309	2631.497431
966.591393	2630.597585
966.890439	2629.697739
967.189447	2630.247225
967.488419	2630.285034
967.787353	2632.074643
968.086249	2632.621608
968.385108	2635.346352
968.683930	2637.541775
968.982714	2643.011427
969.281462	2648.642395
969.580172	2649.877478
969.878844	2656.476348
970.177480	2665.109324
970.476078	2673.336487
970.774639	2681.566171
971.073162	2687.975998
971.371649	2693.790969
971.670098	2697.871783
971.968510	2704.634491
972.266885	2707.238247
972.565223	2711.424925
972.863524	2712.644885
973.161788	2719.924311
973.460014	2719.768035
973.758204	2724.647872
974.056356	2726.800445
974.354471	2727.266751
974.652550	2727.319683
974.950591	2727.072667
975.248595	2725.583006
975.546563	2722.223077
975.844493	2718.585884
976.142386	2712.579350
976.440243	2708.959801
976.738062	2702.434027
977.035845	2699.111907
977.333590	2692.868438
977.631299	2687.171934
977.928971	2681.825791
978.226606	2674.652229
978.524204	2671.501507
978.821765	2665.280724
979.119290	2669.096877
979.416777	2667.859274
979.714228	2669.016219
980.011642	2676.212466
980.309020	2682.523990
980.606360	2696.719880
980.903664	2720.128477
981.200931	2756.407141
981.498162	2806.259112
981.795356	2881.478168
982.092513	2967.515541
982.389633	3069.414904
982.686717	3168.468536
982.983764	3241.814804
983.280775	3289.937658
983.577749	3296.226498
983.874686	3284.452883
984.171587	3248.330495
984.468451	3210.574773
984.765279	3167.999709
985.062070	3119.801237
985.358824	3078.874629
985.655543	3021.471010
985.952224	2967.921354
986.248869	2907.384658
986.545478	2845.088599
986.842050	2792.789148
987.138586	2747.416243
987.435086	2708.906869
987.731549	2675.778927
988.027975	2654.565751
988.324366	2635.341311
988.620719	2621.601646
988.917037	2609.938937
989.213318	2603.355190
989.509563	2593.784559
989.805772	2590.444795
990.101944	2589.282809
990.398080	2585.491861
990.694180	2580.856520
990.990244	2584.067735
991.286271	2584.561768
991.582262	2584.483630
991.878217	2585.572520
992.174136	2589.638210
992.470019	2591.808427
992.765865	2597.212544
993.061676	2602.785539
993.357450	2607.625047
993.653188	2615.499329
993.948890	2633.155971
994.244556	2652.534166
994.540186	2674.727846
994.835780	2708.168340
995.131337	2744.464648
995.426859	2784.246913
995.722345	2832.543688
996.017795	2883.595453
996.313208	2917.769435
996.608586	2948.331430
996.903928	2961.007411
997.199234	2958.265023
997.494504	2955.031123
997.789738	2942.831531
998.084936	2914.016296
998.380099	2885.538817
998.675225	2853.333406
998.970316	2823.983808
999.265371	2791.695218
999.560390	2754.758684
999.855373	2725.673747
1000.150320	2697.896989
1000.445232	2669.933709
1000.740108	2654.507778
1001.034948	2634.582617
1001.329752	2617.432612
1001.624521	2607.128493
1001.919254	2592.262131
1002.213951	2586.933631
1002.508613	2578.968608
1002.803239	2572.568863
1003.097829	2565.758264
1003.392384	2560.694425
1003.686903	2556.127140
1003.981386	2552.663867
1004.275834	2551.320400
1004.570246	2547.176571
1004.864623	2547.199257
1005.158964	2541.505273
1005.453270	2538.626774
1005.747540	2540.436549
1006.041775	2538.059645
1006.335974	2536.872453
1006.630138	2536.660724
1006.924266	2534.971938
1007.218359	2532.116124
1007.512416	2529.905578
1007.806438	2529.245187
1008.100425	2531.488501
1008.394376	2525.885258
1008.688292	2529.524971
1008.982172	2529.131761
1009.276017	2530.616381
1009.569827	2527.158149
1009.863602	2528.844415
1010.157341	2527.657224
1010.451045	2527.914323
1010.744714	2522.747140
1011.038347	2526.608664
1011.331945	2520.844104
1011.625508	2523.606657
1011.919036	2522.048940
1012.212528	2522.026255
1012.505986	2520.670184
1012.799408	2524.680422
1013.092795	2517.305214
1013.386147	2520.211439
1013.679464	2517.670698
1013.972745	2519.614063
1014.265992	2516.518794
1014.559204	2518.709176
1014.852380	2520.050123
1015.145521	2518.820081
1015.438628	2521.673374
1015.731699	2520.302180
1016.024736	2519.919052
1016.317737	2518.908301
1016.610703	2522.038858
1016.903635	2521.973323
1017.196531	2521.451563
1017.489393	2524.095648
1017.782219	2528.025228
1018.075011	2527.803417
1018.367768	2527.652183
1018.660490	2530.470187
1018.953177	2530.470187
1019.245829	2530.470187
