Dividing Wavelength (nm)	Counts (n)	Blue Motor Position (mm): 5.800000	Red Motor Position (mm): 0.000000	
326.493990	2065.809393
326.888308	2065.809393
327.282561	2065.809393
327.676750	2037.967101
328.070874	2039.116484
328.464933	2047.930941
328.858929	2055.585933
329.252859	2065.554815
329.646726	2079.107957
330.040528	2095.693353
330.434265	2112.356888
330.827938	2136.758593
331.221547	2156.093938
331.615091	2176.384583
332.008571	2199.024404
332.401986	2218.100131
332.795338	2236.664180
333.188625	2258.270565
333.581847	2277.242948
333.975006	2294.173663
334.368100	2310.416260
334.761129	2327.750268
335.154095	2343.367763
335.546996	2358.670185
335.939833	2373.226517
336.332606	2388.473487
336.725315	2398.868346
337.117960	2410.266395
337.510540	2417.591191
337.903056	2426.244332
338.295508	2435.489808
338.687896	2442.963318
339.080220	2444.032043
339.472480	2452.430605
339.864676	2454.620987
340.256807	2457.093673
340.648875	2458.653910
341.040879	2460.718262
341.432818	2461.502162
341.824694	2464.400825
342.216506	2464.680609
342.608253	2463.490897
342.999937	2459.221040
343.391557	2457.915381
343.783113	2459.576441
344.174605	2457.199537
344.566033	2457.093673
344.957397	2455.795576
345.348697	2455.399845
345.739934	2448.380038
346.131106	2450.555296
346.522215	2446.756787
346.913260	2444.513473
347.304241	2440.987186
347.695159	2439.749583
348.086012	2442.880139
348.476802	2438.736311
348.867528	2435.547781
349.258191	2430.650300
349.648789	2430.408325
350.039324	2431.184662
350.429796	2433.405291
350.820203	2434.877308
351.210548	2433.644746
351.600828	2433.508634
351.991045	2430.047882
352.381198	2429.949580
352.771288	2432.407142
353.161314	2431.081319
353.551276	2429.427820
353.941175	2431.136772
354.331010	2431.013263
354.720782	2430.005033
355.110490	2431.996288
355.500135	2431.993768
355.889717	2433.148192
356.279235	2429.155598
356.668689	2433.233892
357.058080	2430.983016
357.447408	2431.527461
357.836672	2431.928233
358.225873	2434.020312
358.615010	2433.493511
359.004084	2435.464602
359.393095	2434.789087
359.782043	2435.830086
360.170927	2435.832606
360.559748	2434.544592
360.948505	2438.275045
361.337199	2438.383430
361.725830	2438.143975
362.114398	2438.680858
362.502903	2438.093564
362.891344	2441.448452
363.279722	2437.521393
363.668037	2440.309151
364.056289	2438.615323
364.444478	2440.803184
364.832603	2440.641867
365.220665	2440.961980
365.608665	2444.573967
365.996601	2441.176229
366.384474	2442.580191
366.772284	2439.754624
367.160031	2441.173709
367.547715	2444.468103
367.935336	2442.255036
368.322893	2440.299069
368.710388	2440.730087
369.097820	2441.937444
369.485189	2440.019285
369.872495	2440.462906
370.259738	2445.554472
370.646918	2448.233845
371.034035	2442.426436
371.421090	2446.630758
371.808081	2446.320727
372.195010	2445.582198
372.581875	2445.927517
372.968678	2449.118567
373.355418	2448.528752
373.742096	2445.204111
374.128710	2449.274843
374.515262	2448.039760
374.901751	2448.861468
375.288177	2445.791406
375.674540	2447.270984
376.060841	2448.833742
376.447079	2449.194185
376.833254	2447.754935
377.219367	2451.298866
377.605417	2450.464555
377.991404	2449.942796
378.377329	2451.598815
378.763191	2449.438681
379.148991	2450.341047
379.534727	2451.717282
379.920402	2451.102261
380.306013	2450.073866
380.691563	2452.239042
381.077049	2452.775924
381.462474	2451.593774
381.847835	2450.325924
382.233134	2451.661829
382.618371	2452.773404
383.003545	2454.381532
383.388657	2453.486727
383.773706	2454.008487
384.158693	2455.190637
384.543618	2452.947324
384.928480	2453.206943
385.313280	2451.170317
385.698017	2449.829370
386.082692	2455.823302
386.467305	2455.868672
386.851856	2456.360185
387.236344	2455.256172
387.620770	2451.644185
388.005133	2451.208126
388.389435	2452.062601
388.773674	2450.449432
389.157851	2454.142077
389.541965	2456.836574
389.926018	2454.469752
390.310008	2456.919753
390.693936	2455.097376
391.077802	2458.323714
391.461606	2456.985288
391.845348	2458.318673
392.229027	2456.080401
392.612645	2458.144753
392.996200	2456.483693
393.379694	2459.029476
393.763125	2460.801441
394.146494	2458.860597
394.529801	2456.544187
394.913047	2458.535443
395.296230	2457.408745
395.679351	2457.106276
396.062410	2460.269600
396.445408	2458.278344
396.828343	2458.749692
397.211217	2459.533591
397.594028	2459.538632
397.976778	2461.766822
398.359466	2460.085598
398.742092	2460.849332
399.124656	2459.286575
399.507158	2458.734568
399.889598	2463.107769
400.271977	2458.399332
400.654294	2461.731534
401.036549	2461.061061
401.418742	2459.931842
401.800874	2460.027624
402.182944	2459.095011
402.564952	2459.778087
402.946898	2462.522995
403.328783	2460.166256
403.710606	2466.102215
404.092367	2461.920577
404.474067	2460.572069
404.855705	2463.170784
405.237282	2460.682974
405.618797	2463.087605
406.000250	2464.161370
406.381642	2462.364199
406.762972	2461.119034
407.144240	2460.960238
407.525447	2464.998202
407.906593	2462.034003
408.287677	2465.502317
408.668700	2465.199848
409.049661	2464.652883
409.430560	2467.634725
409.811399	2467.004581
410.192176	2464.559622
410.572891	2464.252111
410.953545	2466.961731
411.334138	2466.818058
411.714669	2465.257821
412.095139	2465.893007
412.475547	2466.170270
412.855894	2466.997019
413.236180	2466.709674
413.616405	2467.238995
413.996568	2467.533902
414.376670	2468.539613
414.756711	2464.819241
415.136691	2467.536423
415.516609	2467.443162
415.896466	2468.524489
416.276262	2466.008953
416.655997	2467.513738
417.035670	2465.688840
417.415283	2467.007102
417.794834	2469.026084
418.174324	2467.937195
418.553753	2466.008953
418.933121	2470.407360
419.312428	2468.101032
419.691674	2467.155816
420.070859	2470.077164
420.449983	2470.493060
420.829045	2468.010291
421.208047	2467.307050
421.586988	2470.120014
421.965867	2471.385344
422.344686	2468.191773
422.723444	2470.961887
423.102141	2466.934005
423.480777	2468.433748
423.859352	2468.403501
424.237866	2469.212607
424.616319	2471.103039
424.994712	2472.015488
425.373044	2470.929119
425.751314	2466.656742
426.129524	2466.833182
426.507673	2467.876701
426.885762	2467.039869
427.263789	2471.813842
427.641756	2468.539612
428.019662	2474.488174
428.397508	2471.347535
428.775292	2470.888790
429.153016	2472.522124
429.530679	2472.965746
429.908282	2471.576908
430.285824	2472.481795
430.663305	2470.626650
431.040726	2471.536578
431.418086	2474.057155
431.795385	2472.247381
432.172624	2473.182515
432.549802	2472.232258
432.926920	2476.066055
433.303977	2473.837865
433.680974	2476.439101
434.057910	2471.939871
434.434786	2473.033801
434.811601	2472.779223
435.188355	2472.973307
435.565050	2472.393575
435.941683	2472.133955
436.318257	2473.621096
436.694770	2472.184367
437.071222	2475.045222
437.447614	2474.173102
437.823946	2472.610344
438.200218	2476.892804
438.576429	2474.203349
438.952580	2476.446662
439.328670	2473.900880
439.704700	2474.780561
440.080670	2472.355766
440.456580	2475.143524
440.832429	2474.626806
441.208218	2473.268215
441.583947	2474.697382
441.959616	2473.878194
442.335224	2475.481281
442.710773	2475.753504
443.086261	2474.752835
443.461689	2473.195118
443.837057	2475.095633
444.212365	2475.211580
444.587612	2471.256794
444.962800	2471.327371
445.337927	2473.701754
445.712995	2473.484984
446.088002	2476.373566
446.462949	2476.050932
446.837837	2471.299644
447.212664	2477.263329
447.587431	2474.876343
447.962139	2476.681076
448.336786	2480.512353
448.711374	2475.819039
449.085901	2476.887763
449.460369	2478.261478
449.834776	2477.230562
450.209124	2476.328195
450.583412	2475.947588
450.957640	2480.129225
451.331808	2476.897846
451.705917	2477.648978
452.079965	2475.743421
452.453954	2476.260140
452.827883	2478.143011
453.201752	2477.512866
453.575562	2479.337764
453.949311	2478.483288
454.323001	2478.780717
454.696632	2477.071765
455.070202	2479.458752
455.443713	2478.117805
455.817164	2480.645943
456.190556	2477.548154
456.563888	2476.509677
456.937160	2480.227528
457.310373	2479.163844
457.683526	2477.790130
458.056619	2477.711992
458.429653	2478.891622
458.802628	2480.736684
459.175542	2478.392548
459.548398	2480.237610
459.921194	2479.725933
460.293930	2479.541931
460.666607	2477.250726
461.039224	2481.250882
461.411782	2482.324648
461.784280	2478.566468
462.156719	2481.021509
462.529099	2482.412868
462.901419	2479.766262
463.273680	2477.033957
463.645882	2474.906590
464.018024	2479.259626
464.390106	2476.194605
464.762130	2479.819194
465.134094	2479.814153
465.505999	2484.434371
465.877845	2478.679893
466.249631	2481.649133
466.621358	2478.463124
466.993026	2479.897332
467.364634	2483.337920
467.736184	2482.385142
468.107674	2483.022847
468.479105	2480.706437
468.850477	2478.415233
469.221790	2479.297435
469.593043	2480.393886
469.964238	2482.254072
470.335373	2478.042187
470.706449	2478.203504
471.077467	2480.313227
471.448425	2478.135449
471.819324	2479.849441
472.190164	2482.034781
472.560945	2480.154431
472.931667	2483.284988
473.302330	2479.799030
473.672934	2480.829946
474.043479	2482.188537
474.413965	2482.712817
474.784393	2481.938999
475.154761	2485.482931
475.525070	2481.386993
475.895321	2481.634010
476.265513	2482.783393
476.635645	2481.039153
477.005719	2482.629638
477.375734	2482.430512
477.745691	2482.364977
478.115588	2482.528814
478.485427	2481.210553
478.855207	2481.016468
479.224928	2482.712817
479.594591	2483.229535
479.964194	2482.599391
480.333739	2484.777169
480.703226	2483.073259
481.072653	2482.251551
481.442022	2485.719865
481.811333	2480.136787
482.180584	2480.159472
482.549777	2480.635861
482.918912	2478.044708
483.287988	2481.883547
483.657005	2482.380100
484.025964	2481.419761
484.394864	2480.305666
484.763706	2483.539566
485.132489	2483.007724
485.501213	2483.877323
485.869879	2483.731130
486.238487	2482.198619
486.607036	2482.843887
486.975527	2485.276243
487.343959	2482.291880
487.712333	2483.970584
488.080648	2483.423619
488.448905	2482.417909
488.817104	2482.349853
489.185244	2481.013948
489.553326	2480.272898
489.921350	2487.131388
490.289315	2482.611993
490.657222	2483.395893
491.025070	2482.899339
491.392861	2485.510657
491.760593	2481.840697
492.128267	2483.668115
492.495883	2483.479072
492.863440	2483.710965
493.230939	2482.672487
493.598380	2486.849083
493.965763	2482.964874
494.333088	2483.108547
494.700354	2484.094093
495.067563	2485.245996
495.434713	2484.096613
495.801805	2487.529639
496.168839	2483.491675
496.535815	2483.806747
496.902733	2483.476551
497.269593	2484.739360
497.636395	2483.002683
498.003139	2483.436222
498.369825	2484.709113
498.736453	2486.465956
499.103023	2485.407313
499.469535	2487.133908
499.835989	2482.458238
500.202385	2482.997642
500.568723	2481.603763
500.935003	2483.297590
501.301226	2479.262147
501.667390	2487.166676
502.033497	2486.317242
502.399546	2484.600729
502.765537	2484.832622
503.131470	2483.763897
503.497345	2485.273723
503.863163	2484.111737
504.228923	2484.935965
504.594625	2483.481593
504.960269	2484.351192
505.325856	2483.693321
505.691385	2485.170379
506.056856	2483.665595
506.422270	2485.026706
506.787625	2486.922180
507.152924	2485.671974
507.518164	2486.009731
507.883347	2484.840183
508.248472	2485.561068
508.613540	2486.796151
508.978550	2485.961840
509.343503	2486.276912
509.708398	2487.575009
510.073236	2488.253045
510.438016	2485.934114
510.802738	2484.915801
511.167403	2485.845894
511.532010	2487.065853
511.896561	2483.539566
512.261053	2487.398569
512.625488	2485.855976
512.989866	2484.000831
513.354186	2485.558548
513.718449	2486.276912
514.082655	2486.534011
514.446803	2485.266161
514.810894	2487.675833
515.174927	2486.024855
515.538904	2488.812613
515.902822	2487.209526
516.266684	2488.031234
516.630488	2486.735657
516.994235	2487.368322
517.357925	2486.614670
517.721558	2488.416882
518.085133	2485.417396
518.448651	2486.609628
518.812112	2481.031592
519.175516	2485.079638
519.538863	2482.286839
519.902152	2487.002838
520.265385	2487.103662
520.628560	2486.357571
520.991678	2488.800010
521.354739	2487.718682
521.717743	2487.489310
522.080690	2485.845894
522.443580	2486.513847
522.806413	2487.554845
523.169189	2486.770945
523.531908	2484.192395
523.894569	2486.183651
524.257174	2486.478558
524.619722	2486.569299
524.982213	2487.383446
525.344647	2488.036275
525.707025	2486.990236
526.069345	2487.910246
526.431608	2486.720534
526.793815	2489.619197
527.155964	2487.149032
527.518057	2486.254227
527.880093	2489.959475
528.242072	2487.837149
528.603995	2486.617190
528.965860	2487.771614
529.327669	2486.856645
529.689421	2485.966881
530.051117	2488.898312
530.412755	2486.438229
530.774337	2486.811275
531.135862	2490.201451
531.497331	2487.862355
531.858743	2483.695842
532.220098	2488.011069
532.581396	2487.282623
532.942638	2488.560555
533.303824	2488.555514
533.664953	2489.717500
534.026025	2484.696511
534.387040	2487.138950
534.747999	2486.123157
535.108902	2485.616521
535.469748	2487.222129
535.830537	2486.803713
536.191270	2489.173055
536.551947	2486.014772
536.912567	2481.850779
537.273131	2487.595174
537.633638	2482.904380
537.994089	2490.035093
538.354483	2486.745740
538.714821	2489.561224
539.075103	2487.625421
539.435328	2485.361943
539.795497	2486.937303
540.155609	2487.640544
540.515665	2488.353868
540.875665	2486.413023
541.235609	2489.044506
541.595496	2485.707262
541.955328	2488.628611
542.315102	2488.585761
542.674821	2486.004690
543.034483	2488.437047
543.394090	2486.566779
543.753640	2485.903867
544.113134	2485.644247
544.472571	2488.260606
544.831953	2486.294556
545.191278	2487.658188
545.550548	2485.097282
545.909761	2488.769763
546.268918	2487.131388
546.628019	2487.585092
546.987064	2486.564258
547.346053	2486.143322
547.704986	2489.233549
548.063863	2488.978971
548.422684	2486.294556
548.781449	2488.121975
549.140158	2486.102993
549.498811	2490.254383
549.857408	2489.767911
550.215949	2487.577530
550.574434	2485.641727
550.932864	2488.797489
551.291237	2486.521408
551.649555	2487.370843
552.007817	2490.773622
552.366022	2486.740698
552.724173	2490.156080
553.082267	2487.600215
553.440305	2487.358240
553.798288	2489.105000
554.156215	2485.130050
554.514086	2487.116264
554.871902	2484.373877
555.229661	2488.847901
555.587365	2481.588639
555.945014	2488.303456
556.302606	2486.881851
556.660143	2487.620380
557.017625	2485.674494
557.375050	2486.657519
557.732421	2485.593836
558.089735	2488.608446
558.446994	2490.304794
558.804197	2490.085504
559.161345	2490.403097
559.518437	2489.452839
559.875474	2486.856645
560.232455	2488.053919
560.589381	2489.021821
560.946251	2489.838487
561.303065	2488.220277
561.659825	2487.721203
562.016528	2489.180617
562.373177	2489.588950
562.729770	2487.020482
563.086307	2487.902684
563.442789	2488.502582
563.799216	2490.201451
564.155587	2485.470328
564.511904	2487.373363
564.868164	2489.440236
565.224370	2488.668940
565.580520	2486.967550
565.936615	2489.054588
566.292654	2489.505771
566.648638	2487.194402
567.004567	2487.451501
567.360441	2489.392345
567.716260	2489.107520
568.072023	2489.261275
568.427732	2486.612149
568.783385	2490.514002
569.138982	2487.587612
569.494525	2490.128354
569.850013	2488.784886
570.205445	2489.888899
570.560823	2488.036275
570.916145	2487.867396
571.271412	2491.123982
571.626625	2489.352016
571.981782	2490.004846
572.336884	2487.441419
572.691931	2485.036788
573.046923	2486.818836
573.401860	2483.970584
573.756743	2487.479227
574.111570	2489.841008
574.466342	2485.571151
574.821059	2489.372181
575.175722	2487.872438
575.530330	2488.512664
575.884882	2489.573827
576.239380	2487.217088
576.593823	2489.790597
576.948211	2489.155411
577.302544	2488.179948
577.656823	2489.180617
578.011047	2488.084166
578.365216	2489.029382
578.719330	2486.997797
579.073389	2488.616008
579.427394	2487.143991
579.781344	2488.177427
580.135239	2490.256903
580.489080	2490.274547
580.842866	2488.842860
581.196597	2492.006184
581.550273	2488.255565
581.903895	2487.852273
582.257463	2488.114413
582.610975	2487.403610
582.964434	2489.515854
583.317837	2487.408651
583.671186	2489.916625
584.024481	2488.550473
584.377721	2490.508961
584.730906	2488.278250
585.084037	2487.567448
585.437113	2491.091214
585.790135	2487.988384
586.143103	2490.312356
586.496016	2488.172386
586.848874	2489.636841
587.201679	2490.077942
587.554428	2488.978971
587.907124	2487.741367
588.259765	2490.632469
588.612352	2490.118272
588.964884	2488.424444
589.317362	2489.657006
589.669786	2489.329331
590.022155	2486.871768
590.374470	2484.653661
590.726731	2488.172386
591.078937	2484.915801
591.431090	2490.866883
591.783188	2488.179948
592.135232	2490.763539
592.487222	2491.030720
592.839157	2492.351503
593.191038	2490.201451
593.542866	2489.001656
593.894639	2487.559886
594.246358	2491.534836
594.598022	2490.138436
594.949633	2489.606594
595.301190	2485.182982
595.652692	2491.393683
596.004141	2488.424444
596.355535	2491.035762
596.706876	2488.870586
597.058162	2489.606594
597.409395	2488.714310
597.760573	2490.450988
598.111698	2488.210195
598.462768	2490.367809
598.813785	2491.731441
599.164748	2490.690442
599.515657	2490.599702
599.866511	2490.788745
600.217312	2489.909064
600.568060	2490.816471
600.918753	2492.374188
601.269392	2491.537356
601.619978	2488.179948
601.970510	2492.026348
602.320988	2488.104331
602.671412	2490.546770
603.021783	2493.173211
603.372100	2490.203971
603.722363	2492.328817
604.072572	2490.017448
604.422728	2490.514002
604.772830	2490.957624
605.122878	2491.859990
605.472872	2489.384784
605.822813	2490.153560
606.172701	2490.168683
606.522534	2491.691112
606.872314	2493.899137
607.222041	2491.837305
607.571714	2487.854793
607.921333	2486.881851
608.270899	2488.495020
608.620411	2485.427478
608.969870	2489.946872
609.319276	2491.786893
609.668627	2493.495845
610.017926	2490.052737
610.367171	2487.897643
610.716362	2489.253714
611.065500	2492.651451
611.414585	2490.241780
611.763616	2495.008191
612.112594	2490.090545
612.461518	2494.625063
612.810389	2491.189517
613.159207	2491.907881
613.507971	2490.393014
613.856682	2491.940649
614.205340	2492.132213
614.553945	2491.595330
614.902496	2491.393683
615.250994	2491.050885
615.599439	2491.575165
615.947830	2491.328148
616.296169	2490.705566
616.644454	2491.267655
616.992686	2490.667757
617.340864	2493.649600
617.688990	2494.015083
618.037063	2491.623056
618.385082	2492.737151
618.733048	2496.003819
619.080961	2492.351503
619.428821	2491.476863
619.776628	2494.156236
620.124382	2493.906699
620.472083	2493.079949
620.819731	2492.308653
621.167326	2492.464929
621.514868	2489.649444
621.862357	2491.799496
622.209793	2493.977275
622.557176	2492.767398
622.904506	2494.914929
623.251783	2494.821668
623.599007	2493.949548
623.946179	2490.448467
624.293297	2494.483911
624.640363	2494.730927
624.987376	2489.997284
625.334336	2489.054588
625.681243	2489.596512
626.028097	2487.396048
626.374899	2493.861328
626.721647	2493.427789
627.068343	2492.215392
627.414987	2493.382419
627.761577	2493.735299
628.108115	2492.689260
628.454600	2491.759167
628.801032	2496.656648
629.147412	2493.901657
629.493739	2494.478870
629.840014	2497.619508
630.186236	2491.491986
630.532405	2493.682367
630.878521	2494.037769
631.224585	2493.906699
631.570597	2495.925681
631.916556	2493.763026
632.262462	2493.516009
632.608316	2495.066164
632.954117	2495.814775
633.299866	2494.249497
633.645562	2494.005001
633.991206	2496.669251
634.336797	2494.640187
634.682336	2497.155722
635.027823	2497.710249
635.373257	2494.988026
635.718639	2495.214878
636.063968	2495.164467
636.409245	2494.037769
636.754470	2495.111534
637.099642	2494.990547
637.444762	2494.302429
637.789829	2494.710763
638.134845	2499.651093
638.479808	2495.519868
638.824719	2496.066833
639.169577	2496.001298
639.514383	2495.595485
639.859137	2495.439209
640.203839	2496.714621
640.548489	2491.585247
640.893086	2496.059271
641.237632	2496.271000
641.582125	2499.668738
641.926566	2494.567090
642.270955	2495.603047
642.615292	2492.903509
642.959576	2495.966010
643.303809	2491.968375
643.647990	2494.030207
643.992118	2496.724704
644.336195	2498.756289
644.680219	2499.204951
645.024192	2499.114211
645.368112	2498.504231
645.711981	2500.929026
646.055797	2498.801659
646.399562	2499.857781
646.743274	2501.052534
647.086935	2503.331136
647.430544	2502.577483
647.774101	2501.841475
648.117606	2502.088491
648.461059	2504.626712
648.804460	2503.668893
649.147810	2503.489932
649.491108	2502.832062
649.834354	2503.610920
650.177548	2501.440703
650.520690	2502.975734
650.863781	2503.058913
651.206820	2505.929851
651.549807	2503.036228
651.892742	2503.923471
652.235626	2502.970693
652.578458	2505.841630
652.921238	2504.833400
653.263967	2507.066631
653.606644	2504.742659
653.949269	2503.515138
654.291843	2504.568739
654.634365	2505.884480
654.976836	2504.165447
655.319255	2503.963801
655.661622	2505.909686
656.003938	2504.079747
656.346203	2508.304234
656.688416	2507.953874
657.030577	2506.849861
657.372687	2506.081085
657.714746	2507.684172
658.056753	2507.311127
658.398708	2507.986641
658.740612	2509.801457
659.082465	2508.740294
659.424266	2506.721312
659.766016	2504.808194
660.107715	2508.591580
660.449362	2507.779954
660.790958	2512.211128
661.132503	2512.309431
661.473996	2513.768845
661.815438	2511.500326
662.156829	2513.138701
662.498168	2515.475275
662.839456	2511.971673
663.180693	2513.453773
663.521879	2517.809330
663.863013	2515.036695
664.204097	2517.020389
664.545129	2518.381501
664.886110	2518.681449
665.227040	2518.285719
665.567918	2518.099196
665.908746	2517.960564
666.249522	2520.566841
666.590248	2520.997859
666.930922	2520.587005
667.271545	2520.312262
667.612118	2524.486338
667.952639	2521.323014
668.293109	2521.113806
668.633528	2525.035824
668.973896	2526.671678
669.314213	2525.456760
669.654480	2523.402490
669.994695	2524.294774
670.334859	2526.795186
670.674973	2527.475742
671.015035	2529.262831
671.355047	2528.158818
671.695008	2528.756195
672.034918	2528.121010
672.374777	2529.898017
672.714585	2528.733510
673.054342	2529.676206
673.394049	2532.867256
673.733705	2534.709798
674.073310	2534.848430
674.412864	2532.564787
674.752368	2531.982534
675.091820	2533.835158
675.431223	2533.754499
675.770574	2534.374561
676.109875	2533.986392
676.449125	2531.496062
676.788324	2529.789632
677.127473	2531.813655
677.466571	2531.382636
677.805619	2536.862371
678.144616	2532.191742
678.483562	2535.138296
678.822458	2536.222144
679.161303	2538.760365
679.500098	2538.178112
679.838842	2538.725077
680.177535	2537.411856
680.516179	2538.445293
680.854771	2540.509645
681.193314	2544.298073
681.531805	2549.593805
681.870247	2549.074566
682.208638	2552.734443
682.546978	2552.442057
682.885268	2559.429096
683.223508	2552.757129
683.561697	2556.837943
683.899836	2556.560679
684.237925	2555.993549
684.575963	2555.275185
684.913951	2555.907850
685.251889	2557.221070
685.589776	2562.403377
685.927614	2561.228788
686.265401	2561.627039
686.603137	2565.191135
686.940824	2570.060889
687.278460	2572.392423
687.616046	2573.546847
687.953582	2578.046077
688.291068	2581.690831
688.628504	2582.910790
688.965889	2585.509505
689.303224	2587.498240
689.640510	2584.355081
689.977745	2585.360791
690.314930	2579.250913
690.652065	2577.589853
690.989150	2575.948957
691.326185	2572.208421
691.663170	2571.714388
692.000105	2567.923440
692.336990	2568.959397
692.673825	2567.482339
693.010610	2564.087122
693.347345	2562.491597
693.684030	2558.289795
694.020665	2561.707697
694.357251	2557.034548
694.693786	2561.145609
695.030272	2560.712069
695.366707	2561.737944
695.703093	2561.493448
696.039429	2560.535629
696.375716	2559.809703
696.711952	2561.380022
697.048139	2561.059909
697.384276	2561.332131
697.720363	2563.431772
698.056400	2562.615105
698.392388	2566.602658
698.728326	2566.390929
699.064214	2565.168449
699.400053	2566.269942
699.735842	2565.254149
700.071581	2563.837585
700.407270	2562.302553
700.742910	2565.145764
701.078501	2565.420507
701.414042	2562.277348
701.749533	2563.605692
702.084974	2560.838098
702.420366	2560.097049
702.755709	2560.054199
703.091002	2555.532284
703.426246	2559.358520
703.761440	2557.778118
704.096584	2562.728531
704.431679	2560.578479
704.766725	2561.087635
705.101721	2560.129816
705.436668	2563.671227
705.771565	2563.721638
706.106413	2561.783315
706.441212	2563.489745
706.775961	2565.483522
707.110661	2567.346228
707.445311	2572.183215
707.779913	2568.029304
708.114465	2572.831003
708.448967	2576.453072
708.783421	2578.882908
709.117825	2580.372569
709.452180	2585.365832
709.786485	2589.537387
710.120742	2593.807244
710.454949	2591.947059
710.789107	2597.991402
711.123216	2601.615992
711.457275	2609.984307
711.791286	2616.217694
712.125247	2616.900770
712.459159	2617.586367
712.793023	2620.505195
713.126837	2613.412292
713.460602	2615.809360
713.794318	2615.073352
714.127985	2613.225769
714.461602	2608.487084
714.795171	2606.415170
715.128691	2601.684047
715.462162	2599.344952
715.795584	2596.940322
716.128957	2597.121803
716.462281	2593.482090
716.795556	2590.280957
717.128782	2589.315576
717.461960	2586.550503
717.795088	2588.418251
718.128167	2586.671491
718.461198	2583.470358
718.794180	2581.660584
719.127113	2579.424832
719.459997	2579.467682
719.792833	2577.486509
720.125619	2579.676890
720.458357	2577.456262
720.791046	2577.277301
721.123686	2577.080696
721.456278	2573.438462
721.788821	2575.603638
722.121315	2574.524831
722.453761	2577.171437
722.786158	2578.240161
723.118506	2577.443659
723.450805	2578.252764
723.783056	2580.077662
724.115259	2579.346695
724.447412	2580.629668
724.779518	2582.608321
725.111574	2582.757035
725.443582	2585.731316
725.775542	2588.783735
726.107453	2593.071236
726.439315	2591.316914
726.771129	2597.383943
727.102895	2594.001329
727.434612	2601.275714
727.766281	2600.101125
728.097901	2607.932557
728.429473	2606.755448
728.760996	2607.864502
729.092471	2611.907507
729.423897	2608.887856
729.755276	2607.897269
730.086606	2611.746190
730.417887	2614.493619
730.749120	2621.967130
731.080305	2620.162397
731.411442	2624.502830
731.742530	2627.078860
732.073570	2629.087760
732.404562	2632.513224
732.735506	2630.025414
733.066401	2631.119345
733.397249	2627.005763
733.728048	2623.224898
734.058798	2616.888167
734.389501	2610.921962
734.720156	2605.497680
735.050762	2601.285796
735.381320	2599.231526
735.711831	2597.938470
736.042293	2594.369333
736.372707	2597.562904
736.703073	2596.426124
737.033391	2596.877307
737.363661	2599.985178
737.693883	2600.811928
738.024056	2601.563060
738.354182	2604.302927
738.684260	2610.639657
739.014290	2612.603187
739.344272	2615.711058
739.674207	2619.111316
740.004093	2622.103241
740.333931	2624.374281
740.663722	2627.028448
740.993464	2628.432410
741.323159	2625.347223
741.652806	2621.135339
741.982405	2620.686677
742.311956	2617.346912
742.641460	2619.161728
742.970915	2615.368259
743.300323	2610.919441
743.629683	2605.671600
743.958996	2606.296703
744.288260	2601.323605
744.617477	2602.941815
744.946647	2606.609255
745.275768	2598.661876
745.604842	2598.248501
745.933869	2597.860332
746.262847	2598.155240
746.591778	2598.049375
746.920662	2594.286154
747.249498	2595.990064
747.578286	2599.105497
747.907027	2600.204469
748.235720	2603.667741
748.564365	2606.573967
748.892963	2606.337032
749.221514	2609.107146
749.550017	2603.110694
749.878473	2606.263936
750.206881	2606.140427
750.535242	2605.595983
750.863555	2605.979110
751.191821	2603.249326
751.520039	2605.563215
751.848210	2604.055910
752.176334	2607.032712
752.504411	2604.754110
752.832440	2604.628081
753.160421	2606.667228
753.488356	2607.458689
753.816243	2604.872577
754.144082	2602.747731
754.471875	2604.892742
754.799620	2600.209510
755.127318	2606.886518
755.454969	2605.434666
755.782572	2606.309306
756.110129	2604.660849
756.437638	2605.948863
756.765100	2604.502052
757.092515	2607.347784
757.419882	2608.597990
757.747203	2608.368617
758.074477	2611.415995
758.401703	2611.007661
758.728882	2614.985132
759.056014	2614.657457
759.383099	2617.757766
759.710138	2617.253651
760.037129	2618.362705
760.364073	2621.861266
760.690970	2620.222891
761.017820	2624.200361
761.344623	2629.080198
761.671379	2632.031793
761.998088	2642.784575
762.324751	2664.809376
762.651366	2705.105839
762.977935	2759.643562
763.304456	2791.995167
763.630931	2807.398412
763.957359	2794.309056
764.283740	2767.321239
764.610074	2741.074472
764.936362	2710.764534
765.262602	2687.872655
765.588796	2667.072854
765.914943	2649.249854
766.241044	2636.074799
766.567097	2628.301340
766.893104	2619.670884
767.219064	2618.944958
767.544978	2610.117898
767.870845	2602.404932
768.196665	2603.211517
768.522438	2601.018615
768.848165	2597.204982
769.173846	2594.134919
769.499479	2592.960331
769.825066	2592.572162
770.150607	2590.038982
770.476101	2588.035123
770.801548	2588.100658
771.126949	2586.477407
771.452303	2583.235945
771.777611	2583.301480
772.102872	2580.301993
772.428087	2579.568505
772.753256	2577.065572
773.078378	2578.714030
773.403453	2574.366035
773.728482	2574.865109
774.053465	2570.214644
774.378401	2575.666652
774.703291	2571.059038
775.028135	2570.292782
775.352932	2568.281362
775.677683	2568.835889
776.002388	2562.839436
776.327046	2562.582337
776.651658	2562.723490
776.976224	2561.112841
777.300743	2565.410425
777.625216	2561.289282
777.949643	2563.714077
778.274024	2562.824313
778.598359	2561.017059
778.922647	2564.732390
779.246889	2562.615105
779.571086	2564.593758
779.895236	2563.396484
780.219339	2563.608212
780.543397	2564.949159
780.867409	2566.877401
781.191374	2567.283213
781.515294	2566.562328
781.839167	2569.264387
782.162995	2568.606516
782.486776	2567.454613
782.810511	2568.609037
783.134201	2565.894376
783.457844	2566.590055
783.781441	2565.294478
784.104993	2563.908161
784.428498	2564.999571
784.751958	2565.259190
785.075372	2564.853377
785.398739	2564.571073
785.722061	2567.313460
786.045337	2565.286917
786.368568	2569.639953
786.691752	2569.639953
787.014891	2576.246385
787.337983	2581.801737
787.661030	2597.663727
787.984031	2607.917434
788.306987	2611.554627
788.629897	2618.783641
788.952760	2618.745832
789.275579	2615.151490
789.598351	2608.524893
789.921078	2600.201948
790.243759	2592.226843
790.566395	2590.293560
790.888984	2586.179979
791.211529	2579.618917
791.534027	2575.785119
791.856480	2572.465520
792.178888	2570.587690
792.501249	2567.515107
792.823566	2568.051989
793.145836	2562.957903
793.468062	2567.381516
793.790241	2568.656928
794.112375	2569.057700
794.434464	2575.190263
794.756507	2576.160685
795.078505	2577.483988
795.400457	2585.350709
795.722364	2591.276585
796.044226	2599.702874
796.366042	2606.248812
796.687812	2603.014912
797.009538	2607.766199
797.331218	2605.230499
797.652852	2600.607761
797.974442	2599.488625
798.295986	2600.675817
798.617484	2594.455033
798.938938	2592.829261
799.260346	2588.287181
799.581709	2587.117633
799.903026	2586.326172
800.224299	2583.402303
800.545526	2582.726788
800.866708	2579.235789
801.187845	2578.772003
801.508936	2576.523648
801.829983	2575.376786
802.150984	2572.735221
802.471940	2572.266394
802.792851	2573.148596
803.113717	2572.084912
803.434538	2572.432752
803.755314	2572.619275
804.076045	2570.456620
804.396731	2570.761610
804.717372	2569.040056
805.037967	2574.461817
805.358518	2572.387382
805.679024	2573.743452
805.999485	2573.856878
806.319901	2577.337795
806.640272	2576.490881
806.960598	2581.025399
807.280879	2581.640420
807.601115	2583.399782
807.921306	2584.990266
808.241453	2580.498598
808.561554	2579.697055
808.881611	2581.274936
809.201623	2579.712178
809.521590	2581.799216
809.841513	2581.630337
810.161390	2584.534042
810.481223	2583.319124
810.801011	2578.338464
811.120755	2579.044225
811.440453	2581.451376
811.760107	2578.197312
812.079716	2579.823084
812.399281	2575.437280
812.718801	2576.614389
813.038276	2575.908628
813.357707	2578.197312
813.677093	2579.064390
813.996434	2574.996179
814.315731	2574.958370
814.634983	2575.129769
814.954191	2579.082034
815.273354	2579.530697
815.592473	2580.826273
815.911547	2587.891450
816.230577	2587.740216
816.549562	2591.122830
816.868502	2591.120309
817.187399	2598.787904
817.506250	2597.225147
817.825058	2600.917792
818.143821	2605.943822
818.462539	2616.633589
818.781213	2621.873868
819.099843	2638.093781
819.418429	2661.910712
819.736970	2685.755370
820.055466	2714.331151
820.373919	2748.545462
820.692327	2804.509831
821.010691	2895.764798
821.329011	3090.370981
821.647286	3362.946169
821.965517	3672.720032
822.283704	3865.092983
822.601847	3970.256493
822.919945	3873.796535
823.237999	3733.370154
823.556010	3581.817946
823.873976	3425.285077
824.191897	3278.607665
824.509775	3169.648166
824.827609	3072.273238
825.145398	3007.726304
825.463144	2985.094044
825.780845	2994.168121
826.098502	3035.704708
826.416116	3125.366671
826.733685	3209.858930
827.051210	3239.163157
827.368692	3200.363916
827.686129	3112.453755
828.003522	3020.394724
828.320872	2930.881476
828.638177	2864.023173
828.955439	2814.690441
829.272656	2766.355858
829.589830	2733.825292
829.906960	2697.667617
830.224046	2679.572395
830.541088	2659.352327
830.858086	2645.007723
831.175041	2640.022022
831.491952	2633.846609
831.808819	2636.387350
832.125642	2646.348670
832.442421	2674.359842
832.759157	2719.488251
833.075849	2796.943059
833.392497	2878.214021
833.709101	2930.362237
834.025662	2931.574634
834.342179	2889.609549
834.658653	2837.836899
834.975083	2785.093827
835.291469	2742.823752
835.607811	2707.596169
835.924110	2686.778724
836.240366	2661.444406
836.556578	2640.248874
836.872746	2622.365381
837.188871	2610.385079
837.504952	2599.395363
837.820990	2588.022520
838.136984	2580.554051
838.452935	2581.738722
838.768842	2582.512539
839.084706	2591.334558
839.400526	2629.115486
839.716303	2674.833710
840.032037	2703.197762
840.347727	2696.629139
840.663373	2673.517969
840.978977	2644.072589
841.294537	2623.287912
841.610054	2607.022629
841.925527	2595.513675
842.240957	2582.399113
842.556344	2571.994172
842.871687	2563.973696
843.186987	2557.362223
843.502244	2551.849721
843.817458	2545.906201
844.132629	2540.779347
844.447756	2537.449665
844.762840	2535.183666
845.077881	2532.920188
845.392879	2534.145189
845.707833	2532.589993
846.022745	2529.451874
846.337613	2526.989271
846.652438	2528.983047
846.967221	2525.305525
847.281960	2524.592202
847.596656	2524.967768
847.911309	2526.401976
848.225919	2526.003725
848.540485	2524.340144
848.855009	2522.222860
849.169490	2521.257479
849.483928	2523.609177
849.798323	2523.513395
850.112675	2521.043230
850.426984	2520.773528
850.741251	2521.640607
851.055474	2520.191275
851.369654	2520.226563
851.683792	2519.145235
851.997887	2522.290915
852.311938	2522.207736
852.625947	2524.370391
852.939914	2523.687315
853.253837	2522.288395
853.567718	2524.753519
853.881555	2522.464835
854.195350	2523.175638
854.509103	2522.333765
854.822812	2525.323169
855.136479	2524.670340
855.450103	2522.716893
855.763685	2520.269413
856.077224	2519.031809
856.390720	2522.084228
856.704173	2519.810668
857.017584	2526.381812
857.330953	2526.729651
857.644278	2525.176976
857.957561	2529.146885
858.270802	2526.225536
858.584000	2527.700073
858.897155	2525.676050
859.210268	2529.620753
859.523339	2526.049096
859.836367	2524.287212
860.149352	2527.397604
860.462295	2526.323838
860.775195	2525.171935
861.088054	2523.944414
861.400869	2525.048427
861.713642	2524.635052
862.026373	2529.466998
862.339062	2529.393901
862.651708	2524.763601
862.964312	2528.756195
863.276873	2530.248377
863.589392	2532.262318
863.901869	2530.845753
864.214303	2533.983872
864.526696	2534.946732
864.839045	2536.882535
865.151353	2540.358411
865.463619	2539.564429
865.775842	2539.972762
866.088023	2540.159285
866.400162	2539.952598
866.712258	2539.942516
867.024313	2540.267670
867.336325	2539.705581
867.648296	2541.273380
867.960224	2540.071065
868.272110	2540.726415
868.583954	2541.822866
868.895755	2543.854451
869.207515	2544.159441
869.519233	2545.361756
869.830909	2545.908721
870.142542	2548.981304
870.454134	2545.689431
870.765684	2549.016592
871.077191	2548.262940
871.388657	2548.835111
871.700081	2546.788403
872.011463	2553.286450
872.322803	2550.707900
872.634101	2556.933725
872.945357	2557.662171
873.256571	2561.657286
873.567744	2560.437327
873.878874	2562.390774
874.189963	2565.544015
874.501010	2564.828172
874.812015	2563.451937
875.122979	2566.176680
875.433900	2569.128276
875.744780	2567.502504
876.055618	2570.232288
876.366415	2572.299162
876.677169	2572.689851
876.987882	2573.158678
877.298554	2574.502146
877.609183	2576.480799
877.919771	2585.655699
878.230317	2587.805751
878.540822	2601.235385
878.851285	2613.684514
879.161707	2630.869807
879.472087	2657.724034
879.782425	2702.754141
880.092722	2773.673093
880.402977	2867.907382
880.713191	2959.379118
881.023363	3038.343752
881.333494	3091.961465
881.643583	3129.263482
881.953631	3149.735608
882.263637	3147.111688
882.573602	3113.590535
882.883526	3079.804722
883.193408	3036.171015
883.503248	2986.984477
883.813048	2943.214659
884.122806	2899.827968
884.432522	2852.693180
884.742197	2815.887715
885.051831	2782.495112
885.361424	2748.086717
885.670975	2721.325752
885.980485	2698.819520
886.289954	2678.856551
886.599382	2661.852739
886.908768	2647.687097
887.218113	2629.231432
887.527417	2621.737757
887.836680	2609.029008
888.145901	2604.950715
888.455082	2600.002822
888.764221	2593.005701
889.073319	2586.172417
889.382376	2584.604618
889.691392	2582.628486
890.000366	2579.351736
890.309300	2581.809298
890.618193	2580.874164
890.927044	2580.803588
891.235855	2581.645461
891.544625	2582.746953
891.853353	2586.137129
892.162041	2593.151894
892.470687	2598.785384
892.779293	2608.003134
893.087858	2625.392594
893.396381	2647.697179
893.704864	2675.804132
894.013306	2715.256202
894.321707	2759.620877
894.630068	2786.691873
894.938387	2797.762247
895.246665	2796.340641
895.554903	2772.027156
895.863100	2749.515884
896.171256	2729.137019
896.479371	2707.268494
896.787446	2691.769467
897.095480	2675.670542
897.403473	2662.656803
897.711425	2649.706079
898.019336	2637.423307
898.327207	2628.747482
898.635038	2621.878910
898.942827	2610.473299
899.250576	2602.956939
899.558284	2593.217429
899.865952	2590.132243
900.173579	2580.624627
900.481165	2577.236972
900.788711	2573.413257
901.096216	2569.385375
901.403681	2568.667010
901.711105	2569.493759
902.018489	2568.916547
902.325832	2566.834551
902.633135	2573.521641
902.940397	2591.102665
903.247619	2618.450925
903.554800	2675.481498
903.861941	2741.797877
904.169041	2793.346196
904.476101	2818.070535
904.783121	2809.480409
905.090100	2788.476441
905.397039	2757.445619
905.703938	2733.767319
906.010796	2707.860830
906.317614	2685.541121
906.624391	2664.022956
906.931129	2647.704741
907.237826	2632.828296
907.544483	2614.566716
907.851099	2599.594489
908.157675	2586.016141
908.464211	2574.474419
908.770707	2562.625187
909.077163	2553.921635
909.383578	2551.635472
909.689954	2541.059131
909.996289	2537.918492
910.302584	2536.353214
910.608839	2533.946063
910.915054	2534.089736
911.221229	2533.895652
911.527363	2533.704088
911.833458	2533.855322
912.139513	2535.791125
912.445527	2537.016126
912.751502	2539.105684
913.057436	2545.361756
913.363331	2551.333003
913.669186	2562.161401
913.975000	2573.632547
914.280775	2593.802203
914.586510	2617.571244
914.892205	2650.477375
915.197859	2686.647654
915.503475	2733.437124
915.809050	2768.125303
916.114585	2792.837039
916.420081	2803.496559
916.725536	2804.305664
917.030952	2794.263686
917.336328	2779.283897
917.641665	2763.946187
917.946961	2744.699061
918.252218	2730.409911
918.557435	2712.032384
918.862612	2696.190558
919.167750	2682.423167
919.472848	2662.906340
919.777906	2648.453352
920.082925	2634.002885
920.387904	2620.913529
920.692843	2606.513473
920.997743	2598.293871
921.302603	2586.169896
921.607423	2581.920204
921.912204	2571.661456
922.216946	2565.145764
922.521647	2562.975547
922.826310	2555.993549
923.130932	2553.780483
923.435516	2547.950388
923.740059	2542.662218
924.044564	2538.432690
924.349028	2538.079809
924.653454	2533.058820
924.957840	2533.104190
925.262186	2526.021369
925.566493	2523.896523
925.870761	2520.581964
926.174989	2520.642458
926.479178	2517.383352
926.783328	2516.659947
927.087438	2515.974350
927.391509	2513.531911
927.695541	2510.209790
927.999533	2510.015706
928.303486	2512.669873
928.607400	2506.935561
928.911275	2507.003616
929.215110	2504.828358
929.518906	2506.139058
929.822663	2504.825838
930.126381	2507.880777
930.430060	2506.060921
930.733699	2505.829027
931.037299	2506.431445
931.340861	2507.303565
931.644383	2505.922289
931.947866	2508.589059
932.251309	2509.050325
932.554714	2508.699965
932.858080	2504.178050
933.161407	2503.880622
933.464694	2504.788029
933.767943	2499.499859
934.071153	2507.338853
934.374323	2504.709891
934.677455	2506.965808
934.980548	2508.689882
935.283602	2504.548574
935.586617	2504.230982
935.889593	2505.702999
936.192530	2504.727535
936.495428	2510.151817
936.798287	2508.803308
937.101108	2508.904131
937.403890	2512.339678
937.706632	2514.882940
938.009336	2518.179854
938.312002	2522.071625
938.614628	2524.483817
938.917216	2530.717204
939.219765	2531.405322
939.522275	2533.053779
939.824747	2530.450023
940.127179	2530.775177
940.429573	2533.114273
940.731929	2532.811803
941.034246	2532.259797
941.336524	2529.908099
941.638763	2530.603778
941.940964	2529.025897
942.243126	2528.554549
942.545250	2528.983047
942.847335	2525.192099
943.149381	2523.326873
943.451389	2520.077849
943.753359	2516.939731
944.055290	2517.189268
944.357182	2517.940400
944.659036	2513.584843
944.960851	2515.790347
945.262628	2516.475944
945.564367	2515.550893
945.866067	2514.283043
946.167729	2515.203053
946.469352	2514.673732
946.770937	2515.243382
947.072484	2513.438649
947.373992	2514.948475
947.675462	2511.772548
947.976893	2510.444204
948.278286	2509.193998
948.579641	2510.678618
948.880958	2507.099398
949.182236	2514.877899
949.483476	2511.021416
949.784678	2512.334637
950.085841	2510.905469
950.386967	2514.008300
950.688054	2513.340347
950.989103	2515.061901
951.290114	2515.760101
951.591087	2516.954854
951.892021	2517.912673
952.192917	2518.041223
952.493776	2519.402334
952.794596	2521.985926
953.095378	2520.360153
953.396122	2520.085411
953.696828	2521.812006
953.997496	2519.556089
954.298126	2520.907119
954.598718	2515.928979
954.899272	2516.082734
955.199788	2514.426715
955.500266	2512.972343
955.800706	2510.512259
956.101108	2510.418998
956.401472	2507.941271
956.701798	2506.688544
957.002087	2503.772237
957.302337	2500.016577
957.602550	2502.844664
957.902724	2499.542709
958.202861	2498.300064
958.502960	2497.213696
958.803022	2496.341576
959.103045	2496.946514
959.403031	2494.272182
959.702979	2488.273209
960.002889	2491.814620
960.302762	2490.110710
960.602596	2486.375215
960.902393	2488.676502
961.202153	2488.626090
961.501875	2488.434526
961.801559	2489.036944
962.101205	2488.643734
962.400814	2487.809423
962.700385	2485.586274
962.999918	2486.523929
963.299414	2481.495378
963.598873	2485.588795
963.898293	2479.879688
964.197677	2485.689618
964.497022	2486.801192
964.796331	2483.990749
965.095601	2485.218270
965.394835	2485.046871
965.694030	2485.044350
965.993189	2482.337251
966.292309	2484.615852
966.591393	2485.404793
966.890439	2484.585605
967.189447	2485.427478
967.488419	2483.123671
967.787353	2482.972436
968.086249	2484.096613
968.385108	2484.061325
968.683930	2486.778507
968.982714	2487.769094
969.281462	2486.818836
969.580172	2485.659371
969.878844	2484.610811
970.177480	2486.395379
970.476078	2487.154073
970.774639	2486.407982
971.073162	2485.598877
971.371649	2487.539721
971.670098	2488.129536
971.968510	2490.622387
972.266885	2490.319918
972.565223	2490.594661
972.863524	2486.788589
973.161788	2490.650113
973.460014	2487.900164
973.758204	2492.870742
974.056356	2491.607933
974.354471	2490.224136
974.652550	2492.104486
974.950591	2491.015597
975.248595	2489.059629
975.546563	2490.619866
975.844493	2492.714466
976.142386	2489.074753
976.440243	2488.336224
976.738062	2488.202633
977.035845	2489.662047
977.333590	2486.294556
977.631299	2487.632983
977.928971	2485.845894
978.226606	2485.775318
978.524204	2486.077787
978.821765	2483.138794
979.119290	2486.816316
979.416777	2485.871099
979.714228	2489.727582
980.011642	2488.734475
980.309020	2490.549290
980.606360	2487.995946
980.903664	2491.161790
981.200931	2493.934425
981.498162	2494.315032
981.795356	2498.048007
982.092513	2503.449603
982.389633	2508.967146
982.686717	2512.541324
982.983764	2513.342867
983.280775	2516.428053
983.577749	2516.939731
983.874686	2520.536594
984.171587	2516.266737
984.468451	2516.226407
984.765279	2511.835562
985.062070	2510.960922
985.358824	2507.948833
985.655543	2504.851044
985.952224	2501.415497
986.248869	2499.812410
986.545478	2494.617501
986.842050	2494.574652
987.138586	2492.338900
987.435086	2489.576347
987.731549	2487.428816
988.027975	2487.776656
988.324366	2483.393372
988.620719	2482.170892
988.917037	2483.532004
989.213318	2485.011583
989.509563	2480.058649
989.805772	2483.489154
990.101944	2481.747436
990.398080	2484.784731
990.694180	2477.893473
990.990244	2481.157621
991.286271	2480.146869
991.582262	2481.258444
991.878217	2484.114257
992.174136	2481.268526
992.470019	2479.615028
992.765865	2482.274236
993.061676	2476.577732
993.357450	2483.186685
993.653188	2480.527476
993.948890	2487.103662
994.244556	2486.047540
994.540186	2487.073415
994.835780	2489.818323
995.131337	2491.625577
995.426859	2491.817140
995.722345	2495.572800
996.017795	2497.165805
996.313208	2499.981289
996.608586	2498.766371
996.903928	2498.705877
997.199234	2502.327946
997.494504	2501.581855
997.789738	2500.739983
998.084936	2497.536329
998.380099	2497.934581
998.675225	2493.705053
998.970316	2496.127327
999.265371	2493.263952
999.560390	2491.134064
999.855373	2490.645072
1000.150320	2487.050729
1000.445232	2486.957468
1000.740108	2486.229021
1001.034948	2484.757004
1001.329752	2484.046202
1001.624521	2482.080152
1001.919254	2481.795327
1002.213951	2483.829432
1002.508613	2481.397075
1002.803239	2478.752990
1003.097829	2480.955974
1003.392384	2478.027064
1003.686903	2478.667291
1003.981386	2478.626961
1004.275834	2480.895481
1004.570246	2480.038484
1004.864623	2479.524287
1005.158964	2478.299286
1005.453270	2479.650316
1005.747540	2477.775006
1006.041775	2481.467652
1006.335974	2477.517908
1006.630138	2478.899184
1006.924266	2477.180150
1007.218359	2477.379276
1007.512416	2475.297279
1007.806438	2473.777371
1008.100425	2476.018164
1008.394376	2472.688482
1008.688292	2478.024543
1008.982172	2478.263998
1009.276017	2480.104019
1009.569827	2476.537403
1009.863602	2475.647639
1010.157341	2478.695017
1010.451045	2479.920017
1010.744714	2477.333905
1011.038347	2479.425984
1011.331945	2475.811477
1011.625508	2477.863227
1011.919036	2476.234934
1012.212528	2479.269708
1012.505986	2477.553196
1012.799408	2477.888432
1013.092795	2477.031436
1013.386147	2475.869450
1013.679464	2476.580253
1013.972745	2477.109574
1014.265992	2476.607979
1014.559204	2477.359111
1014.852380	2476.418936
1015.145521	2479.746098
1015.438628	2475.622434
1015.731699	2478.755511
1016.024736	2477.258288
1016.317737	2475.352732
1016.610703	2476.161837
1016.903635	2479.506643
1017.196531	2476.156796
1017.489393	2479.673001
1017.782219	2477.258288
1018.075011	2478.261478
1018.367768	2479.950264
1018.660490	2474.566312
1018.953177	2474.566312
1019.245829	2474.566312
