Dividing Wavelength (nm)	Counts (n)	Blue Motor Position (mm): 6.900000	Red Motor Position (mm): 0.000000	
326.493990	2150.052115
326.888308	2150.052115
327.282561	2150.052115
327.676750	2049.229038
328.070874	2087.037692
328.464933	2001.338077
328.858929	2056.790769
329.252859	2076.955385
329.646726	2157.613846
330.040528	2097.120000
330.434265	2099.640577
330.827938	2122.325769
331.221547	2142.490385
331.615091	2157.613846
332.008571	2152.572692
332.401986	2112.243462
332.795338	2260.957500
333.188625	2210.545962
333.581847	2293.725000
333.975006	2326.492500
334.368100	2255.916346
334.761129	2318.930769
335.154095	2268.519231
335.546996	2331.533654
335.939833	2356.739423
336.332606	2356.739423
336.725315	2354.218846
337.117960	2439.918462
337.510540	2414.712692
337.903056	2306.327885
338.295508	2492.850577
338.687896	2477.727115
339.080220	2434.877308
339.472480	2422.274423
339.864676	2502.932885
340.256807	2414.712692
340.648875	2497.891731
341.040879	2427.315577
341.432818	2485.288846
341.824694	2500.412308
342.216506	2447.480192
342.608253	2472.685962
342.999937	2452.521346
343.391557	2472.685962
343.783113	2601.235385
344.174605	2412.192115
344.566033	2570.988462
344.957397	2500.412308
345.348697	2429.836154
345.739934	2510.494615
346.131106	2394.548077
346.522215	2404.630385
346.913260	2444.959615
347.304241	2465.124231
347.695159	2444.959615
348.086012	2386.986346
348.476802	2472.685962
348.867528	2356.739423
349.258191	2452.521346
349.648789	2392.027500
350.039324	2528.138654
350.429796	2429.836154
350.820203	2386.986346
351.210548	2480.247692
351.600828	2414.712692
351.991045	2442.439038
352.381198	2475.206538
352.771288	2447.480192
353.161314	2424.795000
353.551276	2477.727115
353.941175	2414.712692
354.331010	2376.904038
354.720782	2442.439038
355.110490	2442.439038
355.500135	2452.521346
355.889717	2417.233269
356.279235	2457.562500
356.668689	2444.959615
357.058080	2369.342308
357.447408	2434.877308
357.836672	2432.356731
358.225873	2437.397885
358.615010	2397.068654
359.004084	2384.465769
359.393095	2492.850577
359.782043	2389.506923
360.170927	2402.109808
360.559748	2402.109808
360.948505	2351.698269
361.337199	2414.712692
361.725830	2470.165385
362.114398	2485.288846
362.502903	2485.288846
362.891344	2394.548077
363.279722	2492.850577
363.668037	2339.095385
364.056289	2492.850577
364.444478	2462.603654
364.832603	2462.603654
365.220665	2439.918462
365.608665	2439.918462
365.996601	2444.959615
366.384474	2500.412308
366.772284	2389.506923
367.160031	2404.630385
367.547715	2450.000769
367.935336	2392.027500
368.322893	2379.424615
368.710388	2419.753846
369.097820	2417.233269
369.485189	2465.124231
369.872495	2399.589231
370.259738	2475.206538
370.646918	2490.330000
371.034035	2447.480192
371.421090	2513.015192
371.808081	2490.330000
372.195010	2442.439038
372.581875	2480.247692
372.968678	2437.397885
373.355418	2495.371154
373.742096	2465.124231
374.128710	2394.548077
374.515262	2460.083077
374.901751	2376.904038
375.288177	2427.315577
375.674540	2497.891731
376.060841	2437.397885
376.447079	2495.371154
376.833254	2482.768269
377.219367	2507.974038
377.605417	2402.109808
377.991404	2432.356731
378.377329	2497.891731
378.763191	2384.465769
379.148991	2553.344423
379.534727	2500.412308
379.920402	2450.000769
380.306013	2507.974038
380.691563	2402.109808
381.077049	2404.630385
381.462474	2439.918462
381.847835	2560.906154
382.233134	2502.932885
382.618371	2384.465769
383.003545	2472.685962
383.388657	2515.535769
383.773706	2495.371154
384.158693	2460.083077
384.543618	2528.138654
384.928480	2414.712692
385.313280	2442.439038
385.698017	2507.974038
386.082692	2429.836154
386.467305	2507.974038
386.851856	2457.562500
387.236344	2480.247692
387.620770	2467.644808
388.005133	2450.000769
388.389435	2442.439038
388.773674	2462.603654
389.157851	2414.712692
389.541965	2492.850577
389.926018	2480.247692
390.310008	2505.453462
390.693936	2500.412308
391.077802	2452.521346
391.461606	2444.959615
391.845348	2429.836154
392.229027	2467.644808
392.612645	2475.206538
392.996200	2434.877308
393.379694	2467.644808
393.763125	2535.700385
394.146494	2457.562500
394.529801	2361.780577
394.913047	2472.685962
395.296230	2467.644808
395.679351	2487.809423
396.062410	2427.315577
396.445408	2450.000769
396.828343	2465.124231
397.211217	2392.027500
397.594028	2492.850577
397.976778	2538.220962
398.359466	2344.136538
398.742092	2457.562500
399.124656	2485.288846
399.507158	2455.041923
399.889598	2457.562500
400.271977	2518.056346
400.654294	2452.521346
401.036549	2417.233269
401.418742	2492.850577
401.800874	2457.562500
402.182944	2417.233269
402.564952	2535.700385
402.946898	2402.109808
403.328783	2389.506923
403.710606	2507.974038
404.092367	2472.685962
404.474067	2492.850577
404.855705	2439.918462
405.237282	2495.371154
405.618797	2502.932885
406.000250	2475.206538
406.381642	2414.712692
406.762972	2409.671538
407.144240	2513.015192
407.525447	2444.959615
407.906593	2427.315577
408.287677	2467.644808
408.668700	2485.288846
409.049661	2429.836154
409.430560	2467.644808
409.811399	2492.850577
410.192176	2432.356731
410.572891	2497.891731
410.953545	2439.918462
411.334138	2492.850577
411.714669	2450.000769
412.095139	2475.206538
412.475547	2457.562500
412.855894	2515.535769
413.236180	2510.494615
413.616405	2480.247692
413.996568	2507.974038
414.376670	2432.356731
414.756711	2487.809423
415.136691	2465.124231
415.516609	2530.659231
415.896466	2437.397885
416.276262	2470.165385
416.655997	2472.685962
417.035670	2578.550192
417.415283	2520.576923
417.794834	2518.056346
418.174324	2480.247692
418.553753	2444.959615
418.933121	2518.056346
419.312428	2505.453462
419.691674	2528.138654
420.070859	2470.165385
420.449983	2533.179808
420.829045	2381.945192
421.208047	2573.509038
421.586988	2422.274423
421.965867	2540.741538
422.344686	2515.535769
422.723444	2455.041923
423.102141	2560.906154
423.480777	2495.371154
423.859352	2515.535769
424.237866	2467.644808
424.616319	2462.603654
424.994712	2495.371154
425.373044	2487.809423
425.751314	2457.562500
426.129524	2482.768269
426.507673	2500.412308
426.885762	2432.356731
427.263789	2477.727115
427.641756	2523.097500
428.019662	2414.712692
428.397508	2389.506923
428.775292	2520.576923
429.153016	2472.685962
429.530679	2475.206538
429.908282	2457.562500
430.285824	2505.453462
430.663305	2480.247692
431.040726	2450.000769
431.418086	2366.821731
431.795385	2427.315577
432.172624	2437.397885
432.549802	2480.247692
432.926920	2450.000769
433.303977	2366.821731
433.680974	2507.974038
434.057910	2553.344423
434.434786	2460.083077
434.811601	2470.165385
435.188355	2513.015192
435.565050	2472.685962
435.941683	2404.630385
436.318257	2480.247692
436.694770	2470.165385
437.071222	2505.453462
437.447614	2500.412308
437.823946	2543.262115
438.200218	2429.836154
438.576429	2500.412308
438.952580	2462.603654
439.328670	2470.165385
439.704700	2495.371154
440.080670	2439.918462
440.456580	2540.741538
440.832429	2540.741538
441.208218	2500.412308
441.583947	2407.150962
441.959616	2560.906154
442.335224	2404.630385
442.710773	2460.083077
443.086261	2450.000769
443.461689	2507.974038
443.837057	2515.535769
444.212365	2513.015192
444.587612	2515.535769
444.962800	2495.371154
445.337927	2477.727115
445.712995	2528.138654
446.088002	2505.453462
446.462949	2472.685962
446.837837	2518.056346
447.212664	2497.891731
447.587431	2477.727115
447.962139	2502.932885
448.336786	2475.206538
448.711374	2467.644808
449.085901	2533.179808
449.460369	2487.809423
449.834776	2530.659231
450.209124	2507.974038
450.583412	2341.615962
450.957640	2460.083077
451.331808	2518.056346
451.705917	2475.206538
452.079965	2482.768269
452.453954	2565.947308
452.827883	2465.124231
453.201752	2507.974038
453.575562	2492.850577
453.949311	2414.712692
454.323001	2618.879423
454.696632	2482.768269
455.070202	2477.727115
455.443713	2555.865000
455.817164	2402.109808
456.190556	2472.685962
456.563888	2555.865000
456.937160	2548.303269
457.310373	2477.727115
457.683526	2535.700385
458.056619	2480.247692
458.429653	2452.521346
458.802628	2513.015192
459.175542	2407.150962
459.548398	2507.974038
459.921194	2490.330000
460.293930	2475.206538
460.666607	2505.453462
461.039224	2487.809423
461.411782	2472.685962
461.784280	2570.988462
462.156719	2427.315577
462.529099	2477.727115
462.901419	2477.727115
463.273680	2444.959615
463.645882	2545.782692
464.018024	2467.644808
464.390106	2523.097500
464.762130	2487.809423
465.134094	2492.850577
465.505999	2492.850577
465.877845	2376.904038
466.249631	2570.988462
466.621358	2543.262115
466.993026	2510.494615
467.364634	2490.330000
467.736184	2492.850577
468.107674	2485.288846
468.479105	2434.877308
468.850477	2525.618077
469.221790	2480.247692
469.593043	2500.412308
469.964238	2523.097500
470.335373	2507.974038
470.706449	2442.439038
471.077467	2500.412308
471.448425	2495.371154
471.819324	2505.453462
472.190164	2427.315577
472.560945	2389.506923
472.931667	2434.877308
473.302330	2472.685962
473.672934	2427.315577
474.043479	2467.644808
474.413965	2505.453462
474.784393	2407.150962
475.154761	2530.659231
475.525070	2467.644808
475.895321	2518.056346
476.265513	2432.356731
476.635645	2492.850577
477.005719	2510.494615
477.375734	2492.850577
477.745691	2432.356731
478.115588	2530.659231
478.485427	2500.412308
478.855207	2515.535769
479.224928	2424.795000
479.594591	2525.618077
479.964194	2470.165385
480.333739	2450.000769
480.703226	2422.274423
481.072653	2487.809423
481.442022	2563.426731
481.811333	2450.000769
482.180584	2525.618077
482.549777	2490.330000
482.918912	2518.056346
483.287988	2500.412308
483.657005	2535.700385
484.025964	2467.644808
484.394864	2505.453462
484.763706	2482.768269
485.132489	2550.823846
485.501213	2477.727115
485.869879	2507.974038
486.238487	2548.303269
486.607036	2505.453462
486.975527	2510.494615
487.343959	2482.768269
487.712333	2513.015192
488.080648	2402.109808
488.448905	2543.262115
488.817104	2490.330000
489.185244	2530.659231
489.553326	2455.041923
489.921350	2394.548077
490.289315	2465.124231
490.657222	2505.453462
491.025070	2419.753846
491.392861	2482.768269
491.760593	2492.850577
492.128267	2507.974038
492.495883	2513.015192
492.863440	2470.165385
493.230939	2591.153077
493.598380	2495.371154
493.965763	2502.932885
494.333088	2480.247692
494.700354	2525.618077
495.067563	2530.659231
495.434713	2502.932885
495.801805	2530.659231
496.168839	2444.959615
496.535815	2356.739423
496.902733	2505.453462
497.269593	2434.877308
497.636395	2490.330000
498.003139	2472.685962
498.369825	2502.932885
498.736453	2467.644808
499.103023	2492.850577
499.469535	2550.823846
499.835989	2520.576923
500.202385	2550.823846
500.568723	2507.974038
500.935003	2444.959615
501.301226	2520.576923
501.667390	2480.247692
502.033497	2515.535769
502.399546	2457.562500
502.765537	2538.220962
503.131470	2475.206538
503.497345	2586.111923
503.863163	2452.521346
504.228923	2462.603654
504.594625	2523.097500
504.960269	2472.685962
505.325856	2457.562500
505.691385	2470.165385
506.056856	2419.753846
506.422270	2490.330000
506.787625	2490.330000
507.152924	2507.974038
507.518164	2455.041923
507.883347	2520.576923
508.248472	2434.877308
508.613540	2560.906154
508.978550	2523.097500
509.343503	2518.056346
509.708398	2520.576923
510.073236	2538.220962
510.438016	2510.494615
510.802738	2460.083077
511.167403	2518.056346
511.532010	2465.124231
511.896561	2523.097500
512.261053	2510.494615
512.625488	2520.576923
512.989866	2417.233269
513.354186	2402.109808
513.718449	2505.453462
514.082655	2555.865000
514.446803	2439.918462
514.810894	2467.644808
515.174927	2439.918462
515.538904	2563.426731
515.902822	2447.480192
516.266684	2475.206538
516.630488	2472.685962
516.994235	2505.453462
517.357925	2535.700385
517.721558	2528.138654
518.085133	2533.179808
518.448651	2500.412308
518.812112	2437.397885
519.175516	2457.562500
519.538863	2513.015192
519.902152	2475.206538
520.265385	2570.988462
520.628560	2371.862885
520.991678	2523.097500
521.354739	2525.618077
521.717743	2523.097500
522.080690	2485.288846
522.443580	2414.712692
522.806413	2485.288846
523.169189	2523.097500
523.531908	2465.124231
523.894569	2507.974038
524.257174	2472.685962
524.619722	2497.891731
524.982213	2535.700385
525.344647	2477.727115
525.707025	2492.850577
526.069345	2480.247692
526.431608	2563.426731
526.793815	2507.974038
527.155964	2492.850577
527.518057	2465.124231
527.880093	2515.535769
528.242072	2439.918462
528.603995	2558.385577
528.965860	2560.906154
529.327669	2462.603654
529.689421	2548.303269
530.051117	2429.836154
530.412755	2487.809423
530.774337	2480.247692
531.135862	2520.576923
531.497331	2477.727115
531.858743	2495.371154
532.220098	2518.056346
532.581396	2444.959615
532.942638	2475.206538
533.303824	2492.850577
533.664953	2492.850577
534.026025	2543.262115
534.387040	2502.932885
534.747999	2472.685962
535.108902	2475.206538
535.469748	2409.671538
535.830537	2505.453462
536.191270	2434.877308
536.551947	2444.959615
536.912567	2482.768269
537.273131	2495.371154
537.633638	2437.397885
537.994089	2548.303269
538.354483	2492.850577
538.714821	2429.836154
539.075103	2417.233269
539.435328	2528.138654
539.795497	2502.932885
540.155609	2550.823846
540.515665	2424.795000
540.875665	2497.891731
541.235609	2583.591346
541.595496	2419.753846
541.955328	2399.589231
542.315102	2558.385577
542.674821	2518.056346
543.034483	2520.576923
543.394090	2465.124231
543.753640	2560.906154
544.113134	2558.385577
544.472571	2452.521346
544.831953	2490.330000
545.191278	2477.727115
545.550548	2525.618077
545.909761	2432.356731
546.268918	2460.083077
546.628019	2581.070769
546.987064	2507.974038
547.346053	2553.344423
547.704986	2555.865000
548.063863	2500.412308
548.422684	2465.124231
548.781449	2553.344423
549.140158	2525.618077
549.498811	2462.603654
549.857408	2470.165385
550.215949	2482.768269
550.574434	2470.165385
550.932864	2376.904038
551.291237	2455.041923
551.649555	2480.247692
552.007817	2500.412308
552.366022	2500.412308
552.724173	2518.056346
553.082267	2447.480192
553.440305	2560.906154
553.798288	2485.288846
554.156215	2520.576923
554.514086	2533.179808
554.871902	2533.179808
555.229661	2434.877308
555.587365	2432.356731
555.945014	2460.083077
556.302606	2500.412308
556.660143	2530.659231
557.017625	2502.932885
557.375050	2510.494615
557.732421	2485.288846
558.089735	2490.330000
558.446994	2465.124231
558.804197	2490.330000
559.161345	2460.083077
559.518437	2477.727115
559.875474	2550.823846
560.232455	2513.015192
560.589381	2550.823846
560.946251	2601.235385
561.303065	2538.220962
561.659825	2465.124231
562.016528	2480.247692
562.373177	2495.371154
562.729770	2429.836154
563.086307	2482.768269
563.442789	2507.974038
563.799216	2545.782692
564.155587	2543.262115
564.511904	2535.700385
564.868164	2465.124231
565.224370	2578.550192
565.580520	2543.262115
565.936615	2535.700385
566.292654	2462.603654
566.648638	2482.768269
567.004567	2568.467885
567.360441	2465.124231
567.716260	2507.974038
568.072023	2475.206538
568.427732	2570.988462
568.783385	2507.974038
569.138982	2492.850577
569.494525	2432.356731
569.850013	2417.233269
570.205445	2495.371154
570.560823	2523.097500
570.916145	2505.453462
571.271412	2485.288846
571.626625	2482.768269
571.981782	2528.138654
572.336884	2414.712692
572.691931	2628.961731
573.046923	2573.509038
573.401860	2429.836154
573.756743	2568.467885
574.111570	2412.192115
574.466342	2477.727115
574.821059	2495.371154
575.175722	2530.659231
575.530330	2462.603654
575.884882	2545.782692
576.239380	2452.521346
576.593823	2457.562500
576.948211	2530.659231
577.302544	2495.371154
577.656823	2518.056346
578.011047	2470.165385
578.365216	2507.974038
578.719330	2424.795000
579.073389	2447.480192
579.427394	2437.397885
579.781344	2404.630385
580.135239	2518.056346
580.489080	2472.685962
580.842866	2543.262115
581.196597	2553.344423
581.550273	2538.220962
581.903895	2447.480192
582.257463	2540.741538
582.610975	2485.288846
582.964434	2535.700385
583.317837	2462.603654
583.671186	2518.056346
584.024481	2475.206538
584.377721	2533.179808
584.730906	2472.685962
585.084037	2520.576923
585.437113	2558.385577
585.790135	2487.809423
586.143103	2596.194231
586.496016	2485.288846
586.848874	2510.494615
587.201679	2497.891731
587.554428	2538.220962
587.907124	2568.467885
588.259765	2452.521346
588.612352	2540.741538
588.964884	2543.262115
589.317362	2472.685962
589.669786	2553.344423
590.022155	2455.041923
590.374470	2424.795000
590.726731	2455.041923
591.078937	2565.947308
591.431090	2495.371154
591.783188	2437.397885
592.135232	2518.056346
592.487222	2543.262115
592.839157	2533.179808
593.191038	2472.685962
593.542866	2502.932885
593.894639	2502.932885
594.246358	2495.371154
594.598022	2439.918462
594.949633	2495.371154
595.301190	2505.453462
595.652692	2510.494615
596.004141	2543.262115
596.355535	2470.165385
596.706876	2482.768269
597.058162	2447.480192
597.409395	2555.865000
597.760573	2429.836154
598.111698	2409.671538
598.462768	2530.659231
598.813785	2467.644808
599.164748	2518.056346
599.515657	2505.453462
599.866511	2515.535769
600.217312	2490.330000
600.568060	2492.850577
600.918753	2462.603654
601.269392	2538.220962
601.619978	2467.644808
601.970510	2550.823846
602.320988	2525.618077
602.671412	2611.317692
603.021783	2447.480192
603.372100	2487.809423
603.722363	2490.330000
604.072572	2502.932885
604.422728	2515.535769
604.772830	2462.603654
605.122878	2502.932885
605.472872	2515.535769
605.822813	2530.659231
606.172701	2482.768269
606.522534	2540.741538
606.872314	2450.000769
607.222041	2472.685962
607.571714	2475.206538
607.921333	2470.165385
608.270899	2439.918462
608.620411	2490.330000
608.969870	2439.918462
609.319276	2502.932885
609.668627	2465.124231
610.017926	2505.453462
610.367171	2470.165385
610.716362	2520.576923
611.065500	2434.877308
611.414585	2427.315577
611.763616	2472.685962
612.112594	2465.124231
612.461518	2495.371154
612.810389	2497.891731
613.159207	2437.397885
613.507971	2475.206538
613.856682	2538.220962
614.205340	2452.521346
614.553945	2427.315577
614.902496	2568.467885
615.250994	2553.344423
615.599439	2528.138654
615.947830	2565.947308
616.296169	2361.780577
616.644454	2497.891731
616.992686	2465.124231
617.340864	2442.439038
617.688990	2482.768269
618.037063	2495.371154
618.385082	2392.027500
618.733048	2447.480192
619.080961	2490.330000
619.428821	2475.206538
619.776628	2518.056346
620.124382	2455.041923
620.472083	2583.591346
620.819731	2495.371154
621.167326	2467.644808
621.514868	2507.974038
621.862357	2513.015192
622.209793	2535.700385
622.557176	2518.056346
622.904506	2528.138654
623.251783	2457.562500
623.599007	2545.782692
623.946179	2467.644808
624.293297	2528.138654
624.640363	2477.727115
624.987376	2507.974038
625.334336	2533.179808
625.681243	2528.138654
626.028097	2487.809423
626.374899	2533.179808
626.721647	2563.426731
627.068343	2510.494615
627.414987	2518.056346
627.761577	2502.932885
628.108115	2460.083077
628.454600	2545.782692
628.801032	2525.618077
629.147412	2523.097500
629.493739	2500.412308
629.840014	2525.618077
630.186236	2457.562500
630.532405	2482.768269
630.878521	2444.959615
631.224585	2576.029615
631.570597	2598.714808
631.916556	2487.809423
632.262462	2545.782692
632.608316	2548.303269
632.954117	2462.603654
633.299866	2447.480192
633.645562	2497.891731
633.991206	2477.727115
634.336797	2442.439038
634.682336	2560.906154
635.027823	2482.768269
635.373257	2507.974038
635.718639	2467.644808
636.063968	2444.959615
636.409245	2460.083077
636.754470	2505.453462
637.099642	2462.603654
637.444762	2568.467885
637.789829	2452.521346
638.134845	2515.535769
638.479808	2437.397885
638.824719	2424.795000
639.169577	2442.439038
639.514383	2596.194231
639.859137	2518.056346
640.203839	2518.056346
640.548489	2422.274423
640.893086	2505.453462
641.237632	2518.056346
641.582125	2513.015192
641.926566	2543.262115
642.270955	2470.165385
642.615292	2563.426731
642.959576	2472.685962
643.303809	2560.906154
643.647990	2470.165385
643.992118	2460.083077
644.336195	2505.453462
644.680219	2429.836154
645.024192	2520.576923
645.368112	2480.247692
645.711981	2530.659231
646.055797	2548.303269
646.399562	2480.247692
646.743274	2480.247692
647.086935	2465.124231
647.430544	2475.206538
647.774101	2513.015192
648.117606	2460.083077
648.461059	2475.206538
648.804460	2507.974038
649.147810	2497.891731
649.491108	2520.576923
649.834354	2530.659231
650.177548	2578.550192
650.520690	2477.727115
650.863781	2477.727115
651.206820	2525.618077
651.549807	2465.124231
651.892742	2502.932885
652.235626	2467.644808
652.578458	2588.632500
652.921238	2502.932885
653.263967	2467.644808
653.606644	2439.918462
653.949269	2437.397885
654.291843	2477.727115
654.634365	2535.700385
654.976836	2502.932885
655.319255	2495.371154
655.661622	2513.015192
656.003938	2507.974038
656.346203	2442.439038
656.688416	2429.836154
657.030577	2573.509038
657.372687	2550.823846
657.714746	2477.727115
658.056753	2540.741538
658.398708	2470.165385
658.740612	2505.453462
659.082465	2465.124231
659.424266	2513.015192
659.766016	2455.041923
660.107715	2596.194231
660.449362	2477.727115
660.790958	2487.809423
661.132503	2470.165385
661.473996	2513.015192
661.815438	2528.138654
662.156829	2452.521346
662.498168	2502.932885
662.839456	2455.041923
663.180693	2480.247692
663.521879	2563.426731
663.863013	2460.083077
664.204097	2545.782692
664.545129	2452.521346
664.886110	2475.206538
665.227040	2510.494615
665.567918	2475.206538
665.908746	2417.233269
666.249522	2525.618077
666.590248	2553.344423
666.930922	2525.618077
667.271545	2548.303269
667.612118	2518.056346
667.952639	2533.179808
668.293109	2545.782692
668.633528	2513.015192
668.973896	2442.439038
669.314213	2487.809423
669.654480	2455.041923
669.994695	2487.809423
670.334859	2495.371154
670.674973	2475.206538
671.015035	2558.385577
671.355047	2472.685962
671.695008	2533.179808
672.034918	2528.138654
672.374777	2563.426731
672.714585	2513.015192
673.054342	2470.165385
673.394049	2535.700385
673.733705	2472.685962
674.073310	2490.330000
674.412864	2455.041923
674.752368	2505.453462
675.091820	2492.850577
675.431223	2520.576923
675.770574	2525.618077
676.109875	2553.344423
676.449125	2548.303269
676.788324	2505.453462
677.127473	2570.988462
677.466571	2543.262115
677.805619	2414.712692
678.144616	2467.644808
678.483562	2386.986346
678.822458	2581.070769
679.161303	2500.412308
679.500098	2477.727115
679.838842	2437.397885
680.177535	2507.974038
680.516179	2560.906154
680.854771	2379.424615
681.193314	2477.727115
681.531805	2487.809423
681.870247	2487.809423
682.208638	2470.165385
682.546978	2495.371154
682.885268	2492.850577
683.223508	2417.233269
683.561697	2538.220962
683.899836	2460.083077
684.237925	2538.220962
684.575963	2465.124231
684.913951	2482.768269
685.251889	2467.644808
685.589776	2450.000769
685.927614	2502.932885
686.265401	2502.932885
686.603137	2510.494615
686.940824	2386.986346
687.278460	2379.424615
687.616046	2530.659231
687.953582	2379.424615
688.291068	2530.659231
688.628504	2467.644808
688.965889	2550.823846
689.303224	2419.753846
689.640510	2470.165385
689.977745	2364.301154
690.314930	2452.521346
690.652065	2460.083077
690.989150	2444.959615
691.326185	2545.782692
691.663170	2397.068654
692.000105	2505.453462
692.336990	2424.795000
692.673825	2467.644808
693.010610	2412.192115
693.347345	2487.809423
693.684030	2502.932885
694.020665	2487.809423
694.357251	2563.426731
694.693786	2515.535769
695.030272	2507.974038
695.366707	2520.576923
695.703093	2467.644808
696.039429	2510.494615
696.375716	2538.220962
696.711952	2497.891731
697.048139	2500.412308
697.384276	2533.179808
697.720363	2414.712692
698.056400	2528.138654
698.392388	2568.467885
698.728326	2500.412308
699.064214	2560.906154
699.400053	2447.480192
699.735842	2427.315577
700.071581	2518.056346
700.407270	2550.823846
700.742910	2515.535769
701.078501	2402.109808
701.414042	2472.685962
701.749533	2492.850577
702.084974	2560.906154
702.420366	2467.644808
702.755709	2565.947308
703.091002	2505.453462
703.426246	2490.330000
703.761440	2369.342308
704.096584	2477.727115
704.431679	2477.727115
704.766725	2553.344423
705.101721	2495.371154
705.436668	2480.247692
705.771565	2513.015192
706.106413	2452.521346
706.441212	2460.083077
706.775961	2457.562500
707.110661	2429.836154
707.445311	2480.247692
707.779913	2510.494615
708.114465	2555.865000
708.448967	2472.685962
708.783421	2515.535769
709.117825	2439.918462
709.452180	2545.782692
709.786485	2482.768269
710.120742	2540.741538
710.454949	2593.673654
710.789107	2530.659231
711.123216	2462.603654
711.457275	2485.288846
711.791286	2520.576923
712.125247	2475.206538
712.459159	2515.535769
712.793023	2470.165385
713.126837	2467.644808
713.460602	2500.412308
713.794318	2538.220962
714.127985	2482.768269
714.461602	2606.276538
714.795171	2477.727115
715.128691	2550.823846
715.462162	2523.097500
715.795584	2515.535769
716.128957	2462.603654
716.462281	2492.850577
716.795556	2450.000769
717.128782	2611.317692
717.461960	2457.562500
717.795088	2550.823846
718.128167	2475.206538
718.461198	2465.124231
718.794180	2570.988462
719.127113	2507.974038
719.459997	2450.000769
719.792833	2447.480192
720.125619	2447.480192
720.458357	2475.206538
720.791046	2563.426731
721.123686	2470.165385
721.456278	2573.509038
721.788821	2462.603654
722.121315	2548.303269
722.453761	2455.041923
722.786158	2520.576923
723.118506	2495.371154
723.450805	2455.041923
723.783056	2457.562500
724.115259	2472.685962
724.447412	2545.782692
724.779518	2553.344423
725.111574	2487.809423
725.443582	2462.603654
725.775542	2465.124231
726.107453	2507.974038
726.439315	2505.453462
726.771129	2482.768269
727.102895	2510.494615
727.434612	2447.480192
727.766281	2432.356731
728.097901	2402.109808
728.429473	2439.918462
728.760996	2389.506923
729.092471	2518.056346
729.423897	2530.659231
729.755276	2460.083077
730.086606	2434.877308
730.417887	2485.288846
730.749120	2467.644808
731.080305	2399.589231
731.411442	2520.576923
731.742530	2507.974038
732.073570	2523.097500
732.404562	2452.521346
732.735506	2450.000769
733.066401	2450.000769
733.397249	2548.303269
733.728048	2379.424615
734.058798	2429.836154
734.389501	2510.494615
734.720156	2505.453462
735.050762	2528.138654
735.381320	2455.041923
735.711831	2429.836154
736.042293	2475.206538
736.372707	2442.439038
736.703073	2437.397885
737.033391	2548.303269
737.363661	2525.618077
737.693883	2533.179808
738.024056	2530.659231
738.354182	2472.685962
738.684260	2452.521346
739.014290	2528.138654
739.344272	2626.441154
739.674207	2505.453462
740.004093	2399.589231
740.333931	2555.865000
740.663722	2563.426731
740.993464	2467.644808
741.323159	2507.974038
741.652806	2500.412308
741.982405	2482.768269
742.311956	2490.330000
742.641460	2502.932885
742.970915	2432.356731
743.300323	2555.865000
743.629683	2399.589231
743.958996	2470.165385
744.288260	2495.371154
744.617477	2550.823846
744.946647	2502.932885
745.275768	2500.412308
745.604842	2480.247692
745.933869	2467.644808
746.262847	2450.000769
746.591778	2520.576923
746.920662	2550.823846
747.249498	2429.836154
747.578286	2518.056346
747.907027	2470.165385
748.235720	2429.836154
748.564365	2505.453462
748.892963	2535.700385
749.221514	2543.262115
749.550017	2510.494615
749.878473	2505.453462
750.206881	2447.480192
750.535242	2502.932885
750.863555	2515.535769
751.191821	2495.371154
751.520039	2558.385577
751.848210	2447.480192
752.176334	2485.288846
752.504411	2513.015192
752.832440	2417.233269
753.160421	2523.097500
753.488356	2467.644808
753.816243	2477.727115
754.144082	2510.494615
754.471875	2467.644808
754.799620	2540.741538
755.127318	2507.974038
755.454969	2518.056346
755.782572	2525.618077
756.110129	2553.344423
756.437638	2394.548077
756.765100	2502.932885
757.092515	2528.138654
757.419882	2482.768269
757.747203	2414.712692
758.074477	2417.233269
758.401703	2414.712692
758.728882	2543.262115
759.056014	2475.206538
759.383099	2518.056346
759.710138	2513.015192
760.037129	2507.974038
760.364073	2460.083077
760.690970	2472.685962
761.017820	2447.480192
761.344623	2525.618077
761.671379	2447.480192
761.998088	2540.741538
762.324751	2520.576923
762.651366	2497.891731
762.977935	2492.850577
763.304456	2442.439038
763.630931	2505.453462
763.957359	2470.165385
764.283740	2563.426731
764.610074	2510.494615
764.936362	2409.671538
765.262602	2487.809423
765.588796	2510.494615
765.914943	2510.494615
766.241044	2525.618077
766.567097	2465.124231
766.893104	2477.727115
767.219064	2515.535769
767.544978	2439.918462
767.870845	2427.315577
768.196665	2447.480192
768.522438	2513.015192
768.848165	2513.015192
769.173846	2450.000769
769.499479	2392.027500
769.825066	2538.220962
770.150607	2505.453462
770.476101	2525.618077
770.801548	2465.124231
771.126949	2475.206538
771.452303	2467.644808
771.777611	2482.768269
772.102872	2457.562500
772.428087	2533.179808
772.753256	2518.056346
773.078378	2518.056346
773.403453	2475.206538
773.728482	2492.850577
774.053465	2500.412308
774.378401	2507.974038
774.703291	2472.685962
775.028135	2548.303269
775.352932	2545.782692
775.677683	2545.782692
776.002388	2502.932885
776.327046	2500.412308
776.651658	2487.809423
776.976224	2502.932885
777.300743	2482.768269
777.625216	2550.823846
777.949643	2444.959615
778.274024	2538.220962
778.598359	2455.041923
778.922647	2560.906154
779.246889	2545.782692
779.571086	2482.768269
779.895236	2482.768269
780.219339	2507.974038
780.543397	2450.000769
780.867409	2492.850577
781.191374	2480.247692
781.515294	2515.535769
781.839167	2568.467885
782.162995	2520.576923
782.486776	2515.535769
782.810511	2611.317692
783.134201	2442.439038
783.457844	2482.768269
783.781441	2505.453462
784.104993	2467.644808
784.428498	2535.700385
784.751958	2520.576923
785.075372	2429.836154
785.398739	2502.932885
785.722061	2533.179808
786.045337	2573.509038
786.368568	2475.206538
786.691752	2540.741538
787.014891	2434.877308
787.337983	2475.206538
787.661030	2444.959615
787.984031	2528.138654
788.306987	2460.083077
788.629897	2513.015192
788.952760	2452.521346
789.275579	2528.138654
789.598351	2528.138654
789.921078	2389.506923
790.243759	2576.029615
790.566395	2409.671538
790.888984	2523.097500
791.211529	2492.850577
791.534027	2450.000769
791.856480	2523.097500
792.178888	2470.165385
792.501249	2460.083077
792.823566	2576.029615
793.145836	2475.206538
793.468062	2500.412308
793.790241	2505.453462
794.112375	2510.494615
794.434464	2437.397885
794.756507	2472.685962
795.078505	2444.959615
795.400457	2442.439038
795.722364	2530.659231
796.044226	2523.097500
796.366042	2490.330000
796.687812	2553.344423
797.009538	2545.782692
797.331218	2525.618077
797.652852	2460.083077
797.974442	2525.618077
798.295986	2490.330000
798.617484	2457.562500
798.938938	2507.974038
799.260346	2535.700385
799.581709	2507.974038
799.903026	2500.412308
800.224299	2472.685962
800.545526	2507.974038
800.866708	2397.068654
801.187845	2513.015192
801.508936	2490.330000
801.829983	2550.823846
802.150984	2492.850577
802.471940	2553.344423
802.792851	2485.288846
803.113717	2550.823846
803.434538	2505.453462
803.755314	2555.865000
804.076045	2510.494615
804.396731	2502.932885
804.717372	2495.371154
805.037967	2477.727115
805.358518	2492.850577
805.679024	2470.165385
805.999485	2475.206538
806.319901	2492.850577
806.640272	2467.644808
806.960598	2480.247692
807.280879	2470.165385
807.601115	2497.891731
807.921306	2480.247692
808.241453	2477.727115
808.561554	2490.330000
808.881611	2621.400000
809.201623	2507.974038
809.521590	2475.206538
809.841513	2432.356731
810.161390	2495.371154
810.481223	2490.330000
810.801011	2568.467885
811.120755	2457.562500
811.440453	2500.412308
811.760107	2487.809423
812.079716	2500.412308
812.399281	2497.891731
812.718801	2533.179808
813.038276	2354.218846
813.357707	2578.550192
813.677093	2460.083077
813.996434	2452.521346
814.315731	2485.288846
814.634983	2548.303269
814.954191	2518.056346
815.273354	2480.247692
815.592473	2500.412308
815.911547	2497.891731
816.230577	2457.562500
816.549562	2482.768269
816.868502	2525.618077
817.187399	2465.124231
817.506250	2462.603654
817.825058	2442.439038
818.143821	2545.782692
818.462539	2427.315577
818.781213	2397.068654
819.099843	2490.330000
819.418429	2540.741538
819.736970	2472.685962
820.055466	2472.685962
820.373919	2447.480192
820.692327	2455.041923
821.010691	2470.165385
821.329011	2465.124231
821.647286	2510.494615
821.965517	2452.521346
822.283704	2492.850577
822.601847	2520.576923
822.919945	2477.727115
823.237999	2450.000769
823.556010	2495.371154
823.873976	2424.795000
824.191897	2465.124231
824.509775	2507.974038
824.827609	2480.247692
825.145398	2507.974038
825.463144	2472.685962
825.780845	2472.685962
826.098502	2462.603654
826.416116	2510.494615
826.733685	2533.179808
827.051210	2424.795000
827.368692	2601.235385
827.686129	2419.753846
828.003522	2434.877308
828.320872	2555.865000
828.638177	2523.097500
828.955439	2465.124231
829.272656	2530.659231
829.589830	2427.315577
829.906960	2513.015192
830.224046	2505.453462
830.541088	2502.932885
830.858086	2505.453462
831.175041	2472.685962
831.491952	2576.029615
831.808819	2492.850577
832.125642	2505.453462
832.442421	2502.932885
832.759157	2434.877308
833.075849	2543.262115
833.392497	2525.618077
833.709101	2548.303269
834.025662	2520.576923
834.342179	2467.644808
834.658653	2444.959615
834.975083	2407.150962
835.291469	2432.356731
835.607811	2535.700385
835.924110	2437.397885
836.240366	2533.179808
836.556578	2543.262115
836.872746	2510.494615
837.188871	2442.439038
837.504952	2422.274423
837.820990	2500.412308
838.136984	2490.330000
838.452935	2460.083077
838.768842	2450.000769
839.084706	2570.988462
839.400526	2470.165385
839.716303	2520.576923
840.032037	2369.342308
840.347727	2480.247692
840.663373	2455.041923
840.978977	2545.782692
841.294537	2475.206538
841.610054	2465.124231
841.925527	2560.906154
842.240957	2482.768269
842.556344	2457.562500
842.871687	2437.397885
843.186987	2568.467885
843.502244	2419.753846
843.817458	2480.247692
844.132629	2497.891731
844.447756	2497.891731
844.762840	2477.727115
845.077881	2465.124231
845.392879	2515.535769
845.707833	2397.068654
846.022745	2467.644808
846.337613	2457.562500
846.652438	2548.303269
846.967221	2477.727115
847.281960	2548.303269
847.596656	2442.439038
847.911309	2412.192115
848.225919	2492.850577
848.540485	2437.397885
848.855009	2553.344423
849.169490	2510.494615
849.483928	2475.206538
849.798323	2510.494615
850.112675	2543.262115
850.426984	2429.836154
850.741251	2460.083077
851.055474	2417.233269
851.369654	2429.836154
851.683792	2530.659231
851.997887	2424.795000
852.311938	2545.782692
852.625947	2447.480192
852.939914	2485.288846
853.253837	2525.618077
853.567718	2407.150962
853.881555	2477.727115
854.195350	2528.138654
854.509103	2553.344423
854.822812	2482.768269
855.136479	2533.179808
855.450103	2442.439038
855.763685	2558.385577
856.077224	2404.630385
856.390720	2545.782692
856.704173	2354.218846
857.017584	2525.618077
857.330953	2492.850577
857.644278	2528.138654
857.957561	2482.768269
858.270802	2528.138654
858.584000	2528.138654
858.897155	2444.959615
859.210268	2553.344423
859.523339	2450.000769
859.836367	2518.056346
860.149352	2457.562500
860.462295	2477.727115
860.775195	2535.700385
861.088054	2434.877308
861.400869	2392.027500
861.713642	2452.521346
862.026373	2432.356731
862.339062	2518.056346
862.651708	2553.344423
862.964312	2480.247692
863.276873	2520.576923
863.589392	2424.795000
863.901869	2437.397885
864.214303	2450.000769
864.526696	2525.618077
864.839045	2550.823846
865.151353	2472.685962
865.463619	2437.397885
865.775842	2520.576923
866.088023	2412.192115
866.400162	2450.000769
866.712258	2495.371154
867.024313	2412.192115
867.336325	2550.823846
867.648296	2495.371154
867.960224	2525.618077
868.272110	2482.768269
868.583954	2510.494615
868.895755	2560.906154
869.207515	2402.109808
869.519233	2568.467885
869.830909	2505.453462
870.142542	2500.412308
870.454134	2480.247692
870.765684	2490.330000
871.077191	2497.891731
871.388657	2477.727115
871.700081	2530.659231
872.011463	2505.453462
872.322803	2485.288846
872.634101	2447.480192
872.945357	2558.385577
873.256571	2480.247692
873.567744	2553.344423
873.878874	2518.056346
874.189963	2507.974038
874.501010	2497.891731
874.812015	2480.247692
875.122979	2495.371154
875.433900	2492.850577
875.744780	2442.439038
876.055618	2528.138654
876.366415	2470.165385
876.677169	2523.097500
876.987882	2495.371154
877.298554	2450.000769
877.609183	2472.685962
877.919771	2409.671538
878.230317	2450.000769
878.540822	2507.974038
878.851285	2545.782692
879.161707	2444.959615
879.472087	2530.659231
879.782425	2495.371154
880.092722	2412.192115
880.402977	2462.603654
880.713191	2457.562500
881.023363	2480.247692
881.333494	2502.932885
881.643583	2389.506923
881.953631	2485.288846
882.263637	2523.097500
882.573602	2485.288846
882.883526	2485.288846
883.193408	2485.288846
883.503248	2447.480192
883.813048	2495.371154
884.122806	2477.727115
884.432522	2497.891731
884.742197	2513.015192
885.051831	2548.303269
885.361424	2462.603654
885.670975	2402.109808
885.980485	2553.344423
886.289954	2460.083077
886.599382	2497.891731
886.908768	2591.153077
887.218113	2485.288846
887.527417	2515.535769
887.836680	2485.288846
888.145901	2437.397885
888.455082	2470.165385
888.764221	2492.850577
889.073319	2437.397885
889.382376	2492.850577
889.691392	2437.397885
890.000366	2550.823846
890.309300	2404.630385
890.618193	2548.303269
890.927044	2495.371154
891.235855	2497.891731
891.544625	2419.753846
891.853353	2558.385577
892.162041	2492.850577
892.470687	2518.056346
892.779293	2422.274423
893.087858	2465.124231
893.396381	2472.685962
893.704864	2545.782692
894.013306	2462.603654
894.321707	2505.453462
894.630068	2482.768269
894.938387	2495.371154
895.246665	2513.015192
895.554903	2500.412308
895.863100	2487.809423
896.171256	2455.041923
896.479371	2502.932885
896.787446	2490.330000
897.095480	2520.576923
897.403473	2507.974038
897.711425	2472.685962
898.019336	2545.782692
898.327207	2500.412308
898.635038	2485.288846
898.942827	2452.521346
899.250576	2560.906154
899.558284	2482.768269
899.865952	2520.576923
900.173579	2462.603654
900.481165	2550.823846
900.788711	2611.317692
901.096216	2520.576923
901.403681	2480.247692
901.711105	2460.083077
902.018489	2540.741538
902.325832	2535.700385
902.633135	2535.700385
902.940397	2530.659231
903.247619	2444.959615
903.554800	2520.576923
903.861941	2422.274423
904.169041	2523.097500
904.476101	2515.535769
904.783121	2513.015192
905.090100	2480.247692
905.397039	2540.741538
905.703938	2450.000769
906.010796	2467.644808
906.317614	2570.988462
906.624391	2485.288846
906.931129	2565.947308
907.237826	2525.618077
907.544483	2507.974038
907.851099	2434.877308
908.157675	2467.644808
908.464211	2528.138654
908.770707	2568.467885
909.077163	2462.603654
909.383578	2502.932885
909.689954	2487.809423
909.996289	2548.303269
910.302584	2402.109808
910.608839	2475.206538
910.915054	2480.247692
911.221229	2422.274423
911.527363	2578.550192
911.833458	2535.700385
912.139513	2543.262115
912.445527	2455.041923
912.751502	2510.494615
913.057436	2477.727115
913.363331	2492.850577
913.669186	2545.782692
913.975000	2502.932885
914.280775	2505.453462
914.586510	2518.056346
914.892205	2515.535769
915.197859	2518.056346
915.503475	2475.206538
915.809050	2472.685962
916.114585	2482.768269
916.420081	2568.467885
916.725536	2513.015192
917.030952	2497.891731
917.336328	2364.301154
917.641665	2439.918462
917.946961	2497.891731
918.252218	2444.959615
918.557435	2553.344423
918.862612	2558.385577
919.167750	2505.453462
919.472848	2442.439038
919.777906	2502.932885
920.082925	2601.235385
920.387904	2513.015192
920.692843	2502.932885
920.997743	2490.330000
921.302603	2485.288846
921.607423	2470.165385
921.912204	2485.288846
922.216946	2414.712692
922.521647	2450.000769
922.826310	2533.179808
923.130932	2475.206538
923.435516	2467.644808
923.740059	2472.685962
924.044564	2525.618077
924.349028	2424.795000
924.653454	2457.562500
924.957840	2427.315577
925.262186	2525.618077
925.566493	2507.974038
925.870761	2548.303269
926.174989	2497.891731
926.479178	2543.262115
926.783328	2523.097500
927.087438	2497.891731
927.391509	2588.632500
927.695541	2528.138654
927.999533	2510.494615
928.303486	2384.465769
928.607400	2573.509038
928.911275	2386.986346
929.215110	2497.891731
929.518906	2419.753846
929.822663	2639.044038
930.126381	2520.576923
930.430060	2518.056346
930.733699	2518.056346
931.037299	2495.371154
931.340861	2502.932885
931.644383	2535.700385
931.947866	2568.467885
932.251309	2558.385577
932.554714	2528.138654
932.858080	2515.535769
933.161407	2432.356731
933.464694	2523.097500
933.767943	2467.644808
934.071153	2492.850577
934.374323	2462.603654
934.677455	2520.576923
934.980548	2444.959615
935.283602	2381.945192
935.586617	2611.317692
935.889593	2515.535769
936.192530	2465.124231
936.495428	2558.385577
936.798287	2510.494615
937.101108	2500.412308
937.403890	2568.467885
937.706632	2533.179808
938.009336	2502.932885
938.312002	2576.029615
938.614628	2424.795000
938.917216	2432.356731
939.219765	2475.206538
939.522275	2576.029615
939.824747	2502.932885
940.127179	2492.850577
940.429573	2545.782692
940.731929	2467.644808
941.034246	2487.809423
941.336524	2460.083077
941.638763	2470.165385
941.940964	2518.056346
942.243126	2447.480192
942.545250	2538.220962
942.847335	2470.165385
943.149381	2409.671538
943.451389	2462.603654
943.753359	2543.262115
944.055290	2538.220962
944.357182	2404.630385
944.659036	2485.288846
944.960851	2565.947308
945.262628	2520.576923
945.564367	2397.068654
945.866067	2497.891731
946.167729	2427.315577
946.469352	2588.632500
946.770937	2550.823846
947.072484	2457.562500
947.373992	2502.932885
947.675462	2432.356731
947.976893	2523.097500
948.278286	2450.000769
948.579641	2507.974038
948.880958	2379.424615
949.182236	2500.412308
949.483476	2460.083077
949.784678	2500.412308
950.085841	2502.932885
950.386967	2515.535769
950.688054	2450.000769
950.989103	2520.576923
951.290114	2480.247692
951.591087	2434.877308
951.892021	2452.521346
952.192917	2424.795000
952.493776	2565.947308
952.794596	2500.412308
953.095378	2467.644808
953.396122	2550.823846
953.696828	2477.727115
953.997496	2381.945192
954.298126	2525.618077
954.598718	2371.862885
954.899272	2535.700385
955.199788	2523.097500
955.500266	2465.124231
955.800706	2487.809423
956.101108	2460.083077
956.401472	2628.961731
956.701798	2525.618077
957.002087	2422.274423
957.302337	2528.138654
957.602550	2465.124231
957.902724	2482.768269
958.202861	2533.179808
958.502960	2505.453462
958.803022	2502.932885
959.103045	2507.974038
959.403031	2525.618077
959.702979	2455.041923
960.002889	2412.192115
960.302762	2480.247692
960.602596	2482.768269
960.902393	2533.179808
961.202153	2533.179808
961.501875	2470.165385
961.801559	2490.330000
962.101205	2460.083077
962.400814	2475.206538
962.700385	2505.453462
962.999918	2555.865000
963.299414	2505.453462
963.598873	2404.630385
963.898293	2447.480192
964.197677	2518.056346
964.497022	2457.562500
964.796331	2492.850577
965.095601	2538.220962
965.394835	2558.385577
965.694030	2523.097500
965.993189	2366.821731
966.292309	2439.918462
966.591393	2482.768269
966.890439	2513.015192
967.189447	2500.412308
967.488419	2467.644808
967.787353	2475.206538
968.086249	2495.371154
968.385108	2404.630385
968.683930	2545.782692
968.982714	2533.179808
969.281462	2432.356731
969.580172	2492.850577
969.878844	2528.138654
970.177480	2518.056346
970.476078	2485.288846
970.774639	2525.618077
971.073162	2485.288846
971.371649	2523.097500
971.670098	2457.562500
971.968510	2477.727115
972.266885	2457.562500
972.565223	2588.632500
972.863524	2510.494615
973.161788	2437.397885
973.460014	2502.932885
973.758204	2528.138654
974.056356	2553.344423
974.354471	2480.247692
974.652550	2492.850577
974.950591	2576.029615
975.248595	2447.480192
975.546563	2500.412308
975.844493	2480.247692
976.142386	2560.906154
976.440243	2462.603654
976.738062	2492.850577
977.035845	2450.000769
977.333590	2576.029615
977.631299	2434.877308
977.928971	2480.247692
978.226606	2455.041923
978.524204	2535.700385
978.821765	2412.192115
979.119290	2507.974038
979.416777	2530.659231
979.714228	2497.891731
980.011642	2543.262115
980.309020	2470.165385
980.606360	2502.932885
980.903664	2424.795000
981.200931	2502.932885
981.498162	2500.412308
981.795356	2530.659231
982.092513	2424.795000
982.389633	2452.521346
982.686717	2399.589231
982.983764	2535.700385
983.280775	2495.371154
983.577749	2437.397885
983.874686	2500.412308
984.171587	2550.823846
984.468451	2497.891731
984.765279	2568.467885
985.062070	2528.138654
985.358824	2525.618077
985.655543	2444.959615
985.952224	2523.097500
986.248869	2482.768269
986.545478	2442.439038
986.842050	2417.233269
987.138586	2523.097500
987.435086	2439.918462
987.731549	2424.795000
988.027975	2505.453462
988.324366	2462.603654
988.620719	2490.330000
988.917037	2525.618077
989.213318	2538.220962
989.509563	2467.644808
989.805772	2510.494615
990.101944	2439.918462
990.398080	2472.685962
990.694180	2472.685962
990.990244	2457.562500
991.286271	2480.247692
991.582262	2460.083077
991.878217	2495.371154
992.174136	2576.029615
992.470019	2402.109808
992.765865	2530.659231
993.061676	2450.000769
993.357450	2543.262115
993.653188	2487.809423
993.948890	2495.371154
994.244556	2475.206538
994.540186	2369.342308
994.835780	2455.041923
995.131337	2482.768269
995.426859	2427.315577
995.722345	2523.097500
996.017795	2510.494615
996.313208	2492.850577
996.608586	2480.247692
996.903928	2412.192115
997.199234	2525.618077
997.494504	2560.906154
997.789738	2414.712692
998.084936	2515.535769
998.380099	2444.959615
998.675225	2442.439038
998.970316	2525.618077
999.265371	2442.439038
999.560390	2623.920577
999.855373	2538.220962
1000.150320	2510.494615
1000.445232	2553.344423
1000.740108	2510.494615
1001.034948	2490.330000
1001.329752	2437.397885
1001.624521	2550.823846
1001.919254	2470.165385
1002.213951	2540.741538
1002.508613	2424.795000
1002.803239	2402.109808
1003.097829	2485.288846
1003.392384	2525.618077
1003.686903	2510.494615
1003.981386	2538.220962
1004.275834	2560.906154
1004.570246	2518.056346
1004.864623	2462.603654
1005.158964	2500.412308
1005.453270	2538.220962
1005.747540	2520.576923
1006.041775	2528.138654
1006.335974	2455.041923
1006.630138	2394.548077
1006.924266	2427.315577
1007.218359	2460.083077
1007.512416	2538.220962
1007.806438	2482.768269
1008.100425	2457.562500
1008.394376	2477.727115
1008.688292	2540.741538
1008.982172	2462.603654
1009.276017	2455.041923
1009.569827	2492.850577
1009.863602	2497.891731
1010.157341	2525.618077
1010.451045	2495.371154
1010.744714	2533.179808
1011.038347	2490.330000
1011.331945	2422.274423
1011.625508	2528.138654
1011.919036	2467.644808
1012.212528	2525.618077
1012.505986	2470.165385
1012.799408	2505.453462
1013.092795	2492.850577
1013.386147	2457.562500
1013.679464	2543.262115
1013.972745	2545.782692
1014.265992	2472.685962
1014.559204	2490.330000
1014.852380	2477.727115
1015.145521	2455.041923
1015.438628	2412.192115
1015.731699	2525.618077
1016.024736	2424.795000
1016.317737	2543.262115
1016.610703	2437.397885
1016.903635	2490.330000
1017.196531	2462.603654
1017.489393	2482.768269
1017.782219	2540.741538
1018.075011	2482.768269
1018.367768	2550.823846
1018.660490	2419.753846
1018.953177	2419.753846
1019.245829	2419.753846
