Dividing Wavelength (nm)	Counts (n)	Blue Motor Position (mm): 3.000000	Red Motor Position (mm): 0.000000	
326.493990	2064.896945
326.888308	2064.896945
327.282561	2064.896945
327.676750	2040.989273
328.070874	2041.319468
328.464933	2046.433719
328.858929	2054.678526
329.252859	2067.125135
329.646726	2078.165262
330.040528	2097.551019
330.434265	2114.776641
330.827938	2135.664662
331.221547	2156.487148
331.615091	2173.838800
332.008571	2196.108097
332.401986	2218.594164
332.795338	2237.495970
333.188625	2256.362488
333.581847	2274.455189
333.975006	2292.626028
334.368100	2312.813329
334.761129	2327.657007
335.154095	2340.953050
335.546996	2357.167921
335.939833	2371.021012
336.332606	2383.550800
336.725315	2394.316184
337.117960	2406.435118
337.510540	2417.064391
337.903056	2424.018662
338.295508	2432.248346
338.687896	2440.843513
339.080220	2443.011209
339.472480	2448.241407
339.864676	2453.015379
340.256807	2455.011676
340.648875	2455.440174
341.040879	2456.902109
341.432818	2456.874383
341.824694	2462.207923
342.216506	2459.437809
342.608253	2460.803962
342.999937	2458.565690
343.391557	2455.407407
343.783113	2456.183744
344.174605	2454.126954
344.566033	2451.699638
344.957397	2455.046964
345.348697	2454.305915
345.739934	2446.945830
346.131106	2447.868361
346.522215	2441.914758
346.913260	2442.038267
347.304241	2440.508277
347.695159	2439.648760
348.086012	2437.052566
348.476802	2437.037442
348.867528	2434.552153
349.258191	2430.733479
349.648789	2432.487801
350.039324	2429.470670
350.429796	2430.453695
350.820203	2431.126689
351.210548	2429.531164
351.600828	2430.231884
351.991045	2429.526123
352.381198	2429.324477
352.771288	2427.650814
353.161314	2428.790114
353.551276	2428.951431
353.941175	2429.198448
354.331010	2430.274734
354.720782	2429.851277
355.110490	2429.901689
355.500135	2430.463778
355.889717	2431.020825
356.279235	2429.183324
356.668689	2431.459405
357.058080	2430.650300
357.447408	2429.770619
357.836672	2428.850608
358.225873	2430.312543
358.615010	2432.543253
359.004084	2431.693819
359.393095	2433.753130
359.782043	2432.830599
360.170927	2433.375044
360.559748	2433.871597
360.948505	2434.242122
361.337199	2436.067020
361.725830	2434.292534
362.114398	2435.885538
362.502903	2437.786053
362.891344	2433.846392
363.279722	2438.655652
363.668037	2436.477874
364.056289	2437.339911
364.444478	2438.471650
364.832603	2438.524582
365.220665	2437.909562
365.608665	2439.220262
365.996601	2440.777978
366.384474	2439.260591
366.772284	2440.291507
367.160031	2440.684717
367.547715	2443.608586
367.935336	2440.964501
368.322893	2438.874943
368.710388	2436.407298
369.097820	2441.342587
369.485189	2436.374530
369.872495	2443.240582
370.259738	2443.757300
370.646918	2443.381734
371.034035	2444.541200
371.421090	2443.762341
371.808081	2441.004830
372.195010	2445.183947
372.581875	2440.543565
372.968678	2444.891560
373.355418	2442.318051
373.742096	2445.544389
374.128710	2443.626230
374.515262	2445.902311
374.901751	2444.999945
375.288177	2447.860799
375.674540	2447.381890
376.060841	2447.316355
376.447079	2444.064811
376.833254	2446.915583
377.219367	2446.242589
377.605417	2450.595625
377.991404	2447.878443
378.377329	2449.126129
378.763191	2448.261571
379.148991	2449.168979
379.534727	2445.156220
379.920402	2448.916921
380.306013	2447.331478
380.691563	2450.653599
381.077049	2450.129319
381.462474	2452.249124
381.847835	2447.704524
382.233134	2450.676284
382.618371	2450.025975
383.003545	2448.569082
383.388657	2447.918773
383.773706	2453.111161
384.158693	2451.923969
384.543618	2451.631582
384.928480	2451.382045
385.313280	2450.885492
385.698017	2451.326593
386.082692	2452.619649
386.467305	2452.894392
386.851856	2451.654268
387.236344	2453.741305
387.620770	2451.185440
388.005133	2446.832404
388.389435	2450.736778
388.773674	2448.248968
389.157851	2455.775411
389.541965	2454.252982
389.926018	2457.408745
390.310008	2451.881120
390.693936	2457.973354
391.077802	2454.754577
391.461606	2457.176852
391.845348	2451.618980
392.229027	2455.273816
392.612645	2456.818930
392.996200	2452.508743
393.379694	2454.895730
393.763125	2457.325566
394.146494	2456.581996
394.529801	2455.926646
394.913047	2456.445884
395.296230	2458.404373
395.679351	2456.919753
396.062410	2459.452933
396.445408	2454.484876
396.828343	2458.348920
397.211217	2458.835391
397.594028	2457.260031
397.976778	2456.637448
398.359466	2458.006122
398.742092	2459.057202
399.124656	2457.068467
399.507158	2457.479321
399.889598	2460.377984
400.271977	2458.245576
400.654294	2457.829681
401.036549	2460.224229
401.418742	2460.206585
401.800874	2457.673405
402.182944	2459.158025
402.564952	2459.800772
402.946898	2461.955866
403.328783	2461.426544
403.710606	2460.246914
404.092367	2459.286575
404.474067	2462.943932
404.855705	2459.284054
405.237282	2462.696915
405.618797	2461.350927
406.000250	2462.253294
406.381642	2461.003087
406.762972	2460.478808
407.144240	2457.922943
407.525447	2460.191462
407.906593	2456.471090
408.287677	2463.415280
408.668700	2460.125927
409.049661	2461.865125
409.430560	2462.137347
409.811399	2463.485856
410.192176	2462.321349
410.572891	2462.686833
410.953545	2462.611216
411.334138	2460.443519
411.714669	2461.998715
412.095139	2463.634570
412.475547	2461.623149
412.855894	2466.813017
413.236180	2462.679271
413.616405	2467.899386
413.996568	2464.388222
414.376670	2464.892338
414.756711	2467.347380
415.136691	2462.028962
415.516609	2466.828141
415.896466	2464.196658
416.276262	2464.746144
416.655997	2464.214303
417.035670	2465.562811
417.415283	2468.285034
417.794834	2466.119859
418.174324	2466.750003
418.553753	2465.151957
418.933121	2465.260342
419.312428	2466.457616
419.691674	2467.163377
420.070859	2468.857205
420.449983	2466.535754
420.829045	2465.078860
421.208047	2466.172791
421.586988	2464.244549
421.965867	2467.266721
422.344686	2466.510548
422.723444	2467.982565
423.102141	2466.901238
423.480777	2465.043572
423.859352	2469.252936
424.237866	2466.581124
424.616319	2471.097998
424.994712	2471.075313
425.373044	2466.964252
425.751314	2466.167750
426.129524	2468.194293
426.507673	2465.615743
426.885762	2464.073150
427.263789	2470.067082
427.641756	2469.142030
428.019662	2467.024746
428.397508	2470.888790
428.775292	2469.825107
429.153016	2469.522638
429.530679	2472.204531
429.908282	2470.818214
430.285824	2469.237812
430.663305	2472.267546
431.040726	2473.066569
431.418086	2468.831999
431.795385	2470.518265
432.172624	2474.304172
432.549802	2471.231589
432.926920	2471.511373
433.303977	2472.648153
433.680974	2469.126907
434.057910	2469.499952
434.434786	2470.319140
434.811601	2472.335601
435.188355	2471.176136
435.565050	2472.053297
435.941683	2471.332412
436.318257	2470.581280
436.694770	2471.849130
437.071222	2474.311734
437.447614	2474.402474
437.823946	2472.474233
438.200218	2474.662094
438.576429	2469.930971
438.952580	2472.426342
439.328670	2472.872484
439.704700	2473.167392
440.080670	2472.842237
440.456580	2473.747124
440.832429	2471.733183
441.208218	2473.048925
441.583947	2472.325519
441.959616	2473.595890
442.335224	2473.038842
442.710773	2473.684110
443.086261	2472.406178
443.461689	2473.742083
443.837057	2475.090592
444.212365	2473.003554
444.587612	2472.338122
444.962800	2469.068934
445.337927	2470.286372
445.712995	2469.530199
446.088002	2471.082875
446.462949	2476.948257
446.837837	2474.868781
447.212664	2477.336426
447.587431	2472.459110
447.962139	2475.357773
448.336786	2474.543627
448.711374	2475.662763
449.085901	2476.847434
449.460369	2473.981538
449.834776	2475.554378
450.209124	2472.340643
450.583412	2475.786271
450.957640	2471.226547
451.331808	2478.493371
451.705917	2477.598566
452.079965	2477.293576
452.453954	2477.724595
452.827883	2476.338277
453.201752	2476.892804
453.575562	2477.011272
453.949311	2473.648822
454.323001	2474.558750
454.696632	2476.918010
455.070202	2473.517752
455.443713	2474.513380
455.817164	2475.471199
456.190556	2475.322485
456.563888	2480.484627
456.937160	2476.529841
457.310373	2475.138483
457.683526	2475.274594
458.056619	2475.577063
458.429653	2474.868781
458.802628	2477.137300
459.175542	2475.541775
459.548398	2477.810294
459.921194	2478.611838
460.293930	2479.337764
460.666607	2479.559575
461.039224	2475.362814
461.411782	2479.206694
461.784280	2476.998669
462.156719	2478.959678
462.529099	2478.347177
462.901419	2477.613689
463.273680	2475.922382
463.645882	2475.130921
464.018024	2473.225365
464.390106	2474.919193
464.762130	2477.880871
465.134094	2478.120325
465.505999	2480.910604
465.877845	2477.190233
466.249631	2477.747280
466.621358	2478.062352
466.993026	2477.588484
467.364634	2479.229379
467.736184	2481.344143
468.107674	2477.482619
468.479105	2479.098309
468.850477	2478.321972
469.221790	2479.262147
469.593043	2477.006230
469.964238	2479.431025
470.335373	2479.055459
470.706449	2478.415233
471.077467	2480.802219
471.448425	2478.984883
471.819324	2477.863227
472.190164	2481.056798
472.560945	2482.057467
472.931667	2481.636530
473.302330	2476.557568
473.672934	2478.279122
474.043479	2479.375573
474.413965	2478.261478
474.784393	2481.649133
475.154761	2479.491519
475.525070	2479.289873
475.895321	2480.610655
476.265513	2478.720223
476.635645	2481.765080
477.005719	2479.857003
477.375734	2478.518577
477.745691	2479.093268
478.115588	2479.194091
478.485427	2479.879688
478.855207	2478.979842
479.224928	2479.829277
479.594591	2481.704586
479.964194	2478.495891
480.333739	2479.221817
480.703226	2481.722230
481.072653	2478.193422
481.442022	2480.497229
481.811333	2479.206694
482.180584	2477.326344
482.549777	2479.113433
482.918912	2473.732001
483.287988	2480.963536
483.657005	2481.079483
484.025964	2482.440594
484.394864	2477.475058
484.763706	2484.164669
485.132489	2479.282311
485.501213	2478.992445
485.869879	2480.469503
486.238487	2482.453197
486.607036	2480.595532
486.975527	2483.058136
487.343959	2481.462610
487.712333	2484.875472
488.080648	2482.163331
488.448905	2481.681901
488.817104	2478.511015
489.185244	2480.988742
489.553326	2482.566623
489.921350	2481.593680
490.289315	2481.946561
490.657222	2485.417396
491.025070	2481.704586
491.392861	2483.022848
491.760593	2481.255923
492.128267	2484.409165
492.495883	2482.546458
492.863440	2481.936479
493.230939	2481.152579
493.598380	2483.695842
493.965763	2483.166520
494.333088	2483.070738
494.700354	2478.816005
495.067563	2481.525625
495.434713	2478.994966
495.801805	2482.914463
496.168839	2480.280460
496.535815	2482.170892
496.902733	2481.545789
497.269593	2482.163331
497.636395	2484.772128
498.003139	2486.133239
498.369825	2481.497898
498.736453	2482.226345
499.103023	2480.313227
499.469535	2482.821201
499.835989	2482.775831
500.202385	2480.512353
500.568723	2480.789616
500.935003	2481.034112
501.301226	2479.914976
501.667390	2481.906232
502.033497	2483.574854
502.399546	2481.974287
502.765537	2482.198619
503.131470	2483.053094
503.497345	2482.659884
503.863163	2483.141315
504.228923	2483.685759
504.594625	2484.220122
504.960269	2480.547641
505.325856	2483.133753
505.691385	2483.030409
506.056856	2484.346150
506.422270	2482.904380
506.787625	2484.078969
507.152924	2485.971922
507.518164	2484.666264
507.883347	2483.166520
508.248472	2483.058136
508.613540	2485.006542
508.978550	2480.628299
509.343503	2484.454535
509.708398	2484.318424
510.073236	2484.194916
510.438016	2484.757004
510.802738	2484.467138
511.167403	2485.588795
511.532010	2481.669298
511.896561	2484.104175
512.261053	2482.422950
512.625488	2484.086531
512.989866	2484.126860
513.354186	2487.892602
513.718449	2484.023517
514.082655	2484.842704
514.446803	2482.836325
514.810894	2484.452015
515.174927	2485.805564
515.538904	2484.343630
515.902822	2484.709113
516.266684	2485.132570
516.630488	2487.267499
516.994235	2484.797334
517.357925	2485.999649
517.721558	2487.136429
518.085133	2482.493526
518.448651	2482.843887
518.812112	2478.707620
519.175516	2484.656181
519.538863	2475.501446
519.902152	2485.944196
520.265385	2485.198105
520.628560	2483.980667
520.991678	2484.958651
521.354739	2485.424957
521.717743	2483.365646
522.080690	2487.461583
522.443580	2483.277426
522.806413	2487.012921
523.169189	2483.806747
523.531908	2487.103662
523.894569	2481.250882
524.257174	2484.968733
524.619722	2483.973105
524.982213	2486.728096
525.344647	2483.126191
525.707025	2484.119298
526.069345	2482.501088
526.431608	2484.320945
526.793815	2486.755822
527.155964	2484.814978
527.518057	2486.470997
527.880093	2484.414206
528.242072	2484.893116
528.603995	2483.811788
528.965860	2485.855976
529.327669	2484.421768
529.689421	2486.125678
530.051117	2484.530152
530.412755	2488.137098
530.774337	2486.017293
531.135862	2482.909422
531.497331	2486.377735
531.858743	2486.619711
532.220098	2485.447643
532.581396	2485.722385
532.942638	2486.405462
533.303824	2486.511326
533.664953	2487.295225
534.026025	2485.563589
534.387040	2484.008393
534.747999	2486.085348
535.108902	2487.648106
535.469748	2483.446304
535.830537	2487.176758
536.191270	2484.757004
536.551947	2484.494864
536.912567	2482.586788
537.273131	2483.920173
537.633638	2481.916314
537.994089	2486.523929
538.354483	2485.903867
538.714821	2483.022847
539.075103	2484.983856
539.435328	2486.135760
539.795497	2485.019144
540.155609	2485.306490
540.515665	2486.634834
540.875665	2488.623569
541.235609	2485.898826
541.595496	2485.414875
541.955328	2483.549648
542.315102	2485.064515
542.674821	2484.638537
543.034483	2485.608959
543.394090	2484.323465
543.753640	2487.872438
544.113134	2484.373877
544.472571	2485.127529
544.831953	2484.111737
545.191278	2486.654999
545.550548	2483.763897
545.909761	2483.630307
546.268918	2484.313383
546.628019	2485.467807
546.987064	2487.333034
547.346053	2485.429998
547.704986	2485.041830
548.063863	2485.490492
548.422684	2484.658702
548.781449	2484.734319
549.140158	2484.842704
549.498811	2488.011069
549.857408	2485.437560
550.215949	2486.607108
550.574434	2485.918990
550.932864	2487.338075
551.291237	2489.064670
551.649555	2486.385297
552.007817	2484.255410
552.366022	2486.718013
552.724173	2486.196254
553.082267	2485.104844
553.440305	2487.146511
553.798288	2487.106182
554.156215	2484.691469
554.514086	2484.220122
554.871902	2481.359267
555.229661	2483.123671
555.587365	2482.342292
555.945014	2485.513177
556.302606	2484.769607
556.660143	2485.787920
557.017625	2485.422437
557.375050	2483.831953
557.732421	2485.251037
558.089735	2484.462097
558.446994	2484.396562
558.804197	2484.371356
559.161345	2484.837663
559.518437	2486.516367
559.875474	2484.651140
560.232455	2487.035606
560.589381	2487.257417
560.946251	2489.283961
561.303065	2485.641727
561.659825	2485.493013
562.016528	2486.075266
562.373177	2487.509474
562.729770	2485.505616
563.086307	2487.683394
563.442789	2484.449494
563.799216	2486.503764
564.155587	2486.153404
564.511904	2486.929742
564.868164	2484.225163
565.224370	2485.198105
565.580520	2484.439412
565.936615	2487.423775
566.292654	2486.337406
566.648638	2486.803713
567.004567	2488.774804
567.360441	2485.684577
567.716260	2485.866058
568.072023	2487.804382
568.427732	2486.534011
568.783385	2488.303456
569.138982	2488.437047
569.494525	2485.818167
569.850013	2485.034268
570.205445	2490.357726
570.560823	2487.040647
570.916145	2488.026193
571.271412	2484.169710
571.626625	2490.592140
571.981782	2484.837663
572.336884	2487.305308
572.691931	2483.257261
573.046923	2483.577374
573.401860	2482.233907
573.756743	2487.549804
574.111570	2485.203147
574.466342	2489.709938
574.821059	2486.367653
575.175722	2488.517705
575.530330	2486.155925
575.884882	2487.181799
576.239380	2485.498054
576.593823	2489.848570
576.948211	2486.173569
577.302544	2487.753970
577.656823	2485.790441
578.011047	2487.879999
578.365216	2487.055771
578.719330	2485.271202
579.073389	2486.894454
579.427394	2487.988384
579.781344	2486.652478
580.135239	2488.167345
580.489080	2485.677015
580.842866	2486.075266
581.196597	2486.140801
581.550273	2484.837663
581.903895	2485.629124
582.257463	2486.085348
582.610975	2485.598877
582.964434	2488.033754
583.317837	2485.934114
583.671186	2486.460914
584.024481	2486.458394
584.377721	2485.311531
584.730906	2486.080307
585.084037	2485.261120
585.437113	2486.957468
585.790135	2487.333034
586.143103	2486.934783
586.496016	2488.227839
586.848874	2487.151552
587.201679	2487.184320
587.554428	2485.490492
587.907124	2485.382108
588.259765	2485.810606
588.612352	2486.652478
588.964884	2487.280102
589.317362	2486.223980
589.669786	2490.221615
590.022155	2484.159628
590.374470	2487.355719
590.726731	2485.268682
591.078937	2483.221973
591.431090	2485.132570
591.783188	2486.768425
592.135232	2486.415544
592.487222	2488.774804
592.839157	2487.716162
593.191038	2486.360091
593.542866	2486.183651
593.894639	2486.231542
594.246358	2486.725575
594.598022	2485.979484
594.949633	2486.375215
595.301190	2485.868579
595.652692	2487.779176
596.004141	2486.571820
596.355535	2487.600215
596.706876	2487.333034
597.058162	2486.720534
597.409395	2487.774135
597.760573	2486.397900
598.111698	2488.779845
598.462768	2488.714310
598.813785	2486.972592
599.164748	2486.367653
599.515657	2488.033754
599.866511	2486.521408
600.217312	2486.339927
600.568060	2483.675677
600.918753	2491.807058
601.269392	2486.322283
601.619978	2486.753301
601.970510	2485.452684
602.320988	2485.835811
602.671412	2486.783548
603.021783	2486.644917
603.372100	2486.821357
603.722363	2485.223311
604.072572	2486.551655
604.422728	2487.917808
604.772830	2488.119454
605.122878	2485.639206
605.472872	2484.963692
605.822813	2482.584267
606.172701	2486.970071
606.522534	2484.250368
606.872314	2486.889413
607.222041	2486.433188
607.571714	2487.635503
607.921333	2480.935810
608.270899	2484.973774
608.620411	2481.444966
608.969870	2489.571306
609.319276	2486.178610
609.668627	2487.796820
610.017926	2486.450832
610.367171	2486.528970
610.716362	2487.388487
611.065500	2487.897643
611.414585	2486.723054
611.763616	2489.198261
612.112594	2485.155256
612.461518	2484.731799
612.810389	2487.204485
613.159207	2487.149032
613.507971	2486.407982
613.856682	2486.110554
614.205340	2486.062663
614.553945	2485.490492
614.902496	2486.859166
615.250994	2486.980153
615.599439	2486.065184
615.947830	2487.665750
616.296169	2486.791110
616.644454	2486.866727
616.992686	2490.435864
617.340864	2488.454691
617.688990	2486.307159
618.037063	2487.368322
618.385082	2486.387818
618.733048	2489.614156
619.080961	2483.970584
619.428821	2488.091728
619.776628	2485.404793
620.124382	2485.949237
620.472083	2486.884371
620.819731	2487.282622
621.167326	2488.184989
621.514868	2485.656850
621.862357	2485.548466
622.209793	2486.226501
622.557176	2486.077787
622.904506	2486.599546
623.251783	2486.246665
623.599007	2485.878661
623.946179	2484.797334
624.293297	2486.508805
624.640363	2484.283136
624.987376	2484.825060
625.334336	2483.842035
625.681243	2483.411016
626.028097	2481.608804
626.374899	2485.994608
626.721647	2486.342447
627.068343	2485.646768
627.414987	2486.468476
627.761577	2487.227170
628.108115	2485.614001
628.454600	2484.444453
628.801032	2485.840853
629.147412	2485.558548
629.493739	2485.228352
629.840014	2487.615339
630.186236	2485.624083
630.532405	2485.205667
630.878521	2487.597695
631.224585	2485.084679
631.570597	2487.771614
631.916556	2485.253558
632.262462	2483.315234
632.608316	2485.417396
632.954117	2487.905205
633.299866	2485.243476
633.645562	2484.310862
633.991206	2487.234732
634.336797	2485.467807
634.682336	2485.520739
635.027823	2488.731954
635.373257	2484.691469
635.718639	2484.494864
636.063968	2487.222129
636.409245	2486.574340
636.754470	2485.727427
637.099642	2485.427478
637.444762	2486.105513
637.789829	2488.671460
638.134845	2486.113075
638.479808	2488.648775
638.824719	2485.460245
639.169577	2489.795638
639.514383	2487.602736
639.859137	2487.370843
640.203839	2486.050060
640.548489	2483.363125
640.893086	2485.644247
641.237632	2485.855976
641.582125	2486.947386
641.926566	2485.916470
642.270955	2482.067549
642.615292	2482.339771
642.959576	2486.826398
643.303809	2481.646613
643.647990	2486.692807
643.992118	2486.249186
644.336195	2487.383446
644.680219	2488.958806
645.024192	2487.622900
645.368112	2484.789772
645.711981	2486.075266
646.055797	2487.539721
646.399562	2487.446460
646.743274	2484.802375
647.086935	2486.057622
647.430544	2485.515698
647.774101	2486.654999
648.117606	2483.363125
648.461059	2488.164824
648.804460	2485.855976
649.147810	2487.844711
649.491108	2485.293887
649.834354	2485.881182
650.177548	2487.385966
650.520690	2483.814309
650.863781	2482.387662
651.206820	2485.074597
651.549807	2485.548466
651.892742	2487.229690
652.235626	2483.385811
652.578458	2486.173569
652.921238	2485.815647
653.263967	2487.456542
653.606644	2488.008549
653.949269	2483.877323
654.291843	2483.748774
654.634365	2483.826912
654.976836	2483.605101
655.319255	2485.941676
655.661622	2485.614001
656.003938	2486.566779
656.346203	2485.719865
656.688416	2483.756335
657.030577	2489.455360
657.372687	2486.327324
657.714746	2487.436378
658.056753	2483.481592
658.398708	2484.855307
658.740612	2485.926552
659.082465	2486.029896
659.424266	2487.055771
659.766016	2481.558392
660.107715	2483.398413
660.449362	2477.311220
660.790958	2484.757004
661.132503	2485.954278
661.473996	2486.324803
661.815438	2487.922849
662.156829	2486.279433
662.498168	2488.142139
662.839456	2485.803044
663.180693	2485.397231
663.521879	2485.155256
663.863013	2483.796665
664.204097	2488.008549
664.545129	2485.576192
664.886110	2484.827581
665.227040	2487.582571
665.567918	2488.953765
665.908746	2484.946048
666.249522	2486.970071
666.590248	2485.054433
666.930922	2488.386635
667.271545	2485.598877
667.612118	2483.242138
667.952639	2484.573002
668.293109	2483.678197
668.633528	2486.281953
668.973896	2485.621562
669.314213	2486.443270
669.654480	2487.403610
669.994695	2486.959989
670.334859	2485.331696
670.674973	2486.826398
671.015035	2485.956799
671.355047	2486.024855
671.695008	2483.952940
672.034918	2486.607108
672.374777	2484.429329
672.714585	2483.748774
673.054342	2487.073415
673.394049	2487.217088
673.733705	2486.496202
674.073310	2485.377066
674.412864	2485.810606
674.752368	2483.620224
675.091820	2485.377066
675.431223	2486.390338
675.770574	2486.039978
676.109875	2484.915801
676.449125	2483.710965
676.788324	2479.418423
677.127473	2483.839514
677.466571	2480.098978
677.805619	2483.370687
678.144616	2484.696511
678.483562	2485.792962
678.822458	2488.089207
679.161303	2485.344299
679.500098	2488.837818
679.838842	2484.479741
680.177535	2486.521408
680.516179	2485.835811
680.854771	2488.434526
681.193314	2485.404793
681.531805	2485.805564
681.870247	2487.335555
682.208638	2484.232724
682.546978	2485.288846
682.885268	2483.655512
683.223508	2486.907057
683.561697	2486.355050
683.899836	2486.990236
684.237925	2484.489823
684.575963	2486.229021
684.913951	2487.217088
685.251889	2486.332365
685.589776	2484.693990
685.927614	2483.894967
686.265401	2485.077118
686.603137	2486.092910
686.940824	2485.671974
687.278460	2486.498723
687.616046	2485.881182
687.953582	2486.682725
688.291068	2485.039309
688.628504	2485.664412
688.965889	2487.194402
689.303224	2485.606439
689.640510	2484.983856
689.977745	2487.227170
690.314930	2483.640389
690.652065	2487.035606
690.989150	2485.387149
691.326185	2485.593836
691.663170	2485.911429
692.000105	2486.685246
692.336990	2484.875472
692.673825	2484.484782
693.010610	2488.326141
693.347345	2485.374546
693.684030	2481.840697
694.020665	2484.257930
694.357251	2477.114615
694.693786	2484.925883
695.030272	2487.174238
695.366707	2485.669453
695.703093	2484.283136
696.039429	2487.451501
696.375716	2483.169041
696.711952	2485.588795
697.048139	2484.084010
697.384276	2486.889412
697.720363	2484.688949
698.056400	2487.476707
698.392388	2485.495533
698.728326	2484.762046
699.064214	2484.946048
699.400053	2486.970071
699.735842	2485.094762
700.071581	2484.159628
700.407270	2486.072746
700.742910	2484.028558
701.078501	2486.032416
701.414042	2485.646768
701.749533	2484.227683
702.084974	2484.124340
702.420366	2481.152579
702.755709	2483.307673
703.091002	2484.751963
703.426246	2485.702221
703.761440	2484.507467
704.096584	2484.593167
704.431679	2482.163331
704.766725	2485.248517
705.101721	2483.058136
705.436668	2483.761377
705.771565	2485.543424
706.106413	2484.469659
706.441212	2485.072077
706.775961	2484.071408
707.110661	2482.611993
707.445311	2484.850266
707.779913	2487.038127
708.114465	2483.229535
708.448967	2484.020996
708.783421	2483.058136
709.117825	2483.290029
709.452180	2483.219453
709.786485	2482.397744
710.120742	2483.305152
710.454949	2480.940851
710.789107	2482.785913
711.123216	2479.063021
711.457275	2483.279946
711.791286	2484.457056
712.125247	2483.630307
712.459159	2483.380769
712.793023	2486.261789
713.126837	2485.805564
713.460602	2485.152735
713.794318	2484.139463
714.127985	2486.433188
714.461602	2484.746922
714.795171	2483.806747
715.128691	2485.291367
715.462162	2485.245996
715.795584	2483.763897
716.128957	2487.091059
716.462281	2485.399752
716.795556	2485.692138
717.128782	2482.793475
717.461960	2486.125678
717.795088	2483.544607
718.128167	2484.391521
718.461198	2485.175420
718.794180	2482.657364
719.127113	2484.620893
719.459997	2483.761377
719.792833	2482.390183
720.125619	2484.512508
720.458357	2484.706593
720.791046	2481.969246
721.123686	2483.600060
721.456278	2486.496202
721.788821	2482.816160
722.121315	2485.152735
722.453761	2486.607108
722.786158	2486.332365
723.118506	2486.249186
723.450805	2483.549648
723.783056	2481.697024
724.115259	2486.193733
724.447412	2484.162148
724.779518	2482.788434
725.111574	2482.732981
725.443582	2484.078969
725.775542	2486.062663
726.107453	2486.211377
726.439315	2484.641058
726.771129	2489.712459
727.102895	2481.618886
727.434612	2482.811119
727.766281	2478.929431
728.097901	2485.558548
728.429473	2482.899339
728.760996	2482.556541
729.092471	2481.482775
729.423897	2484.789772
729.755276	2483.801706
730.086606	2481.676859
730.417887	2482.564103
730.749120	2482.886736
731.080305	2486.591984
731.411442	2481.482775
731.742530	2487.030565
732.073570	2482.453197
732.404562	2484.822539
732.735506	2485.886223
733.066401	2481.369349
733.397249	2484.870430
733.728048	2481.823053
734.058798	2483.892447
734.389501	2483.615183
734.720156	2485.520739
735.050762	2484.063846
735.381320	2482.680049
735.711831	2483.516881
736.042293	2483.819350
736.372707	2483.789103
736.703073	2485.435040
737.033391	2484.522591
737.363661	2482.937148
737.693883	2485.069556
738.024056	2484.217601
738.354182	2484.497385
738.684260	2481.329020
739.014290	2481.336582
739.344272	2481.921355
739.674207	2483.395893
740.004093	2483.963023
740.333931	2482.864051
740.663722	2484.000831
740.993464	2483.998311
741.323159	2486.435709
741.652806	2483.443784
741.982405	2482.059987
742.311956	2483.307673
742.641460	2484.807416
742.970915	2482.730461
743.300323	2481.596201
743.629683	2480.403968
743.958996	2482.362456
744.288260	2479.882209
744.617477	2482.269195
744.946647	2482.241469
745.275768	2483.153917
745.604842	2481.495378
745.933869	2484.260451
746.262847	2484.439412
746.591778	2483.438743
746.920662	2482.299442
747.249498	2483.237097
747.578286	2481.150059
747.907027	2482.309524
748.235720	2481.018989
748.564365	2482.725419
748.892963	2480.774493
749.221514	2483.955461
749.550017	2482.165851
749.878473	2485.987046
750.206881	2483.080821
750.535242	2484.751963
750.863555	2484.872951
751.191821	2481.316417
751.520039	2487.557365
751.848210	2483.554689
752.176334	2482.627117
752.504411	2485.717344
752.832440	2482.493526
753.160421	2484.036119
753.488356	2482.904380
753.816243	2482.785913
754.144082	2484.446973
754.471875	2482.659884
754.799620	2481.739874
755.127318	2484.532673
755.454969	2483.211891
755.782572	2484.489823
756.110129	2484.192395
756.437638	2482.463279
756.765100	2481.739874
757.092515	2483.000162
757.419882	2483.284988
757.747203	2483.448825
758.074477	2480.867754
758.401703	2484.457056
758.728882	2482.100316
759.056014	2484.096613
759.383099	2481.190388
759.710138	2480.167034
760.037129	2478.274081
760.364073	2479.972949
760.690970	2477.510346
761.017820	2484.633496
761.344623	2483.360605
761.671379	2486.022334
761.998088	2481.006386
762.324751	2486.539052
762.651366	2483.441263
762.977935	2482.377580
763.304456	2483.738691
763.630931	2484.696511
763.957359	2481.570995
764.283740	2484.141984
764.610074	2485.949237
764.936362	2483.524442
765.262602	2484.391521
765.588796	2485.366984
765.914943	2483.204329
766.241044	2483.859679
766.567097	2479.718371
766.893104	2482.846407
767.219064	2481.986890
767.544978	2481.404637
767.870845	2484.608290
768.196665	2481.298773
768.522438	2483.968064
768.848165	2482.266674
769.173846	2485.926552
769.499479	2480.900522
769.825066	2484.673825
770.150607	2483.151397
770.476101	2483.451346
770.801548	2483.433702
771.126949	2481.412199
771.452303	2483.332878
771.777611	2481.707106
772.102872	2484.046202
772.428087	2482.110399
772.753256	2481.530666
773.078378	2481.757518
773.403453	2481.061839
773.728482	2484.540235
774.053465	2479.506643
774.378401	2485.049391
774.703291	2482.433033
775.028135	2483.078300
775.352932	2483.562251
775.677683	2483.461428
776.002388	2478.994966
776.327046	2476.653350
776.651658	2481.258444
776.976224	2478.233751
777.300743	2482.690131
777.625216	2481.366828
777.949643	2480.892960
778.274024	2482.420430
778.598359	2484.968733
778.922647	2479.685604
779.246889	2482.528814
779.571086	2481.424802
779.895236	2482.440594
780.219339	2484.588126
780.543397	2482.838845
780.867409	2479.496560
781.191374	2482.816160
781.515294	2481.719709
781.839167	2485.530822
782.162995	2484.152066
782.486776	2484.255410
782.810511	2482.707775
783.134201	2484.472179
783.457844	2481.354226
783.781441	2482.168372
784.104993	2482.949751
784.428498	2480.875316
784.751958	2481.001345
785.075372	2482.150728
785.398739	2481.364308
785.722061	2479.720892
786.045337	2482.473362
786.368568	2481.036633
786.691752	2483.060656
787.014891	2485.029227
787.337983	2482.312045
787.661030	2480.845069
787.984031	2482.465800
788.306987	2483.224494
788.629897	2482.491006
788.952760	2482.551500
789.275579	2483.287508
789.598351	2481.513022
789.921078	2483.196767
790.243759	2483.360605
790.566395	2482.579226
790.888984	2483.116109
791.211529	2482.238948
791.534027	2484.179792
791.856480	2481.691983
792.178888	2478.899184
792.501249	2480.892960
792.823566	2479.909935
793.145836	2481.785244
793.468062	2479.315079
793.790241	2480.441777
794.112375	2480.595532
794.434464	2485.026706
794.756507	2482.120481
795.078505	2482.795996
795.400457	2482.622076
795.722364	2481.434884
796.044226	2481.754997
796.366042	2481.797847
796.687812	2484.850266
797.009538	2481.341623
797.331218	2481.974287
797.652852	2481.480254
797.974442	2483.201808
798.295986	2480.446818
798.617484	2480.905563
798.938938	2481.812971
799.260346	2481.364308
799.581709	2481.210553
799.903026	2484.852786
800.224299	2481.903711
800.545526	2479.395737
800.866708	2479.761221
801.187845	2482.309524
801.508936	2483.216932
801.829983	2482.027220
802.150984	2478.974801
802.471940	2484.638537
802.792851	2480.121663
803.113717	2482.266674
803.434538	2483.209370
803.755314	2485.745071
804.076045	2480.076293
804.396731	2479.415902
804.717372	2481.061839
805.037967	2481.306335
805.358518	2480.887919
805.679024	2483.005203
805.999485	2481.515542
806.319901	2481.911273
806.640272	2482.085193
806.960598	2481.679380
807.280879	2482.546458
807.601115	2482.037302
807.921306	2484.915801
808.241453	2480.270377
808.561554	2480.323310
808.881611	2479.483957
809.201623	2475.728298
809.521590	2482.823722
809.841513	2481.286170
810.161390	2480.918166
810.481223	2482.070069
810.801011	2481.576036
811.120755	2482.886736
811.440453	2483.007724
811.760107	2482.697693
812.079716	2481.684421
812.399281	2482.969915
812.718801	2485.518219
813.038276	2481.197950
813.357707	2484.245327
813.677093	2481.838176
813.996434	2483.577374
814.315731	2481.780203
814.634983	2481.581078
814.954191	2480.625779
815.273354	2479.841879
815.592473	2481.255923
815.911547	2480.366159
816.230577	2483.116109
816.549562	2483.660553
816.868502	2480.925727
817.187399	2482.286839
817.506250	2481.258444
817.825058	2480.749287
818.143821	2480.073773
818.462539	2480.882878
818.781213	2480.814822
819.099843	2482.281798
819.418429	2480.628299
819.736970	2480.225007
820.055466	2480.340954
820.373919	2481.623927
820.692327	2479.889770
821.010691	2481.457569
821.329011	2480.565285
821.647286	2483.468990
821.965517	2480.668629
822.283704	2481.722230
822.601847	2481.550831
822.919945	2482.322127
823.237999	2481.208032
823.556010	2478.473206
823.873976	2482.521253
824.191897	2478.778196
824.509775	2479.514204
824.827609	2479.209215
825.145398	2477.278453
825.463144	2482.584267
825.780845	2480.177116
826.098502	2483.327837
826.416116	2481.510501
826.733685	2482.117960
827.051210	2483.514360
827.368692	2479.529328
827.686129	2483.779021
828.003522	2482.307004
828.320872	2482.415388
828.638177	2481.331540
828.955439	2481.883547
829.272656	2481.545789
829.589830	2479.967908
829.906960	2480.792137
830.224046	2480.560244
830.541088	2481.873464
830.858086	2480.436736
831.175041	2481.220635
831.491952	2479.937661
831.808819	2480.066211
832.125642	2480.789616
832.442421	2478.170737
832.759157	2480.671149
833.075849	2479.420943
833.392497	2483.121150
833.709101	2481.729792
834.025662	2480.963536
834.342179	2484.260451
834.658653	2477.628813
834.975083	2481.913794
835.291469	2486.929742
835.607811	2478.909266
835.924110	2478.069914
836.240366	2482.564103
836.556578	2480.945892
836.872746	2479.715851
837.188871	2479.171406
837.504952	2481.049236
837.820990	2480.633341
838.136984	2480.116622
838.452935	2481.533187
838.768842	2482.569144
839.084706	2481.591160
839.400526	2481.616366
839.716303	2480.681232
840.032037	2481.419761
840.347727	2477.681745
840.663373	2480.449338
840.978977	2473.714357
841.294537	2479.284832
841.610054	2480.905563
841.925527	2481.949082
842.240957	2478.521097
842.556344	2482.974957
842.871687	2479.771303
843.186987	2482.672487
843.502244	2480.308186
843.817458	2480.799699
844.132629	2480.777013
844.447756	2481.132415
844.762840	2478.241313
845.077881	2479.857003
845.392879	2479.632672
845.707833	2481.785244
846.022745	2479.640233
846.337613	2479.005048
846.652438	2479.488999
846.967221	2482.485965
847.281960	2478.763073
847.596656	2481.018989
847.911309	2480.613176
848.225919	2481.457569
848.540485	2478.369863
848.855009	2479.146200
849.169490	2481.611324
849.483928	2479.408340
849.798323	2478.085037
850.112675	2479.307517
850.426984	2480.620738
850.741251	2482.375059
851.055474	2478.327013
851.369654	2481.016468
851.683792	2479.468834
851.997887	2482.559061
852.311938	2482.125522
852.625947	2477.520428
852.939914	2481.825573
853.253837	2479.524287
853.567718	2480.587970
853.881555	2477.230562
854.195350	2478.992445
854.509103	2477.144862
854.822812	2480.910604
855.136479	2479.957826
855.450103	2481.061839
855.763685	2479.108392
856.077224	2477.185191
856.390720	2478.679893
856.704173	2473.041363
857.017584	2479.073103
857.330953	2481.026551
857.644278	2481.316417
857.957561	2483.521922
858.270802	2480.703917
858.584000	2480.038484
858.897155	2479.806591
859.210268	2482.304483
859.523339	2482.307004
859.836367	2479.307517
860.149352	2475.967753
860.462295	2479.423464
860.775195	2477.865747
861.088054	2477.643936
861.400869	2481.744915
861.713642	2480.076293
862.026373	2480.885398
862.339062	2480.348515
862.651708	2476.544965
862.964312	2479.965388
863.276873	2483.607621
863.589392	2480.855151
863.901869	2480.678711
864.214303	2480.940851
864.526696	2479.211735
864.839045	2480.204843
865.151353	2479.511684
865.463619	2481.399596
865.775842	2482.506129
866.088023	2478.556385
866.400162	2480.368680
866.712258	2482.254072
867.024313	2479.209215
867.336325	2481.139977
867.648296	2481.371870
867.960224	2479.887250
868.272110	2479.151241
868.583954	2481.455049
868.895755	2480.726602
869.207515	2480.323310
869.519233	2480.603094
869.830909	2481.424802
870.142542	2481.550831
870.454134	2478.720223
870.765684	2480.477065
871.077191	2478.891622
871.388657	2479.567137
871.700081	2474.843575
872.011463	2480.345995
872.322803	2473.870633
872.634101	2481.344143
872.945357	2477.185191
873.256571	2479.090747
873.567744	2479.209215
873.878874	2478.420274
874.189963	2478.760552
874.501010	2479.859523
874.812015	2478.299286
875.122979	2479.252064
875.433900	2478.904225
875.744780	2478.954636
876.055618	2479.665439
876.366415	2479.773824
876.677169	2480.713999
876.987882	2480.023361
877.298554	2480.134266
877.609183	2476.597897
877.919771	2480.734164
878.230317	2479.027733
878.540822	2480.981180
878.851285	2478.848772
879.161707	2477.964050
879.472087	2481.868423
879.782425	2478.095120
880.092722	2477.205356
880.402977	2481.218114
880.713191	2480.318268
881.023363	2477.734677
881.333494	2479.400778
881.643583	2478.750470
881.953631	2479.932620
882.263637	2478.626961
882.573602	2479.925058
882.883526	2480.035964
883.193408	2478.379945
883.503248	2479.577219
883.813048	2480.318268
884.122806	2477.492702
884.432522	2480.678711
884.742197	2477.223000
885.051831	2477.946406
885.361424	2476.575212
885.670975	2475.816518
885.980485	2480.096458
886.289954	2479.012610
886.599382	2482.352374
886.908768	2477.044039
887.218113	2474.793164
887.527417	2478.866416
887.836680	2471.546661
888.145901	2480.477065
888.455082	2477.217959
888.764221	2477.570840
889.073319	2479.902373
889.382376	2477.359111
889.691392	2480.517394
890.000366	2479.521766
890.309300	2479.194091
890.618193	2478.236272
890.927044	2478.473206
891.235855	2482.256592
891.544625	2479.335243
891.853353	2479.446149
892.162041	2479.531848
892.470687	2480.298104
892.779293	2478.586632
893.087858	2477.805253
893.396381	2478.591673
893.704864	2479.872126
894.013306	2478.069914
894.321707	2480.401448
894.630068	2478.309369
894.938387	2478.833649
895.246665	2479.521766
895.554903	2479.557054
895.863100	2480.298104
896.171256	2478.579070
896.479371	2477.669142
896.787446	2477.442290
897.095480	2475.947588
897.403473	2477.306179
897.711425	2477.510346
898.019336	2480.038484
898.327207	2475.544296
898.635038	2476.950778
898.942827	2479.887250
899.250576	2481.850779
899.558284	2477.991776
899.865952	2480.356077
900.173579	2479.882209
900.481165	2481.230717
900.788711	2477.704430
901.096216	2479.098309
901.403681	2479.678042
901.711105	2479.983032
902.018489	2477.573360
902.325832	2478.198463
902.633135	2476.222331
902.940397	2477.520428
903.247619	2471.478605
903.554800	2479.156283
903.861941	2477.046560
904.169041	2478.306848
904.476101	2480.749287
904.783121	2479.327682
905.090100	2480.668629
905.397039	2478.241313
905.703938	2478.014461
906.010796	2482.657364
906.317614	2481.727271
906.624391	2478.831128
906.931129	2475.385499
907.237826	2479.388176
907.544483	2476.421457
907.851099	2482.543938
908.157675	2474.778040
908.464211	2478.362301
908.770707	2477.149903
909.077163	2481.823053
909.383578	2477.258288
909.689954	2479.136118
909.996289	2478.972280
910.302584	2480.086375
910.608839	2476.527321
910.915054	2478.400109
911.221229	2478.064873
911.527363	2479.050418
911.833458	2478.632003
912.139513	2480.482106
912.445527	2479.247023
912.751502	2479.413381
913.057436	2478.682414
913.363331	2478.911787
913.669186	2478.677373
913.975000	2482.601911
914.280775	2476.461786
914.586510	2478.654688
914.892205	2478.863896
915.197859	2481.402117
915.503475	2480.771972
915.809050	2477.558237
916.114585	2478.558906
916.420081	2479.310038
916.725536	2477.906076
917.030952	2480.353557
917.336328	2480.582929
917.641665	2474.629326
917.946961	2475.554378
918.252218	2474.316775
918.557435	2472.655715
918.862612	2477.739718
919.167750	2477.187712
919.472848	2480.499750
919.777906	2480.948413
920.082925	2480.809781
920.387904	2478.725264
920.692843	2480.472024
920.997743	2478.362301
921.302603	2479.252064
921.607423	2476.635706
921.912204	2478.064873
922.216946	2476.330716
922.521647	2479.108392
922.826310	2478.256437
923.130932	2477.374235
923.435516	2477.580922
923.740059	2477.187712
924.044564	2476.872640
924.349028	2477.601087
924.653454	2476.204687
924.957840	2478.740387
925.262186	2478.692496
925.566493	2477.845583
925.870761	2477.845583
926.174989	2474.994810
926.479178	2477.482619
926.783328	2477.573360
927.087438	2480.272898
927.391509	2477.240644
927.695541	2479.690645
927.999533	2478.682414
928.303486	2476.875160
928.607400	2476.315592
928.911275	2476.670994
929.215110	2480.088896
929.518906	2480.590491
929.822663	2478.074955
930.126381	2481.018989
930.430060	2477.848103
930.733699	2481.031592
931.037299	2477.036477
931.340861	2477.711992
931.644383	2479.010089
931.947866	2477.714513
932.251309	2478.082517
932.554714	2478.269039
932.858080	2475.541775
933.161407	2475.690489
933.464694	2476.376086
933.767943	2472.796867
934.071153	2477.727115
934.374323	2475.604790
934.677455	2477.008751
934.980548	2476.933134
935.283602	2476.061014
935.586617	2479.123515
935.889593	2477.795171
936.192530	2479.607466
936.495428	2477.548154
936.798287	2477.008751
937.101108	2475.332567
937.403890	2474.800726
937.706632	2476.618062
938.009336	2477.747280
938.312002	2478.327013
938.614628	2476.166878
938.917216	2477.245685
939.219765	2477.565798
939.522275	2477.192753
939.824747	2477.527990
940.127179	2478.889101
940.429573	2479.796509
940.731929	2480.020840
941.034246	2474.415077
941.336524	2478.763073
941.638763	2479.126036
941.940964	2478.803402
942.243126	2477.729636
942.545250	2479.995635
942.847335	2478.299286
943.149381	2479.161324
943.451389	2477.878350
943.753359	2478.216107
944.055290	2476.139152
944.357182	2476.645788
944.659036	2475.524131
944.960851	2478.480768
945.262628	2476.529841
945.564367	2477.059163
945.866067	2476.809625
946.167729	2480.456900
946.469352	2476.698720
946.770937	2479.463793
947.072484	2479.136118
947.373992	2477.815336
947.675462	2474.896508
947.976893	2475.725777
948.278286	2477.437249
948.579641	2475.990438
948.880958	2471.743266
949.182236	2478.813484
949.483476	2477.343988
949.784678	2478.004379
950.085841	2478.054790
950.386967	2477.165027
950.688054	2479.191571
950.989103	2479.741056
951.290114	2477.747280
951.591087	2477.170068
951.892021	2478.710140
952.192917	2477.275932
952.493776	2479.362970
952.794596	2478.367342
953.095378	2477.830459
953.396122	2477.563278
953.696828	2476.547485
953.997496	2477.190233
954.298126	2476.587815
954.598718	2475.667804
954.899272	2477.162506
955.199788	2477.091930
955.500266	2477.898515
955.800706	2478.765593
956.101108	2479.095789
956.401472	2476.179481
956.701798	2476.045891
957.002087	2478.581591
957.302337	2475.491364
957.602550	2478.294245
957.902724	2478.969760
958.202861	2478.427836
958.502960	2475.501446
958.803022	2477.366673
959.103045	2477.273412
959.403031	2478.861375
959.702979	2475.443473
960.002889	2478.579070
960.302762	2480.378762
960.602596	2477.273412
960.902393	2477.306179
961.202153	2476.156796
961.501875	2479.569657
961.801559	2478.206025
962.101205	2477.527990
962.400814	2476.139152
962.700385	2476.338278
962.999918	2474.767958
963.299414	2471.347535
963.598873	2474.662094
963.898293	2472.718729
964.197677	2477.505305
964.497022	2478.805922
964.796331	2476.282825
965.095601	2481.129894
965.394835	2474.364666
965.694030	2477.318782
965.993189	2473.893318
966.292309	2478.853813
966.591393	2480.267857
966.890439	2478.609317
967.189447	2478.760552
967.488419	2477.749801
967.787353	2476.701241
968.086249	2477.376755
968.385108	2476.126549
968.683930	2474.233596
968.982714	2477.074286
969.281462	2477.351549
969.580172	2477.144862
969.878844	2474.921713
970.177480	2479.282311
970.476078	2476.222331
970.774639	2476.776858
971.073162	2477.676704
971.371649	2475.367855
971.670098	2476.416415
971.968510	2476.975983
972.266885	2479.045377
972.565223	2476.761734
972.863524	2477.109574
973.161788	2477.475058
973.460014	2477.860706
973.758204	2479.231900
974.056356	2476.640747
974.354471	2475.914821
974.652550	2474.130252
974.950591	2478.740387
975.248595	2477.754842
975.546563	2476.658391
975.844493	2475.972794
976.142386	2475.899697
976.440243	2479.189050
976.738062	2479.123515
977.035845	2473.800057
977.333590	2478.200984
977.631299	2475.561940
977.928971	2476.055973
978.226606	2477.079327
978.524204	2472.902731
978.821765	2472.461630
979.119290	2476.817187
979.416777	2477.401961
979.714228	2475.118318
980.011642	2477.359111
980.309020	2475.690489
980.606360	2476.837352
980.903664	2475.952629
981.200931	2478.931951
981.498162	2475.758545
981.795356	2475.171250
982.092513	2476.918010
982.389633	2474.586477
982.686717	2476.497074
982.983764	2476.023205
983.280775	2477.661580
983.577749	2475.813998
983.874686	2475.433390
984.171587	2474.130252
984.468451	2480.164513
984.765279	2475.667804
985.062070	2478.243834
985.358824	2475.589666
985.655543	2477.510346
985.952224	2474.397433
986.248869	2475.791312
986.545478	2475.032619
986.842050	2476.030767
987.138586	2476.854996
987.435086	2476.577732
987.731549	2476.108905
988.027975	2477.948926
988.324366	2471.264356
988.620719	2477.684266
988.917037	2474.825931
989.213318	2476.658391
989.509563	2477.321303
989.805772	2475.115798
990.101944	2477.139821
990.398080	2474.233596
990.694180	2475.632516
990.990244	2475.453555
991.286271	2474.750314
991.582262	2477.081848
991.878217	2475.617392
992.174136	2475.834162
992.470019	2475.554378
992.765865	2475.957670
993.061676	2473.464820
993.357450	2474.919193
993.653188	2471.556743
993.948890	2476.887763
994.244556	2477.134780
994.540186	2479.320120
994.835780	2476.003041
995.131337	2475.430870
995.426859	2472.592700
995.722345	2476.638226
996.017795	2474.364666
996.313208	2475.526652
996.608586	2474.306692
996.903928	2476.575212
997.199234	2478.722743
997.494504	2475.551857
997.789738	2476.182002
998.084936	2476.076138
998.380099	2475.486323
998.675225	2478.715182
998.970316	2474.939357
999.265371	2476.388689
999.560390	2476.310551
999.855373	2474.294090
1000.150320	2474.092443
1000.445232	2476.154275
1000.740108	2474.493215
1001.034948	2476.320633
1001.329752	2473.797536
1001.624521	2474.697382
1001.919254	2476.665952
1002.213951	2475.372897
1002.508613	2476.741570
1002.803239	2474.329378
1003.097829	2475.133442
1003.392384	2476.479430
1003.686903	2474.470530
1003.981386	2476.542444
1004.275834	2475.614872
1004.570246	2477.979173
1004.864623	2475.372897
1005.158964	2476.590335
1005.453270	2473.989100
1005.747540	2476.940695
1006.041775	2476.315592
1006.335974	2477.011272
1006.630138	2477.165027
1006.924266	2476.744090
1007.218359	2476.010603
1007.512416	2473.522793
1007.806438	2470.122535
1008.100425	2472.507001
1008.394376	2471.574387
1008.688292	2476.383648
1008.982172	2474.518421
1009.276017	2476.519759
1009.569827	2473.878194
1009.863602	2477.575881
1010.157341	2472.464151
1010.451045	2475.405664
1010.744714	2475.415746
1011.038347	2478.518577
1011.331945	2473.164871
1011.625508	2476.015644
1011.919036	2472.441466
1012.212528	2476.809625
1012.505986	2474.619244
1012.799408	2474.180664
1013.092795	2473.500108
1013.386147	2477.964050
1013.679464	2476.681076
1013.972745	2476.313072
1014.265992	2475.380458
1014.559204	2474.551188
1014.852380	2475.072948
1015.145521	2477.041518
1015.438628	2475.937506
1015.731699	2477.016313
1016.024736	2475.998000
1016.317737	2475.753504
1016.610703	2473.636219
1016.903635	2475.292238
1017.196531	2473.520272
1017.489393	2475.987917
1017.782219	2474.246199
1018.075011	2478.589153
1018.367768	2478.632002
1018.660490	2477.500263
1018.953177	2477.500263
1019.245829	2477.500263
