Dividing Wavelength (nm)	Counts (n)	Blue Motor Position (mm): 25.000000	Red Motor Position (mm): 0.000000	
326.493990	2058.681202
326.888308	2058.681202
327.282561	2058.681202
327.676750	2030.506193
328.070874	2033.931657
328.464933	2040.326361
328.858929	2050.045705
329.252859	2060.312015
329.646726	2073.015723
330.040528	2090.087590
330.434265	2107.691300
330.827938	2129.315329
331.221547	2146.770324
331.615091	2169.445434
332.008571	2187.840605
332.401986	2210.853472
332.795338	2229.717470
333.188625	2249.544328
333.581847	2268.042842
333.975006	2288.338527
334.368100	2300.081895
334.761129	2319.724751
335.154095	2334.510455
335.546996	2384.748074
335.939833	2485.518219
336.332606	2497.211175
336.725315	2511.505367
337.117960	2520.652540
337.510540	2528.168901
337.903056	2537.832793
338.295508	2547.831921
338.687896	2551.015410
339.080220	2557.102603
339.472480	2561.445557
339.864676	2565.236505
340.256807	2565.861608
340.648875	2571.293451
341.040879	2570.847309
341.432818	2571.633729
341.824694	2571.558112
342.216506	2572.135324
342.608253	2572.841086
342.999937	2572.137845
343.391557	2570.403688
343.783113	2567.258008
344.174605	2566.516958
344.566033	2564.434962
344.957397	2565.193655
345.348697	2559.774415
345.739934	2562.022769
346.131106	2559.262738
346.522215	2559.093859
346.913260	2557.243756
347.304241	2551.277550
347.695159	2554.950031
348.086012	2552.197561
348.476802	2548.918290
348.867528	2542.715150
349.258191	2547.504246
349.648789	2544.784544
350.039324	2541.749769
350.429796	2544.746735
350.820203	2543.667928
351.210548	2544.504760
351.600828	2541.749769
351.991045	2539.791281
352.381198	2536.489325
352.771288	2537.444624
353.161314	2538.770447
353.551276	2537.598379
353.941175	2537.084181
354.331010	2539.574511
354.720782	2543.229348
355.110490	2542.576518
355.500135	2540.665921
355.889717	2541.038967
356.279235	2540.832279
356.668689	2542.001827
357.058080	2540.963349
357.447408	2543.524255
357.836672	2542.904193
358.225873	2543.070552
358.615010	2545.180274
359.004084	2543.766231
359.393095	2543.637681
359.782043	2543.451159
360.170927	2546.632127
360.559748	2543.473844
360.948505	2546.433001
361.337199	2547.274874
361.725830	2548.169679
362.114398	2544.517363
362.502903	2549.868548
362.891344	2548.204967
363.279722	2546.745553
363.668037	2549.571119
364.056289	2548.532642
364.444478	2549.596325
364.832603	2549.190512
365.220665	2551.680842
365.608665	2553.576316
365.996601	2553.445246
366.384474	2552.119423
366.772284	2552.134546
367.160031	2550.881819
367.547715	2555.103786
367.935336	2550.488609
368.322893	2552.588250
368.710388	2550.806202
369.097820	2551.375852
369.485189	2551.839639
369.872495	2555.121430
370.259738	2559.991184
370.646918	2555.093703
371.034035	2556.679146
371.421090	2558.078067
371.808081	2558.274672
372.195010	2560.185269
372.581875	2556.878272
372.968678	2559.628221
373.355418	2559.280382
373.742096	2560.016390
374.128710	2557.258879
374.515262	2561.168294
374.901751	2559.741647
375.288177	2559.323232
375.674540	2558.176369
376.060841	2557.155535
376.447079	2561.180897
376.833254	2561.841288
377.219367	2563.086453
377.605417	2559.126627
377.991404	2561.513613
378.377329	2561.495969
378.763191	2559.161915
379.148991	2562.148798
379.534727	2560.618808
379.920402	2565.365054
380.306013	2562.428582
380.691563	2563.217523
381.077049	2560.749878
381.462474	2560.989333
381.847835	2560.999415
382.233134	2563.782132
382.618371	2562.373130
383.003545	2564.669375
383.388657	2562.738613
383.773706	2565.496124
384.158693	2562.950342
384.543618	2566.401012
384.928480	2568.752710
385.313280	2566.627863
385.698017	2565.687688
386.082692	2567.114335
386.467305	2568.921588
386.851856	2567.588203
387.236344	2570.348235
387.620770	2566.264900
388.005133	2565.861608
388.389435	2566.781619
388.773674	2563.318346
389.157851	2569.004768
389.541965	2569.342525
389.926018	2568.097360
390.310008	2569.148440
390.693936	2569.801270
391.077802	2572.457958
391.461606	2572.284038
391.845348	2571.830334
392.229027	2571.590879
392.612645	2572.037022
392.996200	2573.945098
393.379694	2572.712536
393.763125	2573.521641
394.146494	2571.868143
394.529801	2573.872002
394.913047	2571.820252
395.296230	2575.495253
395.679351	2575.044070
396.062410	2574.260170
396.445408	2574.792012
396.828343	2574.948288
397.211217	2575.104564
397.594028	2577.322671
397.976778	2574.880232
398.359466	2576.901735
398.742092	2577.277301
399.124656	2572.964594
399.507158	2577.163875
399.889598	2577.491550
400.271977	2575.528021
400.654294	2575.953998
401.036549	2575.727146
401.418742	2579.248392
401.800874	2577.766293
402.182944	2575.689337
402.564952	2579.800398
402.946898	2578.903073
403.328783	2580.634709
403.710606	2579.560944
404.092367	2577.720923
404.474067	2579.508012
404.855705	2579.949113
405.237282	2581.146387
405.618797	2579.132446
406.000250	2578.887950
406.381642	2581.219483
406.762972	2580.397775
407.144240	2579.981880
407.525447	2580.440625
407.906593	2576.740418
408.287677	2580.740574
408.668700	2582.313414
409.049661	2584.166038
409.430560	2582.441963
409.811399	2582.779720
410.192176	2584.617221
410.572891	2583.961871
410.953545	2583.624114
411.334138	2582.716706
411.714669	2585.512026
412.095139	2585.297777
412.475547	2584.511357
412.855894	2583.210739
413.236180	2584.357602
413.616405	2586.674012
413.996568	2583.861048
414.376670	2586.053950
414.756711	2588.443457
415.136691	2586.520257
415.516609	2589.625607
415.896466	2587.420103
416.276262	2589.723910
416.655997	2589.986050
417.035670	2587.803230
417.415283	2589.565113
417.794834	2587.465473
418.174324	2588.246852
418.553753	2586.729464
418.933121	2589.920515
419.312428	2589.285329
419.691674	2591.263982
420.070859	2588.448498
420.449983	2590.038982
420.829045	2590.452357
421.208047	2590.565783
421.586988	2591.584096
421.965867	2591.566452
422.344686	2590.487645
422.723444	2591.311873
423.102141	2591.803386
423.480777	2592.042841
423.859352	2590.717017
424.237866	2594.187852
424.616319	2591.206009
424.994712	2592.632656
425.373044	2592.932604
425.751314	2590.787593
426.129524	2589.807089
426.507673	2591.793303
426.885762	2591.815989
427.263789	2593.396390
427.641756	2594.540732
428.019662	2595.168356
428.397508	2593.109045
428.775292	2594.644076
429.153016	2595.216247
429.530679	2597.923347
429.908282	2597.825044
430.285824	2598.311515
430.663305	2597.825044
431.040726	2594.399580
431.418086	2596.567276
431.795385	2598.263624
432.172624	2597.777153
432.549802	2596.955445
432.926920	2598.498038
433.303977	2599.279417
433.680974	2599.183635
434.057910	2599.425610
434.434786	2601.404263
434.811601	2601.184973
435.188355	2600.146495
435.565050	2602.994747
435.941683	2601.416866
436.318257	2604.991044
436.694770	2603.231682
437.071222	2606.072372
437.447614	2605.769902
437.823946	2605.238061
438.200218	2607.098247
438.576429	2604.481888
438.952580	2607.378031
439.328670	2606.909203
439.704700	2604.824686
440.080670	2609.190325
440.456580	2609.144955
440.832429	2610.748042
441.208218	2609.651591
441.583947	2611.877260
441.959616	2610.148145
442.335224	2612.225100
442.710773	2611.229472
443.086261	2614.947323
443.461689	2614.816253
443.837057	2615.509412
444.212365	2616.701645
444.587612	2612.769545
444.962800	2617.024278
445.337927	2614.985132
445.712995	2615.650564
446.088002	2620.235493
446.462949	2621.044599
446.837837	2620.933693
447.212664	2622.622480
447.587431	2630.108593
447.962139	2631.840230
448.336786	2636.294089
448.711374	2637.166209
449.085901	2634.663276
449.460369	2632.856022
449.834776	2639.517907
450.209124	2643.797847
450.583412	2645.282466
450.957640	2650.182468
451.331808	2651.596512
451.705917	2650.830256
452.079965	2657.197233
452.453954	2657.519867
452.827883	2664.496824
453.201752	2666.445230
453.575562	2672.600479
453.949311	2677.807991
454.323001	2684.384176
454.696632	2692.127388
455.070202	2702.980993
455.443713	2710.580532
455.817164	2721.129147
456.190556	2732.867473
456.563888	2742.261663
456.937160	2752.293560
457.310373	2756.150042
457.683526	2766.403749
458.056619	2777.411109
458.429653	2792.038017
458.802628	2810.881850
459.175542	2826.864828
459.548398	2855.415403
459.921194	2888.664333
460.293930	2923.029879
460.666607	2969.310192
461.039224	3017.085207
461.411782	3047.435473
461.784280	3061.202864
462.156719	3082.547110
462.529099	3102.247939
462.901419	3109.970987
463.273680	3122.120167
463.645882	3157.216681
464.018024	3191.367977
464.390106	3248.703541
464.762130	3359.180427
465.134094	3512.071062
465.505999	3709.243191
465.877845	3892.446284
466.249631	4001.504086
466.621358	4005.438706
466.993026	3999.127182
467.364634	4010.580683
467.736184	4011.014222
468.107674	4030.178169
468.479105	4079.417639
468.850477	4117.180922
469.221790	4137.428717
469.593043	4137.133809
469.964238	4166.173376
470.335373	4237.611567
470.706449	4399.747678
471.077467	4608.637970
471.448425	4975.911233
471.819324	5228.891457
472.190164	5247.178242
472.560945	5111.815700
472.931667	5000.854862
473.302330	5045.579979
473.672934	5065.835335
474.043479	5213.331935
474.413965	5268.386376
474.784393	5331.925079
475.154761	5516.453995
475.525070	5626.988855
475.895321	5694.865471
476.265513	5870.718561
476.635645	6083.064564
477.005719	6202.106371
477.375734	6378.556838
477.745691	6603.417505
478.115588	6851.706935
478.485427	7247.082111
478.855207	7809.064900
479.224928	8344.014503
479.594591	8753.966174
479.964194	8784.921380
480.333739	9008.413374
480.703226	9245.425742
481.072653	9555.567609
481.442022	9859.511378
481.811333	10112.549574
482.180584	10143.973607
482.549777	10265.117575
482.918912	10376.214523
483.287988	10544.286593
483.657005	10684.594507
484.025964	10749.365772
484.394864	10975.315329
484.763706	11146.654066
485.132489	11171.978302
485.501213	11381.783563
485.869879	11631.797068
486.238487	11805.568161
486.607036	12087.875297
486.975527	12189.706605
487.343959	12503.311745
487.712333	12831.977331
488.080648	13027.924461
488.448905	13411.304211
488.817104	13586.784256
489.185244	14167.386547
489.553326	14897.149019
489.921350	15979.943495
490.289315	17286.124100
490.657222	17859.749435
491.025070	18318.940577
491.392861	18398.396723
491.760593	18259.591073
492.128267	18016.977982
492.495883	17800.979663
492.863440	17617.378319
493.230939	17427.543589
493.598380	17391.174185
493.965763	17562.762459
494.333088	17553.582517
494.700354	17687.127724
495.067563	17904.928255
495.434713	18086.498014
495.801805	18482.440319
496.168839	18641.334968
496.535815	18774.774310
496.902733	19092.382126
497.269593	19211.383604
497.636395	19526.470843
498.003139	19921.493137
498.369825	20000.956846
498.736453	20480.796554
499.103023	20610.346646
499.469535	20887.252186
499.835989	21201.109383
500.202385	21325.605718
500.568723	21589.966347
500.935003	22024.579343
501.301226	22169.782218
501.667390	22862.958516
502.033497	23215.209141
502.399546	23283.673051
502.765537	23219.007650
503.131470	23760.135186
503.497345	24284.498365
503.863163	23745.231015
504.228923	24522.002247
504.594625	25014.273440
504.960269	24830.190666
505.325856	25547.619955
505.691385	25510.491857
506.056856	25933.245539
506.422270	26510.558478
506.787625	26334.886869
507.152924	26888.486220
507.518164	27224.332930
507.883347	27061.823774
508.248472	27378.723308
508.613540	28115.424928
508.978550	28478.438417
509.343503	28543.103818
509.708398	29014.184521
510.073236	29699.317658
510.438016	29941.290522
510.802738	29852.122593
511.167403	30499.482364
511.532010	30862.165657
511.896561	31427.699939
512.261053	32230.538977
512.625488	32204.173743
512.989866	32303.948260
513.354186	32491.607732
513.718449	32602.530761
514.082655	33545.511355
514.446803	33410.128648
514.810894	34086.230558
515.174927	34231.700614
515.538904	34353.429356
515.902822	35083.171663
516.266684	34915.641518
516.630488	35360.384713
516.994235	35478.945090
517.357925	36139.144680
517.721558	36482.953893
518.085133	36946.049409
518.448651	37220.147026
518.812112	37210.780562
519.175516	37466.341856
519.538863	37956.831002
519.902152	38132.064030
520.265385	38729.213909
520.628560	38854.993218
520.991678	38892.391018
521.354739	39191.031492
521.717743	39615.504208
522.080690	39602.898802
522.443580	40320.648205
522.806413	40423.548237
523.169189	40634.213015
523.531908	40906.820971
523.894569	40852.908351
524.257174	41120.190328
524.619722	41494.559016
524.982213	41683.609847
525.344647	41765.178237
525.707025	41953.878707
526.069345	42444.934983
526.431608	42397.543096
526.793815	42821.395749
527.155964	42433.786471
527.518057	42733.911565
527.880093	42638.782472
528.242072	43284.332469
528.603995	43061.878952
528.965860	43047.622569
529.327669	43302.198318
529.689421	43383.108837
530.051117	43365.888256
530.412755	43681.829970
530.774337	43779.081389
531.135862	43739.652005
531.497331	43914.769086
531.858743	43940.748673
532.220098	44366.373292
532.581396	44128.133402
532.942638	43913.360084
533.303824	44183.336558
533.664953	44263.155667
534.026025	43962.385305
534.387040	44540.411567
534.747999	44646.222865
535.108902	44966.762112
535.469748	44318.167258
535.830537	44607.161485
536.191270	44863.504158
536.551947	44598.301657
536.912567	44893.065484
537.273131	45066.897072
537.633638	44700.251432
537.994089	44909.600469
538.354483	44680.631261
538.714821	45327.711248
539.075103	45623.967257
539.435328	45487.770403
539.795497	45260.127019
540.155609	45373.222785
540.515665	45978.642677
540.875665	45305.499924
541.235609	45585.765393
541.595496	45712.925978
541.955328	46288.948381
542.315102	45744.352531
542.674821	45622.412061
543.034483	45528.603749
543.394090	45552.813891
543.753640	45549.393468
544.113134	46600.395907
544.472571	45716.200208
544.831953	46848.390429
545.191278	46118.080992
545.550548	45808.160936
545.909761	46467.707697
546.268918	46620.431973
546.628019	47029.103192
546.987064	46467.148128
547.346053	45747.936792
547.704986	46659.263981
548.063863	46325.902559
548.422684	46527.142900
548.781449	46137.035731
549.140158	46662.697007
549.498811	46435.845084
549.857408	45843.219640
550.215949	46688.568208
550.574434	46502.930238
550.932864	46442.499407
551.291237	47164.914397
551.649555	46937.061805
552.007817	47114.979247
552.366022	46786.815256
552.724173	46846.769698
553.082267	47266.289480
553.440305	47613.995505
553.798288	46858.013992
554.156215	47265.994573
554.514086	47462.034963
554.871902	47083.771985
555.229661	47252.128879
555.587365	46943.360727
555.945014	47087.630988
556.302606	47090.733818
556.660143	47201.130046
557.017625	47420.092563
557.375050	47116.128631
557.732421	47534.877116
558.089735	47588.714118
558.446994	47466.902198
558.804197	47937.100699
559.161345	47821.305395
559.518437	47149.531316
559.875474	47410.453877
560.232455	47623.409860
560.589381	47703.183599
560.946251	47493.915220
561.303065	48180.270837
561.659825	47862.678145
562.016528	47663.819749
562.373177	47245.356089
562.729770	47879.286226
563.086307	47396.452072
563.442789	47946.202502
563.799216	47801.231521
564.155587	47683.641566
564.511904	47664.270932
564.868164	47715.496617
565.224370	48022.679327
565.580520	47754.308461
565.936615	47968.524732
566.292654	47605.107951
566.648638	47971.867017
567.004567	47905.971574
567.360441	48011.495527
567.716260	47731.744256
568.072023	48099.448538
568.427732	48031.597128
568.783385	47567.853824
569.138982	47969.432139
569.494525	48106.785938
569.850013	47704.068321
570.205445	47827.143051
570.560823	47621.000188
570.916145	47483.958942
571.271412	47710.533601
571.626625	47377.663692
571.981782	47448.111297
572.336884	47033.173923
572.691931	47363.480406
573.046923	47025.576905
573.401860	46875.534522
573.756743	46887.391316
574.111570	47030.091258
574.466342	46953.677448
574.821059	47088.740042
575.175722	46588.841582
575.530330	46696.674384
575.884882	46338.449991
576.239380	46238.211688
576.593823	46311.943604
576.948211	46261.801768
577.302544	45795.379090
577.656823	45795.532846
578.011047	46062.567806
578.365216	45871.132509
578.719330	45602.491941
579.073389	45579.786584
579.427394	45627.700231
579.781344	45560.400827
580.135239	45325.563717
580.489080	45367.775818
580.842866	44876.810283
581.196597	45365.734151
581.550273	45367.206168
581.903895	45277.161078
582.257463	45727.913328
582.610975	45156.831256
582.964434	45486.580691
583.317837	45009.579152
583.671186	44965.237163
584.024481	45239.024749
584.377721	44771.056958
584.730906	45006.607392
585.084037	45114.730060
585.437113	44810.695551
585.790135	44949.602024
586.143103	44507.061813
586.496016	44670.783367
586.848874	44764.115289
587.201679	44784.360563
587.554428	44315.162731
587.907124	44562.189351
588.259765	44337.999158
588.612352	44508.669942
588.964884	43947.637409
589.317362	44275.017502
589.669786	44274.253767
590.022155	44118.648471
590.374470	44573.572277
590.726731	44138.533303
591.078937	43489.267975
591.431090	43832.222713
591.783188	43352.965258
592.135232	43140.626817
592.487222	43422.268520
592.839157	43568.111622
593.191038	43212.362436
593.542866	43023.858570
593.894639	42421.549070
594.246358	42718.349523
594.598022	42699.014178
594.949633	42290.521920
595.301190	42267.839248
595.652692	42199.924824
596.004141	42674.549458
596.355535	41609.383897
596.706876	41619.619960
597.058162	41329.836793
597.409395	41822.705364
597.760573	42039.724516
598.111698	41650.832264
598.462768	41561.674418
598.813785	41585.025042
599.164748	41189.148272
599.515657	41440.926180
599.866511	40965.303397
600.217312	41664.473627
600.568060	40589.918917
600.918753	41417.867942
601.269392	41334.308297
601.619978	41058.254712
601.970510	41255.986410
602.320988	41403.578792
602.671412	41668.577126
603.021783	41537.733978
603.372100	41114.289658
603.722363	41207.392208
604.072572	41234.445560
604.422728	41227.022461
604.772830	41011.248473
605.122878	41188.001409
605.472872	41037.008769
605.822813	41302.012145
606.172701	41045.553525
606.522534	41375.353371
606.872314	41588.959663
607.222041	41422.473036
607.571714	41740.736202
607.921333	41244.779925
608.270899	41464.024747
608.620411	41839.515091
608.969870	41571.360995
609.319276	41596.554161
609.668627	41614.987140
610.017926	42025.337063
610.367171	42156.291117
610.716362	42203.846841
611.065500	42071.385483
611.414585	42302.771924
611.763616	42476.225425
612.112594	42382.933832
612.461518	42502.026050
612.810389	42892.808735
613.159207	42691.951521
613.507971	42665.790453
613.856682	43161.693798
614.205340	42988.255421
614.553945	43681.467007
614.902496	43014.197199
615.250994	43433.205303
615.599439	43480.939989
615.947830	43598.875263
616.296169	43588.092235
616.644454	43642.519052
616.992686	43792.379953
617.340864	44240.697327
617.688990	43768.799956
618.037063	44445.108553
618.385082	44281.008913
618.733048	44604.872801
619.080961	44472.197193
619.428821	44497.770967
619.776628	44516.791240
620.124382	44322.855531
620.472083	44441.136124
620.819731	44534.420155
621.167326	44097.742806
621.514868	44074.344291
621.862357	43556.421186
622.209793	43639.020492
622.557176	43216.281933
622.904506	42951.092035
623.251783	42588.272631
623.599007	42294.590131
623.946179	42204.547562
624.293297	41948.928294
624.640363	41404.997877
624.987376	41247.786973
625.334336	41054.572149
625.681243	40633.877778
626.028097	40553.720912
626.374899	40352.604079
626.721647	40340.056647
627.068343	40118.472730
627.414987	39836.778094
627.761577	39584.286863
628.108115	39899.031303
628.454600	39153.074124
628.801032	39372.535716
629.147412	39277.154564
629.493739	39173.717649
629.840014	38741.103470
630.186236	39170.574490
630.532405	38610.073799
630.878521	38844.590797
631.224585	38624.355388
631.570597	38288.990108
631.916556	38463.978640
632.262462	38344.200825
632.608316	38284.271588
632.954117	38128.399111
633.299866	38092.289326
633.645562	38002.425718
633.991206	37478.465831
634.336797	37066.195228
634.682336	36963.085988
635.027823	36714.567186
635.373257	36604.896884
635.718639	36263.651098
636.063968	36165.557806
636.409245	35505.685891
636.754470	35477.094987
637.099642	35245.574955
637.444762	34675.090259
637.789829	34819.491591
638.134845	34449.513748
638.479808	34362.493351
638.824719	34308.237932
639.169577	33803.494924
639.514383	33890.548089
639.859137	33507.886704
640.203839	33682.686193
640.548489	33380.685789
640.893086	33388.711306
641.237632	33099.938890
641.582125	33207.539799
641.926566	32988.970491
642.270955	33037.368089
642.615292	32959.555359
642.959576	32842.207379
643.303809	32854.812785
643.647990	32936.003088
643.992118	32904.440424
644.336195	32740.282810
644.680219	32838.492049
645.024192	33021.644730
645.368112	33554.015782
645.711981	33562.694128
646.055797	34298.140501
646.399562	34106.228815
646.743274	34981.116024
647.086935	35374.504985
647.430544	35337.593657
647.774101	35375.982043
648.117606	35658.657183
648.461059	35798.662629
648.804460	35391.218931
649.147810	34888.386520
649.491108	34542.548242
649.834354	34393.408227
650.177548	33569.391301
650.520690	33066.989909
650.863781	33061.263158
651.206820	32869.714435
651.549807	32464.950111
651.892742	31899.388102
652.235626	31800.636939
652.578458	31670.522238
652.921238	30984.469090
653.263967	31281.423299
653.606644	30993.356645
653.949269	30908.725754
654.291843	30496.089667
654.634365	30861.477539
654.976836	30409.608673
655.319255	30484.762195
655.661622	30357.957011
656.003938	30226.697968
656.346203	30049.478725
656.688416	30279.355340
657.030577	30051.336390
657.372687	29883.274403
657.714746	30046.010411
658.056753	30226.982793
658.398708	29609.388515
658.740612	29673.234728
659.082465	29892.217410
659.424266	29766.748132
659.766016	29785.667582
660.107715	29648.248249
660.449362	29742.666540
660.790958	29728.521062
661.132503	29659.681586
661.473996	29743.185779
661.815438	29808.239349
662.156829	29922.275290
662.498168	29739.039430
662.839456	29710.962723
663.180693	29837.092393
663.521879	29917.647511
663.863013	29882.326666
664.204097	29860.569046
664.545129	30269.189853
664.886110	30203.173423
665.227040	30308.727623
665.567918	30307.963888
665.908746	30378.023324
666.249522	30456.446034
666.590248	30499.910862
666.930922	30601.840472
667.271545	30584.892113
667.612118	30637.418416
667.952639	30445.806678
668.293109	30500.845996
668.633528	30354.118172
668.973896	30301.448197
669.314213	30279.350299
669.654480	30105.942168
669.994695	30090.322153
670.334859	30004.420892
670.674973	29837.931745
671.015035	30030.869305
671.355047	29961.941609
671.695008	29899.083462
672.034918	29803.470417
672.374777	29887.395546
672.714585	29768.265519
673.054342	29905.599153
673.394049	29757.656411
673.733705	29977.526336
674.073310	29703.395952
674.412864	29742.227960
674.752368	29451.799525
675.091820	29677.741520
675.431223	29269.685322
675.770574	29076.886393
676.109875	28912.401104
676.449125	28710.575990
676.788324	28601.941645
677.127473	28120.019940
677.466571	28025.193316
677.805619	27760.706658
678.144616	27687.103292
678.483562	27628.000804
678.822458	27317.188464
679.161303	27256.311490
679.500098	27191.754474
679.838842	27101.482532
680.177535	27200.609260
680.516179	27431.973016
680.854771	27568.321104
681.193314	28338.979937
681.531805	29331.608335
681.870247	30084.837378
682.208638	30809.268830
682.546978	31070.864385
682.885268	31221.569679
683.223508	30774.164755
683.561697	30497.516314
683.899836	30335.445738
684.237925	29926.635888
684.575963	29804.246755
684.913951	29421.895400
685.251889	29587.774568
685.589776	29609.138978
685.927614	29618.129875
686.265401	29810.160028
686.603137	29911.721634
686.940824	30407.992983
687.278460	30743.375908
687.616046	30923.801324
687.953582	31578.269123
688.291068	31502.203152
688.628504	31814.507674
688.965889	31823.243994
689.303224	31550.326007
689.640510	31264.900917
689.977745	30619.275303
690.314930	29899.106147
690.652065	29456.210534
690.989150	28796.096644
691.326185	27960.094375
691.663170	27316.454976
692.000105	26589.702073
692.336990	25991.274261
692.673825	25560.338787
693.010610	25063.981738
693.347345	24570.339350
693.684030	23944.517909
694.020665	23740.731785
694.357251	23072.720927
694.693786	23074.361823
695.030272	22838.743333
695.366707	22353.335671
695.703093	22077.287127
696.039429	22138.459008
696.375716	21901.751630
696.711952	21904.983009
697.048139	21766.275661
697.384276	21603.925302
697.720363	21726.551369
698.056400	21614.244543
698.392388	21454.429884
698.728326	21456.373249
699.064214	21288.437291
699.400053	21293.942231
699.735842	20914.252606
700.071581	20712.861030
700.407270	20466.540171
700.742910	20293.583223
701.078501	20034.306599
701.414042	19829.149281
701.749533	19534.332522
702.084974	19218.635304
702.420366	19443.059911
702.755709	19042.885557
703.091002	18738.699813
703.426246	18807.267067
703.761440	18736.711078
704.096584	18506.899998
704.431679	18443.459597
704.766725	18375.046098
705.101721	18321.811514
705.436668	18433.694882
705.771565	18159.037697
706.106413	18472.872209
706.441212	18544.537252
706.775961	18653.093459
707.110661	18722.386640
707.445311	19092.344318
707.779913	18962.685841
708.114465	19257.452188
708.448967	19566.764785
708.783421	20197.405570
709.117825	20556.431506
709.452180	20790.497320
709.786485	21240.994992
710.120742	21995.653202
710.454949	22102.024069
710.789107	22613.665896
711.123216	23331.281708
711.457275	23534.336864
711.791286	24093.234468
712.125247	24246.440174
712.459159	23976.516633
712.793023	24722.690581
713.126837	23713.718762
713.460602	23948.734834
713.794318	23631.817656
714.127985	23358.385472
714.461602	22455.938275
714.795171	22440.998815
715.128691	21460.322993
715.462162	20942.311668
715.795584	20514.383241
716.128957	20252.437326
716.462281	19881.368073
716.795556	19588.903012
717.128782	19120.264748
717.461960	18514.623046
717.795088	18480.653230
718.128167	18136.226476
718.461198	17684.322322
718.794180	17557.451603
719.127113	17230.830204
719.459997	17035.951799
719.792833	16669.643917
720.125619	16703.452415
720.458357	16381.816718
720.791046	16235.121661
721.123686	16091.894919
721.456278	15858.010586
721.788821	15856.344485
722.121315	15584.734677
722.453761	15698.568972
722.786158	15581.072279
723.118506	15658.083466
723.450805	15546.908379
723.783056	15722.620317
724.115259	15613.446569
724.447412	15604.891731
724.779518	15828.781976
725.111574	15876.889707
725.443582	16143.226468
725.775542	16093.835763
726.107453	16620.522914
726.439315	16536.325562
726.771129	16948.754961
727.102895	17362.454731
727.434612	17639.503944
727.766281	17799.064025
728.097901	18120.397253
728.429473	18202.946147
728.760996	18222.011791
729.092471	18342.500409
729.423897	18235.779182
729.755276	18098.594263
730.086606	18222.485660
730.417887	18792.100756
730.749120	19358.507158
731.080305	19567.634384
731.411442	19959.780701
731.742530	20079.682025
732.073570	20243.272508
732.404562	20559.587268
732.735506	20407.452807
733.066401	20194.201917
733.397249	19709.452124
733.728048	19078.231607
734.058798	18223.095639
734.389501	17466.811657
734.720156	16944.096935
735.050762	16374.476798
735.381320	15995.515619
735.711831	15720.956736
736.042293	15354.512743
736.372707	15388.611107
736.703073	15192.525346
737.033391	15388.086827
737.363661	15382.844027
737.693883	15496.970709
738.024056	15705.571135
738.354182	15919.195070
738.684260	16275.065244
739.014290	16544.918209
739.344272	16768.165707
739.674207	17116.627905
740.004093	17296.350081
740.333931	17349.609871
740.663722	17432.854445
740.993464	17463.600442
741.323159	17323.199266
741.652806	17025.279677
741.982405	16858.765324
742.311956	16502.668299
742.641460	16385.559774
742.970915	16061.645475
743.300323	15722.186778
743.629683	15504.280382
743.958996	15191.091138
744.288260	14881.728129
744.617477	14577.328137
744.946647	14535.869687
745.275768	14219.317993
745.604842	14008.673380
745.933869	13844.578781
746.262847	13814.394872
746.591778	13728.871697
746.920662	13611.223769
747.249498	13622.939411
747.578286	13779.184933
747.907027	13956.898209
748.235720	14213.739957
748.564365	14285.495740
748.892963	14214.876737
749.221514	14312.231500
749.550017	14184.644937
749.878473	14149.518177
750.206881	13928.438375
750.535242	13856.085215
750.863555	13775.134366
751.191821	13671.384899
751.520039	13694.080174
751.848210	13616.448925
752.176334	13662.260411
752.504411	13587.101848
752.832440	13414.255806
753.160421	13521.531560
753.488356	13417.598091
753.816243	13325.591993
754.144082	13173.991893
754.471875	13108.892953
754.799620	13078.036051
755.127318	13054.831619
755.454969	13041.195298
755.782572	13009.057942
756.110129	13024.897248
756.437638	12933.208742
756.765100	12936.793002
757.092515	12959.626908
757.419882	13001.841531
757.747203	13020.602185
758.074477	13098.014143
758.401703	13076.561513
758.728882	13280.720682
759.056014	13326.174246
759.383099	13487.128206
759.710138	13613.777114
760.037129	13737.837389
760.364073	13787.293629
760.690970	13819.587261
761.017820	13836.757431
761.344623	14066.233274
761.671379	14444.907107
761.998088	15149.549510
762.324751	16915.130465
762.651366	20306.080244
762.977935	24754.817855
763.304456	27697.344396
763.630931	28759.878474
763.957359	27561.419765
764.283740	25303.192049
764.610074	23067.783117
764.936362	20430.390057
765.262602	18569.133042
765.588796	16654.782595
765.914943	15364.781573
766.241044	14269.346404
766.567097	13479.248882
766.893104	12764.693051
767.219064	12301.723564
767.544978	11825.518528
767.870845	11447.129520
768.196665	11214.528161
768.522438	10986.254633
768.848165	10789.238778
769.173846	10575.539226
769.499479	10449.268404
769.825066	10288.697572
770.150607	10054.102437
770.476101	9976.183842
770.801548	9854.417292
771.126949	9692.722282
771.452303	9582.605838
771.777611	9387.503102
772.102872	9378.078665
772.428087	9236.366789
772.753256	9073.282941
773.078378	8986.965785
773.403453	8803.296385
773.728482	8696.565076
774.053465	8617.794527
774.378401	8518.637551
774.703291	8394.786483
775.028135	8271.996579
775.352932	8238.883760
775.677683	8138.148903
776.002388	8030.996657
776.327046	8039.871609
776.651658	7939.164478
776.976224	7836.771082
777.300743	7836.826535
777.625216	7748.906291
777.949643	7700.357459
778.274024	7720.587609
778.598359	7641.749004
778.922647	7657.358937
779.246889	7601.949095
779.571086	7612.275898
779.895236	7617.561548
780.219339	7626.499514
780.543397	7630.653425
780.867409	7706.484981
781.191374	7719.959986
781.515294	7681.322062
781.839167	7777.366125
782.162995	7748.082062
782.486776	7692.946963
782.810511	7648.844428
783.134201	7568.407778
783.457844	7557.130716
783.781441	7499.154927
784.104993	7436.145545
784.428498	7416.250631
784.751958	7399.027529
785.075372	7369.592232
785.398739	7321.061043
785.722061	7360.808021
786.045337	7367.391768
786.368568	7514.868203
786.691752	7543.706124
787.014891	7891.611274
787.337983	8239.070282
787.661030	8826.493255
787.984031	9451.596332
788.306987	9858.719916
788.629897	10060.358508
788.952760	10016.971818
789.275579	9788.562178
789.598351	9392.088031
789.921078	9050.421309
790.243759	8628.930436
790.566395	8348.354936
790.888984	8094.280782
791.211529	7887.532981
791.534027	7665.704567
791.856480	7459.753268
792.178888	7389.968575
792.501249	7294.531971
792.823566	7133.976262
793.145836	7136.058259
793.468062	7116.480938
793.790241	7061.058493
794.112375	7128.993082
794.434464	7280.041175
794.756507	7321.187072
795.078505	7480.653892
795.400457	7787.087990
795.722364	8138.642936
796.044226	8424.776308
796.366042	8701.767547
796.687812	8649.662181
797.009538	8729.428358
797.331218	8620.252089
797.652852	8541.184112
797.974442	8390.320021
798.295986	8299.438100
798.617484	8106.596321
798.938938	7966.880742
799.260346	7865.271245
799.581709	7668.973756
799.903026	7586.747495
800.224299	7481.820919
800.545526	7309.872202
800.866708	7214.428037
801.187845	7147.426061
801.508936	7042.184413
801.829983	7004.063207
802.150984	6853.519230
802.471940	6812.259906
802.792851	6796.405478
803.113717	6761.860971
803.434538	6726.716567
803.755314	6670.472413
804.076045	6671.987280
804.396731	6616.953003
804.717372	6651.815103
805.037967	6653.471122
805.358518	6692.560229
805.679024	6773.667353
805.999485	6782.456605
806.319901	6825.598799
806.640272	6846.350709
806.960598	6927.205776
807.280879	6929.338184
807.601115	7009.754670
807.921306	6957.815662
808.241453	6967.076262
808.561554	6987.571072
808.881611	6953.215609
809.201623	6963.519728
809.521590	6903.666108
809.841513	6887.801597
810.161390	6926.994047
810.481223	6795.142668
810.801011	6784.813344
811.120755	6760.842658
811.440453	6682.369536
811.760107	6651.822665
812.079716	6622.215968
812.399281	6553.389095
812.718801	6543.415172
813.038276	6501.235837
813.357707	6441.291477
813.677093	6478.669112
813.996434	6386.751234
814.315731	6427.176246
814.634983	6417.267858
814.954191	6434.412823
815.273354	6536.057608
815.592473	6603.546055
815.911547	6725.032821
816.230577	6808.100954
816.549562	6954.518747
816.868502	7056.032462
817.187399	7150.990157
817.506250	7309.872202
817.825058	7341.329002
818.143821	7609.218438
818.462539	7880.122484
818.781213	8246.798371
819.099843	8791.444633
819.418429	9788.325244
819.736970	10758.717113
820.055466	11933.386617
820.373919	13465.045431
820.692327	15811.233719
821.010691	19943.066755
821.329011	28917.076775
821.647286	41886.680127
821.965517	55319.825136
822.283704	60741.938979
822.601847	62738.331684
822.919945	60019.662620
823.237999	55829.813465
823.556010	49663.721097
823.873976	42955.634114
824.191897	36435.120905
824.509775	31607.643926
824.827609	27096.496831
825.145398	24494.384285
825.463144	23129.696048
825.780845	23432.626544
826.098502	25200.213879
826.416116	28952.168247
826.733685	32584.367484
827.051210	33721.959302
827.368692	31960.159212
827.686129	28010.521037
828.003522	23902.966198
828.320872	20217.746626
828.638177	17382.485756
828.955439	15228.133536
829.272656	13418.056836
829.589830	11952.512755
829.906960	10686.812615
830.224046	9745.256146
830.541088	8996.135643
830.858086	8538.187146
831.175041	8155.918970
831.491952	8044.476703
831.808819	8091.656862
832.125642	8491.080084
832.442421	9370.398467
832.759157	11159.990438
833.075849	14067.675044
833.392497	17269.934435
833.709101	19444.350447
834.025662	19287.804976
834.342179	17599.207480
834.658653	15419.329378
834.975083	13503.567408
835.291469	11886.700491
835.607811	10578.047200
835.924110	9663.891923
836.240366	8802.147002
836.556578	8001.778130
836.872746	7357.697629
837.188871	6858.305806
837.504952	6442.198885
837.820990	6128.439990
838.136984	5917.298823
838.452935	5817.199152
838.768842	5849.210478
839.084706	6267.076762
839.400526	7472.666184
839.716303	9054.804592
840.032037	10144.883535
840.347727	10062.059898
840.663373	9099.917878
840.978977	8060.169815
841.294537	7253.464212
841.610054	6652.430124
841.925527	6225.424228
842.240957	5866.030288
842.556344	5534.450915
842.871687	5248.753603
843.186987	4967.984019
843.502244	4746.722735
843.817458	4580.163012
844.132629	4446.506900
844.447756	4356.093806
844.762840	4269.537194
845.077881	4195.792675
845.392879	4137.464005
845.707833	4088.844597
846.022745	4045.215931
846.337613	4015.392464
846.652438	3968.391267
846.967221	3955.944658
847.281960	3921.160696
847.596656	3905.613778
847.911309	3884.572002
848.225919	3863.033672
848.540485	3843.544571
848.855009	3829.963703
849.169490	3808.513593
849.483928	3794.731078
849.798323	3788.172537
850.112675	3768.433899
850.426984	3778.049900
850.741251	3762.528188
851.055474	3755.740274
851.369654	3761.940893
851.683792	3757.207250
851.997887	3762.981891
852.311938	3766.669495
852.625947	3767.705452
852.939914	3758.863269
853.253837	3769.764764
853.567718	3766.931635
853.881555	3755.067280
854.195350	3766.793004
854.509103	3766.029269
854.822812	3767.123199
855.136479	3756.594749
855.450103	3766.908950
855.763685	3749.506887
856.077224	3756.919904
856.390720	3775.521762
856.704173	3793.170841
857.017584	3806.527378
857.330953	3817.907783
857.644278	3839.231864
857.957561	3849.344418
858.270802	3846.866691
858.584000	3849.639326
858.897155	3837.152388
859.210268	3823.478258
859.523339	3800.503199
859.836367	3801.433292
860.149352	3794.002632
860.462295	3787.698669
860.775195	3773.722070
861.088054	3770.034466
861.400869	3769.008591
861.713642	3770.548663
862.026373	3777.558388
862.339062	3782.995272
862.651708	3806.073674
862.964312	3840.393850
863.276873	3848.318544
863.589392	3907.355496
863.901869	3955.422898
864.214303	3998.033251
864.526696	4035.539436
864.839045	4075.225919
865.151353	4106.677678
865.463619	4116.044142
865.775842	4118.680666
866.088023	4138.779746
866.400162	4127.454794
866.712258	4135.790342
867.024313	4138.812513
867.336325	4134.341010
867.648296	4141.610354
867.960224	4141.754027
868.272110	4151.796005
868.583954	4154.029236
868.895755	4169.898789
869.207515	4165.311339
869.519233	4207.155436
869.830909	4221.303434
870.142542	4246.395778
870.454134	4258.257613
870.765684	4286.109988
871.077191	4325.388138
871.388657	4348.290100
871.700081	4388.359711
872.011463	4427.053087
872.322803	4463.026761
872.634101	4495.509436
872.945357	4529.249879
873.256571	4587.961677
873.567744	4615.579638
873.878874	4637.002022
874.189963	4673.149615
874.501010	4683.168909
874.812015	4682.367365
875.122979	4725.403696
875.433900	4723.714909
875.744780	4733.809820
876.055618	4763.048512
876.366415	4762.925004
876.677169	4784.710350
876.987882	4825.334488
877.298554	4880.638467
877.609183	4959.681238
877.919771	5072.613167
878.230317	5212.505186
878.540822	5431.465183
878.851285	5753.403350
879.161707	6211.175407
879.472087	6966.894780
879.782425	8198.184004
880.092722	10373.691426
880.402977	13674.497812
880.713191	17419.659224
881.023363	21133.245370
881.333494	23346.155632
881.643583	24557.834768
881.953631	24565.298196
882.263637	23717.998702
882.573602	22240.086149
882.883526	20695.844615
883.193408	19016.603502
883.503248	17321.303792
883.813048	15780.533093
884.122806	14361.554149
884.432522	12896.564594
884.742197	11629.311779
885.051831	10540.515809
885.361424	9544.590497
885.670975	8723.618428
885.980485	8031.437758
886.289954	7455.962320
886.599382	6985.373129
886.908768	6610.656602
887.218113	6245.480459
887.527417	5955.523372
887.836680	5694.348753
888.145901	5473.586544
888.455082	5313.267769
888.764221	5162.872506
889.073319	5026.496691
889.382376	4958.158810
889.691392	4895.172113
890.000366	4872.275192
890.309300	4856.917317
890.618193	4853.910269
890.927044	4841.007436
891.235855	4864.423595
891.544625	4895.028440
891.853353	4959.472030
892.162041	5072.691305
892.470687	5259.110653
892.779293	5511.680023
893.087858	5877.135950
893.396381	6456.735052
893.704864	7252.599654
894.013306	8398.516937
894.321707	9571.399353
894.630068	10383.922447
894.938387	10586.682696
895.246665	10347.459782
895.554903	9752.452393
895.863100	9056.024551
896.171256	8499.708018
896.479371	8006.012699
896.787446	7500.458065
897.095480	7075.733292
897.403473	6759.269818
897.711425	6438.216373
898.019336	6177.248442
898.327207	5901.862810
898.635038	5676.830743
898.942827	5430.010810
899.250576	5237.068208
899.558284	5046.033683
899.865952	4925.330816
900.173579	4775.346407
900.481165	4670.056867
900.788711	4577.062703
901.096216	4505.558976
901.403681	4443.913227
901.711105	4415.191252
902.018489	4402.358995
902.325832	4473.479594
902.633135	4592.649950
902.940397	4937.333803
903.247619	5725.145162
903.554800	7152.331104
903.861941	9067.533505
904.169041	10581.260935
904.476101	11208.839219
904.783121	10863.691580
905.090100	10124.534917
905.397039	9297.727713
905.703938	8538.204790
906.010796	7850.263730
906.317614	7295.318391
906.624391	6766.478668
906.931129	6341.789182
907.237826	5942.494510
907.544483	5564.808743
907.851099	5192.948030
908.157675	4842.151777
908.464211	4518.900390
908.770707	4284.378351
909.077163	4085.698917
909.383578	3944.607103
909.689954	3826.853311
909.996289	3756.861931
910.302584	3693.572765
910.608839	3658.796365
910.915054	3628.645224
911.221229	3615.472689
911.527363	3628.370481
911.833458	3639.831544
912.139513	3668.049403
912.445527	3695.526212
912.751502	3778.243985
913.057436	3879.775344
913.363331	4016.567053
913.669186	4219.042477
913.975000	4473.766940
914.280775	4893.921907
914.586510	5476.833047
914.892205	6271.079438
915.197859	7303.941285
915.503475	8511.854679
915.809050	9565.460874
916.114585	10208.023987
916.420081	10471.696498
916.725536	10438.644172
917.030952	9990.200770
917.336328	9580.712885
917.641665	9177.324795
917.946961	8699.950211
918.252218	8279.049153
918.557435	7773.635671
918.862612	7340.295566
919.167750	6967.482074
919.472848	6548.809206
919.777906	6178.904461
920.082925	5819.684440
920.387904	5459.388134
920.692843	5191.896949
920.997743	4945.424855
921.302603	4713.375502
921.607423	4550.236202
921.912204	4389.730905
922.216946	4269.670785
922.521647	4149.870284
922.826310	4047.396230
923.130932	3955.886684
923.435516	3855.197198
923.740059	3785.014254
924.044564	3707.561967
924.349028	3646.828666
924.653454	3585.679469
924.957840	3517.875950
925.262186	3469.750575
925.566493	3406.806728
925.870761	3351.999303
926.174989	3318.402534
926.479178	3278.262346
926.783328	3236.876994
927.087438	3209.690051
927.391509	3174.535565
927.695541	3145.470792
927.999533	3119.004734
928.303486	3097.211826
928.607400	3082.935279
928.911275	3071.194431
929.215110	3054.291443
929.518906	3041.963301
929.822663	3042.424566
930.126381	3041.673434
930.430060	3048.088303
930.733699	3049.053684
931.037299	3061.701939
931.340861	3056.081052
931.644383	3063.688153
931.947866	3063.320149
932.251309	3060.078687
932.554714	3058.616752
932.858080	3050.445042
933.161407	3045.058569
933.464694	3035.291334
933.767943	3030.973585
934.071153	3025.856814
934.374323	3013.576563
934.677455	3010.083044
934.980548	3003.849657
935.283602	2996.703822
935.586617	2994.657113
935.889593	3004.295799
936.192530	3009.233609
936.495428	3019.817512
936.798287	3044.630071
937.101108	3074.277097
937.403890	3124.834829
937.706632	3187.844211
938.009336	3267.164246
938.312002	3337.087570
938.614628	3400.792632
938.917216	3453.623924
939.219765	3484.662308
939.522275	3519.058101
939.824747	3525.488092
940.127179	3521.165303
940.429573	3514.609283
940.731929	3512.449148
941.034246	3497.287878
941.336524	3486.063749
941.638763	3468.593630
941.940964	3455.327834
942.243126	3413.244282
942.545250	3390.899367
942.847335	3357.542052
943.149381	3319.619972
943.451389	3288.571506
943.753359	3252.116402
944.055290	3229.484142
944.357182	3205.306768
944.659036	3191.042823
944.960851	3178.981862
945.262628	3168.627332
945.564367	3167.132630
945.866067	3165.012825
946.167729	3155.117040
946.469352	3156.863800
946.770937	3152.324241
947.072484	3136.341262
947.373992	3140.233033
947.675462	3132.020994
947.976893	3116.479116
948.278286	3106.411932
948.579641	3100.624688
948.880958	3094.134202
949.182236	3098.721652
949.483476	3091.732092
949.784678	3090.141608
950.085841	3088.435177
950.386967	3102.502517
950.688054	3119.975157
950.989103	3140.275883
951.290114	3156.720127
951.591087	3188.166845
951.892021	3215.479816
952.192917	3241.260277
952.493776	3267.912857
952.794596	3276.477778
953.095378	3280.203190
953.396122	3273.064917
953.696828	3266.922271
953.997496	3255.849376
954.298126	3233.882548
954.598718	3209.601831
954.899272	3187.768593
955.199788	3159.013852
955.500266	3127.841877
955.800706	3096.213678
956.101108	3059.168759
956.401472	3026.628111
956.701798	2996.171980
957.002087	2953.186061
957.302337	2924.020465
957.602550	2896.100035
957.902724	2868.436703
958.202861	2845.292766
958.502960	2824.286278
958.803022	2803.098308
959.103045	2781.375976
959.403031	2766.065992
959.702979	2752.676687
960.002889	2740.214955
960.302762	2725.189796
960.602596	2714.918445
960.902393	2705.599872
961.202153	2699.479911
961.501875	2689.768128
961.801559	2684.180009
962.101205	2676.804801
962.400814	2673.039059
962.700385	2664.824499
962.999918	2659.891730
963.299414	2650.300935
963.598873	2651.679691
963.898293	2642.945892
964.197677	2644.417908
964.497022	2642.928247
964.796331	2642.169554
965.095601	2636.601599
965.394835	2633.977679
965.694030	2633.700415
965.993189	2632.404839
966.292309	2632.193110
966.591393	2631.497431
966.890439	2629.110445
967.189447	2630.171608
967.488419	2629.821247
967.787353	2627.787142
968.086249	2630.806793
968.385108	2636.427680
968.683930	2636.664614
968.982714	2637.388019
969.281462	2645.423619
969.580172	2651.475524
969.878844	2655.747902
970.177480	2661.761998
970.476078	2671.047804
970.774639	2678.390244
971.073162	2688.180165
971.371649	2692.661751
971.670098	2698.562421
971.968510	2701.143492
972.266885	2709.045501
972.565223	2710.192363
972.863524	2711.843341
973.161788	2716.435832
973.460014	2718.333827
973.758204	2721.814743
974.056356	2721.958416
974.354471	2725.956051
974.652550	2727.919581
974.950591	2720.587222
975.248595	2723.992522
975.546563	2722.220556
975.844493	2717.875082
976.142386	2711.949205
976.440243	2705.471323
976.738062	2702.436548
977.035845	2694.796679
977.333590	2689.962213
977.631299	2684.946265
977.928971	2679.123732
978.226606	2670.563853
978.524204	2670.558812
978.821765	2665.459685
979.119290	2670.178205
979.416777	2666.707370
979.714228	2671.468740
980.011642	2672.744152
980.309020	2679.983249
980.606360	2696.314067
980.903664	2719.914228
981.200931	2753.760535
981.498162	2804.091415
981.795356	2875.204452
982.092513	2965.572176
982.389633	3067.526992
982.686717	3165.305212
982.983764	3239.362282
983.280775	3287.485137
983.577749	3295.061991
983.874686	3281.521452
984.171587	3248.839652
984.468451	3211.184753
984.765279	3166.207578
985.062070	3118.639251
985.358824	3077.868919
985.655543	3017.808612
985.952224	2966.734162
986.248869	2904.546488
986.545478	2845.857375
986.842050	2792.337965
987.138586	2746.997827
987.435086	2706.686241
987.731549	2677.351767
988.027975	2651.483086
988.324366	2636.157978
988.620719	2621.432767
988.917037	2609.497836
989.213318	2598.087184
989.509563	2593.779518
989.805772	2589.003025
990.101944	2584.445822
990.398080	2586.328693
990.694180	2579.528176
990.990244	2581.814339
991.286271	2584.077817
991.582262	2582.706624
991.878217	2585.973291
992.174136	2587.636872
992.470019	2590.170052
992.765865	2591.135433
993.061676	2598.934098
993.357450	2607.312496
993.653188	2614.062601
993.948890	2634.219654
994.244556	2652.299752
994.540186	2671.801456
994.835780	2704.374872
995.131337	2742.007085
995.426859	2780.581994
995.722345	2827.830209
996.017795	2879.257540
996.313208	2916.945206
996.608586	2944.290945
996.903928	2955.305866
997.199234	2956.805609
997.494504	2955.149590
997.789738	2941.228444
998.084936	2911.425143
998.380099	2883.247613
998.675225	2854.679394
998.970316	2824.797955
999.265371	2787.052315
999.560390	2753.437902
999.855373	2720.249465
1000.150320	2695.767102
1000.445232	2667.876918
1000.740108	2648.617190
1001.034948	2628.792852
1001.329752	2615.645523
1001.624521	2603.418204
1001.919254	2592.597367
1002.213951	2586.583271
1002.508613	2575.802763
1002.803239	2571.689182
1003.097829	2563.709035
1003.392384	2558.539332
1003.686903	2558.022614
1003.981386	2552.542880
1004.275834	2545.457538
1004.570246	2546.992569
1004.864623	2541.583411
1005.158964	2539.912269
1005.453270	2540.978473
1005.747540	2538.473019
1006.041775	2536.688451
1006.335974	2533.381454
1006.630138	2534.329191
1006.924266	2532.889941
1007.218359	2531.619571
1007.512416	2530.213089
1007.806438	2527.185876
1008.100425	2528.047913
1008.394376	2526.217974
1008.688292	2529.746782
1008.982172	2525.265196
1009.276017	2526.911133
1009.569827	2524.985412
1009.863602	2527.591689
1010.157341	2525.920546
1010.451045	2525.764270
1010.744714	2524.256965
1011.038347	2522.910977
1011.331945	2523.042047
1011.625508	2523.515916
1011.919036	2519.281347
1012.212528	2521.554907
1012.505986	2516.521315
1012.799408	2522.134640
1013.092795	2516.609535
1013.386147	2518.366377
1013.679464	2517.141377
1013.972745	2514.494771
1014.265992	2515.780265
1014.559204	2517.418640
1014.852380	2516.264216
1015.145521	2517.138856
1015.438628	2515.727333
1015.731699	2516.274298
1016.024736	2513.688186
1016.317737	2517.504340
1016.610703	2518.623476
1016.903635	2522.545494
1017.196531	2521.839732
1017.489393	2520.889475
1017.782219	2525.048427
1018.075011	2530.039169
1018.367768	2527.427851
1018.660490	2527.841226
1018.953177	2527.841226
1019.245829	2527.841226
