Dividing Wavelength (nm)	Counts (n)	Blue Motor Position (mm): 7.200000	Red Motor Position (mm): 0.000000	
326.493990	2156.335914
326.888308	2156.335914
327.282561	2156.335914
327.676750	2115.565582
328.070874	2112.944182
328.464933	2112.525766
328.858929	2118.852414
329.252859	2121.801489
329.646726	2133.040742
330.040528	2142.016516
330.434265	2157.409679
330.827938	2174.262257
331.221547	2192.097859
331.615091	2209.938503
332.008571	2226.052551
332.401986	2245.644995
332.795338	2266.354055
333.188625	2283.685542
333.581847	2304.177833
333.975006	2319.911274
334.368100	2338.558502
334.761129	2356.426872
335.154095	2373.092926
335.546996	2389.262427
335.939833	2408.726322
336.332606	2424.923549
336.725315	2434.952925
337.117960	2449.640327
337.510540	2460.093159
337.903056	2471.324850
338.295508	2480.320789
338.687896	2489.034423
339.080220	2496.780156
339.472480	2503.230313
339.864676	2509.277177
340.256807	2514.739267
340.648875	2518.522653
341.040879	2522.754702
341.432818	2525.562624
341.824694	2524.874507
342.216506	2527.982378
342.608253	2527.942049
342.999937	2527.831143
343.391557	2527.884076
343.783113	2529.966072
344.174605	2527.881555
344.566033	2525.020700
344.957397	2526.467511
345.348697	2524.269568
345.739934	2521.781759
346.131106	2522.177489
346.522215	2518.494927
346.913260	2519.135153
347.304241	2515.868485
347.695159	2510.648371
348.086012	2512.387569
348.476802	2509.619975
348.867528	2504.987155
349.258191	2503.474809
349.648789	2501.438182
350.039324	2498.557163
350.429796	2501.869201
350.820203	2496.691936
351.210548	2501.612102
351.600828	2496.447440
351.991045	2496.356699
352.381198	2494.950218
352.771288	2495.199755
353.161314	2495.940804
353.551276	2492.921153
353.941175	2494.173880
354.331010	2492.827892
354.720782	2493.521050
355.110490	2493.100114
355.500135	2495.955928
355.889717	2494.516678
356.279235	2492.626246
356.668689	2493.921822
357.058080	2491.643221
357.447408	2494.362923
357.836672	2495.532471
358.225873	2495.245125
358.615010	2496.265959
359.004084	2494.557007
359.393095	2493.972234
359.782043	2496.339055
360.170927	2497.531288
360.559748	2496.886021
360.948505	2499.613285
361.337199	2499.704026
361.725830	2498.484066
362.114398	2501.120590
362.502903	2498.559684
362.891344	2499.003305
363.279722	2501.410456
363.668037	2503.074037
364.056289	2501.221413
364.444478	2502.451454
364.832603	2502.569922
365.220665	2504.225941
365.608665	2504.273832
365.996601	2505.007319
366.384474	2505.178719
366.772284	2506.151661
367.160031	2504.402381
367.547715	2505.692916
367.935336	2506.812052
368.322893	2502.925323
368.710388	2503.416835
369.097820	2503.714263
369.485189	2502.829541
369.872495	2507.142248
370.259738	2503.366424
370.646918	2505.846672
371.034035	2507.414470
371.421090	2508.009327
371.808081	2511.303721
372.195010	2506.716271
372.581875	2509.148627
372.968678	2509.025119
373.355418	2509.294821
373.742096	2508.115191
374.128710	2510.698782
374.515262	2509.872033
374.901751	2513.025275
375.288177	2508.621827
375.674540	2510.040912
376.060841	2510.872702
376.447079	2510.897908
376.833254	2511.608710
377.219367	2511.454955
377.605417	2513.567199
377.991404	2514.779596
378.377329	2509.451097
378.763191	2510.635768
379.148991	2510.073679
379.534727	2512.339678
379.920402	2513.670542
380.306013	2510.562671
380.691563	2512.811026
381.077049	2512.022085
381.462474	2513.257168
381.847835	2511.636437
382.233134	2515.994514
382.618371	2512.314472
383.003545	2515.543331
383.388657	2514.119205
383.773706	2515.989473
384.158693	2515.472755
384.543618	2513.463855
384.928480	2516.995183
385.313280	2518.807478
385.698017	2517.368229
386.082692	2516.027282
386.467305	2518.787313
386.851856	2519.036851
387.236344	2514.882940
387.620770	2513.421005
388.005133	2513.257168
388.389435	2516.080214
388.773674	2515.097189
389.157851	2518.547859
389.541965	2518.041223
389.926018	2521.053312
390.310008	2518.051305
390.693936	2518.973836
391.077802	2518.237828
391.461606	2521.065915
391.845348	2517.779083
392.229027	2519.447705
392.612645	2520.960051
392.996200	2519.346882
393.379694	2523.609177
393.763125	2520.216481
394.146494	2517.413599
394.529801	2523.440298
394.913047	2522.810154
395.296230	2523.838550
395.679351	2520.793693
396.062410	2521.466687
396.445408	2521.058353
396.828343	2521.693539
397.211217	2521.370905
397.594028	2523.034486
397.976778	2525.275278
398.359466	2522.157325
398.742092	2520.347551
399.124656	2524.987933
399.507158	2524.945083
399.889598	2524.902233
400.271977	2523.672192
400.654294	2524.498941
401.036549	2524.856863
401.418742	2524.635052
401.800874	2526.638911
402.182944	2525.192099
402.564952	2525.509692
402.946898	2525.499610
403.328783	2524.309897
403.710606	2524.224198
404.092367	2526.142357
404.474067	2525.570186
404.855705	2525.202182
405.237282	2524.597243
405.618797	2527.836185
406.000250	2527.074970
406.381642	2524.975330
406.762972	2521.675895
407.144240	2523.657068
407.525447	2522.119516
407.906593	2523.702438
408.287677	2528.378109
408.668700	2524.670340
409.049661	2530.480270
409.430560	2528.582275
409.811399	2527.604292
410.192176	2527.914323
410.572891	2527.909281
410.953545	2532.521937
411.334138	2528.935156
411.714669	2526.081863
412.095139	2526.217974
412.475547	2528.978006
412.855894	2529.731658
413.236180	2527.503468
413.616405	2529.527492
413.996568	2528.816689
414.376670	2528.494055
414.756711	2529.439272
415.136691	2530.482790
415.516609	2530.881042
415.896466	2532.032945
416.276262	2531.823737
416.655997	2529.144364
417.035670	2530.447502
417.415283	2530.434899
417.794834	2531.387678
418.174324	2528.521782
418.553753	2529.424148
418.933121	2532.179139
419.312428	2529.633356
419.691674	2532.229550
420.070859	2532.093439
420.449983	2529.608150
420.829045	2529.129241
421.208047	2532.842050
421.586988	2532.126207
421.965867	2531.299457
422.344686	2532.360620
422.723444	2532.486649
423.102141	2534.689633
423.480777	2532.153933
423.859352	2533.802390
424.237866	2532.779036
424.616319	2531.768285
424.994712	2533.651156
425.373044	2534.230888
425.751314	2529.577903
426.129524	2529.424148
426.507673	2530.684437
426.885762	2530.197965
427.263789	2531.415404
427.641756	2535.607123
428.019662	2533.389016
428.397508	2531.969931
428.775292	2533.502442
429.153016	2532.403470
429.530679	2533.257946
429.908282	2533.535209
430.285824	2533.968748
430.663305	2534.341794
431.040726	2533.535209
431.418086	2535.844057
431.795385	2532.569828
432.172624	2535.387833
432.549802	2535.871784
432.926920	2534.104859
433.303977	2535.816331
433.680974	2534.198121
434.057910	2539.090561
434.434786	2533.520086
434.811601	2533.676361
435.188355	2536.345652
435.565050	2538.442772
435.941683	2534.503111
436.318257	2535.075282
436.694770	2534.384643
437.071222	2539.438400
437.447614	2535.511341
437.823946	2536.176774
438.200218	2538.399923
438.576429	2536.640560
438.952580	2537.852957
439.328670	2537.333718
439.704700	2534.414890
440.080670	2539.700540
440.456580	2533.499921
440.832429	2540.113915
441.208218	2537.260622
441.583947	2540.086188
441.959616	2539.088040
442.335224	2538.820859
442.710773	2536.993441
443.086261	2539.070396
443.461689	2537.900848
443.837057	2539.110725
444.212365	2540.197094
444.587612	2536.355735
444.962800	2536.486805
445.337927	2535.740714
445.712995	2534.518234
446.088002	2539.524100
446.462949	2538.578883
446.837837	2539.703061
447.212664	2537.437062
447.587431	2537.250539
447.962139	2536.383461
448.336786	2539.176260
448.711374	2538.520910
449.085901	2540.446631
449.460369	2538.962011
449.834776	2538.762886
450.209124	2539.650129
450.583412	2538.828421
450.957640	2539.055272
451.331808	2540.507125
451.705917	2538.818338
452.079965	2541.406971
452.453954	2537.835313
452.827883	2540.285314
453.201752	2538.969573
453.575562	2539.829090
453.949311	2539.660211
454.323001	2541.167516
454.696632	2538.669624
455.070202	2538.157947
455.443713	2541.815304
455.817164	2539.635005
456.190556	2540.547454
456.563888	2541.109543
456.937160	2540.454193
457.310373	2541.653987
457.683526	2539.997968
458.056619	2541.704399
458.429653	2539.834131
458.802628	2545.492826
459.175542	2538.604089
459.548398	2540.484440
459.921194	2543.614996
460.293930	2543.582229
460.666607	2541.563247
461.039224	2541.059131
461.411782	2544.600542
461.784280	2544.852599
462.156719	2542.909235
462.529099	2544.053577
462.901419	2540.257588
463.273680	2540.151723
463.645882	2538.767927
464.018024	2539.987886
464.390106	2536.759027
464.762130	2543.045346
465.134094	2542.024512
465.505999	2541.207845
465.877845	2541.359080
466.249631	2543.534338
466.621358	2542.107691
466.993026	2545.208001
467.364634	2548.812426
467.736184	2545.979297
468.107674	2540.154244
468.479105	2543.506611
468.850477	2542.516025
469.221790	2542.581560
469.593043	2542.188350
469.964238	2543.995603
470.335373	2545.293700
470.706449	2544.797147
471.077467	2540.940664
471.448425	2541.694317
471.819324	2542.079965
472.190164	2545.825542
472.560945	2545.560882
472.931667	2545.649102
473.302330	2539.173740
473.672934	2546.541386
474.043479	2540.683565
474.413965	2545.220604
474.784393	2543.032743
475.154761	2544.015768
475.525070	2543.191539
475.895321	2544.139276
476.265513	2542.145500
476.635645	2545.840666
477.005719	2547.128680
477.375734	2546.359904
477.745691	2545.835624
478.115588	2545.260933
478.485427	2544.376210
478.855207	2545.880995
479.224928	2545.712116
479.594591	2544.986190
479.964194	2545.949050
480.333739	2544.507280
480.703226	2546.327137
481.072653	2547.431150
481.442022	2544.096426
481.811333	2541.464944
482.180584	2538.185673
482.549777	2546.823691
482.918912	2540.413863
483.287988	2546.080120
483.657005	2547.862168
484.025964	2545.215563
484.394864	2546.402754
484.763706	2546.838814
485.132489	2546.927034
485.501213	2546.034750
485.869879	2547.375697
486.238487	2548.341078
486.607036	2541.434697
486.975527	2544.532486
487.343959	2545.770089
487.712333	2546.468289
488.080648	2545.765048
488.448905	2546.735470
488.817104	2545.833104
489.185244	2546.211190
489.553326	2544.933258
489.921350	2548.104144
490.289315	2547.078269
490.657222	2547.310162
491.025070	2544.903011
491.392861	2549.160265
491.760593	2543.746066
492.128267	2548.119267
492.495883	2545.490305
492.863440	2547.496685
493.230939	2547.216901
493.598380	2550.304607
493.965763	2546.349822
494.333088	2547.484082
494.700354	2547.121119
495.067563	2547.289997
495.434713	2548.091541
495.801805	2548.986346
496.168839	2548.235214
496.535815	2548.003321
496.902733	2548.787220
497.269593	2547.695810
497.636395	2545.477702
498.003139	2547.040460
498.369825	2547.249668
498.736453	2546.501057
499.103023	2550.102961
499.469535	2547.501726
499.835989	2547.794113
500.202385	2544.406457
500.568723	2540.877650
500.935003	2544.724050
501.301226	2542.516025
501.667390	2546.241437
502.033497	2548.109185
502.399546	2549.533311
502.765537	2546.304452
503.131470	2548.240255
503.497345	2549.989535
503.863163	2550.420554
504.228923	2548.431819
504.594625	2547.131201
504.960269	2548.845193
505.325856	2548.787220
505.691385	2548.918290
506.056856	2547.983156
506.422270	2546.536345
506.787625	2548.782179
507.152924	2546.768238
507.518164	2550.355019
507.883347	2550.539021
508.248472	2551.277550
508.613540	2552.568085
508.978550	2549.588763
509.343503	2551.333003
509.708398	2546.206149
510.073236	2549.918959
510.438016	2550.576830
510.802738	2548.114226
511.167403	2548.328475
511.532010	2549.878630
511.896561	2547.721016
512.261053	2549.402241
512.625488	2550.773435
512.989866	2551.290153
513.354186	2548.971222
513.718449	2547.796633
514.082655	2549.215718
514.446803	2546.138094
514.810894	2550.571788
515.174927	2551.706048
515.538904	2546.964843
515.902822	2551.098589
516.266684	2548.628424
516.630488	2550.486089
516.994235	2551.476676
517.357925	2550.677653
517.721558	2549.417364
518.085133	2550.251675
518.448651	2547.950388
518.812112	2546.823691
519.175516	2545.739843
519.538863	2544.761859
519.902152	2546.110367
520.265385	2550.420554
520.628560	2549.581202
520.991678	2553.445246
521.354739	2551.769062
521.717743	2547.428629
522.080690	2551.753939
522.443580	2550.198743
522.806413	2552.313507
523.169189	2550.869217
523.531908	2549.503064
523.894569	2552.273178
524.257174	2550.705379
524.619722	2548.436860
524.982213	2550.304607
525.344647	2550.962478
525.707025	2555.023127
526.069345	2551.842159
526.431608	2550.511295
526.793815	2552.726882
527.155964	2550.818805
527.518057	2553.679660
527.880093	2550.528939
528.242072	2548.774617
528.603995	2550.692776
528.965860	2551.832077
529.327669	2551.088507
529.689421	2549.785368
530.051117	2552.631100
530.412755	2551.365770
530.774337	2548.963660
531.135862	2547.494164
531.497331	2552.331151
531.858743	2551.373332
532.220098	2552.565565
532.581396	2550.811243
532.942638	2552.126984
533.303824	2552.467262
533.664953	2550.549103
534.026025	2553.178065
534.387040	2551.895091
534.747999	2548.910728
535.108902	2553.530946
535.469748	2550.841490
535.830537	2552.568085
536.191270	2551.658157
536.551947	2550.599515
536.912567	2548.210008
537.273131	2549.261088
537.633638	2547.279915
537.994089	2554.939948
538.354483	2552.497509
538.714821	2554.750905
539.075103	2552.421892
539.435328	2553.835936
539.795497	2555.703683
540.155609	2555.123950
540.515665	2553.866182
540.875665	2557.939435
541.235609	2553.997252
541.595496	2555.265103
541.955328	2555.111348
542.315102	2556.038920
542.674821	2554.902140
543.034483	2557.407593
543.394090	2557.705021
543.753640	2556.411965
544.113134	2557.551266
544.472571	2558.924980
544.831953	2561.392625
545.191278	2562.214333
545.550548	2558.796431
545.909761	2559.741647
546.268918	2559.393808
546.628019	2559.892882
546.987064	2560.928839
547.346053	2561.105279
547.704986	2558.935063
548.063863	2562.378171
548.422684	2561.914385
548.781449	2562.960424
549.140158	2561.629559
549.498811	2565.138203
549.857408	2563.038562
550.215949	2563.048644
550.574434	2563.235167
550.932864	2564.750034
551.291237	2564.276165
551.649555	2564.644169
552.007817	2563.429251
552.366022	2563.159550
552.724173	2565.826320
553.082267	2564.722307
553.440305	2564.775239
553.798288	2566.201886
554.156215	2565.203738
554.514086	2564.639128
554.871902	2560.031514
555.229661	2563.540157
555.587365	2558.924980
555.945014	2564.195507
556.302606	2565.430589
556.660143	2565.743141
557.017625	2566.892524
557.375050	2567.326063
557.732421	2567.149623
558.089735	2568.359500
558.446994	2564.911351
558.804197	2567.028635
559.161345	2565.854046
559.518437	2566.650549
559.875474	2567.328584
560.232455	2567.346228
560.589381	2568.213306
560.946251	2569.135837
561.303065	2566.131310
561.659825	2569.871846
562.016528	2568.616599
562.373177	2568.548543
562.729770	2566.597617
563.086307	2570.262535
563.442789	2566.000240
563.799216	2570.272618
564.155587	2568.972000
564.511904	2570.340673
564.868164	2566.743810
565.224370	2566.516958
565.580520	2568.109963
565.936615	2572.218503
566.292654	2567.293296
566.648638	2569.667679
567.004567	2568.432597
567.360441	2570.297823
567.716260	2569.710529
568.072023	2566.789180
568.427732	2567.873028
568.783385	2566.867318
569.138982	2569.682803
569.494525	2570.766651
569.850013	2568.775395
570.205445	2569.811352
570.560823	2567.280693
570.916145	2570.360838
571.271412	2566.746331
571.626625	2568.306568
571.981782	2569.450910
572.336884	2567.323543
572.691931	2565.443192
573.046923	2564.450085
573.401860	2561.387584
573.756743	2568.800601
574.111570	2567.313460
574.466342	2570.272618
574.821059	2567.010991
575.175722	2568.130127
575.530330	2569.337484
575.884882	2567.570559
576.239380	2567.862946
576.593823	2571.669017
576.948211	2569.879408
577.302544	2567.222720
577.656823	2566.832030
578.011047	2569.302196
578.365216	2565.546536
578.719330	2567.104252
579.073389	2565.831361
579.427394	2567.578121
579.781344	2567.240364
580.135239	2569.493759
580.489080	2569.032494
580.842866	2566.703481
581.196597	2570.476784
581.550273	2565.191135
581.903895	2564.661813
582.257463	2565.652400
582.610975	2568.417473
582.964434	2565.443192
583.317837	2565.964952
583.671186	2566.627863
584.024481	2565.549057
584.377721	2564.901268
584.730906	2560.986812
585.084037	2562.226936
585.437113	2565.092832
585.790135	2562.320198
586.143103	2564.150136
586.496016	2566.310271
586.848874	2562.910012
587.201679	2565.302040
587.554428	2564.192986
587.907124	2564.014025
588.259765	2563.046124
588.612352	2564.477811
588.964884	2561.611915
589.317362	2562.665517
589.669786	2558.788869
590.022155	2559.081256
590.374470	2558.748540
590.726731	2559.267779
591.078937	2555.703683
591.431090	2561.662327
591.783188	2561.339693
592.135232	2563.159550
592.487222	2561.581668
592.839157	2562.005125
593.191038	2558.677964
593.542866	2561.382543
593.894639	2560.218036
594.246358	2561.841288
594.598022	2561.843808
594.949633	2560.333983
595.301190	2560.371792
595.652692	2559.640824
596.004141	2559.577810
596.355535	2563.272976
596.706876	2561.755588
597.058162	2558.347768
597.409395	2561.458160
597.760573	2559.197203
598.111698	2559.252655
598.462768	2555.779300
598.813785	2561.324570
599.164748	2561.974878
599.515657	2559.580330
599.866511	2557.281564
600.217312	2560.195351
600.568060	2559.781977
600.918753	2563.008315
601.269392	2561.201061
601.619978	2556.916081
601.970510	2559.870197
602.320988	2556.684187
602.671412	2559.968499
603.021783	2561.891699
603.372100	2557.064795
603.722363	2560.034034
604.072572	2561.039744
604.422728	2556.749722
604.772830	2561.979920
605.122878	2560.104610
605.472872	2560.212995
605.822813	2558.428427
606.172701	2556.543035
606.522534	2560.210475
606.872314	2560.013870
607.222041	2560.825495
607.571714	2557.891544
607.921333	2558.466235
608.270899	2560.770043
608.620411	2555.169321
608.969870	2561.437996
609.319276	2564.402194
609.668627	2569.619788
610.017926	2573.962742
610.367171	2571.091805
610.716362	2575.480130
611.065500	2572.815880
611.414585	2569.234140
611.763616	2567.953687
612.112594	2567.250446
612.461518	2563.557801
612.810389	2564.981927
613.159207	2564.727348
613.507971	2562.531926
613.856682	2565.314643
614.205340	2561.110321
614.553945	2566.040569
614.902496	2561.246432
615.250994	2562.080743
615.599439	2564.142575
615.947830	2566.728687
616.296169	2561.990002
616.644454	2563.353634
616.992686	2563.212482
617.340864	2563.318346
617.688990	2562.899930
618.037063	2563.401525
618.385082	2563.691391
618.733048	2561.659806
619.080961	2561.659806
619.428821	2568.109963
619.776628	2563.381360
620.124382	2562.579817
620.472083	2565.153326
620.819731	2563.469581
621.167326	2563.429251
621.514868	2564.132492
621.862357	2566.464026
622.209793	2561.208623
622.557176	2564.011505
622.904506	2564.296330
623.251783	2560.525547
623.599007	2560.419682
623.946179	2563.840105
624.293297	2560.565876
624.640363	2566.862277
624.987376	2561.886658
625.334336	2558.768705
625.681243	2560.666699
626.028097	2558.849363
626.374899	2565.821279
626.721647	2566.610219
627.068343	2566.615261
627.414987	2565.107956
627.761577	2563.913202
628.108115	2565.470919
628.454600	2563.913202
628.801032	2565.087791
629.147412	2566.332956
629.493739	2567.263049
629.840014	2564.734910
630.186236	2565.085270
630.532405	2568.871177
630.878521	2561.932029
631.224585	2566.156516
631.570597	2565.002091
631.916556	2567.852864
632.262462	2563.366237
632.608316	2568.102401
632.954117	2564.618964
633.299866	2566.239695
633.645562	2563.525033
633.991206	2566.572411
634.336797	2565.367575
634.682336	2564.230795
635.027823	2563.898079
635.373257	2565.881773
635.718639	2564.177863
636.063968	2571.023750
636.409245	2566.007802
636.754470	2563.215002
637.099642	2562.456309
637.444762	2564.697102
637.789829	2564.266083
638.134845	2563.547718
638.479808	2559.706359
638.824719	2566.902606
639.169577	2565.647359
639.514383	2567.290775
639.859137	2564.568552
640.203839	2566.592575
640.548489	2564.563511
640.893086	2563.083932
641.237632	2562.100907
641.582125	2566.136351
641.926566	2568.538461
642.270955	2563.880435
642.615292	2564.497976
642.959576	2561.506051
643.303809	2562.027811
643.647990	2567.043759
643.992118	2567.757082
644.336195	2565.276834
644.680219	2568.208265
645.024192	2568.296485
645.368112	2567.875549
645.711981	2567.406722
646.055797	2567.510065
646.399562	2570.237330
646.743274	2570.365879
647.086935	2570.945612
647.430544	2569.889490
647.774101	2571.888307
648.117606	2573.912331
648.461059	2572.699933
648.804460	2577.294945
649.147810	2576.256467
649.491108	2574.088771
649.834354	2571.568194
650.177548	2573.841755
650.520690	2573.398133
650.863781	2572.851168
651.206820	2575.515418
651.549807	2574.920562
651.892742	2575.558267
652.235626	2574.749162
652.578458	2576.695048
652.921238	2574.479461
653.263967	2575.303689
653.606644	2575.787640
653.949269	2574.474419
654.291843	2574.618092
654.634365	2571.989131
654.976836	2576.760583
655.319255	2573.866960
655.661622	2574.499625
656.003938	2576.183371
656.346203	2576.062383
656.688416	2578.192270
657.030577	2575.981724
657.372687	2573.912331
657.714746	2578.570357
658.056753	2577.804102
658.398708	2575.901066
658.740612	2579.775193
659.082465	2577.390727
659.424266	2576.185891
659.766016	2578.041036
660.107715	2579.306365
660.449362	2576.780747
660.790958	2583.016655
661.132503	2583.803075
661.473996	2585.012952
661.815438	2586.318610
662.156829	2585.872468
662.498168	2583.820719
662.839456	2588.496389
663.180693	2586.444639
663.521879	2590.001173
663.863013	2586.336254
664.204097	2589.875144
664.545129	2588.788776
664.886110	2590.364136
665.227040	2589.681060
665.567918	2591.599219
665.908746	2595.627101
666.249522	2595.533840
666.590248	2596.123655
666.930922	2600.643049
667.271545	2599.042483
667.612118	2601.174891
667.952639	2599.097935
668.293109	2601.396702
668.633528	2603.171188
668.973896	2603.130858
669.314213	2602.268821
669.654480	2603.708071
669.994695	2603.854264
670.334859	2604.139089
670.674973	2604.292844
671.015035	2608.434152
671.355047	2610.816097
671.695008	2607.206631
672.034918	2605.689244
672.374777	2611.332816
672.714585	2611.854575
673.054342	2617.752725
673.394049	2615.259875
673.733705	2619.242386
674.073310	2618.513939
674.412864	2623.144239
674.752368	2621.768004
675.091820	2619.217180
675.431223	2623.106431
675.770574	2622.705659
676.109875	2622.922428
676.449125	2624.026441
676.788324	2619.912860
677.127473	2621.720113
677.466571	2621.241204
677.805619	2625.180865
678.144616	2627.565331
678.483562	2626.549539
678.822458	2624.775052
679.161303	2626.536936
679.500098	2631.802421
679.838842	2631.565487
680.177535	2634.683440
680.516179	2635.308543
680.854771	2635.464819
681.193314	2643.613844
681.531805	2641.736015
681.870247	2653.159269
682.208638	2658.144970
682.546978	2665.321053
682.885268	2668.794408
683.223508	2668.343225
683.561697	2665.933553
683.899836	2667.367761
684.237925	2667.481187
684.575963	2666.394819
684.913951	2677.944102
685.251889	2670.193328
685.589776	2679.431242
685.927614	2681.162879
686.265401	2676.880419
686.603137	2687.660926
686.940824	2691.835002
687.278460	2698.524613
687.616046	2708.979966
687.953582	2715.566233
688.291068	2713.600183
688.628504	2722.149980
688.965889	2727.501165
689.303224	2733.853019
689.640510	2735.735890
689.977745	2725.804817
690.314930	2727.725496
690.652065	2727.803634
690.989150	2717.486913
691.326185	2718.255689
691.663170	2715.946840
692.000105	2711.114894
692.336990	2718.916080
692.673825	2710.673793
693.010610	2709.201777
693.347345	2699.852957
693.684030	2697.256762
694.020665	2699.363965
694.357251	2697.541588
694.693786	2706.512321
695.030272	2695.323480
695.366707	2700.236084
695.703093	2696.843388
696.039429	2700.447813
696.375716	2705.877136
696.711952	2696.450178
697.048139	2705.244471
697.384276	2710.570450
697.720363	2709.103474
698.056400	2711.286294
698.392388	2715.503219
698.728326	2714.643702
699.064214	2714.419371
699.400053	2727.864128
699.735842	2718.971533
700.071581	2718.830380
700.407270	2713.438866
700.742910	2713.509442
701.078501	2719.049671
701.414042	2714.835266
701.749533	2715.092365
702.084974	2713.814432
702.420366	2714.255533
702.755709	2717.345761
703.091002	2712.367621
703.426246	2713.625389
703.761440	2717.197047
704.096584	2720.010010
704.431679	2718.858107
704.766725	2719.394990
705.101721	2719.470607
705.436668	2718.686707
705.771565	2725.119220
706.106413	2729.235322
706.441212	2734.919223
706.775961	2730.793038
707.110661	2732.524675
707.445311	2749.536048
707.779913	2740.338463
708.114465	2753.173241
708.448967	2757.901843
708.783421	2759.099117
709.117825	2778.094185
709.452180	2780.032509
709.786485	2782.162396
710.120742	2800.300468
710.454949	2804.277938
710.789107	2812.036274
711.123216	2825.276864
711.457275	2845.575070
711.791286	2860.048223
712.125247	2854.926411
712.459159	2874.042466
712.793023	2889.402862
713.126837	2866.311857
713.460602	2883.056049
713.794318	2859.871783
714.127985	2876.525234
714.461602	2867.864532
714.795171	2855.997656
715.128691	2852.025227
715.462162	2830.597802
715.795584	2841.695903
716.128957	2834.003102
716.462281	2810.975111
716.795556	2835.089470
717.128782	2818.514157
717.461960	2794.553552
717.795088	2809.664411
718.128167	2810.433187
718.461198	2803.347845
718.794180	2798.576393
719.127113	2811.360759
719.459997	2803.141158
719.792833	2783.029475
720.125619	2795.743265
720.458357	2781.897736
720.791046	2786.371760
721.123686	2801.510345
721.456278	2790.182872
721.788821	2788.622635
722.121315	2780.410595
722.453761	2791.649848
722.786158	2800.388688
723.118506	2797.129582
723.450805	2800.043369
723.783056	2800.973462
724.115259	2792.978192
724.447412	2800.761733
724.779518	2805.349183
725.111574	2808.222641
725.443582	2816.028868
725.775542	2814.382931
726.107453	2836.432938
726.439315	2832.407577
726.771129	2833.410766
727.102895	2847.359639
727.434612	2858.752647
727.766281	2860.345651
728.097901	2875.564895
728.429473	2865.860673
728.760996	2871.821838
729.092471	2870.057434
729.423897	2873.132538
729.755276	2884.719630
730.086606	2876.653784
730.417887	2877.553630
730.749120	2885.869013
731.080305	2925.779828
731.411442	2938.511262
731.742530	2924.506937
732.073570	2950.627675
732.404562	2963.220478
732.735506	2933.102104
733.066401	2966.577886
733.397249	2965.191569
733.728048	2941.578804
734.058798	2915.684918
734.389501	2911.319278
734.720156	2901.068092
735.050762	2869.147506
735.381320	2864.923019
735.711831	2871.612630
736.042293	2865.787577
736.372707	2874.841489
736.703073	2860.524612
737.033391	2862.697349
737.363661	2862.102493
737.693883	2870.185983
738.024056	2890.980743
738.354182	2895.336300
738.684260	2892.533418
739.014290	2908.465985
739.344272	2920.431164
739.674207	2917.383786
740.004093	2931.370468
740.333931	2939.169133
740.663722	2936.401539
740.993464	2955.636062
741.323159	2974.116932
741.652806	2924.738830
741.982405	2920.279929
742.311956	2959.784931
742.641460	2940.119390
742.970915	2907.455234
743.300323	2918.921338
743.629683	2907.538413
743.958996	2894.789335
744.288260	2889.685167
744.617477	2898.129099
744.946647	2906.479771
745.275768	2877.306613
745.604842	2881.803322
745.933869	2882.945144
746.262847	2872.210007
746.591778	2880.469937
746.920662	2879.181922
747.249498	2878.612272
747.578286	2887.522512
747.907027	2905.723598
748.235720	2912.584608
748.564365	2897.259500
748.892963	2902.870304
749.221514	2948.855710
749.550017	2923.667585
749.878473	2897.236815
750.206881	2916.972932
750.535242	2909.940523
750.863555	2894.736403
751.191821	2910.174936
751.520039	2919.904363
751.848210	2897.476270
752.176334	2898.224881
752.504411	2923.649941
752.832440	2912.967736
753.160421	2890.206926
753.488356	2911.704927
753.816243	2935.214348
754.144082	2903.591189
754.471875	2892.997205
754.799620	2909.219638
755.127318	2912.566964
755.454969	2904.763258
755.782572	2899.649007
756.110129	2916.574681
756.437638	2926.611618
756.765100	2904.851478
757.092515	2905.285017
757.419882	2917.046029
757.747203	2913.696182
758.074477	2935.534461
758.401703	2939.423711
758.728882	2913.199629
759.056014	2918.482758
759.383099	2960.435240
759.710138	2959.177472
760.037129	2942.778599
760.364073	2946.274639
760.690970	2971.364462
761.017820	2978.802684
761.344623	2957.539097
761.671379	2975.712457
761.998088	2992.214674
762.324751	3022.587626
762.651366	3105.859926
762.977935	3266.392949
763.304456	3458.281950
763.630931	3571.143302
763.957359	3527.764173
764.283740	3449.583439
764.610074	3382.465517
764.936362	3246.445104
765.262602	3159.238183
765.588796	3073.283990
765.914943	3018.383304
766.241044	3019.441946
766.567097	3004.971314
766.893104	2957.506330
767.219064	2921.507450
767.544978	2924.227153
767.870845	2922.707245
768.196665	2900.165725
768.522438	2891.310939
768.848165	2889.793551
769.173846	2884.828015
769.499479	2881.163096
769.825066	2868.406456
770.150607	2858.823223
770.476101	2854.268540
770.801548	2867.408308
771.126949	2861.129551
771.452303	2849.645802
771.777611	2843.389730
772.102872	2847.044567
772.428087	2841.481653
772.753256	2843.999710
773.078378	2838.371262
773.403453	2829.544201
773.728482	2828.903975
774.053465	2818.443580
774.378401	2817.808395
774.703291	2826.917760
775.028135	2815.544917
775.352932	2802.989923
775.677683	2798.120169
776.002388	2808.709112
776.327046	2821.067501
776.651658	2795.339972
776.976224	2778.585697
777.300743	2782.911007
777.625216	2800.925571
777.949643	2805.649132
778.274024	2788.390742
778.598359	2776.102929
778.922647	2780.203908
779.246889	2785.842438
779.571086	2793.179838
779.895236	2788.166410
780.219339	2780.718106
780.543397	2775.497991
780.867409	2789.847635
781.191374	2802.321970
781.515294	2785.444187
781.839167	2783.105092
782.162995	2791.231432
782.486776	2786.580967
782.810511	2794.142698
783.134201	2799.882052
783.457844	2789.734209
783.781441	2774.109153
784.104993	2776.967487
784.428498	2782.212808
784.751958	2793.338634
785.075372	2784.665329
785.398739	2772.755603
785.722061	2774.262908
786.045337	2790.815537
786.368568	2804.270376
786.691752	2774.618309
787.014891	2779.296500
787.337983	2805.878504
787.661030	2836.740448
787.984031	2863.146012
788.306987	2895.217833
788.629897	2905.141344
788.952760	2894.779253
789.275579	2892.109962
789.598351	2901.468864
789.921078	2879.111346
790.243759	2825.738130
790.566395	2827.787359
790.888984	2835.805314
791.211529	2811.363280
791.534027	2804.988741
791.856480	2809.992086
792.178888	2788.700773
792.501249	2769.831734
792.823566	2778.436983
793.145836	2796.988430
793.468062	2782.164917
793.790241	2767.666558
794.112375	2774.106632
794.434464	2789.063736
794.756507	2803.980510
795.078505	2793.288223
795.400457	2786.457459
795.722364	2817.896615
796.044226	2835.517968
796.366042	2850.033971
796.687812	2854.717203
797.009538	2857.799868
797.331218	2843.367045
797.652852	2841.118690
797.974442	2844.554237
798.295986	2856.703417
798.617484	2835.923781
798.938938	2809.528300
799.260346	2826.275013
799.581709	2834.988647
799.903026	2817.826039
800.224299	2805.210552
800.545526	2808.620892
800.866708	2800.575211
801.187845	2779.203239
801.508936	2800.086219
801.829983	2806.417908
802.150984	2778.321037
802.471940	2776.249123
802.792851	2781.015534
803.113717	2783.190792
803.434538	2788.330248
803.755314	2770.678648
804.076045	2755.620721
804.396731	2763.724376
804.717372	2777.033022
805.037967	2775.918927
805.358518	2769.758637
805.679024	2772.707712
805.999485	2775.039246
806.319901	2776.128135
806.640272	2783.420164
806.960598	2787.495937
807.280879	2779.180554
807.601115	2777.295162
807.921306	2785.827315
808.241453	2803.783905
808.561554	2798.778039
808.881611	2774.701488
809.201623	2784.879578
809.521590	2794.540949
809.841513	2789.895526
810.161390	2802.069913
810.481223	2801.240643
810.801011	2778.817591
811.120755	2775.734925
811.440453	2789.588016
811.760107	2797.671506
812.079716	2789.772018
812.399281	2771.313833
812.718801	2781.875050
813.038276	2773.509256
813.357707	2783.243724
813.677093	2791.614560
813.996434	2773.400871
814.315731	2775.697116
814.634983	2774.973711
814.954191	2777.509411
815.273354	2795.559262
815.592473	2794.067081
815.911547	2788.252110
816.230577	2798.062195
816.549562	2812.008547
816.868502	2831.535457
817.187399	2838.950994
817.506250	2832.861280
817.825058	2824.031699
818.143821	2854.518077
818.462539	2894.607853
818.781213	2903.170253
819.099843	2909.423804
819.418429	2965.791466
819.736970	3027.638862
820.055466	3077.266501
820.373919	3187.801361
820.692327	3301.083650
821.010691	3378.800598
821.329011	3672.803211
821.647286	4196.412737
821.965517	4909.791459
822.283704	5468.739474
822.601847	5808.293953
822.919945	5707.654878
823.237999	5461.598680
823.556010	5150.128469
823.873976	4851.833313
824.191897	4357.386862
824.509775	4026.775390
824.827609	3758.177672
825.145398	3616.362452
825.463144	3613.173922
825.780845	3635.344917
826.098502	3634.044299
826.416116	3786.196405
826.733685	4051.285480
827.051210	4328.382583
827.368692	4419.859361
827.686129	4185.924617
828.003522	3821.978515
828.320872	3595.499637
828.638177	3434.638938
828.955439	3302.578352
829.272656	3157.803975
829.589830	3064.988771
829.906960	3029.380581
830.224046	2972.246664
830.541088	2941.475461
830.858086	2931.103287
831.175041	2911.727612
831.491952	2903.999523
831.808819	2913.824732
832.125642	2931.788883
832.442421	2976.045173
832.759157	3044.917417
833.075849	3179.654856
833.392497	3375.566698
833.709101	3525.082280
834.025662	3637.595792
834.342179	3603.305864
834.658653	3463.449133
834.975083	3312.406081
835.291469	3157.809016
835.607811	3027.573327
835.924110	3000.444358
836.240366	2938.692744
836.556578	2868.560211
836.872746	2834.003102
837.188871	2833.186435
837.504952	2815.076090
837.820990	2783.699948
838.136984	2761.846546
838.452935	2774.736777
838.768842	2779.735081
839.084706	2787.034671
839.400526	2827.424396
839.716303	2895.056516
840.032037	3021.760877
840.347727	3114.686986
840.663373	3067.607650
840.978977	2978.573312
841.294537	2892.745147
841.610054	2817.490802
841.925527	2781.451593
842.240957	2758.968047
842.556344	2747.895153
842.871687	2732.285220
843.186987	2713.726212
843.502244	2702.421425
843.817458	2690.068077
844.132629	2676.257836
844.447756	2682.844104
844.762840	2679.834535
845.077881	2670.543688
845.392879	2660.902482
845.707833	2660.884837
846.022745	2658.591112
846.337613	2662.140085
846.652438	2660.610095
846.967221	2659.838798
847.281960	2650.222797
847.596656	2649.567447
847.911309	2652.080462
848.225919	2648.536531
848.540485	2644.695172
848.855009	2649.113743
849.169490	2646.399082
849.483928	2642.051087
849.798323	2641.776344
850.112675	2641.773823
850.426984	2646.270532
850.741251	2645.584936
851.055474	2641.370531
851.369654	2639.167547
851.683792	2640.188380
851.997887	2643.639050
852.311938	2642.514873
852.625947	2644.135604
852.939914	2646.293218
853.253837	2646.724236
853.567718	2636.596558
853.881555	2634.756537
854.195350	2644.327168
854.509103	2641.597383
854.822812	2640.072434
855.136479	2644.112919
855.450103	2639.631333
855.763685	2635.401805
856.077224	2628.301340
856.390720	2639.434728
856.704173	2645.438742
857.017584	2641.209214
857.330953	2640.843730
857.644278	2643.573515
857.957561	2644.614513
858.270802	2647.397230
858.584000	2648.801192
858.897155	2645.017806
859.210268	2645.965543
859.523339	2645.809267
859.836367	2646.542755
860.149352	2642.330871
860.462295	2641.244502
860.775195	2647.924031
861.088054	2647.732467
861.400869	2640.052269
861.713642	2636.097484
862.026373	2644.944709
862.339062	2645.486633
862.651708	2646.704072
862.964312	2652.410658
863.276873	2645.703403
863.589392	2646.862868
863.901869	2648.791109
864.214303	2659.654796
864.526696	2667.783657
864.839045	2660.849549
865.151353	2661.683860
865.463619	2659.097748
865.775842	2662.722338
866.088023	2669.633760
866.400162	2677.858402
866.712258	2662.644200
867.024313	2660.998263
867.336325	2663.168480
867.648296	2672.885304
867.960224	2669.459840
868.272110	2665.467246
868.583954	2671.085612
868.895755	2680.124401
869.207515	2669.815242
869.519233	2667.022442
869.830909	2673.878412
870.142542	2681.450225
870.454134	2677.490398
870.765684	2681.596418
871.077191	2679.889987
871.388657	2682.675225
871.700081	2685.014320
872.011463	2691.232584
872.322803	2691.073787
872.634101	2691.288036
872.945357	2696.372040
873.256571	2704.687423
873.567744	2704.359748
873.878874	2697.128213
874.189963	2709.932744
874.501010	2710.938454
874.812015	2710.762014
875.122979	2712.009699
875.433900	2710.391489
875.744780	2708.604400
876.055618	2715.440204
876.366415	2717.413816
876.677169	2727.778428
876.987882	2726.024107
877.298554	2718.051522
877.609183	2728.257338
877.919771	2740.051117
878.230317	2752.654002
878.540822	2781.335647
878.851285	2796.277627
879.161707	2808.794812
879.472087	2842.497446
879.782425	2920.998294
880.092722	3092.866352
880.402977	3259.655447
880.713191	3371.468240
881.023363	3561.481931
881.333494	3795.308290
881.643583	3893.063825
881.953631	3891.014596
882.263637	3848.973894
882.573602	3796.598826
882.883526	3693.035882
883.193408	3526.211498
883.503248	3385.485168
883.813048	3315.695434
884.122806	3235.722569
884.432522	3132.709111
884.742197	3045.222407
885.051831	2972.576859
885.361424	2916.645257
885.670975	2893.977709
885.980485	2858.074611
886.289954	2827.258038
886.599382	2812.200111
886.908768	2795.070271
887.218113	2777.552261
887.527417	2755.330855
887.836680	2732.713718
888.145901	2737.296127
888.455082	2739.330233
888.764221	2714.658826
889.073319	2701.067875
889.382376	2703.648946
889.691392	2705.453679
890.000366	2705.887218
890.309300	2691.797193
890.618193	2701.569470
890.927044	2711.437528
891.235855	2711.820656
891.544625	2700.520910
891.853353	2702.827237
892.162041	2712.755790
892.470687	2727.239025
892.779293	2748.782396
893.087858	2763.406783
893.396381	2786.497788
893.704864	2825.949858
894.013306	2903.286200
894.321707	3009.614217
894.630068	3081.977459
894.938387	3083.580546
895.246665	3077.079978
895.554903	3057.694221
895.863100	2990.631752
896.171256	2932.706373
896.479371	2884.644013
896.787446	2839.187928
897.095480	2795.410548
897.403473	2764.737648
897.711425	2745.911459
898.019336	2741.354256
898.327207	2733.656414
898.635038	2715.160420
898.942827	2712.087837
899.250576	2707.371838
899.558284	2691.532532
899.865952	2683.539783
900.173579	2676.343536
900.481165	2674.808504
900.788711	2675.806653
901.096216	2657.449291
901.403681	2652.108189
901.711105	2659.014569
902.018489	2661.739313
902.325832	2658.805362
902.633135	2660.559683
902.940397	2672.436642
903.247619	2701.042669
903.554800	2769.027670
903.861941	2877.394833
904.169041	3008.815194
904.476101	3116.032974
904.783121	3126.584109
905.090100	3070.271900
905.397039	2987.352481
905.703938	2887.978736
906.010796	2818.579692
906.317614	2774.822476
906.624391	2738.440469
906.931129	2709.872250
907.237826	2686.367870
907.544483	2664.663182
907.851099	2648.455873
908.157675	2640.450520
908.464211	2630.095990
908.770707	2628.760085
909.077163	2622.723303
909.383578	2614.516304
909.689954	2609.084461
909.996289	2606.510952
910.302584	2608.260232
910.608839	2608.731580
910.915054	2609.210490
911.221229	2601.484922
911.527363	2602.747731
911.833458	2605.117073
912.139513	2607.854420
912.445527	2606.964656
912.751502	2613.850872
913.057436	2619.534773
913.363331	2627.260341
913.669186	2630.111114
913.975000	2642.988741
914.280775	2671.257012
914.586510	2697.833975
914.892205	2725.446895
915.197859	2765.440889
915.503475	2829.927329
915.809050	2896.120199
916.114585	2946.304886
916.420081	2966.391363
916.725536	2952.991977
917.030952	2924.005342
917.336328	2877.662015
917.641665	2827.384067
917.946961	2788.902419
918.252218	2767.805190
918.557435	2741.233268
918.862612	2717.597818
919.167750	2698.738862
919.472848	2680.666325
919.777906	2668.635612
920.082925	2658.512975
920.387904	2644.576705
920.692843	2638.209727
920.997743	2630.285034
921.302603	2629.622122
921.607423	2622.811523
921.912204	2616.368928
922.216946	2612.336005
922.521647	2608.116560
922.826310	2604.166816
923.130932	2601.608430
923.435516	2599.619695
923.740059	2597.174735
924.044564	2590.694332
924.349028	2589.623087
924.653454	2584.423137
924.957840	2580.727971
925.262186	2578.512384
925.566493	2579.046746
925.870761	2575.487691
926.174989	2571.974007
926.479178	2572.876374
926.783328	2571.147258
927.087438	2567.152143
927.391509	2569.806311
927.695541	2567.008471
927.999533	2564.336659
928.303486	2565.546536
928.607400	2560.061761
928.911275	2561.833726
929.215110	2562.463870
929.518906	2559.381205
929.822663	2561.077553
930.126381	2564.482852
930.430060	2563.492266
930.733699	2563.835064
931.037299	2564.979406
931.340861	2562.063099
931.644383	2563.265414
931.947866	2563.063768
932.251309	2561.075033
932.554714	2562.920095
932.858080	2557.624363
933.161407	2558.788869
933.464694	2560.795248
933.767943	2556.926163
934.071153	2561.223747
934.374323	2559.650907
934.677455	2561.185938
934.980548	2558.582182
935.283602	2559.116544
935.586617	2560.333983
935.889593	2556.553118
936.192530	2558.501523
936.495428	2559.222408
936.798287	2563.162070
937.101108	2562.899930
937.403890	2564.994530
937.706632	2566.005281
938.009336	2566.458985
938.312002	2573.972825
938.614628	2578.076324
938.917216	2581.136304
939.219765	2581.174113
939.522275	2583.319124
939.824747	2578.527507
940.127179	2578.950964
940.429573	2577.221848
940.731929	2578.706468
941.034246	2574.986097
941.336524	2571.013667
941.638763	2569.823955
941.940964	2571.235478
942.243126	2568.704819
942.545250	2571.011147
942.847335	2569.047617
943.149381	2566.413614
943.451389	2565.816238
943.753359	2562.446226
944.055290	2562.312636
944.357182	2563.678788
944.659036	2562.700805
944.960851	2562.952862
945.262628	2561.649724
945.564367	2560.465053
945.866067	2561.730382
946.167729	2561.304405
946.469352	2562.385732
946.770937	2559.968499
947.072484	2558.821637
947.373992	2562.708366
947.675462	2555.807027
947.976893	2556.800134
948.278286	2555.582695
948.579641	2556.868190
948.880958	2552.578168
949.182236	2559.229970
949.483476	2555.360885
949.784678	2557.384908
950.085841	2560.631411
950.386967	2557.757953
950.688054	2558.020093
950.989103	2555.118909
951.290114	2558.201575
951.591087	2561.163253
951.892021	2558.856925
952.192917	2560.596123
952.493776	2563.041083
952.794596	2562.804148
953.095378	2562.025290
953.396122	2563.111659
953.696828	2561.800959
953.997496	2559.015721
954.298126	2560.762481
954.598718	2557.679815
954.899272	2555.176882
955.199788	2557.132850
955.500266	2554.435833
955.800706	2555.912891
956.101108	2553.092365
956.401472	2551.093548
956.701798	2551.191850
957.002087	2548.361242
957.302337	2545.752445
957.602550	2553.528425
957.902724	2549.639175
958.202861	2547.151366
958.502960	2548.366284
958.803022	2545.480223
959.103045	2547.519370
959.403031	2544.764379
959.702979	2545.805377
960.002889	2544.683721
960.302762	2546.649771
960.602596	2548.091541
960.902393	2546.836293
961.202153	2544.943340
961.501875	2544.716488
961.801559	2544.224976
962.101205	2543.143648
962.400814	2543.695655
962.700385	2541.142310
962.999918	2541.301107
963.299414	2540.214738
963.598873	2539.629964
963.898293	2539.514018
964.197677	2543.173895
964.497022	2542.256405
964.796331	2541.868236
965.095601	2542.218597
965.394835	2540.358411
965.694030	2541.936292
965.993189	2545.996941
966.292309	2538.737680
966.591393	2542.453010
966.890439	2543.373021
967.189447	2542.664739
967.488419	2541.326312
967.787353	2543.430994
968.086249	2542.967208
968.385108	2540.363452
968.683930	2542.848741
968.982714	2542.110212
969.281462	2541.742207
969.580172	2543.884698
969.878844	2539.423277
970.177480	2541.830428
970.476078	2541.545602
970.774639	2541.432177
971.073162	2541.835469
971.371649	2544.557692
971.670098	2543.249512
971.968510	2541.580891
972.266885	2542.014430
972.565223	2545.301262
972.863524	2542.054759
973.161788	2544.403937
973.460014	2543.869574
973.758204	2542.153062
974.056356	2544.025850
974.354471	2543.027702
974.652550	2543.756148
974.950591	2542.289173
975.248595	2545.245809
975.546563	2541.780016
975.844493	2542.110212
976.142386	2543.153731
976.440243	2541.754810
976.738062	2541.948895
977.035845	2542.178267
977.333590	2540.804553
977.631299	2538.614172
977.928971	2537.870601
978.226606	2538.001671
978.524204	2539.781199
978.821765	2536.499407
979.119290	2542.425284
979.416777	2544.310675
979.714228	2540.489481
980.011642	2541.669111
980.309020	2543.718340
980.606360	2543.635161
980.903664	2544.033412
981.200931	2539.990407
981.498162	2544.897970
981.795356	2542.021992
982.092513	2542.052238
982.389633	2544.671118
982.686717	2546.649771
982.983764	2548.353681
983.280775	2548.822508
983.577749	2552.182437
983.874686	2551.159083
984.171587	2549.777807
984.468451	2549.364432
984.765279	2544.199770
985.062070	2547.312683
985.358824	2543.110881
985.655543	2546.012065
985.952224	2542.483257
986.248869	2546.924514
986.545478	2538.220962
986.842050	2540.446631
987.138586	2540.721374
987.435086	2540.761703
987.731549	2540.713812
988.027975	2539.695499
988.324366	2540.766744
988.620719	2540.630633
988.917037	2539.793802
989.213318	2543.751107
989.509563	2537.978986
989.805772	2543.168854
990.101944	2540.093750
990.398080	2540.744059
990.694180	2537.915972
990.990244	2541.164995
991.286271	2536.721218
991.582262	2539.990407
991.878217	2537.921013
992.174136	2539.009902
992.470019	2538.931764
992.765865	2537.805066
993.061676	2538.667104
993.357450	2539.471168
993.653188	2537.084181
993.948890	2539.168698
994.244556	2541.507794
994.540186	2541.152393
994.835780	2541.341436
995.131337	2542.165664
995.426859	2542.019471
995.722345	2542.727753
996.017795	2542.208514
996.313208	2543.617517
996.608586	2541.943854
996.903928	2544.071221
997.199234	2542.823535
997.494504	2542.095088
997.789738	2545.192877
998.084936	2543.299924
998.380099	2541.318751
998.675225	2543.640202
998.970316	2540.378575
999.265371	2542.581560
999.560390	2540.625592
999.855373	2540.252547
1000.150320	2541.653987
1000.445232	2540.930582
1000.740108	2540.358411
1001.034948	2541.669111
1001.329752	2537.489994
1001.624521	2538.339429
1001.919254	2540.096271
1002.213951	2541.326312
1002.508613	2539.151054
1002.803239	2540.877650
1003.097829	2539.811446
1003.392384	2539.579553
1003.686903	2537.260622
1003.981386	2541.321271
1004.275834	2538.243647
1004.570246	2536.000333
1004.864623	2539.642567
1005.158964	2540.489481
1005.453270	2541.459903
1005.747540	2540.436549
1006.041775	2538.069727
1006.335974	2540.121477
1006.630138	2539.425797
1006.924266	2540.229861
1007.218359	2537.459747
1007.512416	2538.674665
1007.806438	2535.450848
1008.100425	2538.218441
1008.394376	2533.225178
1008.688292	2540.383617
1008.982172	2538.281455
1009.276017	2539.163657
1009.569827	2537.734490
1009.863602	2540.282793
1010.157341	2539.403112
1010.451045	2541.323792
1010.744714	2538.901517
1011.038347	2537.812628
1011.331945	2538.926723
1011.625508	2538.460416
1011.919036	2537.595858
1012.212528	2541.152393
1012.505986	2539.133410
1012.799408	2540.865047
1013.092795	2538.949408
1013.386147	2538.339429
1013.679464	2538.331867
1013.972745	2540.272711
1014.265992	2539.980324
1014.559204	2540.461754
1014.852380	2540.449152
1015.145521	2539.987886
1015.438628	2539.997968
1015.731699	2539.410674
1016.024736	2539.952598
1016.317737	2540.862526
1016.610703	2538.702392
1016.903635	2537.535365
1017.196531	2538.780530
1017.489393	2539.211548
1017.782219	2540.033256
1018.075011	2540.587783
1018.367768	2538.200797
1018.660490	2537.633667
1018.953177	2537.633667
1019.245829	2537.633667
