Dividing Wavelength (nm)	Counts (n)	Blue Motor Position (mm): 9.900000	Red Motor Position (mm): 0.000000	
326.493990	2084.517115
326.888308	2084.517115
327.282561	2084.517115
327.676750	2064.352500
328.070874	2097.120000
328.464933	2059.311346
328.858929	2084.517115
329.252859	2145.010962
329.646726	2215.587115
330.040528	2046.708462
330.434265	2233.231154
330.827938	2119.805192
331.221547	2084.517115
331.615091	2225.669423
332.008571	2162.655000
332.401986	2195.422500
332.795338	2208.025385
333.188625	2225.669423
333.581847	2286.163269
333.975006	2306.327885
334.368100	2276.080962
334.761129	2303.807308
335.154095	2321.451346
335.546996	2306.327885
335.939833	2351.698269
336.332606	2356.739423
336.725315	2482.768269
337.117960	2389.506923
337.510540	2265.998654
337.903056	2409.671538
338.295508	2432.356731
338.687896	2470.165385
339.080220	2394.548077
339.472480	2442.439038
339.864676	2429.836154
340.256807	2495.371154
340.648875	2429.836154
341.040879	2437.397885
341.432818	2490.330000
341.824694	2505.453462
342.216506	2487.809423
342.608253	2500.412308
342.999937	2427.315577
343.391557	2434.877308
343.783113	2472.685962
344.174605	2518.056346
344.566033	2500.412308
344.957397	2432.356731
345.348697	2462.603654
345.739934	2465.124231
346.131106	2538.220962
346.522215	2455.041923
346.913260	2545.782692
347.304241	2369.342308
347.695159	2442.439038
348.086012	2447.480192
348.476802	2437.397885
348.867528	2437.397885
349.258191	2475.206538
349.648789	2480.247692
350.039324	2462.603654
350.429796	2452.521346
350.820203	2407.150962
351.210548	2477.727115
351.600828	2475.206538
351.991045	2495.371154
352.381198	2505.453462
352.771288	2467.644808
353.161314	2482.768269
353.551276	2518.056346
353.941175	2472.685962
354.331010	2452.521346
354.720782	2472.685962
355.110490	2439.918462
355.500135	2497.891731
355.889717	2510.494615
356.279235	2450.000769
356.668689	2444.959615
357.058080	2530.659231
357.447408	2442.439038
357.836672	2374.383462
358.225873	2409.671538
358.615010	2462.603654
359.004084	2429.836154
359.393095	2429.836154
359.782043	2412.192115
360.170927	2470.165385
360.559748	2414.712692
360.948505	2485.288846
361.337199	2465.124231
361.725830	2450.000769
362.114398	2455.041923
362.502903	2432.356731
362.891344	2386.986346
363.279722	2502.932885
363.668037	2475.206538
364.056289	2422.274423
364.444478	2465.124231
364.832603	2457.562500
365.220665	2505.453462
365.608665	2397.068654
365.996601	2465.124231
366.384474	2538.220962
366.772284	2427.315577
367.160031	2386.986346
367.547715	2392.027500
367.935336	2457.562500
368.322893	2497.891731
368.710388	2417.233269
369.097820	2452.521346
369.485189	2439.918462
369.872495	2422.274423
370.259738	2472.685962
370.646918	2457.562500
371.034035	2490.330000
371.421090	2550.823846
371.808081	2470.165385
372.195010	2490.330000
372.581875	2533.179808
372.968678	2470.165385
373.355418	2475.206538
373.742096	2490.330000
374.128710	2444.959615
374.515262	2444.959615
374.901751	2475.206538
375.288177	2507.974038
375.674540	2404.630385
376.060841	2412.192115
376.447079	2417.233269
376.833254	2497.891731
377.219367	2402.109808
377.605417	2482.768269
377.991404	2429.836154
378.377329	2482.768269
378.763191	2447.480192
379.148991	2520.576923
379.534727	2414.712692
379.920402	2414.712692
380.306013	2359.260000
380.691563	2497.891731
381.077049	2485.288846
381.462474	2538.220962
381.847835	2472.685962
382.233134	2414.712692
382.618371	2543.262115
383.003545	2507.974038
383.388657	2533.179808
383.773706	2535.700385
384.158693	2528.138654
384.543618	2450.000769
384.928480	2386.986346
385.313280	2485.288846
385.698017	2427.315577
386.082692	2422.274423
386.467305	2379.424615
386.851856	2457.562500
387.236344	2412.192115
387.620770	2427.315577
388.005133	2490.330000
388.389435	2404.630385
388.773674	2437.397885
389.157851	2576.029615
389.541965	2518.056346
389.926018	2490.330000
390.310008	2462.603654
390.693936	2427.315577
391.077802	2442.439038
391.461606	2482.768269
391.845348	2450.000769
392.229027	2480.247692
392.612645	2487.809423
392.996200	2455.041923
393.379694	2455.041923
393.763125	2434.877308
394.146494	2450.000769
394.529801	2513.015192
394.913047	2472.685962
395.296230	2457.562500
395.679351	2477.727115
396.062410	2460.083077
396.445408	2490.330000
396.828343	2490.330000
397.211217	2457.562500
397.594028	2462.603654
397.976778	2404.630385
398.359466	2480.247692
398.742092	2510.494615
399.124656	2528.138654
399.507158	2465.124231
399.889598	2497.891731
400.271977	2450.000769
400.654294	2424.795000
401.036549	2502.932885
401.418742	2472.685962
401.800874	2523.097500
402.182944	2525.618077
402.564952	2432.356731
402.946898	2500.412308
403.328783	2490.330000
403.710606	2510.494615
404.092367	2553.344423
404.474067	2434.877308
404.855705	2429.836154
405.237282	2520.576923
405.618797	2510.494615
406.000250	2465.124231
406.381642	2412.192115
406.762972	2510.494615
407.144240	2535.700385
407.525447	2495.371154
407.906593	2583.591346
408.287677	2530.659231
408.668700	2460.083077
409.049661	2497.891731
409.430560	2412.192115
409.811399	2455.041923
410.192176	2510.494615
410.572891	2500.412308
410.953545	2427.315577
411.334138	2505.453462
411.714669	2492.850577
412.095139	2505.453462
412.475547	2505.453462
412.855894	2513.015192
413.236180	2518.056346
413.616405	2495.371154
413.996568	2432.356731
414.376670	2513.015192
414.756711	2535.700385
415.136691	2497.891731
415.516609	2477.727115
415.896466	2480.247692
416.276262	2485.288846
416.655997	2452.521346
417.035670	2452.521346
417.415283	2482.768269
417.794834	2545.782692
418.174324	2492.850577
418.553753	2490.330000
418.933121	2465.124231
419.312428	2545.782692
419.691674	2432.356731
420.070859	2515.535769
420.449983	2535.700385
420.829045	2477.727115
421.208047	2558.385577
421.586988	2485.288846
421.965867	2497.891731
422.344686	2548.303269
422.723444	2472.685962
423.102141	2447.480192
423.480777	2472.685962
423.859352	2482.768269
424.237866	2553.344423
424.616319	2535.700385
424.994712	2513.015192
425.373044	2576.029615
425.751314	2460.083077
426.129524	2490.330000
426.507673	2467.644808
426.885762	2525.618077
427.263789	2427.315577
427.641756	2399.589231
428.019662	2455.041923
428.397508	2487.809423
428.775292	2457.562500
429.153016	2422.274423
429.530679	2444.959615
429.908282	2518.056346
430.285824	2477.727115
430.663305	2578.550192
431.040726	2510.494615
431.418086	2447.480192
431.795385	2462.603654
432.172624	2477.727115
432.549802	2533.179808
432.926920	2520.576923
433.303977	2497.891731
433.680974	2510.494615
434.057910	2492.850577
434.434786	2495.371154
434.811601	2455.041923
435.188355	2513.015192
435.565050	2439.918462
435.941683	2570.988462
436.318257	2397.068654
436.694770	2447.480192
437.071222	2480.247692
437.447614	2480.247692
437.823946	2515.535769
438.200218	2437.397885
438.576429	2462.603654
438.952580	2495.371154
439.328670	2550.823846
439.704700	2467.644808
440.080670	2523.097500
440.456580	2530.659231
440.832429	2482.768269
441.208218	2394.548077
441.583947	2467.644808
441.959616	2485.288846
442.335224	2515.535769
442.710773	2505.453462
443.086261	2472.685962
443.461689	2507.974038
443.837057	2482.768269
444.212365	2492.850577
444.587612	2422.274423
444.962800	2540.741538
445.337927	2497.891731
445.712995	2520.576923
446.088002	2545.782692
446.462949	2470.165385
446.837837	2465.124231
447.212664	2467.644808
447.587431	2470.165385
447.962139	2482.768269
448.336786	2500.412308
448.711374	2487.809423
449.085901	2502.932885
449.460369	2540.741538
449.834776	2470.165385
450.209124	2470.165385
450.583412	2457.562500
450.957640	2505.453462
451.331808	2540.741538
451.705917	2485.288846
452.079965	2510.494615
452.453954	2447.480192
452.827883	2553.344423
453.201752	2485.288846
453.575562	2513.015192
453.949311	2576.029615
454.323001	2492.850577
454.696632	2550.823846
455.070202	2452.521346
455.443713	2505.453462
455.817164	2528.138654
456.190556	2530.659231
456.563888	2460.083077
456.937160	2429.836154
457.310373	2497.891731
457.683526	2467.644808
458.056619	2540.741538
458.429653	2475.206538
458.802628	2480.247692
459.175542	2402.109808
459.548398	2407.150962
459.921194	2545.782692
460.293930	2432.356731
460.666607	2490.330000
461.039224	2450.000769
461.411782	2472.685962
461.784280	2482.768269
462.156719	2439.918462
462.529099	2369.342308
462.901419	2465.124231
463.273680	2530.659231
463.645882	2470.165385
464.018024	2510.494615
464.390106	2576.029615
464.762130	2502.932885
465.134094	2439.918462
465.505999	2540.741538
465.877845	2439.918462
466.249631	2397.068654
466.621358	2495.371154
466.993026	2560.906154
467.364634	2505.453462
467.736184	2424.795000
468.107674	2432.356731
468.479105	2497.891731
468.850477	2490.330000
469.221790	2452.521346
469.593043	2437.397885
469.964238	2525.618077
470.335373	2518.056346
470.706449	2545.782692
471.077467	2520.576923
471.448425	2568.467885
471.819324	2497.891731
472.190164	2472.685962
472.560945	2492.850577
472.931667	2515.535769
473.302330	2497.891731
473.672934	2502.932885
474.043479	2565.947308
474.413965	2520.576923
474.784393	2452.521346
475.154761	2578.550192
475.525070	2434.877308
475.895321	2467.644808
476.265513	2465.124231
476.635645	2545.782692
477.005719	2462.603654
477.375734	2528.138654
477.745691	2487.809423
478.115588	2553.344423
478.485427	2462.603654
478.855207	2545.782692
479.224928	2472.685962
479.594591	2528.138654
479.964194	2505.453462
480.333739	2525.618077
480.703226	2492.850577
481.072653	2475.206538
481.442022	2513.015192
481.811333	2497.891731
482.180584	2477.727115
482.549777	2560.906154
482.918912	2548.303269
483.287988	2535.700385
483.657005	2482.768269
484.025964	2523.097500
484.394864	2404.630385
484.763706	2558.385577
485.132489	2482.768269
485.501213	2576.029615
485.869879	2394.548077
486.238487	2457.562500
486.607036	2472.685962
486.975527	2535.700385
487.343959	2467.644808
487.712333	2553.344423
488.080648	2507.974038
488.448905	2560.906154
488.817104	2553.344423
489.185244	2497.891731
489.553326	2510.494615
489.921350	2472.685962
490.289315	2525.618077
490.657222	2505.453462
491.025070	2427.315577
491.392861	2465.124231
491.760593	2475.206538
492.128267	2543.262115
492.495883	2447.480192
492.863440	2533.179808
493.230939	2528.138654
493.598380	2467.644808
493.965763	2455.041923
494.333088	2502.932885
494.700354	2480.247692
495.067563	2598.714808
495.434713	2538.220962
495.801805	2457.562500
496.168839	2495.371154
496.535815	2510.494615
496.902733	2467.644808
497.269593	2528.138654
497.636395	2497.891731
498.003139	2538.220962
498.369825	2555.865000
498.736453	2452.521346
499.103023	2502.932885
499.469535	2447.480192
499.835989	2437.397885
500.202385	2482.768269
500.568723	2535.700385
500.935003	2470.165385
501.301226	2523.097500
501.667390	2497.891731
502.033497	2490.330000
502.399546	2432.356731
502.765537	2591.153077
503.131470	2525.618077
503.497345	2583.591346
503.863163	2450.000769
504.228923	2505.453462
504.594625	2480.247692
504.960269	2386.986346
505.325856	2495.371154
505.691385	2480.247692
506.056856	2457.562500
506.422270	2485.288846
506.787625	2553.344423
507.152924	2412.192115
507.518164	2576.029615
507.883347	2462.603654
508.248472	2568.467885
508.613540	2455.041923
508.978550	2500.412308
509.343503	2447.480192
509.708398	2505.453462
510.073236	2487.809423
510.438016	2588.632500
510.802738	2500.412308
511.167403	2553.344423
511.532010	2467.644808
511.896561	2447.480192
512.261053	2447.480192
512.625488	2515.535769
512.989866	2450.000769
513.354186	2447.480192
513.718449	2518.056346
514.082655	2538.220962
514.446803	2538.220962
514.810894	2455.041923
515.174927	2603.755962
515.538904	2598.714808
515.902822	2518.056346
516.266684	2523.097500
516.630488	2507.974038
516.994235	2525.618077
517.357925	2447.480192
517.721558	2548.303269
518.085133	2520.576923
518.448651	2437.397885
518.812112	2482.768269
519.175516	2472.685962
519.538863	2437.397885
519.902152	2601.235385
520.265385	2543.262115
520.628560	2475.206538
520.991678	2550.823846
521.354739	2518.056346
521.717743	2465.124231
522.080690	2460.083077
522.443580	2487.809423
522.806413	2525.618077
523.169189	2573.509038
523.531908	2497.891731
523.894569	2465.124231
524.257174	2497.891731
524.619722	2528.138654
524.982213	2555.865000
525.344647	2502.932885
525.707025	2477.727115
526.069345	2442.439038
526.431608	2457.562500
526.793815	2492.850577
527.155964	2515.535769
527.518057	2558.385577
527.880093	2586.111923
528.242072	2457.562500
528.603995	2485.288846
528.965860	2457.562500
529.327669	2502.932885
529.689421	2518.056346
530.051117	2437.397885
530.412755	2407.150962
530.774337	2497.891731
531.135862	2606.276538
531.497331	2528.138654
531.858743	2366.821731
532.220098	2492.850577
532.581396	2497.891731
532.942638	2407.150962
533.303824	2523.097500
533.664953	2447.480192
534.026025	2560.906154
534.387040	2573.509038
534.747999	2432.356731
535.108902	2520.576923
535.469748	2437.397885
535.830537	2550.823846
536.191270	2545.782692
536.551947	2505.453462
536.912567	2545.782692
537.273131	2452.521346
537.633638	2535.700385
537.994089	2447.480192
538.354483	2513.015192
538.714821	2437.397885
539.075103	2475.206538
539.435328	2457.562500
539.795497	2558.385577
540.155609	2550.823846
540.515665	2457.562500
540.875665	2518.056346
541.235609	2518.056346
541.595496	2518.056346
541.955328	2490.330000
542.315102	2578.550192
542.674821	2533.179808
543.034483	2507.974038
543.394090	2513.015192
543.753640	2515.535769
544.113134	2573.509038
544.472571	2465.124231
544.831953	2422.274423
545.191278	2570.988462
545.550548	2457.562500
545.909761	2485.288846
546.268918	2417.233269
546.628019	2495.371154
546.987064	2465.124231
547.346053	2553.344423
547.704986	2487.809423
548.063863	2513.015192
548.422684	2518.056346
548.781449	2447.480192
549.140158	2500.412308
549.498811	2528.138654
549.857408	2429.836154
550.215949	2538.220962
550.574434	2543.262115
550.932864	2419.753846
551.291237	2543.262115
551.649555	2419.753846
552.007817	2563.426731
552.366022	2419.753846
552.724173	2500.412308
553.082267	2475.206538
553.440305	2485.288846
553.798288	2500.412308
554.156215	2550.823846
554.514086	2525.618077
554.871902	2477.727115
555.229661	2523.097500
555.587365	2485.288846
555.945014	2560.906154
556.302606	2482.768269
556.660143	2497.891731
557.017625	2565.947308
557.375050	2397.068654
557.732421	2510.494615
558.089735	2530.659231
558.446994	2563.426731
558.804197	2467.644808
559.161345	2492.850577
559.518437	2505.453462
559.875474	2555.865000
560.232455	2495.371154
560.589381	2447.480192
560.946251	2480.247692
561.303065	2442.439038
561.659825	2477.727115
562.016528	2533.179808
562.373177	2558.385577
562.729770	2560.906154
563.086307	2535.700385
563.442789	2588.632500
563.799216	2500.412308
564.155587	2558.385577
564.511904	2545.782692
564.868164	2472.685962
565.224370	2361.780577
565.580520	2540.741538
565.936615	2543.262115
566.292654	2492.850577
566.648638	2460.083077
567.004567	2545.782692
567.360441	2550.823846
567.716260	2545.782692
568.072023	2409.671538
568.427732	2465.124231
568.783385	2462.603654
569.138982	2470.165385
569.494525	2467.644808
569.850013	2455.041923
570.205445	2523.097500
570.560823	2480.247692
570.916145	2510.494615
571.271412	2518.056346
571.626625	2558.385577
571.981782	2505.453462
572.336884	2525.618077
572.691931	2515.535769
573.046923	2523.097500
573.401860	2553.344423
573.756743	2497.891731
574.111570	2507.974038
574.466342	2548.303269
574.821059	2460.083077
575.175722	2576.029615
575.530330	2452.521346
575.884882	2533.179808
576.239380	2553.344423
576.593823	2520.576923
576.948211	2507.974038
577.302544	2455.041923
577.656823	2510.494615
578.011047	2515.535769
578.365216	2500.412308
578.719330	2613.838269
579.073389	2422.274423
579.427394	2450.000769
579.781344	2472.685962
580.135239	2525.618077
580.489080	2444.959615
580.842866	2490.330000
581.196597	2510.494615
581.550273	2505.453462
581.903895	2472.685962
582.257463	2513.015192
582.610975	2540.741538
582.964434	2485.288846
583.317837	2523.097500
583.671186	2515.535769
584.024481	2429.836154
584.377721	2555.865000
584.730906	2472.685962
585.084037	2500.412308
585.437113	2477.727115
585.790135	2525.618077
586.143103	2523.097500
586.496016	2495.371154
586.848874	2490.330000
587.201679	2548.303269
587.554428	2457.562500
587.907124	2500.412308
588.259765	2462.603654
588.612352	2616.358846
588.964884	2593.673654
589.317362	2538.220962
589.669786	2525.618077
590.022155	2505.453462
590.374470	2482.768269
590.726731	2439.918462
591.078937	2487.809423
591.431090	2482.768269
591.783188	2593.673654
592.135232	2450.000769
592.487222	2399.589231
592.839157	2518.056346
593.191038	2505.453462
593.542866	2530.659231
593.894639	2515.535769
594.246358	2485.288846
594.598022	2533.179808
594.949633	2442.439038
595.301190	2465.124231
595.652692	2518.056346
596.004141	2422.274423
596.355535	2525.618077
596.706876	2485.288846
597.058162	2523.097500
597.409395	2507.974038
597.760573	2540.741538
598.111698	2482.768269
598.462768	2472.685962
598.813785	2555.865000
599.164748	2427.315577
599.515657	2525.618077
599.866511	2510.494615
600.217312	2535.700385
600.568060	2543.262115
600.918753	2543.262115
601.269392	2467.644808
601.619978	2414.712692
601.970510	2507.974038
602.320988	2586.111923
602.671412	2450.000769
603.021783	2507.974038
603.372100	2462.603654
603.722363	2477.727115
604.072572	2427.315577
604.422728	2545.782692
604.772830	2548.303269
605.122878	2475.206538
605.472872	2543.262115
605.822813	2528.138654
606.172701	2523.097500
606.522534	2502.932885
606.872314	2573.509038
607.222041	2470.165385
607.571714	2502.932885
607.921333	2465.124231
608.270899	2460.083077
608.620411	2434.877308
608.969870	2444.959615
609.319276	2480.247692
609.668627	2462.603654
610.017926	2475.206538
610.367171	2432.356731
610.716362	2497.891731
611.065500	2560.906154
611.414585	2510.494615
611.763616	2457.562500
612.112594	2540.741538
612.461518	2558.385577
612.810389	2505.453462
613.159207	2570.988462
613.507971	2538.220962
613.856682	2490.330000
614.205340	2477.727115
614.553945	2523.097500
614.902496	2475.206538
615.250994	2518.056346
615.599439	2460.083077
615.947830	2518.056346
616.296169	2510.494615
616.644454	2437.397885
616.992686	2518.056346
617.340864	2500.412308
617.688990	2477.727115
618.037063	2535.700385
618.385082	2543.262115
618.733048	2482.768269
619.080961	2515.535769
619.428821	2538.220962
619.776628	2538.220962
620.124382	2510.494615
620.472083	2535.700385
620.819731	2528.138654
621.167326	2477.727115
621.514868	2583.591346
621.862357	2510.494615
622.209793	2442.439038
622.557176	2492.850577
622.904506	2497.891731
623.251783	2555.865000
623.599007	2505.453462
623.946179	2490.330000
624.293297	2399.589231
624.640363	2477.727115
624.987376	2457.562500
625.334336	2457.562500
625.681243	2485.288846
626.028097	2586.111923
626.374899	2472.685962
626.721647	2507.974038
627.068343	2523.097500
627.414987	2452.521346
627.761577	2402.109808
628.108115	2525.618077
628.454600	2558.385577
628.801032	2490.330000
629.147412	2460.083077
629.493739	2480.247692
629.840014	2553.344423
630.186236	2497.891731
630.532405	2530.659231
630.878521	2510.494615
631.224585	2540.741538
631.570597	2540.741538
631.916556	2452.521346
632.262462	2475.206538
632.608316	2591.153077
632.954117	2480.247692
633.299866	2485.288846
633.645562	2535.700385
633.991206	2492.850577
634.336797	2455.041923
634.682336	2550.823846
635.027823	2467.644808
635.373257	2553.344423
635.718639	2490.330000
636.063968	2513.015192
636.409245	2465.124231
636.754470	2543.262115
637.099642	2500.412308
637.444762	2495.371154
637.789829	2480.247692
638.134845	2558.385577
638.479808	2414.712692
638.824719	2540.741538
639.169577	2457.562500
639.514383	2545.782692
639.859137	2452.521346
640.203839	2538.220962
640.548489	2444.959615
640.893086	2477.727115
641.237632	2432.356731
641.582125	2515.535769
641.926566	2457.562500
642.270955	2523.097500
642.615292	2482.768269
642.959576	2510.494615
643.303809	2538.220962
643.647990	2452.521346
643.992118	2480.247692
644.336195	2515.535769
644.680219	2565.947308
645.024192	2497.891731
645.368112	2565.947308
645.711981	2470.165385
646.055797	2477.727115
646.399562	2457.562500
646.743274	2477.727115
647.086935	2487.809423
647.430544	2606.276538
647.774101	2437.397885
648.117606	2427.315577
648.461059	2533.179808
648.804460	2462.603654
649.147810	2558.385577
649.491108	2518.056346
649.834354	2507.974038
650.177548	2470.165385
650.520690	2490.330000
650.863781	2502.932885
651.206820	2548.303269
651.549807	2487.809423
651.892742	2465.124231
652.235626	2349.177692
652.578458	2480.247692
652.921238	2487.809423
653.263967	2492.850577
653.606644	2477.727115
653.949269	2525.618077
654.291843	2550.823846
654.634365	2588.632500
654.976836	2495.371154
655.319255	2477.727115
655.661622	2578.550192
656.003938	2520.576923
656.346203	2422.274423
656.688416	2518.056346
657.030577	2462.603654
657.372687	2603.755962
657.714746	2460.083077
658.056753	2520.576923
658.398708	2392.027500
658.740612	2500.412308
659.082465	2510.494615
659.424266	2439.918462
659.766016	2450.000769
660.107715	2460.083077
660.449362	2515.535769
660.790958	2545.782692
661.132503	2480.247692
661.473996	2525.618077
661.815438	2455.041923
662.156829	2538.220962
662.498168	2477.727115
662.839456	2480.247692
663.180693	2518.056346
663.521879	2492.850577
663.863013	2462.603654
664.204097	2518.056346
664.545129	2475.206538
664.886110	2447.480192
665.227040	2500.412308
665.567918	2485.288846
665.908746	2507.974038
666.249522	2528.138654
666.590248	2558.385577
666.930922	2475.206538
667.271545	2467.644808
667.612118	2568.467885
667.952639	2523.097500
668.293109	2482.768269
668.633528	2538.220962
668.973896	2507.974038
669.314213	2467.644808
669.654480	2439.918462
669.994695	2515.535769
670.334859	2543.262115
670.674973	2487.809423
671.015035	2492.850577
671.355047	2475.206538
671.695008	2477.727115
672.034918	2560.906154
672.374777	2472.685962
672.714585	2510.494615
673.054342	2447.480192
673.394049	2518.056346
673.733705	2480.247692
674.073310	2505.453462
674.412864	2525.618077
674.752368	2528.138654
675.091820	2518.056346
675.431223	2500.412308
675.770574	2523.097500
676.109875	2558.385577
676.449125	2553.344423
676.788324	2523.097500
677.127473	2560.906154
677.466571	2555.865000
677.805619	2442.439038
678.144616	2490.330000
678.483562	2550.823846
678.822458	2450.000769
679.161303	2578.550192
679.500098	2444.959615
679.838842	2570.988462
680.177535	2500.412308
680.516179	2520.576923
680.854771	2462.603654
681.193314	2507.974038
681.531805	2394.548077
681.870247	2485.288846
682.208638	2460.083077
682.546978	2455.041923
682.885268	2533.179808
683.223508	2502.932885
683.561697	2467.644808
683.899836	2444.959615
684.237925	2497.891731
684.575963	2480.247692
684.913951	2439.918462
685.251889	2578.550192
685.589776	2487.809423
685.927614	2482.768269
686.265401	2475.206538
686.603137	2540.741538
686.940824	2513.015192
687.278460	2558.385577
687.616046	2450.000769
687.953582	2563.426731
688.291068	2535.700385
688.628504	2470.165385
688.965889	2502.932885
689.303224	2490.330000
689.640510	2470.165385
689.977745	2497.891731
690.314930	2500.412308
690.652065	2505.453462
690.989150	2495.371154
691.326185	2510.494615
691.663170	2462.603654
692.000105	2500.412308
692.336990	2442.439038
692.673825	2507.974038
693.010610	2439.918462
693.347345	2495.371154
693.684030	2555.865000
694.020665	2470.165385
694.357251	2407.150962
694.693786	2495.371154
695.030272	2397.068654
695.366707	2568.467885
695.703093	2465.124231
696.039429	2518.056346
696.375716	2477.727115
696.711952	2502.932885
697.048139	2487.809423
697.384276	2442.439038
697.720363	2437.397885
698.056400	2573.509038
698.392388	2505.453462
698.728326	2487.809423
699.064214	2500.412308
699.400053	2492.850577
699.735842	2555.865000
700.071581	2462.603654
700.407270	2467.644808
700.742910	2460.083077
701.078501	2485.288846
701.414042	2507.974038
701.749533	2606.276538
702.084974	2507.974038
702.420366	2540.741538
702.755709	2457.562500
703.091002	2507.974038
703.426246	2447.480192
703.761440	2507.974038
704.096584	2480.247692
704.431679	2528.138654
704.766725	2492.850577
705.101721	2523.097500
705.436668	2452.521346
705.771565	2530.659231
706.106413	2518.056346
706.441212	2475.206538
706.775961	2450.000769
707.110661	2505.453462
707.445311	2495.371154
707.779913	2523.097500
708.114465	2432.356731
708.448967	2490.330000
708.783421	2538.220962
709.117825	2482.768269
709.452180	2586.111923
709.786485	2480.247692
710.120742	2485.288846
710.454949	2497.891731
710.789107	2540.741538
711.123216	2427.315577
711.457275	2540.741538
711.791286	2518.056346
712.125247	2472.685962
712.459159	2515.535769
712.793023	2523.097500
713.126837	2535.700385
713.460602	2523.097500
713.794318	2450.000769
714.127985	2487.809423
714.461602	2434.877308
714.795171	2507.974038
715.128691	2525.618077
715.462162	2439.918462
715.795584	2523.097500
716.128957	2452.521346
716.462281	2497.891731
716.795556	2492.850577
717.128782	2419.753846
717.461960	2500.412308
717.795088	2344.136538
718.128167	2518.056346
718.461198	2495.371154
718.794180	2470.165385
719.127113	2490.330000
719.459997	2482.768269
719.792833	2472.685962
720.125619	2523.097500
720.458357	2460.083077
720.791046	2530.659231
721.123686	2414.712692
721.456278	2565.947308
721.788821	2500.412308
722.121315	2460.083077
722.453761	2505.453462
722.786158	2482.768269
723.118506	2533.179808
723.450805	2450.000769
723.783056	2450.000769
724.115259	2518.056346
724.447412	2465.124231
724.779518	2480.247692
725.111574	2540.741538
725.443582	2510.494615
725.775542	2523.097500
726.107453	2412.192115
726.439315	2460.083077
726.771129	2581.070769
727.102895	2565.947308
727.434612	2394.548077
727.766281	2495.371154
728.097901	2465.124231
728.429473	2540.741538
728.760996	2422.274423
729.092471	2548.303269
729.423897	2462.603654
729.755276	2507.974038
730.086606	2414.712692
730.417887	2495.371154
730.749120	2513.015192
731.080305	2444.959615
731.411442	2513.015192
731.742530	2462.603654
732.073570	2487.809423
732.404562	2500.412308
732.735506	2533.179808
733.066401	2525.618077
733.397249	2444.959615
733.728048	2558.385577
734.058798	2444.959615
734.389501	2520.576923
734.720156	2492.850577
735.050762	2482.768269
735.381320	2427.315577
735.711831	2513.015192
736.042293	2470.165385
736.372707	2475.206538
736.703073	2475.206538
737.033391	2543.262115
737.363661	2424.795000
737.693883	2439.918462
738.024056	2553.344423
738.354182	2447.480192
738.684260	2500.412308
739.014290	2518.056346
739.344272	2475.206538
739.674207	2515.535769
740.004093	2548.303269
740.333931	2465.124231
740.663722	2523.097500
740.993464	2513.015192
741.323159	2487.809423
741.652806	2553.344423
741.982405	2573.509038
742.311956	2419.753846
742.641460	2500.412308
742.970915	2467.644808
743.300323	2555.865000
743.629683	2444.959615
743.958996	2530.659231
744.288260	2535.700385
744.617477	2548.303269
744.946647	2462.603654
745.275768	2467.644808
745.604842	2475.206538
745.933869	2558.385577
746.262847	2482.768269
746.591778	2394.548077
746.920662	2513.015192
747.249498	2487.809423
747.578286	2437.397885
747.907027	2490.330000
748.235720	2442.439038
748.564365	2485.288846
748.892963	2518.056346
749.221514	2376.904038
749.550017	2550.823846
749.878473	2444.959615
750.206881	2573.509038
750.535242	2533.179808
750.863555	2502.932885
751.191821	2490.330000
751.520039	2497.891731
751.848210	2444.959615
752.176334	2495.371154
752.504411	2505.453462
752.832440	2606.276538
753.160421	2442.439038
753.488356	2513.015192
753.816243	2407.150962
754.144082	2492.850577
754.471875	2482.768269
754.799620	2404.630385
755.127318	2424.795000
755.454969	2543.262115
755.782572	2495.371154
756.110129	2500.412308
756.437638	2502.932885
756.765100	2381.945192
757.092515	2525.618077
757.419882	2543.262115
757.747203	2555.865000
758.074477	2439.918462
758.401703	2475.206538
758.728882	2422.274423
759.056014	2490.330000
759.383099	2492.850577
759.710138	2545.782692
760.037129	2467.644808
760.364073	2399.589231
760.690970	2460.083077
761.017820	2414.712692
761.344623	2437.397885
761.671379	2558.385577
761.998088	2535.700385
762.324751	2550.823846
762.651366	2497.891731
762.977935	2618.879423
763.304456	2472.685962
763.630931	2558.385577
763.957359	2581.070769
764.283740	2492.850577
764.610074	2457.562500
764.936362	2460.083077
765.262602	2442.439038
765.588796	2470.165385
765.914943	2510.494615
766.241044	2518.056346
766.567097	2510.494615
766.893104	2510.494615
767.219064	2520.576923
767.544978	2565.947308
767.870845	2422.274423
768.196665	2455.041923
768.522438	2439.918462
768.848165	2480.247692
769.173846	2447.480192
769.499479	2550.823846
769.825066	2477.727115
770.150607	2545.782692
770.476101	2475.206538
770.801548	2417.233269
771.126949	2570.988462
771.452303	2497.891731
771.777611	2477.727115
772.102872	2528.138654
772.428087	2477.727115
772.753256	2510.494615
773.078378	2507.974038
773.403453	2513.015192
773.728482	2548.303269
774.053465	2507.974038
774.378401	2439.918462
774.703291	2502.932885
775.028135	2525.618077
775.352932	2442.439038
775.677683	2381.945192
776.002388	2394.548077
776.327046	2545.782692
776.651658	2457.562500
776.976224	2419.753846
777.300743	2424.795000
777.625216	2452.521346
777.949643	2528.138654
778.274024	2502.932885
778.598359	2465.124231
778.922647	2427.315577
779.246889	2490.330000
779.571086	2457.562500
779.895236	2470.165385
780.219339	2507.974038
780.543397	2543.262115
780.867409	2540.741538
781.191374	2417.233269
781.515294	2525.618077
781.839167	2452.521346
782.162995	2525.618077
782.486776	2434.877308
782.810511	2386.986346
783.134201	2578.550192
783.457844	2460.083077
783.781441	2543.262115
784.104993	2513.015192
784.428498	2437.397885
784.751958	2513.015192
785.075372	2419.753846
785.398739	2419.753846
785.722061	2490.330000
786.045337	2447.480192
786.368568	2465.124231
786.691752	2424.795000
787.014891	2540.741538
787.337983	2470.165385
787.661030	2523.097500
787.984031	2507.974038
788.306987	2487.809423
788.629897	2530.659231
788.952760	2485.288846
789.275579	2475.206538
789.598351	2457.562500
789.921078	2422.274423
790.243759	2596.194231
790.566395	2533.179808
790.888984	2533.179808
791.211529	2523.097500
791.534027	2439.918462
791.856480	2538.220962
792.178888	2465.124231
792.501249	2490.330000
792.823566	2525.618077
793.145836	2530.659231
793.468062	2533.179808
793.790241	2523.097500
794.112375	2490.330000
794.434464	2513.015192
794.756507	2480.247692
795.078505	2550.823846
795.400457	2439.918462
795.722364	2525.618077
796.044226	2475.206538
796.366042	2515.535769
796.687812	2490.330000
797.009538	2540.741538
797.331218	2437.397885
797.652852	2482.768269
797.974442	2477.727115
798.295986	2500.412308
798.617484	2455.041923
798.938938	2573.509038
799.260346	2510.494615
799.581709	2457.562500
799.903026	2586.111923
800.224299	2472.685962
800.545526	2576.029615
800.866708	2480.247692
801.187845	2518.056346
801.508936	2427.315577
801.829983	2465.124231
802.150984	2447.480192
802.471940	2515.535769
802.792851	2523.097500
803.113717	2543.262115
803.434538	2492.850577
803.755314	2472.685962
804.076045	2462.603654
804.396731	2555.865000
804.717372	2455.041923
805.037967	2480.247692
805.358518	2540.741538
805.679024	2480.247692
805.999485	2482.768269
806.319901	2467.644808
806.640272	2535.700385
806.960598	2470.165385
807.280879	2515.535769
807.601115	2525.618077
807.921306	2543.262115
808.241453	2422.274423
808.561554	2515.535769
808.881611	2472.685962
809.201623	2518.056346
809.521590	2485.288846
809.841513	2500.412308
810.161390	2492.850577
810.481223	2470.165385
810.801011	2497.891731
811.120755	2538.220962
811.440453	2460.083077
811.760107	2510.494615
812.079716	2535.700385
812.399281	2523.097500
812.718801	2452.521346
813.038276	2545.782692
813.357707	2560.906154
813.677093	2502.932885
813.996434	2465.124231
814.315731	2495.371154
814.634983	2528.138654
814.954191	2515.535769
815.273354	2520.576923
815.592473	2447.480192
815.911547	2538.220962
816.230577	2543.262115
816.549562	2507.974038
816.868502	2555.865000
817.187399	2543.262115
817.506250	2523.097500
817.825058	2500.412308
818.143821	2502.932885
818.462539	2497.891731
818.781213	2490.330000
819.099843	2485.288846
819.418429	2455.041923
819.736970	2475.206538
820.055466	2487.809423
820.373919	2455.041923
820.692327	2467.644808
821.010691	2487.809423
821.329011	2553.344423
821.647286	2563.426731
821.965517	2467.644808
822.283704	2371.862885
822.601847	2518.056346
822.919945	2465.124231
823.237999	2444.959615
823.556010	2538.220962
823.873976	2495.371154
824.191897	2578.550192
824.509775	2553.344423
824.827609	2452.521346
825.145398	2518.056346
825.463144	2482.768269
825.780845	2507.974038
826.098502	2470.165385
826.416116	2505.453462
826.733685	2513.015192
827.051210	2465.124231
827.368692	2477.727115
827.686129	2515.535769
828.003522	2528.138654
828.320872	2419.753846
828.638177	2533.179808
828.955439	2467.644808
829.272656	2497.891731
829.589830	2432.356731
829.906960	2495.371154
830.224046	2500.412308
830.541088	2437.397885
830.858086	2437.397885
831.175041	2555.865000
831.491952	2513.015192
831.808819	2530.659231
832.125642	2518.056346
832.442421	2417.233269
832.759157	2523.097500
833.075849	2480.247692
833.392497	2520.576923
833.709101	2472.685962
834.025662	2513.015192
834.342179	2565.947308
834.658653	2540.741538
834.975083	2444.959615
835.291469	2500.412308
835.607811	2490.330000
835.924110	2548.303269
836.240366	2510.494615
836.556578	2497.891731
836.872746	2475.206538
837.188871	2460.083077
837.504952	2523.097500
837.820990	2384.465769
838.136984	2563.426731
838.452935	2452.521346
838.768842	2500.412308
839.084706	2475.206538
839.400526	2462.603654
839.716303	2505.453462
840.032037	2450.000769
840.347727	2480.247692
840.663373	2427.315577
840.978977	2576.029615
841.294537	2452.521346
841.610054	2616.358846
841.925527	2530.659231
842.240957	2513.015192
842.556344	2487.809423
842.871687	2455.041923
843.186987	2487.809423
843.502244	2500.412308
843.817458	2555.865000
844.132629	2477.727115
844.447756	2482.768269
844.762840	2497.891731
845.077881	2515.535769
845.392879	2497.891731
845.707833	2513.015192
846.022745	2550.823846
846.337613	2487.809423
846.652438	2573.509038
846.967221	2492.850577
847.281960	2505.453462
847.596656	2475.206538
847.911309	2492.850577
848.225919	2475.206538
848.540485	2505.453462
848.855009	2543.262115
849.169490	2568.467885
849.483928	2505.453462
849.798323	2422.274423
850.112675	2482.768269
850.426984	2550.823846
850.741251	2487.809423
851.055474	2457.562500
851.369654	2465.124231
851.683792	2444.959615
851.997887	2555.865000
852.311938	2432.356731
852.625947	2462.603654
852.939914	2462.603654
853.253837	2487.809423
853.567718	2558.385577
853.881555	2364.301154
854.195350	2394.548077
854.509103	2520.576923
854.822812	2457.562500
855.136479	2507.974038
855.450103	2538.220962
855.763685	2528.138654
856.077224	2555.865000
856.390720	2427.315577
856.704173	2447.480192
857.017584	2452.521346
857.330953	2533.179808
857.644278	2462.603654
857.957561	2523.097500
858.270802	2492.850577
858.584000	2555.865000
858.897155	2535.700385
859.210268	2560.906154
859.523339	2540.741538
859.836367	2480.247692
860.149352	2523.097500
860.462295	2432.356731
860.775195	2530.659231
861.088054	2475.206538
861.400869	2560.906154
861.713642	2414.712692
862.026373	2525.618077
862.339062	2439.918462
862.651708	2518.056346
862.964312	2444.959615
863.276873	2528.138654
863.589392	2528.138654
863.901869	2530.659231
864.214303	2482.768269
864.526696	2442.439038
864.839045	2518.056346
865.151353	2558.385577
865.463619	2510.494615
865.775842	2470.165385
866.088023	2495.371154
866.400162	2523.097500
866.712258	2513.015192
867.024313	2475.206538
867.336325	2444.959615
867.648296	2528.138654
867.960224	2439.918462
868.272110	2444.959615
868.583954	2502.932885
868.895755	2558.385577
869.207515	2507.974038
869.519233	2455.041923
869.830909	2477.727115
870.142542	2500.412308
870.454134	2548.303269
870.765684	2533.179808
871.077191	2533.179808
871.388657	2442.439038
871.700081	2520.576923
872.011463	2472.685962
872.322803	2475.206538
872.634101	2581.070769
872.945357	2545.782692
873.256571	2525.618077
873.567744	2505.453462
873.878874	2477.727115
874.189963	2399.589231
874.501010	2513.015192
874.812015	2472.685962
875.122979	2528.138654
875.433900	2543.262115
875.744780	2520.576923
876.055618	2495.371154
876.366415	2490.330000
876.677169	2568.467885
876.987882	2550.823846
877.298554	2485.288846
877.609183	2482.768269
877.919771	2515.535769
878.230317	2613.838269
878.540822	2505.453462
878.851285	2447.480192
879.161707	2510.494615
879.472087	2457.562500
879.782425	2560.906154
880.092722	2457.562500
880.402977	2543.262115
880.713191	2555.865000
881.023363	2452.521346
881.333494	2480.247692
881.643583	2452.521346
881.953631	2540.741538
882.263637	2507.974038
882.573602	2455.041923
882.883526	2505.453462
883.193408	2515.535769
883.503248	2500.412308
883.813048	2492.850577
884.122806	2432.356731
884.432522	2543.262115
884.742197	2472.685962
885.051831	2450.000769
885.361424	2480.247692
885.670975	2404.630385
885.980485	2465.124231
886.289954	2455.041923
886.599382	2500.412308
886.908768	2439.918462
887.218113	2482.768269
887.527417	2462.603654
887.836680	2482.768269
888.145901	2545.782692
888.455082	2490.330000
888.764221	2515.535769
889.073319	2601.235385
889.382376	2490.330000
889.691392	2523.097500
890.000366	2434.877308
890.309300	2492.850577
890.618193	2419.753846
890.927044	2490.330000
891.235855	2475.206538
891.544625	2507.974038
891.853353	2515.535769
892.162041	2535.700385
892.470687	2379.424615
892.779293	2482.768269
893.087858	2543.262115
893.396381	2533.179808
893.704864	2462.603654
894.013306	2460.083077
894.321707	2535.700385
894.630068	2485.288846
894.938387	2581.070769
895.246665	2475.206538
895.554903	2429.836154
895.863100	2482.768269
896.171256	2487.809423
896.479371	2550.823846
896.787446	2533.179808
897.095480	2485.288846
897.403473	2555.865000
897.711425	2492.850577
898.019336	2439.918462
898.327207	2510.494615
898.635038	2492.850577
898.942827	2497.891731
899.250576	2490.330000
899.558284	2510.494615
899.865952	2490.330000
900.173579	2485.288846
900.481165	2477.727115
900.788711	2555.865000
901.096216	2450.000769
901.403681	2591.153077
901.711105	2457.562500
902.018489	2528.138654
902.325832	2613.838269
902.633135	2465.124231
902.940397	2384.465769
903.247619	2477.727115
903.554800	2548.303269
903.861941	2424.795000
904.169041	2492.850577
904.476101	2558.385577
904.783121	2422.274423
905.090100	2462.603654
905.397039	2407.150962
905.703938	2450.000769
906.010796	2518.056346
906.317614	2485.288846
906.624391	2500.412308
906.931129	2593.673654
907.237826	2480.247692
907.544483	2523.097500
907.851099	2452.521346
908.157675	2510.494615
908.464211	2555.865000
908.770707	2429.836154
909.077163	2535.700385
909.383578	2465.124231
909.689954	2555.865000
909.996289	2462.603654
910.302584	2485.288846
910.608839	2487.809423
910.915054	2462.603654
911.221229	2447.480192
911.527363	2510.494615
911.833458	2397.068654
912.139513	2528.138654
912.445527	2424.795000
912.751502	2533.179808
913.057436	2505.453462
913.363331	2467.644808
913.669186	2492.850577
913.975000	2593.673654
914.280775	2485.288846
914.586510	2467.644808
914.892205	2447.480192
915.197859	2460.083077
915.503475	2495.371154
915.809050	2442.439038
916.114585	2538.220962
916.420081	2573.509038
916.725536	2490.330000
917.030952	2477.727115
917.336328	2455.041923
917.641665	2507.974038
917.946961	2465.124231
918.252218	2540.741538
918.557435	2502.932885
918.862612	2598.714808
919.167750	2462.603654
919.472848	2563.426731
919.777906	2495.371154
920.082925	2444.959615
920.387904	2447.480192
920.692843	2429.836154
920.997743	2475.206538
921.302603	2442.439038
921.607423	2482.768269
921.912204	2482.768269
922.216946	2465.124231
922.521647	2442.439038
922.826310	2510.494615
923.130932	2470.165385
923.435516	2495.371154
923.740059	2467.644808
924.044564	2540.741538
924.349028	2480.247692
924.653454	2535.700385
924.957840	2513.015192
925.262186	2553.344423
925.566493	2515.535769
925.870761	2475.206538
926.174989	2457.562500
926.479178	2485.288846
926.783328	2399.589231
927.087438	2563.426731
927.391509	2442.439038
927.695541	2548.303269
927.999533	2432.356731
928.303486	2485.288846
928.607400	2480.247692
928.911275	2439.918462
929.215110	2497.891731
929.518906	2475.206538
929.822663	2553.344423
930.126381	2470.165385
930.430060	2510.494615
930.733699	2437.397885
931.037299	2472.685962
931.340861	2455.041923
931.644383	2475.206538
931.947866	2444.959615
932.251309	2538.220962
932.554714	2480.247692
932.858080	2543.262115
933.161407	2467.644808
933.464694	2492.850577
933.767943	2452.521346
934.071153	2439.918462
934.374323	2490.330000
934.677455	2548.303269
934.980548	2490.330000
935.283602	2460.083077
935.586617	2565.947308
935.889593	2535.700385
936.192530	2462.603654
936.495428	2495.371154
936.798287	2520.576923
937.101108	2513.015192
937.403890	2482.768269
937.706632	2475.206538
938.009336	2523.097500
938.312002	2586.111923
938.614628	2530.659231
938.917216	2485.288846
939.219765	2573.509038
939.522275	2540.741538
939.824747	2487.809423
940.127179	2525.618077
940.429573	2497.891731
940.731929	2470.165385
941.034246	2495.371154
941.336524	2432.356731
941.638763	2437.397885
941.940964	2477.727115
942.243126	2545.782692
942.545250	2462.603654
942.847335	2515.535769
943.149381	2507.974038
943.451389	2482.768269
943.753359	2507.974038
944.055290	2480.247692
944.357182	2452.521346
944.659036	2507.974038
944.960851	2439.918462
945.262628	2563.426731
945.564367	2530.659231
945.866067	2439.918462
946.167729	2457.562500
946.469352	2334.054231
946.770937	2480.247692
947.072484	2460.083077
947.373992	2480.247692
947.675462	2487.809423
947.976893	2422.274423
948.278286	2500.412308
948.579641	2424.795000
948.880958	2480.247692
949.182236	2432.356731
949.483476	2555.865000
949.784678	2515.535769
950.085841	2487.809423
950.386967	2565.947308
950.688054	2550.823846
950.989103	2497.891731
951.290114	2548.303269
951.591087	2407.150962
951.892021	2437.397885
952.192917	2560.906154
952.493776	2457.562500
952.794596	2523.097500
953.095378	2553.344423
953.396122	2518.056346
953.696828	2490.330000
953.997496	2543.262115
954.298126	2540.741538
954.598718	2525.618077
954.899272	2457.562500
955.199788	2525.618077
955.500266	2424.795000
955.800706	2444.959615
956.101108	2497.891731
956.401472	2381.945192
956.701798	2442.439038
957.002087	2548.303269
957.302337	2452.521346
957.602550	2518.056346
957.902724	2424.795000
958.202861	2500.412308
958.502960	2528.138654
958.803022	2510.494615
959.103045	2538.220962
959.403031	2462.603654
959.702979	2424.795000
960.002889	2568.467885
960.302762	2424.795000
960.602596	2497.891731
960.902393	2510.494615
961.202153	2623.920577
961.501875	2543.262115
961.801559	2422.274423
962.101205	2507.974038
962.400814	2465.124231
962.700385	2485.288846
962.999918	2490.330000
963.299414	2500.412308
963.598873	2447.480192
963.898293	2467.644808
964.197677	2472.685962
964.497022	2485.288846
964.796331	2465.124231
965.095601	2528.138654
965.394835	2533.179808
965.694030	2439.918462
965.993189	2462.603654
966.292309	2381.945192
966.591393	2467.644808
966.890439	2500.412308
967.189447	2485.288846
967.488419	2460.083077
967.787353	2530.659231
968.086249	2472.685962
968.385108	2565.947308
968.683930	2452.521346
968.982714	2490.330000
969.281462	2560.906154
969.580172	2460.083077
969.878844	2482.768269
970.177480	2485.288846
970.476078	2450.000769
970.774639	2515.535769
971.073162	2525.618077
971.371649	2465.124231
971.670098	2442.439038
971.968510	2349.177692
972.266885	2482.768269
972.565223	2543.262115
972.863524	2437.397885
973.161788	2490.330000
973.460014	2465.124231
973.758204	2419.753846
974.056356	2439.918462
974.354471	2447.480192
974.652550	2500.412308
974.950591	2523.097500
975.248595	2515.535769
975.546563	2485.288846
975.844493	2482.768269
976.142386	2485.288846
976.440243	2596.194231
976.738062	2593.673654
977.035845	2457.562500
977.333590	2510.494615
977.631299	2447.480192
977.928971	2432.356731
978.226606	2530.659231
978.524204	2472.685962
978.821765	2550.823846
979.119290	2497.891731
979.416777	2480.247692
979.714228	2414.712692
980.011642	2520.576923
980.309020	2550.823846
980.606360	2497.891731
980.903664	2555.865000
981.200931	2457.562500
981.498162	2444.959615
981.795356	2475.206538
982.092513	2513.015192
982.389633	2467.644808
982.686717	2487.809423
982.983764	2376.904038
983.280775	2497.891731
983.577749	2465.124231
983.874686	2472.685962
984.171587	2543.262115
984.468451	2502.932885
984.765279	2467.644808
985.062070	2563.426731
985.358824	2455.041923
985.655543	2419.753846
985.952224	2455.041923
986.248869	2583.591346
986.545478	2470.165385
986.842050	2447.480192
987.138586	2555.865000
987.435086	2553.344423
987.731549	2409.671538
988.027975	2586.111923
988.324366	2558.385577
988.620719	2472.685962
988.917037	2505.453462
989.213318	2535.700385
989.509563	2472.685962
989.805772	2528.138654
990.101944	2475.206538
990.398080	2422.274423
990.694180	2492.850577
990.990244	2409.671538
991.286271	2452.521346
991.582262	2467.644808
991.878217	2510.494615
992.174136	2460.083077
992.470019	2500.412308
992.765865	2419.753846
993.061676	2507.974038
993.357450	2444.959615
993.653188	2540.741538
993.948890	2465.124231
994.244556	2500.412308
994.540186	2497.891731
994.835780	2492.850577
995.131337	2475.206538
995.426859	2447.480192
995.722345	2485.288846
996.017795	2467.644808
996.313208	2515.535769
996.608586	2477.727115
996.903928	2487.809423
997.199234	2502.932885
997.494504	2472.685962
997.789738	2507.974038
998.084936	2492.850577
998.380099	2518.056346
998.675225	2545.782692
998.970316	2470.165385
999.265371	2427.315577
999.560390	2460.083077
999.855373	2422.274423
1000.150320	2578.550192
1000.445232	2495.371154
1000.740108	2462.603654
1001.034948	2480.247692
1001.329752	2500.412308
1001.624521	2452.521346
1001.919254	2437.397885
1002.213951	2429.836154
1002.508613	2596.194231
1002.803239	2485.288846
1003.097829	2545.782692
1003.392384	2427.315577
1003.686903	2490.330000
1003.981386	2513.015192
1004.275834	2437.397885
1004.570246	2518.056346
1004.864623	2533.179808
1005.158964	2465.124231
1005.453270	2515.535769
1005.747540	2447.480192
1006.041775	2482.768269
1006.335974	2465.124231
1006.630138	2497.891731
1006.924266	2462.603654
1007.218359	2518.056346
1007.512416	2470.165385
1007.806438	2472.685962
1008.100425	2538.220962
1008.394376	2439.918462
1008.688292	2528.138654
1008.982172	2450.000769
1009.276017	2515.535769
1009.569827	2462.603654
1009.863602	2495.371154
1010.157341	2442.439038
1010.451045	2500.412308
1010.744714	2507.974038
1011.038347	2530.659231
1011.331945	2497.891731
1011.625508	2465.124231
1011.919036	2525.618077
1012.212528	2472.685962
1012.505986	2520.576923
1012.799408	2598.714808
1013.092795	2467.644808
1013.386147	2558.385577
1013.679464	2485.288846
1013.972745	2480.247692
1014.265992	2447.480192
1014.559204	2538.220962
1014.852380	2568.467885
1015.145521	2442.439038
1015.438628	2530.659231
1015.731699	2502.932885
1016.024736	2513.015192
1016.317737	2482.768269
1016.610703	2470.165385
1016.903635	2525.618077
1017.196531	2465.124231
1017.489393	2455.041923
1017.782219	2490.330000
1018.075011	2434.877308
1018.367768	2462.603654
1018.660490	2482.768269
1018.953177	2482.768269
1019.245829	2482.768269
