Dividing Wavelength (nm)	Counts (n)	Blue Motor Position (mm): 7.600000	Red Motor Position (mm): 0.000000	
326.493990	2109.722885
326.888308	2109.722885
327.282561	2109.722885
327.676750	2069.393654
328.070874	2051.749615
328.464933	2076.955385
328.858929	2064.352500
329.252859	2208.025385
329.646726	2112.243462
330.040528	2165.175577
330.434265	2142.490385
330.827938	2109.722885
331.221547	2107.202308
331.615091	2155.093269
332.008571	2175.257885
332.401986	2150.052115
332.795338	2182.819615
333.188625	2263.478077
333.581847	2255.916346
333.975006	2311.369038
334.368100	2283.642692
334.761129	2296.245577
335.154095	2376.904038
335.546996	2296.245577
335.939833	2303.807308
336.332606	2407.150962
336.725315	2477.727115
337.117960	2346.657115
337.510540	2361.780577
337.903056	2412.192115
338.295508	2361.780577
338.687896	2407.150962
339.080220	2472.685962
339.472480	2439.918462
339.864676	2520.576923
340.256807	2475.206538
340.648875	2412.192115
341.040879	2444.959615
341.432818	2424.795000
341.824694	2495.371154
342.216506	2543.262115
342.608253	2460.083077
342.999937	2487.809423
343.391557	2528.138654
343.783113	2472.685962
344.174605	2434.877308
344.566033	2525.618077
344.957397	2487.809423
345.348697	2528.138654
345.739934	2465.124231
346.131106	2482.768269
346.522215	2543.262115
346.913260	2422.274423
347.304241	2442.439038
347.695159	2467.644808
348.086012	2455.041923
348.476802	2429.836154
348.867528	2419.753846
349.258191	2434.877308
349.648789	2432.356731
350.039324	2487.809423
350.429796	2379.424615
350.820203	2409.671538
351.210548	2543.262115
351.600828	2485.288846
351.991045	2452.521346
352.381198	2354.218846
352.771288	2414.712692
353.161314	2485.288846
353.551276	2402.109808
353.941175	2455.041923
354.331010	2467.644808
354.720782	2442.439038
355.110490	2472.685962
355.500135	2399.589231
355.889717	2477.727115
356.279235	2422.274423
356.668689	2520.576923
357.058080	2394.548077
357.447408	2409.671538
357.836672	2397.068654
358.225873	2384.465769
358.615010	2460.083077
359.004084	2432.356731
359.393095	2414.712692
359.782043	2402.109808
360.170927	2462.603654
360.559748	2465.124231
360.948505	2419.753846
361.337199	2487.809423
361.725830	2450.000769
362.114398	2429.836154
362.502903	2376.904038
362.891344	2434.877308
363.279722	2447.480192
363.668037	2399.589231
364.056289	2460.083077
364.444478	2412.192115
364.832603	2376.904038
365.220665	2528.138654
365.608665	2465.124231
365.996601	2424.795000
366.384474	2450.000769
366.772284	2437.397885
367.160031	2477.727115
367.547715	2412.192115
367.935336	2437.397885
368.322893	2475.206538
368.710388	2477.727115
369.097820	2447.480192
369.485189	2394.548077
369.872495	2422.274423
370.259738	2412.192115
370.646918	2407.150962
371.034035	2447.480192
371.421090	2533.179808
371.808081	2520.576923
372.195010	2399.589231
372.581875	2442.439038
372.968678	2502.932885
373.355418	2480.247692
373.742096	2520.576923
374.128710	2419.753846
374.515262	2455.041923
374.901751	2540.741538
375.288177	2455.041923
375.674540	2455.041923
376.060841	2475.206538
376.447079	2437.397885
376.833254	2434.877308
377.219367	2442.439038
377.605417	2467.644808
377.991404	2457.562500
378.377329	2442.439038
378.763191	2472.685962
379.148991	2515.535769
379.534727	2452.521346
379.920402	2447.480192
380.306013	2470.165385
380.691563	2490.330000
381.077049	2477.727115
381.462474	2374.383462
381.847835	2457.562500
382.233134	2444.959615
382.618371	2465.124231
383.003545	2432.356731
383.388657	2477.727115
383.773706	2392.027500
384.158693	2518.056346
384.543618	2422.274423
384.928480	2515.535769
385.313280	2497.891731
385.698017	2480.247692
386.082692	2417.233269
386.467305	2424.795000
386.851856	2437.397885
387.236344	2523.097500
387.620770	2465.124231
388.005133	2477.727115
388.389435	2472.685962
388.773674	2432.356731
389.157851	2465.124231
389.541965	2447.480192
389.926018	2412.192115
390.310008	2490.330000
390.693936	2404.630385
391.077802	2457.562500
391.461606	2432.356731
391.845348	2465.124231
392.229027	2460.083077
392.612645	2472.685962
392.996200	2432.356731
393.379694	2429.836154
393.763125	2467.644808
394.146494	2465.124231
394.529801	2495.371154
394.913047	2455.041923
395.296230	2520.576923
395.679351	2392.027500
396.062410	2457.562500
396.445408	2437.397885
396.828343	2457.562500
397.211217	2419.753846
397.594028	2354.218846
397.976778	2553.344423
398.359466	2477.727115
398.742092	2502.932885
399.124656	2434.877308
399.507158	2381.945192
399.889598	2434.877308
400.271977	2487.809423
400.654294	2520.576923
401.036549	2548.303269
401.418742	2480.247692
401.800874	2538.220962
402.182944	2513.015192
402.564952	2480.247692
402.946898	2462.603654
403.328783	2485.288846
403.710606	2513.015192
404.092367	2419.753846
404.474067	2485.288846
404.855705	2439.918462
405.237282	2402.109808
405.618797	2450.000769
406.000250	2525.618077
406.381642	2502.932885
406.762972	2450.000769
407.144240	2450.000769
407.525447	2450.000769
407.906593	2432.356731
408.287677	2460.083077
408.668700	2475.206538
409.049661	2465.124231
409.430560	2535.700385
409.811399	2429.836154
410.192176	2570.988462
410.572891	2513.015192
410.953545	2467.644808
411.334138	2523.097500
411.714669	2439.918462
412.095139	2465.124231
412.475547	2465.124231
412.855894	2538.220962
413.236180	2505.453462
413.616405	2495.371154
413.996568	2482.768269
414.376670	2553.344423
414.756711	2447.480192
415.136691	2528.138654
415.516609	2402.109808
415.896466	2485.288846
416.276262	2475.206538
416.655997	2417.233269
417.035670	2533.179808
417.415283	2500.412308
417.794834	2452.521346
418.174324	2462.603654
418.553753	2523.097500
418.933121	2470.165385
419.312428	2470.165385
419.691674	2485.288846
420.070859	2455.041923
420.449983	2424.795000
420.829045	2419.753846
421.208047	2530.659231
421.586988	2528.138654
421.965867	2397.068654
422.344686	2513.015192
422.723444	2439.918462
423.102141	2515.535769
423.480777	2472.685962
423.859352	2487.809423
424.237866	2555.865000
424.616319	2465.124231
424.994712	2482.768269
425.373044	2439.918462
425.751314	2462.603654
426.129524	2573.509038
426.507673	2477.727115
426.885762	2475.206538
427.263789	2424.795000
427.641756	2555.865000
428.019662	2490.330000
428.397508	2523.097500
428.775292	2432.356731
429.153016	2543.262115
429.530679	2472.685962
429.908282	2495.371154
430.285824	2429.836154
430.663305	2525.618077
431.040726	2500.412308
431.418086	2495.371154
431.795385	2427.315577
432.172624	2480.247692
432.549802	2518.056346
432.926920	2470.165385
433.303977	2381.945192
433.680974	2402.109808
434.057910	2520.576923
434.434786	2457.562500
434.811601	2550.823846
435.188355	2439.918462
435.565050	2540.741538
435.941683	2515.535769
436.318257	2452.521346
436.694770	2510.494615
437.071222	2500.412308
437.447614	2394.548077
437.823946	2407.150962
438.200218	2470.165385
438.576429	2545.782692
438.952580	2490.330000
439.328670	2533.179808
439.704700	2432.356731
440.080670	2465.124231
440.456580	2497.891731
440.832429	2545.782692
441.208218	2399.589231
441.583947	2485.288846
441.959616	2472.685962
442.335224	2558.385577
442.710773	2392.027500
443.086261	2455.041923
443.461689	2447.480192
443.837057	2409.671538
444.212365	2462.603654
444.587612	2515.535769
444.962800	2437.397885
445.337927	2502.932885
445.712995	2399.589231
446.088002	2460.083077
446.462949	2457.562500
446.837837	2457.562500
447.212664	2480.247692
447.587431	2545.782692
447.962139	2429.836154
448.336786	2513.015192
448.711374	2603.755962
449.085901	2570.988462
449.460369	2502.932885
449.834776	2434.877308
450.209124	2480.247692
450.583412	2450.000769
450.957640	2560.906154
451.331808	2470.165385
451.705917	2447.480192
452.079965	2465.124231
452.453954	2520.576923
452.827883	2485.288846
453.201752	2439.918462
453.575562	2427.315577
453.949311	2502.932885
454.323001	2460.083077
454.696632	2513.015192
455.070202	2470.165385
455.443713	2548.303269
455.817164	2434.877308
456.190556	2540.741538
456.563888	2485.288846
456.937160	2429.836154
457.310373	2608.797115
457.683526	2447.480192
458.056619	2490.330000
458.429653	2528.138654
458.802628	2444.959615
459.175542	2482.768269
459.548398	2538.220962
459.921194	2460.083077
460.293930	2563.426731
460.666607	2427.315577
461.039224	2434.877308
461.411782	2452.521346
461.784280	2450.000769
462.156719	2591.153077
462.529099	2497.891731
462.901419	2442.439038
463.273680	2444.959615
463.645882	2450.000769
464.018024	2439.918462
464.390106	2407.150962
464.762130	2465.124231
465.134094	2472.685962
465.505999	2540.741538
465.877845	2455.041923
466.249631	2538.220962
466.621358	2397.068654
466.993026	2565.947308
467.364634	2444.959615
467.736184	2447.480192
468.107674	2523.097500
468.479105	2467.644808
468.850477	2518.056346
469.221790	2502.932885
469.593043	2467.644808
469.964238	2480.247692
470.335373	2462.603654
470.706449	2543.262115
471.077467	2495.371154
471.448425	2482.768269
471.819324	2429.836154
472.190164	2535.700385
472.560945	2505.453462
472.931667	2482.768269
473.302330	2495.371154
473.672934	2480.247692
474.043479	2427.315577
474.413965	2452.521346
474.784393	2510.494615
475.154761	2588.632500
475.525070	2505.453462
475.895321	2467.644808
476.265513	2480.247692
476.635645	2444.959615
477.005719	2437.397885
477.375734	2548.303269
477.745691	2487.809423
478.115588	2480.247692
478.485427	2477.727115
478.855207	2553.344423
479.224928	2533.179808
479.594591	2518.056346
479.964194	2525.618077
480.333739	2457.562500
480.703226	2540.741538
481.072653	2515.535769
481.442022	2427.315577
481.811333	2482.768269
482.180584	2533.179808
482.549777	2510.494615
482.918912	2487.809423
483.287988	2518.056346
483.657005	2460.083077
484.025964	2490.330000
484.394864	2540.741538
484.763706	2497.891731
485.132489	2507.974038
485.501213	2540.741538
485.869879	2515.535769
486.238487	2460.083077
486.607036	2447.480192
486.975527	2482.768269
487.343959	2404.630385
487.712333	2497.891731
488.080648	2510.494615
488.448905	2513.015192
488.817104	2480.247692
489.185244	2528.138654
489.553326	2487.809423
489.921350	2525.618077
490.289315	2490.330000
490.657222	2500.412308
491.025070	2492.850577
491.392861	2523.097500
491.760593	2487.809423
492.128267	2520.576923
492.495883	2510.494615
492.863440	2510.494615
493.230939	2419.753846
493.598380	2528.138654
493.965763	2505.453462
494.333088	2520.576923
494.700354	2470.165385
495.067563	2530.659231
495.434713	2502.932885
495.801805	2427.315577
496.168839	2444.959615
496.535815	2510.494615
496.902733	2480.247692
497.269593	2550.823846
497.636395	2533.179808
498.003139	2513.015192
498.369825	2540.741538
498.736453	2460.083077
499.103023	2560.906154
499.469535	2535.700385
499.835989	2500.412308
500.202385	2525.618077
500.568723	2545.782692
500.935003	2460.083077
501.301226	2497.891731
501.667390	2439.918462
502.033497	2432.356731
502.399546	2528.138654
502.765537	2480.247692
503.131470	2492.850577
503.497345	2414.712692
503.863163	2490.330000
504.228923	2523.097500
504.594625	2535.700385
504.960269	2490.330000
505.325856	2492.850577
505.691385	2455.041923
506.056856	2485.288846
506.422270	2548.303269
506.787625	2485.288846
507.152924	2545.782692
507.518164	2452.521346
507.883347	2538.220962
508.248472	2502.932885
508.613540	2518.056346
508.978550	2397.068654
509.343503	2424.795000
509.708398	2452.521346
510.073236	2465.124231
510.438016	2507.974038
510.802738	2548.303269
511.167403	2528.138654
511.532010	2434.877308
511.896561	2558.385577
512.261053	2528.138654
512.625488	2518.056346
512.989866	2578.550192
513.354186	2538.220962
513.718449	2467.644808
514.082655	2472.685962
514.446803	2442.439038
514.810894	2427.315577
515.174927	2497.891731
515.538904	2472.685962
515.902822	2465.124231
516.266684	2460.083077
516.630488	2593.673654
516.994235	2457.562500
517.357925	2540.741538
517.721558	2502.932885
518.085133	2525.618077
518.448651	2485.288846
518.812112	2502.932885
519.175516	2404.630385
519.538863	2495.371154
519.902152	2538.220962
520.265385	2507.974038
520.628560	2616.358846
520.991678	2507.974038
521.354739	2538.220962
521.717743	2538.220962
522.080690	2573.509038
522.443580	2573.509038
522.806413	2447.480192
523.169189	2452.521346
523.531908	2538.220962
523.894569	2434.877308
524.257174	2530.659231
524.619722	2497.891731
524.982213	2495.371154
525.344647	2477.727115
525.707025	2528.138654
526.069345	2495.371154
526.431608	2482.768269
526.793815	2457.562500
527.155964	2457.562500
527.518057	2528.138654
527.880093	2472.685962
528.242072	2555.865000
528.603995	2467.644808
528.965860	2538.220962
529.327669	2528.138654
529.689421	2384.465769
530.051117	2442.439038
530.412755	2432.356731
530.774337	2497.891731
531.135862	2447.480192
531.497331	2502.932885
531.858743	2455.041923
532.220098	2495.371154
532.581396	2497.891731
532.942638	2507.974038
533.303824	2429.836154
533.664953	2477.727115
534.026025	2477.727115
534.387040	2593.673654
534.747999	2487.809423
535.108902	2455.041923
535.469748	2402.109808
535.830537	2502.932885
536.191270	2394.548077
536.551947	2447.480192
536.912567	2543.262115
537.273131	2525.618077
537.633638	2475.206538
537.994089	2452.521346
538.354483	2533.179808
538.714821	2465.124231
539.075103	2482.768269
539.435328	2457.562500
539.795497	2485.288846
540.155609	2465.124231
540.515665	2523.097500
540.875665	2535.700385
541.235609	2432.356731
541.595496	2437.397885
541.955328	2487.809423
542.315102	2455.041923
542.674821	2588.632500
543.034483	2586.111923
543.394090	2538.220962
543.753640	2432.356731
544.113134	2437.397885
544.472571	2563.426731
544.831953	2497.891731
545.191278	2518.056346
545.550548	2505.453462
545.909761	2507.974038
546.268918	2480.247692
546.628019	2497.891731
546.987064	2497.891731
547.346053	2513.015192
547.704986	2518.056346
548.063863	2500.412308
548.422684	2553.344423
548.781449	2457.562500
549.140158	2429.836154
549.498811	2523.097500
549.857408	2495.371154
550.215949	2550.823846
550.574434	2558.385577
550.932864	2465.124231
551.291237	2525.618077
551.649555	2513.015192
552.007817	2475.206538
552.366022	2492.850577
552.724173	2543.262115
553.082267	2477.727115
553.440305	2530.659231
553.798288	2467.644808
554.156215	2581.070769
554.514086	2505.453462
554.871902	2467.644808
555.229661	2596.194231
555.587365	2477.727115
555.945014	2510.494615
556.302606	2518.056346
556.660143	2427.315577
557.017625	2487.809423
557.375050	2538.220962
557.732421	2434.877308
558.089735	2518.056346
558.446994	2513.015192
558.804197	2417.233269
559.161345	2583.591346
559.518437	2563.426731
559.875474	2427.315577
560.232455	2490.330000
560.589381	2518.056346
560.946251	2485.288846
561.303065	2465.124231
561.659825	2482.768269
562.016528	2460.083077
562.373177	2533.179808
562.729770	2497.891731
563.086307	2492.850577
563.442789	2525.618077
563.799216	2520.576923
564.155587	2535.700385
564.511904	2467.644808
564.868164	2439.918462
565.224370	2487.809423
565.580520	2444.959615
565.936615	2558.385577
566.292654	2543.262115
566.648638	2535.700385
567.004567	2472.685962
567.360441	2477.727115
567.716260	2477.727115
568.072023	2444.959615
568.427732	2462.603654
568.783385	2495.371154
569.138982	2553.344423
569.494525	2523.097500
569.850013	2533.179808
570.205445	2399.589231
570.560823	2502.932885
570.916145	2495.371154
571.271412	2480.247692
571.626625	2460.083077
571.981782	2480.247692
572.336884	2525.618077
572.691931	2487.809423
573.046923	2475.206538
573.401860	2444.959615
573.756743	2450.000769
574.111570	2523.097500
574.466342	2507.974038
574.821059	2513.015192
575.175722	2482.768269
575.530330	2555.865000
575.884882	2490.330000
576.239380	2472.685962
576.593823	2525.618077
576.948211	2490.330000
577.302544	2487.809423
577.656823	2581.070769
578.011047	2495.371154
578.365216	2518.056346
578.719330	2480.247692
579.073389	2497.891731
579.427394	2465.124231
579.781344	2482.768269
580.135239	2462.603654
580.489080	2550.823846
580.842866	2533.179808
581.196597	2467.644808
581.550273	2470.165385
581.903895	2500.412308
582.257463	2606.276538
582.610975	2475.206538
582.964434	2507.974038
583.317837	2465.124231
583.671186	2545.782692
584.024481	2558.385577
584.377721	2477.727115
584.730906	2487.809423
585.084037	2553.344423
585.437113	2533.179808
585.790135	2502.932885
586.143103	2538.220962
586.496016	2447.480192
586.848874	2525.618077
587.201679	2495.371154
587.554428	2535.700385
587.907124	2452.521346
588.259765	2472.685962
588.612352	2548.303269
588.964884	2553.344423
589.317362	2427.315577
589.669786	2515.535769
590.022155	2485.288846
590.374470	2492.850577
590.726731	2480.247692
591.078937	2568.467885
591.431090	2507.974038
591.783188	2497.891731
592.135232	2545.782692
592.487222	2455.041923
592.839157	2553.344423
593.191038	2502.932885
593.542866	2432.356731
593.894639	2482.768269
594.246358	2472.685962
594.598022	2460.083077
594.949633	2455.041923
595.301190	2515.535769
595.652692	2530.659231
596.004141	2429.836154
596.355535	2505.453462
596.706876	2487.809423
597.058162	2482.768269
597.409395	2495.371154
597.760573	2480.247692
598.111698	2422.274423
598.462768	2492.850577
598.813785	2465.124231
599.164748	2422.274423
599.515657	2470.165385
599.866511	2495.371154
600.217312	2424.795000
600.568060	2603.755962
600.918753	2510.494615
601.269392	2470.165385
601.619978	2437.397885
601.970510	2528.138654
602.320988	2475.206538
602.671412	2520.576923
603.021783	2470.165385
603.372100	2487.809423
603.722363	2462.603654
604.072572	2518.056346
604.422728	2470.165385
604.772830	2475.206538
605.122878	2447.480192
605.472872	2450.000769
605.822813	2457.562500
606.172701	2540.741538
606.522534	2523.097500
606.872314	2518.056346
607.222041	2535.700385
607.571714	2518.056346
607.921333	2409.671538
608.270899	2495.371154
608.620411	2482.768269
608.969870	2533.179808
609.319276	2553.344423
609.668627	2500.412308
610.017926	2422.274423
610.367171	2510.494615
610.716362	2460.083077
611.065500	2465.124231
611.414585	2465.124231
611.763616	2560.906154
612.112594	2520.576923
612.461518	2480.247692
612.810389	2538.220962
613.159207	2507.974038
613.507971	2525.618077
613.856682	2540.741538
614.205340	2434.877308
614.553945	2558.385577
614.902496	2513.015192
615.250994	2442.439038
615.599439	2550.823846
615.947830	2568.467885
616.296169	2442.439038
616.644454	2535.700385
616.992686	2450.000769
617.340864	2596.194231
617.688990	2477.727115
618.037063	2475.206538
618.385082	2518.056346
618.733048	2450.000769
619.080961	2543.262115
619.428821	2437.397885
619.776628	2573.509038
620.124382	2472.685962
620.472083	2510.494615
620.819731	2550.823846
621.167326	2502.932885
621.514868	2419.753846
621.862357	2455.041923
622.209793	2465.124231
622.557176	2475.206538
622.904506	2500.412308
623.251783	2429.836154
623.599007	2422.274423
623.946179	2447.480192
624.293297	2513.015192
624.640363	2510.494615
624.987376	2500.412308
625.334336	2525.618077
625.681243	2472.685962
626.028097	2535.700385
626.374899	2550.823846
626.721647	2530.659231
627.068343	2497.891731
627.414987	2455.041923
627.761577	2528.138654
628.108115	2409.671538
628.454600	2495.371154
628.801032	2457.562500
629.147412	2467.644808
629.493739	2603.755962
629.840014	2520.576923
630.186236	2482.768269
630.532405	2573.509038
630.878521	2573.509038
631.224585	2510.494615
631.570597	2530.659231
631.916556	2545.782692
632.262462	2424.795000
632.608316	2530.659231
632.954117	2470.165385
633.299866	2576.029615
633.645562	2452.521346
633.991206	2543.262115
634.336797	2596.194231
634.682336	2535.700385
635.027823	2563.426731
635.373257	2510.494615
635.718639	2510.494615
636.063968	2487.809423
636.409245	2457.562500
636.754470	2490.330000
637.099642	2510.494615
637.444762	2500.412308
637.789829	2472.685962
638.134845	2437.397885
638.479808	2394.548077
638.824719	2586.111923
639.169577	2485.288846
639.514383	2500.412308
639.859137	2502.932885
640.203839	2477.727115
640.548489	2533.179808
640.893086	2518.056346
641.237632	2444.959615
641.582125	2455.041923
641.926566	2487.809423
642.270955	2560.906154
642.615292	2497.891731
642.959576	2502.932885
643.303809	2392.027500
643.647990	2513.015192
643.992118	2560.906154
644.336195	2518.056346
644.680219	2460.083077
645.024192	2550.823846
645.368112	2495.371154
645.711981	2560.906154
646.055797	2452.521346
646.399562	2480.247692
646.743274	2414.712692
647.086935	2523.097500
647.430544	2439.918462
647.774101	2455.041923
648.117606	2535.700385
648.461059	2472.685962
648.804460	2475.206538
649.147810	2510.494615
649.491108	2477.727115
649.834354	2523.097500
650.177548	2515.535769
650.520690	2492.850577
650.863781	2545.782692
651.206820	2502.932885
651.549807	2515.535769
651.892742	2553.344423
652.235626	2555.865000
652.578458	2457.562500
652.921238	2485.288846
653.263967	2457.562500
653.606644	2495.371154
653.949269	2452.521346
654.291843	2583.591346
654.634365	2507.974038
654.976836	2497.891731
655.319255	2528.138654
655.661622	2480.247692
656.003938	2475.206538
656.346203	2497.891731
656.688416	2533.179808
657.030577	2523.097500
657.372687	2470.165385
657.714746	2513.015192
658.056753	2613.838269
658.398708	2490.330000
658.740612	2439.918462
659.082465	2480.247692
659.424266	2429.836154
659.766016	2490.330000
660.107715	2475.206538
660.449362	2470.165385
660.790958	2434.877308
661.132503	2495.371154
661.473996	2500.412308
661.815438	2523.097500
662.156829	2434.877308
662.498168	2543.262115
662.839456	2442.439038
663.180693	2490.330000
663.521879	2485.288846
663.863013	2528.138654
664.204097	2565.947308
664.545129	2439.918462
664.886110	2480.247692
665.227040	2447.480192
665.567918	2507.974038
665.908746	2538.220962
666.249522	2515.535769
666.590248	2414.712692
666.930922	2457.562500
667.271545	2477.727115
667.612118	2492.850577
667.952639	2447.480192
668.293109	2533.179808
668.633528	2447.480192
668.973896	2548.303269
669.314213	2520.576923
669.654480	2457.562500
669.994695	2495.371154
670.334859	2427.315577
670.674973	2492.850577
671.015035	2460.083077
671.355047	2563.426731
671.695008	2492.850577
672.034918	2593.673654
672.374777	2480.247692
672.714585	2525.618077
673.054342	2470.165385
673.394049	2500.412308
673.733705	2495.371154
674.073310	2485.288846
674.412864	2548.303269
674.752368	2535.700385
675.091820	2520.576923
675.431223	2518.056346
675.770574	2392.027500
676.109875	2553.344423
676.449125	2437.397885
676.788324	2505.453462
677.127473	2528.138654
677.466571	2495.371154
677.805619	2560.906154
678.144616	2583.591346
678.483562	2502.932885
678.822458	2513.015192
679.161303	2528.138654
679.500098	2475.206538
679.838842	2465.124231
680.177535	2550.823846
680.516179	2545.782692
680.854771	2487.809423
681.193314	2518.056346
681.531805	2523.097500
681.870247	2500.412308
682.208638	2528.138654
682.546978	2442.439038
682.885268	2497.891731
683.223508	2550.823846
683.561697	2465.124231
683.899836	2487.809423
684.237925	2500.412308
684.575963	2513.015192
684.913951	2515.535769
685.251889	2533.179808
685.589776	2392.027500
685.927614	2450.000769
686.265401	2485.288846
686.603137	2482.768269
686.940824	2530.659231
687.278460	2480.247692
687.616046	2510.494615
687.953582	2507.974038
688.291068	2495.371154
688.628504	2510.494615
688.965889	2540.741538
689.303224	2530.659231
689.640510	2528.138654
689.977745	2457.562500
690.314930	2490.330000
690.652065	2510.494615
690.989150	2591.153077
691.326185	2447.480192
691.663170	2467.644808
692.000105	2510.494615
692.336990	2475.206538
692.673825	2485.288846
693.010610	2548.303269
693.347345	2513.015192
693.684030	2460.083077
694.020665	2518.056346
694.357251	2447.480192
694.693786	2482.768269
695.030272	2455.041923
695.366707	2470.165385
695.703093	2492.850577
696.039429	2457.562500
696.375716	2419.753846
696.711952	2583.591346
697.048139	2439.918462
697.384276	2490.330000
697.720363	2538.220962
698.056400	2480.247692
698.392388	2550.823846
698.728326	2470.165385
699.064214	2550.823846
699.400053	2487.809423
699.735842	2475.206538
700.071581	2555.865000
700.407270	2450.000769
700.742910	2500.412308
701.078501	2462.603654
701.414042	2558.385577
701.749533	2452.521346
702.084974	2555.865000
702.420366	2424.795000
702.755709	2500.412308
703.091002	2548.303269
703.426246	2434.877308
703.761440	2588.632500
704.096584	2487.809423
704.431679	2490.330000
704.766725	2407.150962
705.101721	2523.097500
705.436668	2487.809423
705.771565	2487.809423
706.106413	2530.659231
706.441212	2538.220962
706.775961	2439.918462
707.110661	2482.768269
707.445311	2523.097500
707.779913	2470.165385
708.114465	2502.932885
708.448967	2581.070769
708.783421	2460.083077
709.117825	2525.618077
709.452180	2500.412308
709.786485	2525.618077
710.120742	2525.618077
710.454949	2565.947308
710.789107	2497.891731
711.123216	2520.576923
711.457275	2427.315577
711.791286	2452.521346
712.125247	2457.562500
712.459159	2543.262115
712.793023	2490.330000
713.126837	2467.644808
713.460602	2495.371154
713.794318	2578.550192
714.127985	2591.153077
714.461602	2535.700385
714.795171	2502.932885
715.128691	2568.467885
715.462162	2568.467885
715.795584	2455.041923
716.128957	2568.467885
716.462281	2429.836154
716.795556	2538.220962
717.128782	2462.603654
717.461960	2477.727115
717.795088	2502.932885
718.128167	2485.288846
718.461198	2543.262115
718.794180	2495.371154
719.127113	2603.755962
719.459997	2520.576923
719.792833	2543.262115
720.125619	2555.865000
720.458357	2518.056346
720.791046	2530.659231
721.123686	2500.412308
721.456278	2460.083077
721.788821	2548.303269
722.121315	2603.755962
722.453761	2490.330000
722.786158	2505.453462
723.118506	2409.671538
723.450805	2437.397885
723.783056	2480.247692
724.115259	2545.782692
724.447412	2502.932885
724.779518	2560.906154
725.111574	2523.097500
725.443582	2510.494615
725.775542	2492.850577
726.107453	2450.000769
726.439315	2510.494615
726.771129	2545.782692
727.102895	2520.576923
727.434612	2530.659231
727.766281	2470.165385
728.097901	2485.288846
728.429473	2472.685962
728.760996	2540.741538
729.092471	2540.741538
729.423897	2455.041923
729.755276	2487.809423
730.086606	2525.618077
730.417887	2525.618077
730.749120	2470.165385
731.080305	2492.850577
731.411442	2432.356731
731.742530	2543.262115
732.073570	2407.150962
732.404562	2510.494615
732.735506	2495.371154
733.066401	2404.630385
733.397249	2505.453462
733.728048	2487.809423
734.058798	2500.412308
734.389501	2497.891731
734.720156	2487.809423
735.050762	2422.274423
735.381320	2523.097500
735.711831	2434.877308
736.042293	2487.809423
736.372707	2492.850577
736.703073	2490.330000
737.033391	2560.906154
737.363661	2533.179808
737.693883	2507.974038
738.024056	2460.083077
738.354182	2540.741538
738.684260	2591.153077
739.014290	2455.041923
739.344272	2553.344423
739.674207	2495.371154
740.004093	2510.494615
740.333931	2596.194231
740.663722	2543.262115
740.993464	2505.453462
741.323159	2502.932885
741.652806	2475.206538
741.982405	2447.480192
742.311956	2505.453462
742.641460	2462.603654
742.970915	2596.194231
743.300323	2502.932885
743.629683	2497.891731
743.958996	2583.591346
744.288260	2419.753846
744.617477	2487.809423
744.946647	2490.330000
745.275768	2477.727115
745.604842	2515.535769
745.933869	2460.083077
746.262847	2472.685962
746.591778	2495.371154
746.920662	2452.521346
747.249498	2502.932885
747.578286	2480.247692
747.907027	2500.412308
748.235720	2482.768269
748.564365	2490.330000
748.892963	2480.247692
749.221514	2475.206538
749.550017	2500.412308
749.878473	2409.671538
750.206881	2576.029615
750.535242	2540.741538
750.863555	2482.768269
751.191821	2500.412308
751.520039	2455.041923
751.848210	2518.056346
752.176334	2434.877308
752.504411	2560.906154
752.832440	2485.288846
753.160421	2548.303269
753.488356	2492.850577
753.816243	2558.385577
754.144082	2444.959615
754.471875	2497.891731
754.799620	2452.521346
755.127318	2515.535769
755.454969	2477.727115
755.782572	2598.714808
756.110129	2437.397885
756.437638	2550.823846
756.765100	2427.315577
757.092515	2497.891731
757.419882	2437.397885
757.747203	2447.480192
758.074477	2565.947308
758.401703	2623.920577
758.728882	2492.850577
759.056014	2553.344423
759.383099	2502.932885
759.710138	2492.850577
760.037129	2455.041923
760.364073	2465.124231
760.690970	2475.206538
761.017820	2465.124231
761.344623	2404.630385
761.671379	2513.015192
761.998088	2442.439038
762.324751	2528.138654
762.651366	2528.138654
762.977935	2462.603654
763.304456	2455.041923
763.630931	2550.823846
763.957359	2588.632500
764.283740	2477.727115
764.610074	2470.165385
764.936362	2538.220962
765.262602	2485.288846
765.588796	2442.439038
765.914943	2603.755962
766.241044	2480.247692
766.567097	2518.056346
766.893104	2497.891731
767.219064	2379.424615
767.544978	2470.165385
767.870845	2520.576923
768.196665	2497.891731
768.522438	2487.809423
768.848165	2550.823846
769.173846	2530.659231
769.499479	2545.782692
769.825066	2462.603654
770.150607	2467.644808
770.476101	2535.700385
770.801548	2510.494615
771.126949	2482.768269
771.452303	2455.041923
771.777611	2477.727115
772.102872	2457.562500
772.428087	2434.877308
772.753256	2525.618077
773.078378	2492.850577
773.403453	2583.591346
773.728482	2492.850577
774.053465	2482.768269
774.378401	2528.138654
774.703291	2480.247692
775.028135	2520.576923
775.352932	2470.165385
775.677683	2480.247692
776.002388	2507.974038
776.327046	2470.165385
776.651658	2535.700385
776.976224	2565.947308
777.300743	2520.576923
777.625216	2487.809423
777.949643	2505.453462
778.274024	2482.768269
778.598359	2477.727115
778.922647	2520.576923
779.246889	2563.426731
779.571086	2528.138654
779.895236	2485.288846
780.219339	2482.768269
780.543397	2591.153077
780.867409	2450.000769
781.191374	2518.056346
781.515294	2533.179808
781.839167	2495.371154
782.162995	2495.371154
782.486776	2510.494615
782.810511	2407.150962
783.134201	2470.165385
783.457844	2518.056346
783.781441	2513.015192
784.104993	2505.453462
784.428498	2487.809423
784.751958	2465.124231
785.075372	2447.480192
785.398739	2485.288846
785.722061	2437.397885
786.045337	2472.685962
786.368568	2457.562500
786.691752	2457.562500
787.014891	2563.426731
787.337983	2467.644808
787.661030	2500.412308
787.984031	2533.179808
788.306987	2502.932885
788.629897	2525.618077
788.952760	2472.685962
789.275579	2505.453462
789.598351	2596.194231
789.921078	2505.453462
790.243759	2371.862885
790.566395	2450.000769
790.888984	2482.768269
791.211529	2513.015192
791.534027	2497.891731
791.856480	2439.918462
792.178888	2525.618077
792.501249	2495.371154
792.823566	2475.206538
793.145836	2442.439038
793.468062	2495.371154
793.790241	2538.220962
794.112375	2497.891731
794.434464	2477.727115
794.756507	2510.494615
795.078505	2578.550192
795.400457	2462.603654
795.722364	2502.932885
796.044226	2447.480192
796.366042	2510.494615
796.687812	2457.562500
797.009538	2490.330000
797.331218	2419.753846
797.652852	2452.521346
797.974442	2550.823846
798.295986	2447.480192
798.617484	2470.165385
798.938938	2455.041923
799.260346	2470.165385
799.581709	2485.288846
799.903026	2492.850577
800.224299	2550.823846
800.545526	2397.068654
800.866708	2545.782692
801.187845	2442.439038
801.508936	2565.947308
801.829983	2470.165385
802.150984	2447.480192
802.471940	2573.509038
802.792851	2444.959615
803.113717	2548.303269
803.434538	2545.782692
803.755314	2472.685962
804.076045	2429.836154
804.396731	2467.644808
804.717372	2472.685962
805.037967	2568.467885
805.358518	2460.083077
805.679024	2455.041923
805.999485	2442.439038
806.319901	2419.753846
806.640272	2432.356731
806.960598	2490.330000
807.280879	2467.644808
807.601115	2515.535769
807.921306	2460.083077
808.241453	2475.206538
808.561554	2525.618077
808.881611	2482.768269
809.201623	2533.179808
809.521590	2429.836154
809.841513	2472.685962
810.161390	2437.397885
810.481223	2490.330000
810.801011	2450.000769
811.120755	2500.412308
811.440453	2485.288846
811.760107	2528.138654
812.079716	2500.412308
812.399281	2409.671538
812.718801	2510.494615
813.038276	2432.356731
813.357707	2417.233269
813.677093	2570.988462
813.996434	2495.371154
814.315731	2500.412308
814.634983	2530.659231
814.954191	2497.891731
815.273354	2525.618077
815.592473	2437.397885
815.911547	2505.453462
816.230577	2520.576923
816.549562	2432.356731
816.868502	2528.138654
817.187399	2492.850577
817.506250	2518.056346
817.825058	2434.877308
818.143821	2520.576923
818.462539	2513.015192
818.781213	2490.330000
819.099843	2497.891731
819.418429	2593.673654
819.736970	2490.330000
820.055466	2535.700385
820.373919	2470.165385
820.692327	2497.891731
821.010691	2570.988462
821.329011	2470.165385
821.647286	2457.562500
821.965517	2515.535769
822.283704	2563.426731
822.601847	2520.576923
822.919945	2495.371154
823.237999	2502.932885
823.556010	2553.344423
823.873976	2535.700385
824.191897	2505.453462
824.509775	2482.768269
824.827609	2485.288846
825.145398	2394.548077
825.463144	2543.262115
825.780845	2472.685962
826.098502	2520.576923
826.416116	2558.385577
826.733685	2457.562500
827.051210	2525.618077
827.368692	2495.371154
827.686129	2540.741538
828.003522	2523.097500
828.320872	2457.562500
828.638177	2497.891731
828.955439	2563.426731
829.272656	2455.041923
829.589830	2490.330000
829.906960	2457.562500
830.224046	2366.821731
830.541088	2576.029615
830.858086	2477.727115
831.175041	2439.918462
831.491952	2487.809423
831.808819	2447.480192
832.125642	2477.727115
832.442421	2437.397885
832.759157	2460.083077
833.075849	2502.932885
833.392497	2502.932885
833.709101	2482.768269
834.025662	2523.097500
834.342179	2424.795000
834.658653	2419.753846
834.975083	2470.165385
835.291469	2465.124231
835.607811	2490.330000
835.924110	2518.056346
836.240366	2475.206538
836.556578	2490.330000
836.872746	2523.097500
837.188871	2555.865000
837.504952	2533.179808
837.820990	2497.891731
838.136984	2510.494615
838.452935	2606.276538
838.768842	2507.974038
839.084706	2510.494615
839.400526	2457.562500
839.716303	2550.823846
840.032037	2492.850577
840.347727	2422.274423
840.663373	2424.795000
840.978977	2548.303269
841.294537	2369.342308
841.610054	2515.535769
841.925527	2505.453462
842.240957	2518.056346
842.556344	2457.562500
842.871687	2520.576923
843.186987	2487.809423
843.502244	2507.974038
843.817458	2492.850577
844.132629	2568.467885
844.447756	2475.206538
844.762840	2492.850577
845.077881	2513.015192
845.392879	2540.741538
845.707833	2507.974038
846.022745	2447.480192
846.337613	2455.041923
846.652438	2550.823846
846.967221	2485.288846
847.281960	2502.932885
847.596656	2482.768269
847.911309	2513.015192
848.225919	2565.947308
848.540485	2568.467885
848.855009	2576.029615
849.169490	2510.494615
849.483928	2455.041923
849.798323	2442.439038
850.112675	2437.397885
850.426984	2477.727115
850.741251	2525.618077
851.055474	2568.467885
851.369654	2535.700385
851.683792	2457.562500
851.997887	2492.850577
852.311938	2573.509038
852.625947	2502.932885
852.939914	2492.850577
853.253837	2593.673654
853.567718	2540.741538
853.881555	2424.795000
854.195350	2500.412308
854.509103	2455.041923
854.822812	2560.906154
855.136479	2490.330000
855.450103	2492.850577
855.763685	2581.070769
856.077224	2583.591346
856.390720	2515.535769
856.704173	2520.576923
857.017584	2530.659231
857.330953	2455.041923
857.644278	2560.906154
857.957561	2507.974038
858.270802	2525.618077
858.584000	2596.194231
858.897155	2553.344423
859.210268	2399.589231
859.523339	2513.015192
859.836367	2487.809423
860.149352	2528.138654
860.462295	2576.029615
860.775195	2490.330000
861.088054	2455.041923
861.400869	2452.521346
861.713642	2523.097500
862.026373	2447.480192
862.339062	2560.906154
862.651708	2417.233269
862.964312	2555.865000
863.276873	2480.247692
863.589392	2598.714808
863.901869	2505.453462
864.214303	2407.150962
864.526696	2447.480192
864.839045	2450.000769
865.151353	2467.644808
865.463619	2492.850577
865.775842	2442.439038
866.088023	2492.850577
866.400162	2439.918462
866.712258	2502.932885
867.024313	2399.589231
867.336325	2520.576923
867.648296	2510.494615
867.960224	2495.371154
868.272110	2480.247692
868.583954	2475.206538
868.895755	2475.206538
869.207515	2535.700385
869.519233	2593.673654
869.830909	2414.712692
870.142542	2477.727115
870.454134	2417.233269
870.765684	2507.974038
871.077191	2530.659231
871.388657	2467.644808
871.700081	2472.685962
872.011463	2598.714808
872.322803	2432.356731
872.634101	2434.877308
872.945357	2492.850577
873.256571	2414.712692
873.567744	2437.397885
873.878874	2475.206538
874.189963	2487.809423
874.501010	2455.041923
874.812015	2502.932885
875.122979	2437.397885
875.433900	2492.850577
875.744780	2518.056346
876.055618	2523.097500
876.366415	2510.494615
876.677169	2437.397885
876.987882	2485.288846
877.298554	2482.768269
877.609183	2565.947308
877.919771	2510.494615
878.230317	2507.974038
878.540822	2462.603654
878.851285	2500.412308
879.161707	2432.356731
879.472087	2500.412308
879.782425	2482.768269
880.092722	2520.576923
880.402977	2505.453462
880.713191	2450.000769
881.023363	2535.700385
881.333494	2475.206538
881.643583	2379.424615
881.953631	2467.644808
882.263637	2470.165385
882.573602	2492.850577
882.883526	2432.356731
883.193408	2485.288846
883.503248	2397.068654
883.813048	2540.741538
884.122806	2515.535769
884.432522	2485.288846
884.742197	2502.932885
885.051831	2462.603654
885.361424	2510.494615
885.670975	2487.809423
885.980485	2523.097500
886.289954	2475.206538
886.599382	2465.124231
886.908768	2414.712692
887.218113	2553.344423
887.527417	2495.371154
887.836680	2462.603654
888.145901	2447.480192
888.455082	2507.974038
888.764221	2525.618077
889.073319	2482.768269
889.382376	2444.959615
889.691392	2543.262115
890.000366	2502.932885
890.309300	2472.685962
890.618193	2444.959615
890.927044	2507.974038
891.235855	2555.865000
891.544625	2495.371154
891.853353	2490.330000
892.162041	2603.755962
892.470687	2502.932885
892.779293	2487.809423
893.087858	2513.015192
893.396381	2505.453462
893.704864	2379.424615
894.013306	2500.412308
894.321707	2477.727115
894.630068	2510.494615
894.938387	2513.015192
895.246665	2495.371154
895.554903	2480.247692
895.863100	2502.932885
896.171256	2505.453462
896.479371	2530.659231
896.787446	2477.727115
897.095480	2510.494615
897.403473	2419.753846
897.711425	2482.768269
898.019336	2520.576923
898.327207	2507.974038
898.635038	2510.494615
898.942827	2450.000769
899.250576	2560.906154
899.558284	2530.659231
899.865952	2447.480192
900.173579	2510.494615
900.481165	2560.906154
900.788711	2475.206538
901.096216	2525.618077
901.403681	2528.138654
901.711105	2485.288846
902.018489	2545.782692
902.325832	2437.397885
902.633135	2538.220962
902.940397	2457.562500
903.247619	2568.467885
903.554800	2492.850577
903.861941	2533.179808
904.169041	2538.220962
904.476101	2502.932885
904.783121	2487.809423
905.090100	2500.412308
905.397039	2495.371154
905.703938	2518.056346
906.010796	2460.083077
906.317614	2447.480192
906.624391	2540.741538
906.931129	2437.397885
907.237826	2447.480192
907.544483	2434.877308
907.851099	2502.932885
908.157675	2570.988462
908.464211	2457.562500
908.770707	2507.974038
909.077163	2518.056346
909.383578	2485.288846
909.689954	2515.535769
909.996289	2437.397885
910.302584	2432.356731
910.608839	2432.356731
910.915054	2528.138654
911.221229	2497.891731
911.527363	2442.439038
911.833458	2520.576923
912.139513	2500.412308
912.445527	2507.974038
912.751502	2538.220962
913.057436	2525.618077
913.363331	2460.083077
913.669186	2510.494615
913.975000	2487.809423
914.280775	2513.015192
914.586510	2513.015192
914.892205	2510.494615
915.197859	2515.535769
915.503475	2523.097500
915.809050	2510.494615
916.114585	2485.288846
916.420081	2465.124231
916.725536	2477.727115
917.030952	2500.412308
917.336328	2550.823846
917.641665	2457.562500
917.946961	2482.768269
918.252218	2507.974038
918.557435	2379.424615
918.862612	2500.412308
919.167750	2422.274423
919.472848	2520.576923
919.777906	2412.192115
920.082925	2530.659231
920.387904	2470.165385
920.692843	2485.288846
920.997743	2434.877308
921.302603	2535.700385
921.607423	2520.576923
921.912204	2500.412308
922.216946	2578.550192
922.521647	2497.891731
922.826310	2467.644808
923.130932	2500.412308
923.435516	2470.165385
923.740059	2402.109808
924.044564	2472.685962
924.349028	2518.056346
924.653454	2495.371154
924.957840	2500.412308
925.262186	2500.412308
925.566493	2565.947308
925.870761	2432.356731
926.174989	2487.809423
926.479178	2475.206538
926.783328	2485.288846
927.087438	2477.727115
927.391509	2480.247692
927.695541	2502.932885
927.999533	2513.015192
928.303486	2583.591346
928.607400	2523.097500
928.911275	2495.371154
929.215110	2480.247692
929.518906	2500.412308
929.822663	2490.330000
930.126381	2510.494615
930.430060	2442.439038
930.733699	2485.288846
931.037299	2480.247692
931.340861	2429.836154
931.644383	2455.041923
931.947866	2520.576923
932.251309	2447.480192
932.554714	2576.029615
932.858080	2540.741538
933.161407	2497.891731
933.464694	2510.494615
933.767943	2497.891731
934.071153	2523.097500
934.374323	2470.165385
934.677455	2513.015192
934.980548	2465.124231
935.283602	2538.220962
935.586617	2490.330000
935.889593	2495.371154
936.192530	2414.712692
936.495428	2533.179808
936.798287	2477.727115
937.101108	2424.795000
937.403890	2432.356731
937.706632	2477.727115
938.009336	2485.288846
938.312002	2497.891731
938.614628	2558.385577
938.917216	2470.165385
939.219765	2518.056346
939.522275	2538.220962
939.824747	2548.303269
940.127179	2412.192115
940.429573	2530.659231
940.731929	2452.521346
941.034246	2538.220962
941.336524	2472.685962
941.638763	2379.424615
941.940964	2550.823846
942.243126	2455.041923
942.545250	2518.056346
942.847335	2475.206538
943.149381	2434.877308
943.451389	2455.041923
943.753359	2386.986346
944.055290	2477.727115
944.357182	2457.562500
944.659036	2477.727115
944.960851	2543.262115
945.262628	2477.727115
945.564367	2472.685962
945.866067	2467.644808
946.167729	2507.974038
946.469352	2510.494615
946.770937	2482.768269
947.072484	2470.165385
947.373992	2492.850577
947.675462	2502.932885
947.976893	2505.453462
948.278286	2586.111923
948.579641	2560.906154
948.880958	2439.918462
949.182236	2530.659231
949.483476	2513.015192
949.784678	2417.233269
950.085841	2515.535769
950.386967	2414.712692
950.688054	2495.371154
950.989103	2455.041923
951.290114	2437.397885
951.591087	2533.179808
951.892021	2497.891731
952.192917	2583.591346
952.493776	2492.850577
952.794596	2507.974038
953.095378	2475.206538
953.396122	2523.097500
953.696828	2581.070769
953.997496	2444.959615
954.298126	2497.891731
954.598718	2533.179808
954.899272	2570.988462
955.199788	2475.206538
955.500266	2513.015192
955.800706	2482.768269
956.101108	2545.782692
956.401472	2480.247692
956.701798	2513.015192
957.002087	2480.247692
957.302337	2414.712692
957.602550	2507.974038
957.902724	2505.453462
958.202861	2439.918462
958.502960	2414.712692
958.803022	2402.109808
959.103045	2487.809423
959.403031	2447.480192
959.702979	2439.918462
960.002889	2487.809423
960.302762	2510.494615
960.602596	2467.644808
960.902393	2543.262115
961.202153	2495.371154
961.501875	2462.603654
961.801559	2434.877308
962.101205	2528.138654
962.400814	2515.535769
962.700385	2477.727115
962.999918	2465.124231
963.299414	2427.315577
963.598873	2371.862885
963.898293	2523.097500
964.197677	2523.097500
964.497022	2563.426731
964.796331	2482.768269
965.095601	2515.535769
965.394835	2500.412308
965.694030	2460.083077
965.993189	2485.288846
966.292309	2465.124231
966.591393	2477.727115
966.890439	2450.000769
967.189447	2490.330000
967.488419	2472.685962
967.787353	2482.768269
968.086249	2462.603654
968.385108	2560.906154
968.683930	2535.700385
968.982714	2419.753846
969.281462	2475.206538
969.580172	2394.548077
969.878844	2444.959615
970.177480	2533.179808
970.476078	2530.659231
970.774639	2583.591346
971.073162	2457.562500
971.371649	2477.727115
971.670098	2460.083077
971.968510	2545.782692
972.266885	2444.959615
972.565223	2467.644808
972.863524	2472.685962
973.161788	2581.070769
973.460014	2442.439038
973.758204	2462.603654
974.056356	2513.015192
974.354471	2565.947308
974.652550	2586.111923
974.950591	2434.877308
975.248595	2530.659231
975.546563	2475.206538
975.844493	2472.685962
976.142386	2558.385577
976.440243	2563.426731
976.738062	2460.083077
977.035845	2523.097500
977.333590	2591.153077
977.631299	2472.685962
977.928971	2560.906154
978.226606	2465.124231
978.524204	2505.453462
978.821765	2495.371154
979.119290	2450.000769
979.416777	2500.412308
979.714228	2492.850577
980.011642	2543.262115
980.309020	2497.891731
980.606360	2455.041923
980.903664	2510.494615
981.200931	2470.165385
981.498162	2480.247692
981.795356	2472.685962
982.092513	2477.727115
982.389633	2470.165385
982.686717	2530.659231
982.983764	2500.412308
983.280775	2515.535769
983.577749	2462.603654
983.874686	2495.371154
984.171587	2535.700385
984.468451	2475.206538
984.765279	2482.768269
985.062070	2429.836154
985.358824	2452.521346
985.655543	2523.097500
985.952224	2472.685962
986.248869	2530.659231
986.545478	2565.947308
986.842050	2439.918462
987.138586	2560.906154
987.435086	2475.206538
987.731549	2520.576923
988.027975	2482.768269
988.324366	2555.865000
988.620719	2409.671538
988.917037	2558.385577
989.213318	2535.700385
989.509563	2460.083077
989.805772	2533.179808
990.101944	2485.288846
990.398080	2492.850577
990.694180	2497.891731
990.990244	2490.330000
991.286271	2490.330000
991.582262	2513.015192
991.878217	2530.659231
992.174136	2507.974038
992.470019	2565.947308
992.765865	2444.959615
993.061676	2419.753846
993.357450	2495.371154
993.653188	2467.644808
993.948890	2487.809423
994.244556	2427.315577
994.540186	2495.371154
994.835780	2477.727115
995.131337	2497.891731
995.426859	2553.344423
995.722345	2457.562500
996.017795	2487.809423
996.313208	2422.274423
996.608586	2497.891731
996.903928	2455.041923
997.199234	2533.179808
997.494504	2371.862885
997.789738	2535.700385
998.084936	2452.521346
998.380099	2467.644808
998.675225	2510.494615
998.970316	2550.823846
999.265371	2543.262115
999.560390	2439.918462
999.855373	2538.220962
1000.150320	2565.947308
1000.445232	2480.247692
1000.740108	2586.111923
1001.034948	2525.618077
1001.329752	2548.303269
1001.624521	2477.727115
1001.919254	2399.589231
1002.213951	2467.644808
1002.508613	2437.397885
1002.803239	2507.974038
1003.097829	2487.809423
1003.392384	2434.877308
1003.686903	2487.809423
1003.981386	2392.027500
1004.275834	2407.150962
1004.570246	2417.233269
1004.864623	2573.509038
1005.158964	2462.603654
1005.453270	2535.700385
1005.747540	2422.274423
1006.041775	2507.974038
1006.335974	2550.823846
1006.630138	2409.671538
1006.924266	2507.974038
1007.218359	2495.371154
1007.512416	2497.891731
1007.806438	2429.836154
1008.100425	2535.700385
1008.394376	2603.755962
1008.688292	2588.632500
1008.982172	2558.385577
1009.276017	2419.753846
1009.569827	2518.056346
1009.863602	2565.947308
1010.157341	2447.480192
1010.451045	2502.932885
1010.744714	2495.371154
1011.038347	2447.480192
1011.331945	2487.809423
1011.625508	2502.932885
1011.919036	2455.041923
1012.212528	2548.303269
1012.505986	2452.521346
1012.799408	2502.932885
1013.092795	2434.877308
1013.386147	2437.397885
1013.679464	2513.015192
1013.972745	2520.576923
1014.265992	2490.330000
1014.559204	2558.385577
1014.852380	2452.521346
1015.145521	2560.906154
1015.438628	2455.041923
1015.731699	2475.206538
1016.024736	2497.891731
1016.317737	2565.947308
1016.610703	2550.823846
1016.903635	2543.262115
1017.196531	2507.974038
1017.489393	2477.727115
1017.782219	2553.344423
1018.075011	2490.330000
1018.367768	2525.618077
1018.660490	2447.480192
1018.953177	2447.480192
1019.245829	2447.480192
