Dividing Wavelength (nm)	Counts (n)	Blue Motor Position (mm): 39.000000	Red Motor Position (mm): 0.000000	
326.493990	2128.251646
326.888308	2128.251646
327.282561	2128.251646
327.676750	2097.624115
328.070874	2093.981882
328.464933	2097.891297
328.858929	2107.280446
329.252859	2114.340582
329.646726	2125.640328
330.040528	2139.316978
330.434265	2156.242652
330.827938	2172.482729
331.221547	2189.506706
331.615091	2211.430684
332.008571	2229.651935
332.401986	2250.262692
332.795338	2267.662235
333.188625	2287.284926
333.581847	2305.990127
333.975006	2323.364464
334.368100	2341.981445
334.761129	2361.062213
335.154095	2377.443442
335.546996	2398.523027
335.939833	2425.384815
336.332606	2439.749583
336.725315	2450.640996
337.117960	2461.797069
337.510540	2469.220168
337.903056	2480.275419
338.295508	2488.326141
338.687896	2497.261587
339.080220	2507.343894
339.472480	2511.366735
339.864676	2517.471572
340.256807	2519.873682
340.648875	2523.609177
341.040879	2525.088756
341.432818	2527.541277
341.824694	2528.993129
342.216506	2528.141174
342.608253	2530.359282
342.999937	2528.506658
343.391557	2527.223684
343.783113	2527.022038
344.174605	2524.796369
344.566033	2525.151770
344.957397	2521.996008
345.348697	2522.177489
345.739934	2520.622293
346.131106	2517.123733
346.522215	2516.112981
346.913260	2515.568537
347.304241	2511.510408
347.695159	2509.181395
348.086012	2509.498988
348.476802	2505.544202
348.867528	2505.148472
349.258191	2503.187463
349.648789	2506.471775
350.039324	2502.020436
350.429796	2503.225272
350.820203	2498.962976
351.210548	2502.726197
351.600828	2496.825527
351.991045	2497.317039
352.381198	2496.404590
352.771288	2498.133706
353.161314	2494.650269
353.551276	2495.940804
353.941175	2495.464415
354.331010	2495.973572
354.720782	2494.219250
355.110490	2495.224960
355.500135	2497.521206
355.889717	2497.566576
356.279235	2497.024652
356.668689	2496.893582
357.058080	2494.143633
357.447408	2496.470125
357.836672	2491.106338
358.225873	2493.818478
358.615010	2492.520381
359.004084	2496.502893
359.393095	2499.018429
359.782043	2501.551608
360.170927	2500.203100
360.559748	2500.858450
360.948505	2499.842657
361.337199	2501.377689
361.725830	2503.789881
362.114398	2502.393481
362.502903	2501.584376
362.891344	2505.763493
363.279722	2504.004130
363.668037	2508.016888
364.056289	2502.973214
364.444478	2504.707371
364.832603	2504.566218
365.220665	2503.878101
365.608665	2509.632578
365.996601	2506.991013
366.384474	2508.740294
366.772284	2508.531086
367.160031	2506.922958
367.547715	2510.492095
367.935336	2509.725839
368.322893	2507.638802
368.710388	2510.272805
369.097820	2513.221880
369.485189	2508.573936
369.872495	2510.686179
370.259738	2509.635099
370.646918	2512.465707
371.034035	2510.207270
371.421090	2514.005779
371.808081	2512.624503
372.195010	2513.337826
372.581875	2515.729854
372.968678	2513.506705
373.355418	2515.805471
373.742096	2516.062570
374.128710	2513.967970
374.515262	2515.404699
374.901751	2514.227590
375.288177	2515.961747
375.674540	2516.622138
376.060841	2516.082734
376.447079	2516.695235
376.833254	2516.997704
377.219367	2511.218021
377.605417	2514.414112
377.991404	2512.932013
378.377329	2517.128774
378.763191	2515.734895
379.148991	2521.020545
379.534727	2518.242869
379.920402	2523.959537
380.306013	2520.614732
380.691563	2520.839063
381.077049	2521.993487
381.462474	2520.143384
381.847835	2520.670184
382.233134	2522.159845
382.618371	2524.808972
383.003545	2525.857532
383.388657	2523.944414
383.773706	2528.010104
384.158693	2523.931811
384.543618	2527.059847
384.928480	2525.570186
385.313280	2529.512368
385.698017	2527.659744
386.082692	2524.834177
386.467305	2526.694363
386.851856	2528.408356
387.236344	2529.101514
387.620770	2526.588499
388.005133	2530.669313
388.389435	2530.596216
388.773674	2530.717204
389.157851	2531.954807
389.541965	2532.716022
389.926018	2534.881197
390.310008	2536.212062
390.693936	2540.686086
391.077802	2541.928730
391.461606	2548.061294
391.845348	2551.847200
392.229027	2559.232491
392.612645	2570.171795
392.996200	2577.471385
393.379694	2589.650813
393.763125	2604.441558
394.146494	2612.643516
394.529801	2634.325518
394.913047	2651.067190
395.296230	2662.432472
395.679351	2688.495237
396.062410	2709.418546
396.445408	2723.536297
396.828343	2749.236100
397.211217	2769.367948
397.594028	2782.419495
397.976778	2817.659681
398.359466	2849.910463
398.742092	2877.508259
399.124656	2894.716238
399.507158	2934.264090
399.889598	2972.624750
400.271977	3017.972450
400.654294	3044.410781
401.036549	3080.225658
401.418742	3105.174329
401.800874	3172.413239
402.182944	3215.847820
402.564952	3278.196811
402.946898	3307.884166
403.328783	3347.215248
403.710606	3348.533510
404.092367	3476.740135
404.474067	3496.463649
404.855705	3538.390926
405.237282	3540.235988
405.618797	3637.399187
406.000250	3697.930842
406.381642	3783.733801
406.762972	3800.167963
407.144240	3846.281918
407.525447	3881.605282
407.906593	3957.719144
408.287677	4026.319165
408.668700	4014.341384
409.049661	4086.079524
409.430560	4151.861540
409.811399	4132.914363
410.192176	4288.945637
410.572891	4275.185807
410.953545	4388.344588
411.334138	4319.673990
411.714669	4406.603647
412.095139	4347.685161
412.475547	4495.784179
412.855894	4502.768698
413.236180	4536.758678
413.616405	4519.069269
413.996568	4618.160709
414.376670	4587.588632
414.756711	4565.188265
415.136691	4613.709370
415.516609	4701.138102
415.896466	4752.207511
416.276262	4799.012103
416.655997	4796.478924
417.035670	4979.689578
417.415283	5079.227161
417.794834	5036.720151
418.174324	5004.509699
418.553753	4921.784364
418.933121	5109.156491
419.312428	5186.747410
419.691674	5132.819667
420.070859	5262.228607
420.449983	5184.143654
420.829045	5301.390811
421.208047	5218.168922
421.586988	5288.785405
421.965867	5305.905164
422.344686	5438.285864
422.723444	5299.210512
423.102141	5120.705774
423.480777	5417.899438
423.859352	5190.586249
424.237866	5448.274910
424.616319	5442.822902
424.994712	5555.575870
425.373044	5434.706645
425.751314	5576.088325
426.129524	5381.628336
426.507673	5572.594805
426.885762	5658.536396
427.263789	5595.287559
427.641756	5473.392459
428.019662	5595.073310
428.397508	5602.640082
428.775292	5547.222678
429.153016	5651.995499
429.530679	5576.897430
429.908282	5658.647301
430.285824	5531.685842
430.663305	5805.024765
431.040726	5542.325197
431.418086	5538.753539
431.795385	5650.679758
432.172624	5661.112426
432.549802	5652.282845
432.926920	5664.563095
433.303977	5674.519374
433.680974	5715.652669
434.057910	5732.248148
434.434786	5736.331482
434.811601	5707.944745
435.188355	5942.638183
435.565050	5811.356454
435.941683	5796.890863
436.318257	6013.133678
436.694770	5995.814794
437.071222	6030.392068
437.447614	5961.035874
437.823946	5868.571030
438.200218	6029.230082
438.576429	5887.964349
438.952580	5989.536037
439.328670	6036.063366
439.704700	5944.821002
440.080670	5930.095792
440.456580	6199.633685
440.832429	6084.402991
441.208218	5930.186533
441.583947	6087.357107
441.959616	6088.188897
442.335224	6016.297002
442.710773	6151.909082
443.086261	6179.879924
443.461689	5975.816537
443.837057	6119.509586
444.212365	6279.674605
444.587612	6174.193502
444.962800	6321.367468
445.337927	6303.196629
445.712995	5915.736065
446.088002	6498.077555
446.462949	6323.625905
446.837837	6256.450010
447.212664	6431.229334
447.587431	6570.466003
447.962139	7114.492203
448.336786	8039.183491
448.711374	7774.613655
449.085901	6854.560228
449.460369	6777.483507
449.834776	6712.240893
450.209124	7101.569205
450.583412	7250.759632
450.957640	7396.915285
451.331808	7161.223699
451.705917	6713.581840
452.079965	6630.780888
452.453954	6849.884558
452.827883	6727.613892
453.201752	6823.887328
453.575562	6618.021728
453.949311	6823.985630
454.323001	6708.306273
454.696632	6781.382839
455.070202	6921.950373
455.443713	7078.095072
455.817164	7177.080648
456.190556	7265.600789
456.563888	7335.072931
456.937160	7380.382821
457.310373	7031.643360
457.683526	7062.807773
458.056619	6951.040351
458.429653	6938.782786
458.802628	6873.570419
459.175542	6982.945814
459.548398	7335.708116
459.921194	7499.817838
460.293930	7504.599373
460.666607	8027.601440
461.039224	8339.099378
461.411782	8460.765105
461.784280	8480.808733
462.156719	8370.548616
462.529099	8250.445646
462.901419	7838.921134
463.273680	7733.472798
463.645882	7741.382369
464.018024	7609.901515
464.390106	7776.267153
464.762130	8165.459354
465.134094	8634.344635
465.505999	9657.164503
465.877845	10875.394618
466.249631	11526.716736
466.621358	11135.508074
466.993026	10519.554692
467.364634	10257.024002
467.736184	9896.243745
468.107674	9563.900637
468.479105	9593.885420
468.850477	9363.323207
469.221790	9132.539184
469.593043	8802.469636
469.964238	8662.065940
470.335373	8677.517076
470.706449	8734.658555
471.077467	8716.424702
471.448425	10027.918683
471.819324	11096.907959
472.190164	11111.060999
472.560945	9869.268531
472.931667	9082.520856
473.302330	8948.385834
473.672934	8592.271165
474.043479	8952.113768
474.413965	8893.275940
474.784393	8773.044421
475.154761	8932.032331
475.525070	9022.654633
475.895321	8846.269701
476.265513	9022.452987
476.635645	9192.024800
477.005719	9194.056385
477.375734	9309.156009
477.745691	9538.462974
478.115588	9675.221916
478.485427	9916.930120
478.855207	10457.336771
479.224928	11272.524115
479.594591	11903.966443
479.964194	11707.857997
480.333739	11649.373051
480.703226	11561.967005
481.072653	11656.309678
481.442022	11895.338508
481.811333	12088.034094
482.180584	11884.275696
482.549777	11594.547982
482.918912	11427.920203
483.287988	11447.671444
483.657005	11457.501694
484.025964	11138.205092
484.394864	11274.094435
484.763706	11239.507078
485.132489	10995.006076
485.501213	10958.664398
485.869879	11031.067970
486.238487	10879.951821
486.607036	10987.812349
486.975527	10767.070304
487.343959	10954.051742
487.712333	11008.286995
488.080648	10947.135279
488.448905	10983.950825
488.817104	10919.398850
489.185244	11186.292658
489.553326	11340.436019
489.921350	11883.811910
490.289315	12946.832460
490.657222	13284.746043
491.025070	13192.629039
491.392861	13059.683730
491.760593	12683.742203
492.128267	12336.777227
492.495883	12004.101403
492.863440	11669.807368
493.230939	11333.895122
493.598380	11265.017837
493.965763	11139.530915
494.333088	11036.618280
494.700354	10953.111567
495.067563	11015.563901
495.434713	10849.132727
495.801805	10970.168311
496.168839	10899.135932
496.535815	10834.377270
496.902733	10834.737713
497.269593	10765.348750
497.636395	10862.380880
498.003139	10858.584891
498.369825	10726.317617
498.736453	10882.205217
499.103023	10808.942128
499.469535	10844.116779
499.835989	10817.799436
500.202385	10785.750300
500.568723	10642.868877
500.935003	10869.093176
501.301226	10666.501806
501.667390	10932.558782
502.033497	11019.798470
502.399546	10889.285518
502.765537	10786.698037
503.131470	10860.777793
503.497345	11037.218177
503.863163	10650.917079
504.228923	10958.634151
504.594625	11024.932885
504.960269	10771.806468
505.325856	10989.367545
505.691385	10782.569332
506.056856	10946.394229
506.422270	10962.157917
506.787625	10846.150885
507.152924	10973.334155
507.518164	10952.534354
507.883347	10870.517302
508.248472	10791.288008
508.613540	11023.455827
508.978550	10907.620194
509.343503	10885.096319
509.708398	11004.687612
510.073236	11115.149375
510.438016	11123.643719
510.802738	11068.821171
511.167403	11122.945519
511.532010	11022.886177
511.896561	11249.246588
512.261053	11329.844555
512.625488	11190.328102
512.989866	11170.226501
513.354186	11160.245016
513.718449	11070.575492
514.082655	11259.621282
514.446803	11153.167236
514.810894	11274.417069
515.174927	11142.699280
515.538904	11163.292394
515.902822	11320.785602
516.266684	11201.912673
516.630488	11149.441824
516.994235	11195.696931
517.357925	11263.220666
517.721558	11346.437513
518.085133	11365.583815
518.448651	11374.567152
518.812112	11263.581108
519.175516	11271.911615
519.538863	11392.493495
519.902152	11307.340844
520.265385	11472.506688
520.628560	11379.915816
520.991678	11359.161385
521.354739	11419.937536
521.717743	11359.559637
522.080690	11335.049547
522.443580	11470.056688
522.806413	11433.107551
523.169189	11457.612599
523.531908	11521.312619
523.894569	11340.831750
524.257174	11338.104486
524.619722	11463.661984
524.982213	11408.315156
525.344647	11459.462703
525.707025	11408.652913
526.069345	11496.235400
526.431608	11416.471743
526.793815	11525.090964
527.155964	11321.395581
527.518057	11370.393076
527.880093	11326.915645
528.242072	11392.183464
528.603995	11294.790892
528.965860	11215.823737
529.327669	11267.699731
529.689421	11211.803417
530.051117	11186.501866
530.412755	11281.124324
530.774337	11180.611278
531.135862	11157.427011
531.497331	11187.492453
531.858743	11037.966789
532.220098	11208.992974
532.581396	11072.652448
532.942638	11052.213089
533.303824	11022.646722
533.664953	11030.311797
534.026025	10947.936822
534.387040	11045.929291
534.747999	11044.868128
535.108902	11104.827612
535.469748	10863.290808
535.830537	10972.824999
536.191270	10942.394073
536.551947	10971.965482
536.912567	10966.087497
537.273131	10892.831969
537.633638	10874.051151
537.994089	10868.442867
538.354483	10812.039917
538.714821	10953.804725
539.075103	10967.723351
539.435328	10925.448235
539.795497	10759.374983
540.155609	10909.349310
540.515665	10999.054122
540.875665	10738.968392
541.235609	10801.423247
541.595496	10797.667588
541.955328	10957.336053
542.315102	10841.457571
542.674821	10790.526793
543.034483	10788.724581
543.394090	10795.305807
543.753640	10720.946267
544.113134	10945.234764
544.472571	10795.436877
544.831953	10939.528178
545.191278	10751.956925
545.550548	10778.617067
545.909761	10913.178066
546.268918	10887.150589
546.628019	10972.330966
546.987064	10834.720068
547.346053	10758.288614
547.704986	10857.311999
548.063863	10847.335556
548.422684	10835.693011
548.781449	10755.876422
549.140158	10857.611948
549.498811	10734.232228
549.857408	10596.878430
550.215949	10809.022787
550.574434	10668.818216
550.932864	10766.609039
551.291237	10829.734367
551.649555	10776.502303
552.007817	10792.623913
552.366022	10753.910372
552.724173	10746.220092
553.082267	10734.461601
553.440305	10865.972702
553.798288	10670.353247
554.156215	10824.829325
554.514086	10793.712803
554.871902	10649.132510
555.229661	10681.322798
555.587365	10657.750363
555.945014	10557.504498
556.302606	10680.952273
556.660143	10569.199975
557.017625	10720.348891
557.375050	10625.066042
557.732421	10758.850703
558.089735	10664.674388
558.446994	10669.924749
558.804197	10708.318177
559.161345	10713.099711
559.518437	10558.726978
559.875474	10648.698971
560.232455	10671.038844
560.589381	10624.786258
560.946251	10623.906576
561.303065	10731.580581
561.659825	10663.872844
562.016528	10596.812895
562.373177	10476.974586
562.729770	10589.873747
563.086307	10505.527681
563.442789	10603.086611
563.799216	10481.299896
564.155587	10530.181444
564.511904	10482.824845
564.868164	10483.220575
565.224370	10484.133024
565.580520	10412.520913
565.936615	10418.053580
566.292654	10290.499784
566.648638	10420.180947
567.004567	10370.908709
567.360441	10358.406647
567.716260	10271.590416
568.072023	10362.558037
568.427732	10313.908382
568.783385	10222.436646
569.138982	10295.939189
569.494525	10311.420573
569.850013	10189.152428
570.205445	10263.902657
570.560823	10164.075208
570.916145	10081.274256
571.271412	10154.116408
571.626625	10092.276574
571.981782	10069.394777
572.336884	10043.173215
572.691931	10053.437004
573.046923	10004.091670
573.401860	9948.540675
573.756743	9891.268126
574.111570	9932.245145
574.466342	9921.315924
574.821059	9944.850550
575.175722	9833.670423
575.530330	9844.292134
575.884882	9837.239560
576.239380	9765.965206
576.593823	9745.263708
576.948211	9762.385987
577.302544	9639.394436
577.656823	9651.886415
578.011047	9662.757663
578.365216	9628.843301
578.719330	9555.197084
579.073389	9562.776459
579.427394	9509.791412
579.781344	9492.364143
580.135239	9436.578734
580.489080	9448.581722
580.842866	9352.978760
581.196597	9354.128143
581.550273	9402.250997
581.903895	9364.255821
582.257463	9430.771325
582.610975	9307.830186
582.964434	9333.464453
583.317837	9262.913505
583.671186	9240.518179
584.024481	9233.092559
584.377721	9153.152462
584.730906	9132.582034
585.084037	9159.607660
585.437113	9097.649358
585.790135	9113.130742
586.143103	9013.840176
586.496016	8988.130291
586.848874	9051.981546
587.201679	9032.905820
587.554428	8920.820805
587.907124	8968.895769
588.259765	8934.835213
588.612352	8940.418291
588.964884	8813.658477
589.317362	8834.261673
589.669786	8828.940735
590.022155	8877.197180
590.374470	8897.661744
590.726731	8829.913678
591.078937	8686.369342
591.431090	8801.655490
591.783188	8670.590531
592.135232	8664.241198
592.487222	8666.741610
592.839157	8714.032674
593.191038	8650.771235
593.542866	8595.668902
593.894639	8500.749017
594.246358	8547.966984
594.598022	8564.507010
594.949633	8460.316442
595.301190	8437.948843
595.652692	8463.741906
596.004141	8573.616375
596.355535	8352.009773
596.706876	8330.844488
597.058162	8264.691947
597.409395	8340.379831
597.760573	8407.172598
598.111698	8310.969739
598.462768	8297.683778
598.813785	8260.802697
599.164748	8235.246567
599.515657	8223.712407
599.866511	8136.238306
600.217312	8259.318077
600.568060	8119.244576
600.918753	8218.769556
601.269392	8188.182355
601.619978	8103.047349
601.970510	8169.940940
602.320988	8163.833582
602.671412	8216.896767
603.021783	8157.872417
603.372100	8134.252091
603.722363	8134.158830
604.072572	8104.721012
604.422728	8118.826160
604.772830	8047.932414
605.122878	8049.674132
605.472872	8052.199750
605.822813	8083.838032
606.172701	8023.341665
606.522534	8098.422090
606.872314	8099.011905
607.222041	8071.182215
607.571714	8122.405379
607.921333	8085.249555
608.270899	8090.991429
608.620411	8175.337495
608.969870	8080.077331
609.319276	8075.318482
609.668627	8087.916325
610.017926	8130.806462
610.367171	8172.229623
610.716362	8153.017786
611.065500	8140.188050
611.414585	8162.709404
611.763616	8155.520719
612.112594	8136.417267
612.461518	8153.766397
612.810389	8217.380718
613.159207	8160.516502
613.507971	8110.089841
613.856682	8219.155204
614.205340	8177.588370
614.553945	8258.624918
614.902496	8153.708424
615.250994	8210.812094
615.599439	8191.103703
615.947830	8199.615692
616.296169	8180.234976
616.644454	8188.406686
616.992686	8186.712858
617.340864	8246.921879
617.688990	8148.873958
618.037063	8242.563802
618.385082	8185.709669
618.733048	8273.708050
619.080961	8209.370324
619.428821	8229.368582
619.776628	8230.616267
620.124382	8182.558948
620.472083	8169.567894
620.819731	8196.081843
621.167326	8091.016635
621.514868	8099.702543
621.862357	7983.708114
622.209793	8004.835589
622.557176	7936.588449
622.904506	7903.195846
623.251783	7838.969025
623.599007	7794.926984
623.946179	7795.214330
624.293297	7755.900892
624.640363	7675.239910
624.987376	7658.246180
625.334336	7601.545802
625.681243	7550.725930
626.028097	7543.595218
626.374899	7515.064808
626.721647	7510.116916
627.068343	7444.879344
627.414987	7413.006648
627.761577	7371.389403
628.108115	7406.990031
628.454600	7301.045142
628.801032	7353.047165
629.147412	7313.045609
629.493739	7299.832745
629.840014	7231.598207
630.186236	7296.387116
630.532405	7176.440422
630.878521	7230.116107
631.224585	7184.400404
631.570597	7107.684125
631.916556	7140.123950
632.262462	7137.931048
632.608316	7100.520645
632.954117	7078.702531
633.299866	7067.715336
633.645562	7056.067750
633.991206	6974.869885
634.336797	6919.802841
634.682336	6883.700618
635.027823	6844.072108
635.373257	6828.484860
635.718639	6770.199039
636.063968	6781.624814
636.409245	6678.518095
636.754470	6672.065418
637.099642	6629.694520
637.444762	6568.555406
637.789829	6581.894299
638.134845	6524.286513
638.479808	6511.794534
638.824719	6515.376274
639.169577	6442.347599
639.514383	6466.174612
639.859137	6392.404888
640.203839	6397.914869
640.548489	6389.435648
640.893086	6360.849785
641.237632	6330.907852
641.582125	6351.637077
641.926566	6324.581204
642.270955	6337.763821
642.615292	6329.395506
642.959576	6347.606674
643.303809	6344.534091
643.647990	6344.133319
643.992118	6332.115208
644.336195	6284.556963
644.680219	6307.900026
645.024192	6298.241175
645.368112	6395.016205
645.711981	6414.659061
646.055797	6490.876266
646.399562	6450.176511
646.743274	6571.819553
647.086935	6629.044211
647.430544	6624.718901
647.774101	6641.543752
648.117606	6650.196893
648.461059	6636.520242
648.804460	6603.951868
649.147810	6513.911819
649.491108	6483.485935
649.834354	6456.674558
650.177548	6372.386466
650.520690	6287.022087
650.863781	6262.217090
651.206820	6288.453775
651.549807	6212.390325
651.892742	6148.728114
652.235626	6151.984699
652.578458	6143.455067
652.921238	6051.902672
653.263967	6088.743424
653.606644	6026.142376
653.949269	6026.870822
654.291843	5968.400999
654.634365	6025.812180
654.976836	5975.075487
655.319255	5976.434078
655.661622	5950.870387
656.003938	5950.643535
656.346203	5906.936731
656.688416	5949.844512
657.030577	5894.646398
657.372687	5864.364187
657.714746	5846.140416
658.056753	5895.644547
658.398708	5833.668601
658.740612	5823.185522
659.082465	5871.278129
659.424266	5867.875351
659.766016	5864.344022
660.107715	5837.935938
660.449362	5854.160892
660.790958	5847.647721
661.132503	5831.148024
661.473996	5873.894488
661.815438	5862.393096
662.156829	5854.475964
662.498168	5849.873390
662.839456	5823.119987
663.180693	5859.711202
663.521879	5859.743969
663.863013	5847.945149
664.204097	5866.257140
664.545129	5908.877575
664.886110	5903.816257
665.227040	5937.236586
665.567918	5905.444550
665.908746	5932.162665
666.249522	5935.910763
666.590248	5920.207569
666.930922	5948.453154
667.271545	5961.983611
667.612118	5964.320185
667.952639	5940.437719
668.293109	5955.568742
668.633528	5922.350059
668.973896	5920.847795
669.314213	5911.413276
669.654480	5896.998096
669.994695	5884.281786
670.334859	5881.778853
670.674973	5871.716710
671.015035	5874.053285
671.355047	5878.562597
671.695008	5856.023598
672.034918	5830.469989
672.374777	5842.767884
672.714585	5829.746583
673.054342	5834.843190
673.394049	5823.495553
673.733705	5857.921592
674.073310	5847.236867
674.412864	5799.305576
674.752368	5792.678979
675.091820	5796.442201
675.431223	5732.094392
675.770574	5735.393828
676.109875	5693.274987
676.449125	5693.615265
676.788324	5659.829452
677.127473	5602.314928
677.466571	5597.533393
677.805619	5582.651907
678.144616	5569.320576
678.483562	5550.653183
678.822458	5521.127145
679.161303	5515.476012
679.500098	5505.124002
679.838842	5490.968442
680.177535	5485.276979
680.516179	5509.293036
680.854771	5511.634652
681.193314	5600.616059
681.531805	5702.555751
681.870247	5857.908989
682.208638	5959.712571
682.546978	5969.250434
682.885268	5942.917967
683.223508	5859.658270
683.561697	5809.738244
683.899836	5776.990908
684.237925	5734.955247
684.575963	5698.487540
684.913951	5656.676210
685.251889	5719.287341
685.589776	5688.800963
685.927614	5660.825080
686.265401	5727.786726
686.603137	5716.562597
686.940824	5791.189318
687.278460	5818.003216
687.616046	5826.704247
687.953582	5890.512652
688.291068	5872.740064
688.628504	5937.528973
688.965889	5900.700824
689.303224	5839.649930
689.640510	5793.026819
689.977745	5720.885387
690.314930	5624.496005
690.652065	5566.157252
690.989150	5475.857583
691.326185	5396.693824
691.663170	5338.798693
692.000105	5270.327221
692.336990	5188.736146
692.673825	5166.895347
693.010610	5095.605869
693.347345	5028.298904
693.684030	5013.835833
694.020665	4972.553825
694.357251	4882.105442
694.693786	4891.234972
695.030272	4858.167523
695.366707	4822.501360
695.703093	4788.460968
696.039429	4812.875277
696.375716	4792.690497
696.711952	4772.490593
697.048139	4754.153396
697.384276	4732.708327
697.720363	4747.761213
698.056400	4756.457203
698.392388	4707.668916
698.728326	4686.264177
699.064214	4663.740302
699.400053	4660.181247
699.735842	4625.167913
700.071581	4603.001960
700.407270	4575.502465
700.742910	4556.262902
701.078501	4502.899768
701.414042	4501.536136
701.749533	4472.874655
702.084974	4403.473090
702.420366	4464.196309
702.755709	4405.305550
703.091002	4344.980582
703.426246	4392.601842
703.761440	4352.005430
704.096584	4313.569153
704.431679	4335.198223
704.766725	4322.615503
705.101721	4308.107063
705.436668	4339.052185
705.771565	4285.474802
706.106413	4312.092095
706.441212	4342.727187
706.775961	4349.381510
707.110661	4332.007173
707.445311	4361.714693
707.779913	4382.549781
708.114465	4398.434457
708.448967	4420.214762
708.783421	4483.927385
709.117825	4522.038508
709.452180	4530.303480
709.786485	4572.840736
710.120742	4656.838962
710.454949	4645.256911
710.789107	4706.743865
711.123216	4784.891832
711.457275	4773.967651
711.791286	4854.555537
712.125247	4864.163976
712.459159	4768.026651
712.793023	4842.600440
713.126837	4799.206188
713.460602	4795.344664
713.794318	4715.923806
714.127985	4725.189447
714.461602	4640.808093
714.795171	4610.793063
715.128691	4542.515675
715.462162	4487.105833
715.795584	4441.657310
716.128957	4419.629988
716.462281	4369.994788
716.795556	4338.537988
717.128782	4306.680416
717.461960	4236.384046
717.795088	4243.073657
718.128167	4204.453378
718.461198	4148.730984
718.794180	4141.605313
719.127113	4120.825677
719.459997	4099.315073
719.792833	4055.081469
720.125619	4046.627454
720.458357	4013.769213
720.791046	4018.409595
721.123686	3990.574864
721.456278	3947.820838
721.788821	3962.341882
722.121315	3937.970424
722.453761	3912.280704
722.786158	3924.989452
723.118506	3948.125828
723.450805	3900.766708
723.783056	3922.390738
724.115259	3938.177111
724.447412	3943.561063
724.779518	3934.771812
725.111574	3938.356072
725.443582	3968.842450
725.775542	3956.879792
726.107453	4007.137575
726.439315	4004.531298
726.771129	4021.855224
727.102895	4056.523239
727.434612	4104.530147
727.766281	4114.264615
728.097901	4117.359883
728.429473	4123.673928
728.760996	4127.495123
729.092471	4120.220738
729.423897	4109.170529
729.755276	4114.297382
730.086606	4114.516673
730.417887	4150.419770
730.749120	4218.538362
731.080305	4279.614461
731.411442	4307.245025
731.742530	4280.473978
732.073570	4280.806694
732.404562	4335.253676
732.735506	4330.462059
733.066401	4289.026295
733.397249	4227.128488
733.728048	4144.955159
734.058798	4063.326276
734.389501	3993.302128
734.720156	3932.430196
735.050762	3885.696179
735.381320	3880.261815
735.711831	3831.929752
736.042293	3800.961944
736.372707	3819.800736
736.703073	3796.437509
737.033391	3782.977628
737.363661	3803.028818
737.693883	3830.059484
738.024056	3836.383612
738.354182	3830.409845
738.684260	3896.524577
739.014290	3916.043925
739.344272	3912.048811
739.674207	3955.536324
740.004093	3959.599494
740.333931	3953.633289
740.663722	3956.547076
740.993464	3953.401396
741.323159	3927.257972
741.652806	3900.146646
741.982405	3873.264693
742.311956	3838.742872
742.641460	3830.301460
742.970915	3806.025783
743.300323	3767.186214
743.629683	3731.701532
743.958996	3719.653174
744.288260	3694.931356
744.617477	3661.253927
744.946647	3650.841424
745.275768	3623.949389
745.604842	3620.493678
745.933869	3576.071030
746.262847	3565.265317
746.591778	3604.261162
746.920662	3573.603385
747.249498	3541.874363
747.578286	3585.777772
747.907027	3605.546657
748.235720	3601.453240
748.564365	3627.760501
748.892963	3627.261427
749.221514	3612.085033
749.550017	3587.176692
749.878473	3585.697113
750.206881	3556.327351
750.535242	3553.219480
750.863555	3556.478586
751.191821	3546.993655
751.520039	3532.437323
751.848210	3508.731297
752.176334	3541.516441
752.504411	3547.149931
752.832440	3508.736338
753.160421	3489.814367
753.488356	3501.484638
753.816243	3513.306144
754.144082	3471.215030
754.471875	3452.570323
754.799620	3474.078406
755.127318	3466.501551
755.454969	3463.552476
755.782572	3471.358703
756.110129	3449.134776
756.437638	3435.596758
756.765100	3450.364818
757.092515	3457.959316
757.419882	3468.069350
757.747203	3439.433076
758.074477	3439.503652
758.401703	3458.697845
758.728882	3482.108964
759.056014	3485.985611
759.383099	3491.793020
759.710138	3484.054849
760.037129	3504.716018
760.364073	3534.040410
760.690970	3522.140766
761.017820	3495.684791
761.344623	3515.128521
761.671379	3561.227353
761.998088	3610.219806
762.324751	3739.961462
762.651366	3986.032784
762.977935	4456.029640
763.304456	4903.963885
763.630931	4999.486189
763.957359	4638.791631
764.283740	4297.283705
764.610074	4103.486628
764.936362	3906.508582
765.262602	3747.029160
765.588796	3636.653097
765.914943	3548.531207
766.241044	3457.815643
766.567097	3428.912188
766.893104	3384.086248
767.219064	3349.667770
767.544978	3324.446877
767.870845	3269.258845
768.196665	3251.198912
768.522438	3254.783172
768.848165	3252.912904
769.173846	3219.941237
769.499479	3200.565562
769.825066	3181.968746
770.150607	3166.540295
770.476101	3183.569312
770.801548	3176.022705
771.126949	3131.529481
771.452303	3113.419136
771.777611	3121.729478
772.102872	3123.519088
772.428087	3098.320880
772.753256	3092.291660
773.078378	3082.060638
773.403453	3049.759445
773.728482	3038.419370
774.053465	3058.586506
774.378401	3048.587377
774.703291	3014.431039
775.028135	3016.823067
775.352932	3012.976666
775.677683	2999.042917
776.002388	2992.532267
776.327046	2996.247597
776.651658	2988.723675
776.976224	2973.287662
777.300743	2975.243630
777.625216	2967.860860
777.949643	2960.772998
778.274024	2963.694346
778.598359	2954.300156
778.922647	2956.621607
779.246889	2955.295784
779.571086	2940.898248
779.895236	2936.545212
780.219339	2945.788168
780.543397	2958.885085
780.867409	2962.320632
781.191374	2955.348716
781.515294	2950.594908
781.839167	2951.456945
782.162995	2943.285235
782.486776	2949.644650
782.810511	2950.509208
783.134201	2937.160233
783.457844	2943.290276
783.781441	2933.452464
784.104993	2912.922365
784.428498	2913.350863
784.751958	2927.435847
785.075372	2923.634817
785.398739	2906.285686
785.722061	2922.200609
786.045337	2935.910027
786.368568	2920.663057
786.691752	2911.722571
787.014891	2959.905919
787.337983	2988.501864
787.661030	3015.411543
787.984031	3087.590784
788.306987	3130.911940
788.629897	3121.888274
788.952760	3106.540482
789.275579	3093.282247
789.598351	3033.537012
789.921078	2986.767707
790.243759	2976.861840
790.566395	2960.152936
790.888984	2939.322888
791.211529	2919.886719
791.534027	2911.573857
791.856480	2901.216806
792.178888	2885.773231
792.501249	2878.884494
792.823566	2877.669576
793.145836	2872.772095
793.468062	2867.675489
793.790241	2867.970396
794.112375	2871.410984
794.434464	2883.232490
794.756507	2887.519991
795.078505	2895.535426
795.400457	2909.479257
795.722364	2943.028136
796.044226	2970.368834
796.366042	2972.987713
796.687812	2963.386836
797.009538	2980.955257
797.331218	2970.580562
797.652852	2952.699590
797.974442	2937.548402
798.295986	2932.156888
798.617484	2930.334511
798.938938	2913.877664
799.260346	2896.510889
799.581709	2892.616598
799.903026	2884.744836
800.224299	2878.271994
800.545526	2869.442413
800.866708	2852.768797
801.187845	2843.931654
801.508936	2844.597087
801.829983	2851.246368
802.150984	2838.787157
802.471940	2826.975733
802.792851	2829.261897
803.113717	2825.644869
803.434538	2830.355827
803.755314	2822.882316
804.076045	2820.253355
804.396731	2815.491985
804.717372	2819.396358
805.037967	2812.744556
805.358518	2821.216215
805.679024	2831.069150
805.999485	2826.975733
806.319901	2833.995540
806.640272	2824.306442
806.960598	2827.144612
807.280879	2836.571570
807.601115	2845.514577
807.921306	2833.340190
808.241453	2827.300888
808.561554	2835.863287
808.881611	2836.889162
809.201623	2830.741475
809.521590	2829.294664
809.841513	2826.937925
810.161390	2828.611588
810.481223	2824.898778
810.801011	2814.151038
811.120755	2811.106181
811.440453	2813.490647
811.760107	2813.359577
812.079716	2813.440235
812.399281	2803.161322
812.718801	2797.248049
813.038276	2791.070115
813.357707	2796.811989
813.677093	2801.951446
813.996434	2795.221505
814.315731	2794.145219
814.634983	2788.045423
814.954191	2792.375774
815.273354	2802.241312
815.592473	2810.324802
815.911547	2813.931748
816.230577	2822.267296
816.549562	2831.117041
816.868502	2830.789366
817.187399	2839.518124
817.506250	2855.652337
817.825058	2848.198991
818.143821	2861.885724
818.462539	2880.913559
818.781213	2904.188566
819.099843	2940.731890
819.418429	3002.501148
819.736970	3059.814027
820.055466	3132.711632
820.373919	3240.325143
820.692327	3384.227400
821.010691	3548.778223
821.329011	3995.124505
821.647286	4897.881733
821.965517	6282.772394
822.283704	7027.791918
822.601847	7015.005032
822.919945	6380.089349
823.237999	5870.481627
823.556010	5284.780209
823.873976	4728.501485
824.191897	4320.344463
824.509775	4020.093340
824.827609	3747.596290
825.145398	3622.573154
825.463144	3616.392699
825.780845	3703.748334
826.098502	3809.375630
826.416116	4093.573199
826.733685	4408.882248
827.051210	4475.614523
827.368692	4360.847614
827.686129	4090.422478
828.003522	3765.237808
828.320872	3504.123683
828.638177	3311.763334
828.955439	3172.761078
829.272656	3089.123295
829.589830	3022.353212
829.906960	2973.078454
830.224046	2926.513316
830.541088	2893.430744
830.858086	2875.610265
831.175041	2857.257944
831.491952	2863.075436
831.808819	2872.724204
832.125642	2897.388050
832.442421	2941.477981
832.759157	3022.096113
833.075849	3200.913402
833.392497	3483.296155
833.709101	3686.557999
834.025662	3640.610402
834.342179	3478.433963
834.658653	3303.755461
834.975083	3153.400527
835.291469	3056.864952
835.607811	2969.786581
835.924110	2907.460275
836.240366	2856.572347
836.556578	2817.064825
836.872746	2793.346196
837.188871	2769.713267
837.504952	2753.095103
837.820990	2746.493712
838.136984	2731.493759
838.452935	2723.964796
838.768842	2721.787017
839.084706	2740.156982
839.400526	2819.424085
839.716303	2952.641616
840.032037	3035.387116
840.347727	3021.334899
840.663373	2958.166721
840.978977	2879.872561
841.294537	2810.223979
841.610054	2758.350506
841.925527	2740.151941
842.240957	2717.058415
842.556344	2694.479087
842.871687	2679.698424
843.186987	2672.207269
843.502244	2665.419355
843.817458	2660.945331
844.132629	2649.378404
844.447756	2640.649646
844.762840	2632.561115
845.077881	2636.163019
845.392879	2634.806949
845.707833	2629.380147
846.022745	2623.625669
846.337613	2627.212450
846.652438	2621.183230
846.967221	2625.085083
847.281960	2622.385546
847.596656	2621.803292
847.911309	2619.509567
848.225919	2618.937396
848.540485	2613.893722
848.855009	2615.239710
849.169490	2613.485388
849.483928	2615.955554
849.798323	2613.903804
850.112675	2611.539503
850.426984	2612.368773
850.741251	2609.613782
851.055474	2612.298197
851.369654	2613.170316
851.683792	2614.234000
851.997887	2614.178547
852.311938	2609.931375
852.625947	2615.148969
852.939914	2614.095368
853.253837	2617.818260
853.567718	2613.959257
853.881555	2611.269801
854.195350	2615.791716
854.509103	2614.538990
854.822812	2611.438680
855.136479	2608.494646
855.450103	2611.479009
855.763685	2612.119236
856.077224	2610.342229
856.390720	2608.172012
856.704173	2612.346088
857.017584	2615.874895
857.330953	2616.835235
857.644278	2619.509567
857.957561	2620.777417
858.270802	2616.978908
858.584000	2615.368259
858.897155	2615.199381
859.210268	2621.694907
859.523339	2614.148300
859.836367	2610.044801
860.149352	2609.817949
860.462295	2610.818618
860.775195	2608.194697
861.088054	2609.039091
861.400869	2607.461210
861.713642	2604.126486
862.026373	2605.825355
862.339062	2607.869543
862.651708	2614.418002
862.964312	2614.607045
863.276873	2611.957919
863.589392	2613.818105
863.901869	2622.345216
864.214303	2627.184724
864.526696	2628.810496
864.839045	2629.932153
865.151353	2631.595734
865.463619	2632.407359
865.775842	2634.307874
866.088023	2630.390898
866.400162	2632.576238
866.712258	2633.052627
867.024313	2632.530868
867.336325	2629.216309
867.648296	2630.499283
867.960224	2633.602113
868.272110	2631.522637
868.583954	2625.195989
868.895755	2626.650362
869.207515	2630.025414
869.519233	2640.352218
869.830909	2637.602268
870.142542	2630.731176
870.454134	2635.711836
870.765684	2638.282824
871.077191	2640.271559
871.388657	2643.807929
871.700081	2643.621406
872.011463	2644.201139
872.322803	2645.010244
872.634101	2645.622744
872.945357	2654.011224
873.256571	2660.995743
873.567744	2657.358550
873.878874	2653.892757
874.189963	2658.328972
874.501010	2661.812410
874.812015	2665.638646
875.122979	2665.941115
875.433900	2658.351658
875.744780	2655.881492
876.055618	2661.991371
876.366415	2666.480518
876.677169	2668.048317
876.987882	2661.099087
877.298554	2660.355516
877.609183	2673.575942
877.919771	2676.779596
878.230317	2685.291584
878.540822	2694.607636
878.851285	2706.890407
879.161707	2732.191959
879.472087	2771.696961
879.782425	2821.276709
880.092722	2934.758123
880.402977	3124.784417
880.713191	3389.104716
881.023363	3682.315868
881.333494	3876.009602
881.643583	4053.773289
881.953631	4051.408988
882.263637	3873.236967
882.573602	3652.056342
882.883526	3517.099613
883.193408	3400.487642
883.503248	3299.866211
883.813048	3179.284332
884.122806	3069.069585
884.432522	2983.044815
884.742197	2918.265988
885.051831	2875.471633
885.361424	2841.521983
885.670975	2805.301292
885.980485	2773.554626
886.289954	2757.662388
886.599382	2743.277456
886.908768	2732.146588
887.218113	2716.052705
887.527417	2696.566124
887.836680	2691.351051
888.145901	2686.418282
888.455082	2674.722805
888.764221	2664.980775
889.073319	2657.852583
889.382376	2655.395021
889.691392	2659.130516
890.000366	2657.484579
890.309300	2653.703714
890.618193	2657.209836
890.927044	2658.545742
891.235855	2661.053716
891.544625	2659.155722
891.853353	2661.651093
892.162041	2667.030004
892.470687	2688.394414
892.779293	2698.766588
893.087858	2709.373176
893.396381	2733.931157
893.704864	2776.712909
894.013306	2847.031964
894.321707	2940.545368
894.630068	2988.111175
894.938387	3013.372397
895.246665	3003.705984
895.554903	2960.377267
895.863100	2914.243148
896.171256	2857.452029
896.479371	2796.224695
896.787446	2759.144488
897.095480	2736.885273
897.403473	2728.937894
897.711425	2715.319217
898.019336	2695.525126
898.327207	2682.332427
898.635038	2682.004752
898.942827	2681.659432
899.250576	2669.452278
899.558284	2659.886689
899.865952	2652.874444
900.173579	2650.653816
900.481165	2650.537869
900.788711	2641.977990
901.096216	2633.768471
901.403681	2629.488531
901.711105	2630.501803
902.018489	2630.615229
902.325832	2633.244191
902.633135	2634.688482
902.940397	2650.109371
903.247619	2686.690504
903.554800	2758.567276
903.861941	2887.777090
904.169041	3013.997500
904.476101	3077.621903
904.783121	3072.338773
905.090100	3013.889115
905.397039	2936.288113
905.703938	2866.251363
906.010796	2800.436579
906.317614	2746.856675
906.624391	2711.621530
906.931129	2685.699917
907.237826	2660.622697
907.544483	2642.590490
907.851099	2628.460136
908.157675	2619.335647
908.464211	2610.175871
908.770707	2600.416197
909.077163	2596.708428
909.383578	2591.377408
909.689954	2591.284147
909.996289	2589.560072
910.302584	2589.497058
910.608839	2587.263827
910.915054	2586.394228
911.221229	2587.478076
911.527363	2589.403797
911.833458	2590.207861
912.139513	2589.050916
912.445527	2591.374888
912.751502	2598.215733
913.057436	2604.446600
913.363331	2608.502208
913.669186	2618.803806
913.975000	2635.086733
914.280775	2651.745226
914.586510	2669.535457
914.892205	2705.541899
915.197859	2774.252826
915.503475	2856.327852
915.809050	2928.852411
916.114585	2944.628702
916.420081	2956.356947
916.725536	2969.083340
917.030952	2941.815738
917.336328	2892.016700
917.641665	2840.483505
917.946961	2793.552883
918.252218	2755.719024
918.557435	2731.365209
918.862612	2708.102805
919.167750	2691.905578
919.472848	2676.467044
919.777906	2655.846204
920.082925	2645.342960
920.387904	2634.007926
920.692843	2627.721607
920.997743	2625.811010
921.302603	2617.999742
921.607423	2611.322733
921.912204	2605.764861
922.216946	2600.632967
922.521647	2597.910744
922.826310	2596.652976
923.130932	2592.521750
923.435516	2587.047057
923.740059	2586.046388
924.044564	2585.199474
924.349028	2581.045563
924.653454	2573.446024
924.957840	2572.455437
925.262186	2568.677092
925.566493	2566.469067
925.870761	2564.850857
926.174989	2564.752554
926.479178	2561.279199
926.783328	2563.882955
927.087438	2559.875238
927.391509	2561.606874
927.695541	2559.285423
927.999533	2559.955896
928.303486	2556.399362
928.607400	2553.089845
928.911275	2556.071687
929.215110	2556.180072
929.518906	2556.391801
929.822663	2556.585885
930.126381	2553.566234
930.430060	2555.214691
930.733699	2556.250648
931.037299	2555.706204
931.340861	2555.131512
931.644383	2556.656461
931.947866	2555.232335
932.251309	2553.551110
932.554714	2555.262582
932.858080	2559.734086
933.161407	2553.916594
933.464694	2553.258723
933.767943	2553.977088
934.071153	2552.512633
934.374323	2552.709238
934.677455	2551.363250
934.980548	2550.980122
935.283602	2551.534649
935.586617	2552.817622
935.889593	2552.847869
936.192530	2552.411810
936.495428	2553.006666
936.798287	2551.335523
937.101108	2554.904660
937.403890	2559.597974
937.706632	2562.869683
938.009336	2565.158367
938.312002	2568.692216
938.614628	2570.761610
938.917216	2574.010633
939.219765	2576.899214
939.522275	2576.926941
939.824747	2575.205387
940.127179	2572.079871
940.429573	2566.980744
940.731929	2568.092319
941.034246	2564.147616
941.336524	2567.436969
941.638763	2565.014694
941.940964	2565.165929
942.243126	2561.669889
942.545250	2562.582338
942.847335	2560.250804
943.149381	2560.762481
943.451389	2558.128478
943.753359	2557.868859
944.055290	2556.724517
944.357182	2556.343910
944.659036	2554.861810
944.960851	2558.264589
945.262628	2556.981616
945.564367	2557.573951
945.866067	2554.080432
946.167729	2555.310473
946.469352	2555.890206
946.770937	2557.770556
947.072484	2552.734443
947.373992	2553.909032
947.675462	2554.919784
947.976893	2556.361554
948.278286	2550.579350
948.579641	2553.727551
948.880958	2552.532797
949.182236	2552.913404
949.483476	2551.585060
949.784678	2553.304094
950.085841	2550.962478
950.386967	2551.955585
950.688054	2551.635472
950.989103	2553.672098
951.290114	2555.444064
951.591087	2557.415155
951.892021	2556.512788
952.192917	2558.849363
952.493776	2558.476318
952.794596	2560.086966
953.095378	2561.168294
953.396122	2560.407080
953.696828	2559.978582
953.997496	2557.483210
954.298126	2556.285936
954.598718	2554.047664
954.899272	2552.358878
955.199788	2551.663198
955.500266	2550.221428
955.800706	2546.110367
956.101108	2543.902342
956.401472	2545.838145
956.701798	2538.967052
957.002087	2544.267826
957.302337	2544.315717
957.602550	2543.441076
957.902724	2541.059131
958.202861	2542.271529
958.502960	2538.934285
958.803022	2543.304965
959.103045	2538.546116
959.403031	2540.071065
959.702979	2538.805735
960.002889	2539.314892
960.302762	2539.640046
960.602596	2540.640715
960.902393	2539.166178
961.202153	2539.559388
961.501875	2538.430169
961.801559	2538.442772
962.101205	2536.592669
962.400814	2536.317926
962.700385	2537.769778
962.999918	2535.037473
963.299414	2537.701723
963.598873	2534.830786
963.898293	2538.205838
964.197677	2538.228523
964.497022	2536.040663
964.796331	2540.446631
965.095601	2535.680220
965.394835	2538.742721
965.694030	2535.745755
965.993189	2535.319778
966.292309	2537.915972
966.591393	2535.586959
966.890439	2536.983358
967.189447	2535.453368
967.488419	2535.849099
967.787353	2535.236598
968.086249	2532.763913
968.385108	2536.514531
968.683930	2535.158461
968.982714	2536.038142
969.281462	2534.477905
969.580172	2538.178112
969.878844	2534.432534
970.177480	2536.002854
970.476078	2537.416898
970.774639	2539.624923
971.073162	2537.943698
971.371649	2535.244160
971.670098	2534.457740
971.968510	2533.512524
972.266885	2534.064530
972.565223	2538.142824
972.863524	2535.846578
973.161788	2536.075951
973.460014	2535.846578
973.758204	2535.934798
974.056356	2537.847916
974.354471	2536.690971
974.652550	2535.445806
974.950591	2541.074255
975.248595	2535.823893
975.546563	2536.322967
975.844493	2538.160468
976.142386	2533.724252
976.440243	2535.344983
976.738062	2537.008564
977.035845	2535.962525
977.333590	2536.632998
977.631299	2535.362627
977.928971	2537.384130
978.226606	2535.977648
978.524204	2536.174253
978.821765	2537.530323
979.119290	2536.350693
979.416777	2535.705426
979.714228	2537.737011
980.011642	2536.186856
980.309020	2539.120807
980.606360	2533.767102
980.903664	2536.786753
981.200931	2534.823224
981.498162	2536.552340
981.795356	2539.203987
982.092513	2543.347815
982.389633	2546.286808
982.686717	2548.119267
982.983764	2552.079093
983.280775	2549.490461
983.577749	2552.598332
983.874686	2551.128836
984.171587	2544.968546
984.468451	2544.129194
984.765279	2540.948226
985.062070	2541.427135
985.358824	2542.258926
985.655543	2539.183822
985.952224	2536.764068
986.248869	2533.567977
986.545478	2531.624612
986.842050	2531.584283
987.138586	2527.969775
987.435086	2530.447502
987.731549	2527.153108
988.027975	2534.119983
988.324366	2532.980682
988.620719	2532.821886
988.917037	2531.430527
989.213318	2533.595703
989.509563	2530.064375
989.805772	2535.506300
990.101944	2532.285003
990.398080	2533.479756
990.694180	2534.198121
990.990244	2532.665610
991.286271	2534.014119
991.582262	2531.322143
991.878217	2532.716022
992.174136	2531.450692
992.470019	2531.158305
992.765865	2531.485980
993.061676	2529.593027
993.357450	2531.841381
993.653188	2533.595703
993.948890	2532.869777
994.244556	2531.556556
994.540186	2534.233409
994.835780	2531.705270
995.131337	2534.014119
995.426859	2533.515044
995.722345	2533.971269
996.017795	2537.424459
996.313208	2537.981507
996.608586	2538.856147
996.903928	2537.527803
997.199234	2535.939839
997.494504	2535.869263
997.789738	2536.365817
998.084936	2532.693336
998.380099	2537.197607
998.675225	2533.106711
998.970316	2534.876156
999.265371	2533.885569
999.560390	2531.165867
999.855373	2533.383974
1000.150320	2530.812986
1000.445232	2532.988244
1000.740108	2530.132430
1001.034948	2532.612678
1001.329752	2531.591844
1001.624521	2530.384488
1001.919254	2528.615043
1002.213951	2528.851977
1002.508613	2525.348375
1002.803239	2530.870959
1003.097829	2524.302336
1003.392384	2535.415559
1003.686903	2529.484642
1003.981386	2530.702081
1004.275834	2530.903727
1004.570246	2531.818696
1004.864623	2531.806093
1005.158964	2531.191072
1005.453270	2530.679395
1005.747540	2531.244005
1006.041775	2530.996988
1006.335974	2529.630835
1006.630138	2529.204858
1006.924266	2531.987575
1007.218359	2530.931453
1007.512416	2530.649148
1007.806438	2529.227543
1008.100425	2530.316432
1008.394376	2532.756351
1008.688292	2530.238294
1008.982172	2530.956659
1009.276017	2533.832637
1009.569827	2530.167718
1009.863602	2532.474046
1010.157341	2530.709642
1010.451045	2530.192924
1010.744714	2531.869108
1011.038347	2530.291227
1011.331945	2530.482790
1011.625508	2530.588655
1011.919036	2532.216947
1012.212528	2528.529343
1012.505986	2528.730989
1012.799408	2529.898017
1013.092795	2528.428520
1013.386147	2529.023376
1013.679464	2529.580424
1013.972745	2531.871628
1014.265992	2528.942718
1014.559204	2530.649148
1014.852380	2527.826102
1015.145521	2529.678726
1015.438628	2531.057482
1015.731699	2530.460105
1016.024736	2528.229395
1016.317737	2531.450692
1016.610703	2530.555887
1016.903635	2526.061698
1017.196531	2526.419620
1017.489393	2529.388860
1017.782219	2521.854856
1018.075011	2529.530012
1018.367768	2529.585465
1018.660490	2531.790970
1018.953177	2531.790970
1019.245829	2531.790970
