Dividing Wavelength (nm)	Counts (n)	Blue Motor Position (mm): 31.600000	Red Motor Position (mm): 0.000000	
326.493990	2130.626029
326.888308	2130.626029
327.282561	2130.626029
327.676750	2096.378950
328.070874	2094.889289
328.464933	2099.494383
328.858929	2105.977307
329.252859	2115.920983
329.646726	2126.225102
330.040528	2138.875877
330.434265	2159.471511
330.827938	2175.915755
331.221547	2195.258663
331.615091	2210.218287
332.008571	2232.724518
332.401986	2252.344689
332.795338	2270.760024
333.188625	2289.374484
333.581847	2308.283852
333.975006	2327.707418
334.368100	2343.153513
334.761129	2361.722604
335.154095	2376.412526
335.546996	2400.763820
335.939833	2424.749630
336.332606	2440.934254
336.725315	2451.729885
337.117960	2459.095011
337.510540	2469.933492
337.903056	2481.039153
338.295508	2488.689104
338.687896	2496.651607
339.080220	2506.335663
339.472480	2512.380007
339.864676	2515.931500
340.256807	2520.629855
340.648875	2522.416944
341.040879	2524.337624
341.432818	2526.956503
341.824694	2530.475229
342.216506	2527.823582
342.608253	2527.813499
342.999937	2531.712832
343.391557	2531.160826
343.783113	2526.417100
344.174605	2527.437933
344.566033	2526.422141
344.957397	2524.221677
345.348697	2524.055319
345.739934	2521.343178
346.131106	2521.562469
346.522215	2515.853362
346.913260	2515.513084
347.304241	2512.279184
347.695159	2509.859430
348.086012	2510.673576
348.476802	2509.015037
348.867528	2510.698782
349.258191	2506.209635
349.648789	2504.533451
350.039324	2503.794922
350.429796	2499.401556
350.820203	2499.724190
351.210548	2495.189672
351.600828	2498.418531
351.991045	2496.505413
352.381198	2497.644714
352.771288	2496.465084
353.161314	2495.194713
353.551276	2497.238901
353.941175	2494.408293
354.331010	2494.012563
354.720782	2497.743017
355.110490	2493.203458
355.500135	2494.859477
355.889717	2495.983654
356.279235	2495.471977
356.668689	2496.964158
357.058080	2494.728407
357.447408	2496.603716
357.836672	2493.367295
358.225873	2495.890393
358.615010	2493.780670
359.004084	2497.853922
359.393095	2497.654797
359.782043	2501.586897
360.170927	2498.668068
360.559748	2500.772750
360.948505	2502.156547
361.337199	2502.078409
361.725830	2500.513131
362.114398	2500.853409
362.502903	2503.149654
362.891344	2502.799294
363.279722	2502.343070
363.668037	2504.173008
364.056289	2503.724346
364.444478	2505.075375
364.832603	2502.837103
365.220665	2507.774913
365.608665	2505.347597
365.996601	2505.360200
366.384474	2508.586539
366.772284	2507.447238
367.160031	2506.154182
367.547715	2506.723832
367.935336	2506.325581
368.322893	2511.011334
368.710388	2509.569564
369.097820	2511.843124
369.485189	2509.395644
369.872495	2510.834893
370.259738	2510.144255
370.646918	2510.925634
371.034035	2508.959584
371.421090	2512.644667
371.808081	2511.137363
372.195010	2509.945130
372.581875	2513.224400
372.968678	2516.246572
373.355418	2513.035357
373.742096	2509.972856
374.128710	2514.537621
374.515262	2511.671725
374.901751	2511.533093
375.288177	2514.973681
375.674540	2513.778927
376.060841	2512.916890
376.447079	2516.294463
376.833254	2514.464524
377.219367	2510.043432
377.605417	2513.451252
377.991404	2512.765655
378.377329	2512.374966
378.763191	2512.259019
379.148991	2516.627179
379.534727	2518.787313
379.920402	2515.913856
380.306013	2516.155831
380.691563	2517.343023
381.077049	2515.959226
381.462474	2520.977695
381.847835	2515.349247
382.233134	2516.342354
382.618371	2518.545338
383.003545	2518.240348
383.388657	2518.971316
383.773706	2517.443846
384.158693	2517.864782
384.543618	2519.924094
384.928480	2516.725482
385.313280	2520.491223
385.698017	2520.178672
386.082692	2520.466018
386.467305	2521.045750
386.851856	2522.323683
387.236344	2521.194464
387.620770	2523.445340
388.005133	2522.618590
388.389435	2523.042047
388.773674	2520.458456
389.157851	2522.490041
389.541965	2521.005421
389.926018	2522.837881
390.310008	2524.083046
390.693936	2524.503982
391.077802	2524.803931
391.461606	2523.457942
391.845348	2523.735206
392.229027	2523.190761
392.612645	2525.847449
392.996200	2524.907274
393.379694	2524.698066
393.763125	2526.202851
394.146494	2525.791997
394.529801	2524.231760
394.913047	2527.014477
395.296230	2525.610515
395.679351	2526.885927
396.062410	2528.259642
396.445408	2526.890968
396.828343	2529.517409
397.211217	2522.187572
397.594028	2527.027079
397.976778	2526.384332
398.359466	2528.279806
398.742092	2523.732685
399.124656	2529.288037
399.507158	2526.525485
399.889598	2530.689478
400.271977	2531.246525
400.654294	2531.223840
401.036549	2531.359951
401.418742	2532.063192
401.800874	2532.645445
402.182944	2532.990764
402.564952	2532.622760
402.946898	2532.940353
403.328783	2532.146371
403.710606	2529.761905
404.092367	2534.024201
404.474067	2533.048738
404.855705	2533.245343
405.237282	2534.571166
405.618797	2536.201979
406.000250	2534.364479
406.381642	2535.087884
406.762972	2537.300951
407.144240	2534.765251
407.525447	2535.982689
407.906593	2536.885056
408.287677	2536.012936
408.668700	2534.780374
409.049661	2537.031249
409.430560	2535.080323
409.811399	2538.392361
410.192176	2540.696168
410.572891	2538.641898
410.953545	2541.865716
411.334138	2541.051569
411.714669	2540.643236
412.095139	2542.493339
412.475547	2543.105840
412.855894	2540.479398
413.236180	2542.667259
413.616405	2545.674308
413.996568	2544.141797
414.376670	2545.177754
414.756711	2546.662374
415.136691	2548.041129
415.516609	2548.920811
415.896466	2549.878630
416.276262	2554.582026
416.655997	2552.767211
417.035670	2552.842828
417.415283	2562.373130
417.794834	2563.719118
418.174324	2571.464851
418.553753	2573.937537
418.933121	2583.906418
419.312428	2594.258428
419.691674	2599.438213
420.070859	2608.081272
420.449983	2615.332971
420.829045	2628.656741
421.208047	2635.275776
421.586988	2648.428146
421.965867	2660.421051
422.344686	2682.602128
422.723444	2687.978519
423.102141	2691.335927
423.480777	2723.344734
423.859352	2722.084445
424.237866	2757.228849
424.616319	2772.874070
424.994712	2801.530509
425.373044	2815.313024
425.751314	2849.746625
426.129524	2848.556913
426.507673	2890.552245
426.885762	2923.975095
427.263789	2944.948816
427.641756	2953.019703
428.019662	2998.516116
428.397508	3029.055426
428.775292	3055.818912
429.153016	3103.818258
429.530679	3120.461628
429.908282	3167.679595
430.285824	3175.795853
430.663305	3267.842281
431.040726	3249.963829
431.418086	3283.946247
431.795385	3348.767924
432.172624	3392.144532
432.549802	3430.096859
432.926920	3477.413129
433.303977	3517.502905
433.680974	3575.811411
434.057910	3628.597333
434.434786	3675.346473
434.811601	3710.924416
435.188355	3839.607430
435.565050	3841.344107
435.941683	3883.430180
436.318257	4021.799771
436.694770	4066.219898
437.071222	4138.424345
437.447614	4156.882529
437.823946	4161.850587
438.200218	4290.478148
438.576429	4274.974079
438.952580	4383.265625
439.328670	4457.274805
439.704700	4454.880257
440.080670	4499.159232
440.456580	4713.539340
440.832429	4696.316238
441.208218	4654.275535
441.583947	4795.251403
441.959616	4850.003375
442.335224	4850.638560
442.710773	4990.031505
443.086261	5065.512702
443.461689	4958.325168
443.837057	5111.944249
444.212365	5270.402838
444.587612	5238.580554
444.962800	5392.678545
445.337927	5422.484367
445.712995	5168.321993
446.088002	5654.894162
446.462949	5567.493157
446.837837	5553.282145
447.212664	5721.742383
447.587431	5884.937136
447.962139	6372.373863
448.336786	7174.542427
448.711374	6998.394430
449.085901	6261.793633
449.460369	6238.614407
449.834776	6211.669440
450.209124	6591.190187
450.583412	6759.688233
450.957640	6908.074597
451.331808	6731.251085
451.705917	6355.637232
452.079965	6308.048740
452.453954	6531.205497
452.827883	6439.799296
453.201752	6549.948507
453.575562	6377.089862
453.949311	6590.255053
454.323001	6505.488051
454.696632	6583.767088
455.070202	6735.830973
455.443713	6899.204687
455.817164	7013.225504
456.190556	7104.059535
456.563888	7189.048348
456.937160	7246.610763
457.310373	6921.592451
457.683526	6954.102852
458.056619	6856.370003
458.429653	6856.370002
458.802628	6797.789274
459.175542	6910.736326
459.548398	7266.109946
459.921194	7428.067096
460.293930	7434.010616
460.666607	7965.514589
461.039224	8271.474819
461.411782	8399.066423
461.784280	8423.493334
462.156719	8322.151018
462.529099	8210.076086
462.901419	7805.863768
463.273680	7695.691871
463.645882	7711.384983
464.018024	7584.599964
464.390106	7746.572237
464.762130	8137.619582
465.134094	8602.366075
465.505999	9617.364594
465.877845	10834.485655
466.249631	11479.917185
466.621358	11107.627973
466.993026	10483.132355
467.364634	10232.955013
467.736184	9864.514723
468.107674	9541.152430
468.479105	9571.157378
468.850477	9336.917643
469.221790	9108.742417
469.593043	8783.472048
469.964238	8649.173189
470.335373	8662.282709
470.706449	8721.012152
471.077467	8703.766364
471.448425	10007.824644
471.819324	11075.586399
472.190164	11094.195819
472.560945	9852.436118
472.931667	9064.392867
473.302330	8933.723638
473.672934	8584.938807
474.043479	8937.501983
474.413965	8881.615752
474.784393	8761.734593
475.154761	8916.011544
475.525070	9001.063371
475.895321	8831.390736
476.265513	9009.015792
476.635645	9176.230865
477.005719	9176.931585
477.375734	9288.376373
477.745691	9529.666161
478.115588	9661.593157
478.485427	9908.609695
478.855207	10438.046796
479.224928	11255.568194
479.594591	11866.107378
479.964194	11687.348063
480.333739	11629.392437
480.703226	11549.041486
481.072653	11639.026082
481.442022	11871.559386
481.811333	12063.430742
482.180584	11869.482430
482.549777	11577.612226
482.918912	11403.561348
483.287988	11421.747310
483.657005	11439.252717
484.025964	11116.160126
484.394864	11252.888821
484.763706	11217.215096
485.132489	10974.481018
485.501213	10943.694691
485.869879	11015.339570
486.238487	10858.060611
486.607036	10970.054885
486.975527	10749.020453
487.343959	10945.759044
487.712333	10985.498459
488.080648	10920.034036
488.448905	10958.906373
488.817104	10904.739175
489.185244	11168.023517
489.553326	11326.015799
489.921350	11861.189732
490.289315	12918.113007
490.657222	13262.955656
491.025070	13163.105522
491.392861	13042.463148
491.760593	12658.745641
492.128267	12311.168166
492.495883	11988.700678
492.863440	11654.578042
493.230939	11311.444344
493.598380	11247.514951
493.965763	11120.374531
494.333088	11018.601196
494.700354	10941.779053
495.067563	11000.417754
495.434713	10835.942548
495.801805	10960.181785
496.168839	10879.770340
496.535815	10829.568009
496.902733	10819.178191
497.269593	10750.668910
497.636395	10852.850578
498.003139	10843.206851
498.369825	10714.728004
498.736453	10859.973729
499.103023	10793.702720
499.469535	10825.590539
499.835989	10811.886162
500.202385	10783.620413
500.568723	10623.435228
500.935003	10850.307316
501.301226	10651.995886
501.667390	10909.303940
502.033497	11006.983857
502.399546	10872.193486
502.765537	10773.102045
503.131470	10850.239261
503.497345	11023.342401
503.863163	10637.195058
504.228923	10948.022522
504.594625	11011.057109
504.960269	10754.285938
505.325856	10979.489404
505.691385	10771.511561
506.056856	10924.525704
506.422270	10950.391864
506.787625	10839.216778
507.152924	10956.559716
507.518164	10933.231776
507.883347	10851.335712
508.248472	10780.250401
508.613540	11012.617347
508.978550	10893.134439
509.343503	10867.664009
509.708398	10984.659107
510.073236	11098.163207
510.438016	11100.318300
510.802738	11054.882380
511.167403	11112.719538
511.532010	11007.344300
511.896561	11242.037737
512.261053	11311.078860
512.625488	11171.010400
512.989866	11157.358956
513.354186	11149.978707
513.718449	11046.196472
514.082655	11241.405073
514.446803	11132.637137
514.810894	11258.219841
515.174927	11123.419388
515.538904	11147.397636
515.902822	11301.147787
516.266684	11188.598986
516.630488	11122.617844
516.994235	11187.855416
517.357925	11246.657955
517.721558	11339.183293
518.085133	11347.400373
518.448651	11366.939886
518.812112	11247.242729
519.175516	11256.969635
519.538863	11378.408511
519.902152	11298.397838
520.265385	11462.802467
520.628560	11365.886285
520.991678	11344.095897
521.354739	11409.104097
521.717743	11344.521875
522.080690	11317.294603
522.443580	11459.999586
522.806413	11414.178018
523.169189	11441.017121
523.531908	11498.519042
523.894569	11323.230561
524.257174	11327.843217
524.619722	11439.938314
524.982213	11391.265974
525.344647	11441.594333
525.707025	11392.657332
526.069345	11488.958494
526.431608	11407.420351
526.793815	11512.921619
527.155964	11299.985801
527.518057	11356.126611
527.880093	11307.023252
528.242072	11373.238807
528.603995	11279.823706
528.965860	11196.034688
529.327669	11247.373799
529.689421	11202.169772
530.051117	11174.531646
530.412755	11269.726275
530.774337	11168.099134
531.135862	11145.005608
531.497331	11165.717189
531.858743	11016.655311
532.220098	11184.586228
532.581396	11055.257946
532.942638	11036.477128
533.303824	11007.946718
533.664953	11018.197904
534.026025	10932.684811
534.387040	11033.064267
534.747999	11030.329441
535.108902	11090.578791
535.469748	10844.318425
535.830537	10954.066865
536.191270	10938.114134
536.551947	10950.611154
536.912567	10952.554519
537.273131	10876.826306
537.633638	10857.097750
537.994089	10844.658703
538.354483	10793.014603
538.714821	10947.830958
539.075103	10946.472367
539.435328	10906.511140
539.795497	10742.040976
540.155609	10894.893801
540.515665	10988.906279
540.875665	10721.203366
541.235609	10791.862699
541.595496	10787.335743
541.955328	10938.638414
542.315102	10822.396968
542.674821	10767.009811
543.034483	10776.449371
543.394090	10777.210585
543.753640	10710.390091
544.113134	10930.794378
544.472571	10784.570670
544.831953	10924.019068
545.191278	10732.669471
545.550548	10764.925293
545.909761	10903.481407
546.268918	10870.590399
546.628019	10956.809253
546.987064	10817.184415
547.346053	10737.829092
547.704986	10841.439927
548.063863	10824.458800
548.422684	10822.356639
548.781449	10739.041489
549.140158	10840.784577
549.498811	10712.608199
549.857408	10569.807434
550.215949	10796.004007
550.574434	10655.139045
550.932864	10755.614282
551.291237	10815.883797
551.649555	10757.240054
552.007817	10774.110276
552.366022	10729.274253
552.724173	10728.311393
553.082267	10711.118538
553.440305	10851.315547
553.798288	10639.778649
554.156215	10805.904833
554.514086	10777.399629
554.871902	10626.517894
555.229661	10667.683956
555.587365	10642.518516
555.945014	10537.891889
556.302606	10665.052474
556.660143	10547.704495
557.017625	10716.018539
557.375050	10607.759761
557.732421	10742.787066
558.089735	10658.587194
558.446994	10653.278859
558.804197	10691.400065
559.161345	10694.971722
559.518437	10542.920440
559.875474	10632.968050
560.232455	10661.816053
560.589381	10606.786818
560.946251	10614.272931
561.303065	10718.294620
561.659825	10653.540999
562.016528	10577.502755
562.373177	10457.825763
562.729770	10576.731459
563.086307	10493.900260
563.442789	10580.126676
563.799216	10460.311052
564.155587	10510.034473
564.511904	10466.005035
564.868164	10453.470206
565.224370	10469.619542
565.580520	10393.795547
565.936615	10399.408872
566.292654	10269.150498
566.648638	10398.072966
567.004567	10358.585608
567.360441	10342.267393
567.716260	10255.410833
568.072023	10345.244195
568.427732	10297.660743
568.783385	10204.739675
569.138982	10279.807497
569.494525	10289.884764
569.850013	10170.442185
570.205445	10251.970246
570.560823	10150.643053
570.916145	10067.824457
571.271412	10138.907247
571.626625	10075.063554
571.981782	10055.239217
572.336884	10037.360765
572.691931	10037.108707
573.046923	9980.622578
573.401860	9939.774108
573.756743	9872.278100
574.111570	9918.805429
574.466342	9901.322707
574.821059	9928.739023
575.175722	9821.589298
575.530330	9833.756123
575.884882	9818.980501
576.239380	9751.363504
576.593823	9729.011028
576.948211	9745.813194
577.302544	9625.047312
577.656823	9638.295464
578.011047	9637.970310
578.365216	9612.799829
578.719330	9539.551863
579.073389	9548.101660
579.427394	9503.469805
579.781344	9473.938726
580.135239	9425.210932
580.489080	9436.001522
580.842866	9335.770781
581.196597	9341.283283
581.550273	9380.755517
581.903895	9344.759158
582.257463	9414.206094
582.610975	9289.152711
582.964434	9322.562958
583.317837	9236.845698
583.671186	9222.007062
584.024481	9214.072286
584.377721	9140.847006
584.730906	9113.317265
585.084037	9143.014702
585.437113	9080.897604
585.790135	9106.922561
586.143103	9000.337445
586.496016	8975.504721
586.848874	9030.602012
587.201679	9018.178089
587.554428	8905.694823
587.907124	8953.943706
588.259765	8919.628572
588.612352	8924.606712
588.964884	8802.951066
589.317362	8810.212848
589.669786	8814.311307
590.022155	8868.849029
590.374470	8885.159683
590.726731	8818.893715
591.078937	8666.013163
591.431090	8783.386348
591.783188	8661.569386
592.135232	8648.472468
592.487222	8650.350298
592.839157	8703.937764
593.191038	8633.923698
593.542866	8578.367662
593.894639	8479.107343
594.246358	8533.209006
594.598022	8553.388745
594.949633	8444.562837
595.301190	8423.183303
595.652692	8453.029454
596.004141	8561.094149
596.355535	8336.059562
596.706876	8316.351171
597.058162	8251.726099
597.409395	8329.957245
597.760573	8390.430927
598.111698	8303.526475
598.462768	8284.622148
598.813785	8249.439936
599.164748	8219.099751
599.515657	8212.720171
599.866511	8122.778425
600.217312	8247.821725
600.568060	8106.571115
600.918753	8205.864202
601.269392	8183.194133
601.619978	8091.172911
601.970510	8156.458374
602.320988	8151.470152
602.671412	8207.489974
603.021783	8141.954974
603.372100	8116.303063
603.722363	8119.211808
604.072572	8097.239939
604.422728	8104.968028
604.772830	8029.789301
605.122878	8041.656177
605.472872	8038.316413
605.822813	8067.517296
606.172701	8015.953854
606.522534	8087.266017
606.872314	8090.015966
607.222041	8056.671254
607.571714	8108.194367
607.921333	8070.375631
608.270899	8076.737567
608.620411	8162.764857
608.969870	8073.604490
609.319276	8066.604847
609.668627	8079.323679
610.017926	8114.352136
610.367171	8160.259404
610.716362	8140.152762
611.065500	8128.905947
611.414585	8158.958786
611.763616	8149.897312
612.112594	8126.529043
612.461518	8136.404664
612.810389	8200.092081
613.159207	8140.316599
613.507971	8090.280627
613.856682	8215.258392
614.205340	8162.500197
614.553945	8242.412567
614.902496	8138.317782
615.250994	8194.952624
615.599439	8173.202566
615.947830	8190.022376
616.296169	8160.418200
616.644454	8176.895211
616.992686	8173.298348
617.340864	8233.116680
617.688990	8136.250908
618.037063	8227.873880
618.385082	8176.285232
618.733048	8260.323787
619.080961	8196.185187
619.428821	8218.618321
619.776628	8220.380204
620.124382	8172.834562
620.472083	8155.624063
620.819731	8184.661109
621.167326	8075.875529
621.514868	8084.571520
621.862357	7977.366342
622.209793	7986.871438
622.557176	7926.899351
622.904506	7896.778457
623.251783	7833.438879
623.599007	7782.077083
623.946179	7788.716283
624.293297	7744.046619
624.640363	7660.151736
624.987376	7643.407544
625.334336	7592.086077
625.681243	7546.133439
626.028097	7530.523506
626.374899	7507.412337
626.721647	7501.080647
627.068343	7433.143538
627.414987	7407.549599
627.761577	7361.289451
628.108115	7395.927219
628.454600	7292.031559
628.801032	7346.823860
629.147412	7299.069010
629.493739	7291.159439
629.840014	7226.431024
630.186236	7283.575023
630.532405	7169.644947
630.878521	7217.228398
631.224585	7173.133425
631.570597	7101.372600
631.916556	7130.139944
632.262462	7122.006043
632.608316	7087.345589
632.954117	7069.331026
633.299866	7052.299488
633.645562	7045.604836
633.991206	6965.495860
634.336797	6910.867396
634.682336	6868.148658
635.027823	6837.737898
635.373257	6830.042577
635.718639	6758.168326
636.063968	6769.367249
636.409245	6668.960067
636.754470	6659.891031
637.099642	6622.190762
637.444762	6569.440128
637.789829	6574.660243
638.134845	6516.490369
638.479808	6504.058884
638.824719	6500.935889
639.169577	6437.770231
639.514383	6455.588189
639.859137	6386.058075
640.203839	6392.493108
640.548489	6377.530963
640.893086	6353.444330
641.237632	6325.700340
641.582125	6347.934349
641.926566	6318.983002
642.270955	6331.298541
642.615292	6327.626061
642.959576	6341.277505
643.303809	6332.251319
643.647990	6337.398337
643.992118	6329.745866
644.336195	6275.823164
644.680219	6297.747142
645.024192	6289.603158
645.368112	6384.545729
645.711981	6407.112454
646.055797	6483.490976
646.399562	6441.709893
646.743274	6569.891312
647.086935	6613.091480
647.430544	6614.014011
647.774101	6637.543596
648.117606	6641.881509
648.461059	6631.065714
648.804460	6594.784529
649.147810	6504.016034
649.491108	6472.397917
649.834354	6445.974709
650.177548	6367.851948
650.520690	6281.275172
650.863781	6259.555360
651.206820	6279.404904
651.549807	6200.047060
651.892742	6138.348378
652.235626	6144.196116
652.578458	6134.176823
652.921238	6042.059819
653.263967	6078.126754
653.606644	6021.481829
653.949269	6025.703795
654.291843	5964.874712
654.634365	6015.913874
654.976836	5972.171783
655.319255	5966.835721
655.661622	5941.695487
656.003938	5940.886382
656.346203	5902.440022
656.688416	5934.446308
657.030577	5883.482763
657.372687	5855.577456
657.714746	5843.229149
658.056753	5888.604575
658.398708	5826.401778
658.740612	5818.998843
659.082465	5865.195977
659.424266	5857.495615
659.766016	5856.026118
660.107715	5837.683880
660.449362	5851.138720
660.790958	5841.396690
661.132503	5826.227858
661.473996	5867.456935
661.815438	5853.583679
662.156829	5850.538823
662.498168	5840.701011
662.839456	5818.071271
663.180693	5852.565366
663.521879	5854.685172
663.863013	5842.561197
664.204097	5859.428897
664.545129	5905.116875
664.886110	5896.093209
665.227040	5931.575371
665.567918	5897.978601
665.908746	5925.248723
666.249522	5927.209731
666.590248	5916.416621
666.930922	5943.112051
667.271545	5954.525223
667.612118	5957.915399
667.952639	5935.237769
668.293109	5958.694258
668.633528	5909.379170
668.973896	5915.834368
669.314213	5905.442029
669.654480	5889.708588
669.994695	5877.942535
670.334859	5875.336258
670.674973	5860.532910
671.015035	5865.599270
671.355047	5864.712027
671.695008	5855.504359
672.034918	5824.816335
672.374777	5839.838973
672.714585	5824.637374
673.054342	5826.273228
673.394049	5817.504141
673.733705	5846.437844
674.073310	5837.633469
674.412864	5796.180061
674.752368	5786.748062
675.091820	5794.095543
675.431223	5728.802519
675.770574	5734.589763
676.109875	5685.120921
676.449125	5692.254153
676.788324	5653.706971
677.127473	5599.507005
677.466571	5590.148103
677.805619	5577.285599
678.144616	5562.220111
678.483562	5544.324014
678.822458	5508.914950
679.161303	5504.115771
679.500098	5496.773331
679.838842	5480.641638
680.177535	5484.941743
680.516179	5501.753991
680.854771	5512.060630
681.193314	5592.522486
681.531805	5702.399476
681.870247	5853.440007
682.208638	5953.040604
682.546978	5959.916738
682.885268	5940.856135
683.223508	5857.460327
683.561697	5807.293284
683.899836	5775.917143
684.237925	5728.371500
684.575963	5692.934709
684.913951	5652.597917
685.251889	5713.495055
685.589776	5679.159756
685.927614	5652.217310
686.265401	5724.232713
686.603137	5708.799220
686.940824	5782.271517
687.278460	5808.687163
687.616046	5819.334080
687.953582	5887.145161
688.291068	5862.047777
688.628504	5931.530000
688.965889	5894.427108
689.303224	5836.690773
689.640510	5788.136900
689.977745	5714.420107
690.314930	5616.780519
690.652065	5557.801539
690.989150	5467.733764
691.326185	5392.055963
691.663170	5339.091080
692.000105	5263.020068
692.336990	5182.837996
692.673825	5162.438967
693.010610	5087.983645
693.347345	5020.210373
693.684030	5006.087580
694.020665	4970.428978
694.357251	4876.204772
694.693786	4888.391761
695.030272	4856.801371
695.366707	4818.397861
695.703093	4783.818066
696.039429	4805.928567
696.375716	4787.944250
696.711952	4762.493985
697.048139	4751.990741
697.384276	4729.275302
697.720363	4742.268876
698.056400	4749.054269
698.392388	4698.161300
698.728326	4681.573383
699.064214	4659.351977
699.400053	4652.347294
699.735842	4621.755052
700.071581	4595.813274
700.407270	4569.334614
700.742910	4551.415832
701.078501	4496.764683
701.414042	4493.583715
701.749533	4468.438440
702.084974	4401.839757
702.420366	4454.746666
702.755709	4399.278850
703.091002	4343.291796
703.426246	4395.540835
703.761440	4347.480995
704.096584	4310.761230
704.431679	4336.513964
704.766725	4317.123166
705.101721	4306.602278
705.436668	4333.695959
705.771565	4276.002474
706.106413	4307.514727
706.441212	4340.181404
706.775961	4351.539123
707.110661	4332.488603
707.445311	4360.320813
707.779913	4381.050038
708.114465	4396.375146
708.448967	4416.373403
708.783421	4477.857836
709.117825	4518.063558
709.452180	4523.623951
709.786485	4569.957196
710.120742	4653.151358
710.454949	4634.564624
710.789107	4707.825192
711.123216	4780.732880
711.457275	4767.938431
711.791286	4843.792673
712.125247	4860.690621
712.459159	4765.090179
712.793023	4835.237835
713.126837	4799.995128
713.460602	4792.715702
713.794318	4712.957087
714.127985	4717.032860
714.461602	4632.492710
714.795171	4605.356178
715.128691	4536.287330
715.462162	4480.673320
715.795584	4433.649437
716.128957	4417.999175
716.462281	4364.172255
716.795556	4340.246939
717.128782	4302.884427
717.461960	4230.203592
717.795088	4239.096187
718.128167	4199.939024
718.461198	4138.666320
718.794180	4138.212616
719.127113	4117.042291
719.459997	4095.196450
719.792833	4051.580387
720.125619	4043.161660
720.458357	4007.061958
720.791046	4014.381713
721.123686	3985.644616
721.456278	3945.111218
721.788821	3961.736943
722.121315	3935.646452
722.453761	3907.146288
722.786158	3923.293104
723.118506	3946.225313
723.450805	3898.977099
723.783056	3919.855037
724.115259	3932.775515
724.447412	3937.741051
724.779518	3931.086728
725.111574	3935.432203
725.443582	3968.275320
725.775542	3951.987352
726.107453	4003.311339
726.439315	4001.118437
726.771129	4018.696941
727.102895	4056.641706
727.434612	4099.322635
727.766281	4114.025160
728.097901	4114.403247
728.429473	4117.743011
728.760996	4125.120740
729.092471	4122.998414
729.423897	4104.804890
729.755276	4111.786888
730.086606	4111.650777
730.417887	4151.634688
730.749120	4212.431004
731.080305	4281.512455
731.411442	4301.445178
731.742530	4273.963328
732.073570	4277.882825
732.404562	4331.923994
732.735506	4323.384279
733.066401	4287.380358
733.397249	4222.858630
733.728048	4139.553563
734.058798	4062.731420
734.389501	3993.344978
734.720156	3927.620935
735.050762	3882.500087
735.381320	3879.611506
735.711831	3825.812312
736.042293	3796.099752
736.372707	3821.058504
736.703073	3789.891571
737.033391	3779.922689
737.363661	3799.875576
737.693883	3824.937672
738.024056	3832.267510
738.354182	3827.496058
738.684260	3893.114237
739.014290	3911.456475
739.344272	3907.942791
739.674207	3948.927372
740.004093	3954.596149
740.333931	3949.698668
740.663722	3952.874595
740.993464	3949.481898
741.323159	3925.884257
741.652806	3891.695152
741.982405	3868.825957
742.311956	3836.726410
742.641460	3828.660564
742.970915	3801.405566
743.300323	3763.100358
743.629683	3727.237590
743.958996	3717.969429
744.288260	3693.028320
744.617477	3658.239317
744.946647	3647.909993
745.275768	3620.755818
745.604842	3618.247844
745.933869	3572.393508
746.262847	3563.468146
746.591778	3603.310905
746.920662	3574.568766
747.249498	3540.838406
747.578286	3586.851538
747.907027	3601.738065
748.235720	3597.974844
748.564365	3626.545583
748.892963	3627.115233
749.221514	3608.732666
749.550017	3583.695775
749.878473	3581.351639
750.206881	3555.490520
750.535242	3551.099675
750.863555	3553.675704
751.191821	3545.272101
751.520039	3526.347609
751.848210	3503.773322
752.176334	3540.712377
752.504411	3546.449210
752.832440	3505.835154
753.160421	3485.978049
753.488356	3494.895850
753.816243	3512.408819
754.144082	3465.972230
754.471875	3449.807770
754.799620	3470.128662
755.127318	3461.934266
755.454969	3465.122796
755.782572	3469.120431
756.110129	3442.089764
756.437638	3433.348403
756.765100	3447.261988
757.092515	3458.539049
757.419882	3465.579020
757.747203	3436.015173
758.074477	3440.290072
758.401703	3454.541414
758.728882	3474.237202
759.056014	3482.726505
759.383099	3487.497957
759.710138	3482.330774
760.037129	3501.832478
760.364073	3534.673075
760.690970	3516.822349
761.017820	3494.250583
761.344623	3511.418232
761.671379	3558.298442
761.998088	3609.274590
762.324751	3736.936770
762.651366	3981.422649
762.977935	4452.014361
763.304456	4896.061877
763.630931	4990.298686
763.957359	4629.407523
764.283740	4285.736942
764.610074	4094.074794
764.936362	3899.292171
765.262602	3744.180908
765.588796	3628.927528
765.914943	3545.786298
766.241044	3455.544603
766.567097	3425.269954
766.893104	3379.385372
767.219064	3345.612162
767.544978	3321.691887
767.870845	3262.594440
768.196665	3246.694641
768.522438	3257.906167
768.848165	3252.681011
769.173846	3215.716750
769.499479	3197.046837
769.825066	3179.632171
770.150607	3165.557270
770.476101	3183.375228
770.801548	3175.039680
771.126949	3130.652320
771.452303	3115.294445
771.777611	3120.562451
772.102872	3123.776187
772.428087	3101.625357
772.753256	3090.812082
773.078378	3081.606935
773.403453	3049.005793
773.728482	3036.105480
774.053465	3058.107596
774.378401	3047.503529
774.703291	3016.518077
775.028135	3013.674866
775.352932	3007.925430
775.677683	2998.251456
776.002388	2995.385560
776.327046	2995.377998
776.651658	2986.382059
776.976224	2974.374031
777.300743	2976.357725
777.625216	2964.752988
777.949643	2959.621094
778.274024	2964.460602
778.598359	2950.788992
778.922647	2958.217133
779.246889	2952.891153
779.571086	2940.396654
779.895236	2936.353648
780.219339	2941.871191
780.543397	2958.940538
780.867409	2960.311732
781.191374	2954.678243
781.515294	2949.710185
781.839167	2952.928962
782.162995	2942.602158
782.486776	2949.221193
782.810511	2947.726491
783.134201	2934.425407
783.457844	2941.518310
783.781441	2934.997578
784.104993	2911.583939
784.428498	2913.066038
784.751958	2927.461053
785.075372	2922.606422
785.398739	2904.949780
785.722061	2919.538880
786.045337	2934.014553
786.368568	2920.652975
786.691752	2910.018661
787.014891	2962.297947
787.337983	2985.552789
787.661030	3014.647809
787.984031	3082.446287
788.306987	3127.988071
788.629897	3122.077318
788.952760	3104.345059
789.275579	3090.738985
789.598351	3030.897968
789.921078	2982.296204
790.243759	2979.216059
790.566395	2960.876341
790.888984	2935.539502
791.211529	2918.807912
791.534027	2909.239802
791.856480	2899.782598
792.178888	2886.204250
792.501249	2877.707385
792.823566	2876.742004
793.145836	2874.118083
793.468062	2866.213554
793.790241	2865.202803
794.112375	2870.838813
794.434464	2883.076214
794.756507	2886.796585
795.078505	2893.075343
795.400457	2908.511356
795.722364	2942.836572
796.044226	2968.886735
796.366042	2972.304637
796.687812	2960.105045
797.009538	2979.218579
797.331218	2968.596868
797.652852	2950.819239
797.974442	2935.317691
798.295986	2932.671085
798.617484	2925.633635
798.938938	2910.696696
799.260346	2894.446536
799.581709	2891.101731
799.903026	2885.069990
800.224299	2877.961963
800.545526	2870.826210
800.866708	2851.574043
801.187845	2842.547857
801.508936	2844.355111
801.829983	2851.959692
802.150984	2837.584842
802.471940	2826.965651
802.792851	2826.335507
803.113717	2827.782318
803.434538	2830.862463
803.755314	2824.939107
804.076045	2818.763694
804.396731	2816.691779
804.717372	2817.757983
805.037967	2813.430153
805.358518	2818.178920
805.679024	2831.167453
805.999485	2825.622183
806.319901	2832.173163
806.640272	2820.560865
806.960598	2827.273161
807.280879	2836.868998
807.601115	2843.997189
807.921306	2829.924808
808.241453	2826.887513
808.561554	2834.101404
808.881611	2837.713391
809.201623	2832.768019
809.521590	2829.057730
809.841513	2825.138233
810.161390	2829.677792
810.481223	2823.746874
810.801011	2814.153558
811.120755	2810.559216
811.440453	2815.141625
811.760107	2812.633651
812.079716	2811.159113
812.399281	2801.444810
812.718801	2793.041206
813.038276	2790.296298
813.357707	2795.541618
813.677093	2800.507155
813.996434	2795.760909
814.315731	2793.542801
814.634983	2788.221863
814.954191	2789.280505
815.273354	2802.916827
815.592473	2811.990903
815.911547	2812.278249
816.230577	2823.593119
816.549562	2831.543019
816.868502	2830.292812
817.187399	2838.507373
817.506250	2855.770804
817.825058	2848.398117
818.143821	2860.811958
818.462539	2877.374669
818.781213	2904.579256
819.099843	2940.187446
819.418429	2996.482011
819.736970	3057.981567
820.055466	3128.774491
820.373919	3237.086202
820.692327	3377.749517
821.010691	3544.576422
821.329011	3985.937002
821.647286	4880.482191
821.965517	6256.906234
822.283704	6998.127249
822.601847	6978.464228
822.919945	6344.650037
823.237999	5843.415672
823.556010	5266.642137
823.873976	4712.059761
824.191897	4306.156136
824.509775	4010.081609
824.827609	3736.314188
825.145398	3615.215590
825.463144	3604.230916
825.780845	3696.569731
826.098502	3799.167294
826.416116	4083.153134
826.733685	4399.717431
827.051210	4460.848983
827.368692	4344.718442
827.686129	4080.418308
828.003522	3754.366559
828.320872	3498.371726
828.638177	3305.943322
828.955439	3168.186231
829.272656	3087.126998
829.589830	3018.950433
829.906960	2967.800366
830.224046	2920.622728
830.541088	2889.385218
830.858086	2872.638505
831.175041	2853.852645
831.491952	2856.814323
831.808819	2870.407794
832.125642	2894.615415
832.442421	2936.913216
832.759157	3020.014117
833.075849	3198.102959
833.392497	3479.381699
833.709101	3681.012730
834.025662	3630.795276
834.342179	3472.311481
834.658653	3298.202630
834.975083	3148.130001
835.291469	3050.450083
835.607811	2964.659727
835.924110	2908.387847
836.240366	2857.262986
836.556578	2812.797488
836.872746	2791.100362
837.188871	2771.097063
837.504952	2753.309352
837.820990	2744.898187
838.136984	2730.636763
838.452935	2721.653427
838.768842	2720.768704
839.084706	2738.783267
839.400526	2818.378045
839.716303	2949.846297
840.032037	3030.076260
840.347727	3016.334075
840.663373	2956.467852
840.978977	2881.261398
841.294537	2807.103505
841.610054	2760.742533
841.925527	2738.838720
842.240957	2713.857282
842.556344	2693.720393
842.871687	2678.042405
843.186987	2669.306085
843.502244	2664.791732
843.817458	2659.899292
844.132629	2649.290184
844.447756	2639.414563
844.762840	2634.340642
845.077881	2636.402474
845.392879	2633.087915
845.707833	2630.441309
846.022745	2620.890843
846.337613	2625.069960
846.652438	2624.568365
846.967221	2624.596092
847.281960	2623.078704
847.596656	2622.355299
847.911309	2620.104423
848.225919	2616.023609
848.540485	2615.121243
848.855009	2615.038064
849.169490	2614.523866
849.483928	2614.942282
849.798323	2615.098558
850.112675	2613.876078
850.426984	2613.195522
850.741251	2609.669235
851.055474	2613.457662
851.369654	2613.681993
851.683792	2614.604525
851.997887	2614.627210
852.311938	2610.551437
852.625947	2614.828856
852.939914	2617.432612
853.253837	2615.217025
853.567718	2611.347939
853.881555	2611.726026
854.195350	2614.362549
854.509103	2615.043105
854.822812	2608.429111
855.136479	2612.777106
855.450103	2612.073865
855.763685	2612.522528
856.077224	2612.620831
856.390720	2607.650253
856.704173	2612.593104
857.017584	2614.697786
857.330953	2617.132663
857.644278	2617.251130
857.957561	2619.822119
858.270802	2615.459000
858.584000	2613.429936
858.897155	2617.604011
859.210268	2621.768004
859.523339	2614.722992
859.836367	2610.382558
860.149352	2609.480192
860.462295	2615.816922
860.775195	2610.460696
861.088054	2607.483895
861.400869	2605.772423
861.713642	2605.812752
862.026373	2606.652104
862.339062	2608.953391
862.651708	2616.842797
862.964312	2616.051336
863.276873	2612.731736
863.589392	2615.895060
863.901869	2623.189610
864.214303	2628.765126
864.526696	2628.044241
864.839045	2629.261679
865.151353	2630.867287
865.463619	2633.876856
865.775842	2631.295785
866.088023	2631.247894
866.400162	2630.602626
866.712258	2631.318470
867.024313	2629.937194
867.336325	2623.638272
867.648296	2629.352420
867.960224	2635.243008
868.272110	2632.664458
868.583954	2625.629528
868.895755	2627.514920
869.207515	2633.755868
869.519233	2641.297434
869.830909	2635.966414
870.142542	2630.380816
870.454134	2632.198152
870.765684	2636.962042
871.077191	2639.434728
871.388657	2645.476551
871.700081	2643.301293
872.011463	2642.441776
872.322803	2642.260295
872.634101	2647.001500
872.945357	2653.570123
873.256571	2657.754281
873.567744	2655.395021
873.878874	2654.953920
874.189963	2657.114054
874.501010	2659.511123
874.812015	2664.489262
875.122979	2666.041938
875.433900	2660.915084
875.744780	2657.726555
876.055618	2665.245436
876.366415	2667.798780
876.677169	2666.435148
876.987882	2659.468273
877.298554	2658.518016
877.609183	2668.441527
877.919771	2677.210614
878.230317	2684.122036
878.540822	2697.125692
878.851285	2708.574153
879.161707	2732.103738
879.472087	2767.900972
879.782425	2815.814619
880.092722	2931.206630
880.402977	3118.876185
880.713191	3374.712222
881.023363	3672.692305
881.333494	3860.145091
881.643583	4034.574055
881.953631	4032.207233
882.263637	3850.113194
882.573602	3633.923312
882.883526	3502.200482
883.193408	3388.035992
883.503248	3288.009417
883.813048	3173.955832
884.122806	3059.067936
884.432522	2975.883856
884.742197	2910.472364
885.051831	2870.150695
885.361424	2838.945953
885.670975	2802.379944
885.980485	2771.520520
886.289954	2755.376225
886.599382	2740.991293
886.908768	2729.731876
887.218113	2711.359390
887.527417	2697.521423
887.836680	2689.674867
888.145901	2682.647499
888.455082	2675.557116
888.764221	2664.481701
889.073319	2659.092707
889.382376	2655.967192
889.691392	2655.044661
890.000366	2659.490958
890.309300	2656.309990
890.618193	2653.678508
890.927044	2660.910043
891.235855	2661.923315
891.544625	2660.138747
891.853353	2659.879127
892.162041	2666.281393
892.470687	2687.197140
892.779293	2698.217102
893.087858	2706.759338
893.396381	2729.605847
893.704864	2770.741662
894.013306	2841.892507
894.321707	2935.831889
894.630068	2983.934579
894.938387	3004.676406
895.246665	2999.950325
895.554903	2953.705300
895.863100	2907.765265
896.171256	2852.708303
896.479371	2792.380815
896.787446	2755.247676
897.095480	2734.820920
897.403473	2726.941597
897.711425	2713.574977
898.019336	2693.773325
898.327207	2681.664474
898.635038	2678.332271
898.942827	2680.257992
899.250576	2669.404387
899.558284	2657.005670
899.865952	2649.078455
900.173579	2651.558703
900.481165	2648.246665
900.788711	2640.384985
901.096216	2633.637401
901.403681	2630.431227
901.711105	2633.176135
902.018489	2629.455764
902.325832	2631.686474
902.633135	2633.070271
902.940397	2650.704227
903.247619	2686.050277
903.554800	2755.552666
903.861941	2881.604197
904.169041	3008.071623
904.476101	3070.670151
904.783121	3063.904923
905.090100	3007.328053
905.397039	2930.095056
905.703938	2856.136288
906.010796	2792.476597
906.317614	2742.586818
906.624391	2706.711447
906.931129	2680.492405
907.237826	2657.633293
907.544483	2641.425984
907.851099	2624.782614
908.157675	2617.735081
908.464211	2609.190325
908.770707	2601.802514
909.077163	2594.833119
909.383578	2593.507296
909.689954	2589.005545
909.996289	2589.993612
910.302584	2588.912284
910.608839	2586.061512
910.915054	2586.855493
911.221229	2589.580237
911.527363	2590.439754
911.833458	2586.800041
912.139513	2590.162490
912.445527	2591.301791
912.751502	2597.169694
913.057436	2601.666403
913.363331	2610.193515
913.669186	2618.818929
913.975000	2633.776033
914.280775	2649.355719
914.586510	2671.151147
914.892205	2706.285469
915.197859	2771.412136
915.503475	2856.567306
915.809050	2921.666247
916.114585	2936.572938
916.420081	2945.059721
916.725536	2957.387863
917.030952	2932.466919
917.336328	2885.047305
917.641665	2836.468226
917.946961	2786.727161
918.252218	2752.033940
918.557435	2726.654251
918.862612	2702.655838
919.167750	2689.909281
919.472848	2671.191477
919.777906	2653.471821
920.082925	2641.773823
920.387904	2631.948614
920.692843	2627.880403
920.997743	2621.775566
921.302603	2618.864300
921.607423	2610.821139
921.912204	2604.597834
922.216946	2603.783688
922.521647	2599.261773
922.826310	2595.657348
923.130932	2591.032089
923.435516	2583.576223
923.740059	2581.390882
924.044564	2582.575554
924.349028	2582.605801
924.653454	2572.526013
924.957840	2569.362689
925.262186	2567.436969
925.566493	2570.151630
925.870761	2566.005281
926.174989	2567.010991
926.479178	2566.166598
926.783328	2563.247770
927.087438	2563.474622
927.391509	2563.192317
927.695541	2561.687533
927.999533	2557.430278
928.303486	2556.187634
928.607400	2558.110834
928.911275	2556.447253
929.215110	2554.771070
929.518906	2556.290977
929.822663	2558.171328
930.126381	2555.801986
930.430060	2558.481359
930.733699	2553.679660
931.037299	2557.420196
931.340861	2557.415155
931.644383	2557.886503
931.947866	2556.550597
932.251309	2556.323745
932.554714	2554.670247
932.858080	2555.837274
933.161407	2555.983467
933.464694	2553.052036
933.767943	2555.141594
934.071153	2555.486913
934.374323	2552.091696
934.677455	2553.838456
934.980548	2553.941800
935.283602	2552.898281
935.586617	2552.189999
935.889593	2552.008517
936.192530	2552.391645
936.495428	2554.211502
936.798287	2552.868034
937.101108	2553.967006
937.403890	2558.007490
937.706632	2562.705846
938.009336	2562.975548
938.312002	2568.394788
938.614628	2572.004254
938.917216	2573.803946
939.219765	2576.548854
939.522275	2574.434090
939.824747	2576.218659
940.127179	2570.685992
940.429573	2567.631053
940.731929	2565.622153
941.034246	2563.091494
941.336524	2567.764644
941.638763	2563.983778
941.940964	2568.528378
942.243126	2561.788356
942.545250	2563.479663
942.847335	2560.359189
943.149381	2557.856256
943.451389	2559.764332
943.753359	2559.345917
944.055290	2558.894733
944.357182	2558.216698
944.659036	2555.991029
944.960851	2556.285936
945.262628	2557.052192
945.564367	2557.982285
945.866067	2556.986657
946.167729	2557.362223
946.469352	2557.352140
946.770937	2557.553787
947.072484	2553.331820
947.373992	2554.866852
947.675462	2554.667726
947.976893	2554.864331
948.278286	2553.349464
948.579641	2553.311656
948.880958	2552.948693
949.182236	2552.900802
949.483476	2552.968857
949.784678	2553.233518
950.085841	2553.863662
950.386967	2552.547921
950.688054	2550.975081
950.989103	2552.003476
951.290114	2555.751574
951.591087	2559.779456
951.892021	2556.429609
952.192917	2557.644527
952.493776	2559.207285
952.794596	2560.575958
953.095378	2561.248952
953.396122	2561.110321
953.696828	2561.201061
953.997496	2555.859959
954.298126	2553.296532
954.598718	2555.002963
954.899272	2551.070863
955.199788	2554.024979
955.500266	2549.987015
955.800706	2546.886705
956.101108	2543.282280
956.401472	2546.788402
956.701798	2544.376210
957.002087	2544.711447
957.302337	2542.334543
957.602550	2546.417878
957.902724	2542.064841
958.202861	2543.592311
958.502960	2542.752959
958.803022	2545.029040
959.103045	2543.647764
959.403031	2539.917310
959.702979	2542.425284
960.002889	2539.398071
960.302762	2542.974770
960.602596	2538.871270
960.902393	2539.471168
961.202153	2539.498894
961.501875	2542.006868
961.801559	2540.169368
962.101205	2536.305323
962.400814	2540.383617
962.700385	2539.340098
962.999918	2542.427804
963.299414	2536.723739
963.598873	2539.665252
963.898293	2540.305479
964.197677	2538.543595
964.497022	2540.953267
964.796331	2538.979655
965.095601	2538.145344
965.394835	2537.313554
965.694030	2539.582073
965.993189	2537.986548
966.292309	2535.869263
966.591393	2539.410674
966.890439	2539.211548
967.189447	2537.076620
967.488419	2536.504449
967.787353	2538.556198
968.086249	2536.002854
968.385108	2537.139634
968.683930	2538.485622
968.982714	2538.518390
969.281462	2539.645087
969.580172	2537.658873
969.878844	2538.392361
970.177480	2536.943029
970.476078	2535.876825
970.774639	2539.209028
971.073162	2538.631816
971.371649	2534.208203
971.670098	2535.034952
971.968510	2537.530323
972.266885	2531.433048
972.565223	2539.962680
972.863524	2539.272042
973.161788	2539.309851
973.460014	2540.045859
973.758204	2538.228523
974.056356	2537.119469
974.354471	2537.414377
974.652550	2541.054090
974.950591	2538.452855
975.248595	2536.264994
975.546563	2538.795653
975.844493	2533.073943
976.142386	2537.313554
976.440243	2536.365817
976.738062	2539.380427
977.035845	2535.662576
977.333590	2536.799356
977.631299	2539.304810
977.928971	2536.834644
978.226606	2538.200797
978.524204	2538.924203
978.821765	2538.384799
979.119290	2535.798687
979.416777	2535.087884
979.714228	2537.013605
980.011642	2538.021836
980.309020	2540.242464
980.606360	2536.146527
980.903664	2536.804397
981.200931	2537.921013
981.498162	2536.917823
981.795356	2539.077958
982.092513	2543.110881
982.389633	2545.984338
982.686717	2550.405430
982.983764	2550.647406
983.280775	2555.204609
983.577749	2551.506923
983.874686	2551.020451
984.171587	2546.090203
984.468451	2542.195911
984.765279	2541.875798
985.062070	2541.253216
985.358824	2542.342105
985.655543	2540.461754
985.952224	2536.733821
986.248869	2539.113246
986.545478	2531.148223
986.842050	2534.971938
987.138586	2533.129396
987.435086	2530.843233
987.731549	2529.966072
988.027975	2534.808100
988.324366	2534.460261
988.620719	2532.395908
988.917037	2535.108049
989.213318	2535.917154
989.509563	2532.383305
989.805772	2535.095446
990.101944	2532.002698
990.398080	2533.159643
990.694180	2532.826927
990.990244	2536.254912
991.286271	2534.535878
991.582262	2534.740045
991.878217	2533.441948
992.174136	2532.738707
992.470019	2535.047555
992.765865	2534.901362
993.061676	2532.960517
993.357450	2533.363810
993.653188	2534.868594
993.948890	2532.436237
994.244556	2532.993285
994.540186	2537.011085
994.835780	2536.615354
995.131337	2535.770961
995.426859	2537.321116
995.722345	2534.082174
996.017795	2539.927392
996.313208	2540.456713
996.608586	2537.825231
996.903928	2537.616023
997.199234	2538.447813
997.494504	2539.256919
997.789738	2538.357073
998.084936	2536.650642
998.380099	2533.668800
998.675225	2535.758358
998.970316	2534.026722
999.265371	2534.135106
999.560390	2535.372710
999.855373	2536.017977
1000.150320	2535.592000
1000.445232	2534.767771
1000.740108	2536.257432
1001.034948	2533.855322
1001.329752	2534.540919
1001.624521	2534.248532
1001.919254	2527.269055
1002.213951	2532.194262
1002.508613	2530.439941
1002.803239	2529.560259
1003.097829	2530.485311
1003.392384	2531.584282
1003.686903	2530.999509
1003.981386	2535.095446
1004.275834	2532.307688
1004.570246	2532.814324
1004.864623	2532.037986
1005.158964	2534.548481
1005.453270	2529.794673
1005.747540	2533.273069
1006.041775	2533.767102
1006.335974	2532.892462
1006.630138	2530.407173
1006.924266	2531.909437
1007.218359	2531.332225
1007.512416	2531.891793
1007.806438	2533.194931
1008.100425	2532.572349
1008.394376	2531.649817
1008.688292	2532.305168
1008.982172	2530.036648
1009.276017	2529.063706
1009.569827	2529.187214
1009.863602	2534.132586
1010.157341	2531.745599
1010.451045	2533.303316
1010.744714	2533.167205
1011.038347	2529.061185
1011.331945	2529.925743
1011.625508	2532.663089
1011.919036	2531.838861
1012.212528	2532.312729
1012.505986	2531.042358
1012.799408	2531.024714
1013.092795	2530.727286
1013.386147	2531.115455
1013.679464	2531.468336
1013.972745	2532.269879
1014.265992	2531.279293
1014.559204	2533.038655
1014.852380	2533.230219
1015.145521	2531.065044
1015.438628	2533.517565
1015.731699	2531.667462
1016.024736	2531.191073
1016.317737	2531.191072
1016.610703	2531.667462
1016.903635	2527.561442
1017.196531	2527.929446
1017.489393	2527.712676
1017.782219	2529.076308
1018.075011	2528.925074
1018.367768	2532.983203
1018.660490	2531.664941
1018.953177	2531.664941
1019.245829	2531.664941
