Dividing Wavelength (nm)	Counts (n)	Blue Motor Position (mm): 18.400000	Red Motor Position (mm): 0.000000	
326.493990	2058.928218
326.888308	2058.928218
327.282561	2058.928218
327.676750	2034.314785
328.070874	2037.503315
328.464933	2043.623275
328.858929	2050.675850
329.252859	2062.401573
329.646726	2075.579150
330.040528	2093.240832
330.434265	2109.765734
330.827938	2131.339352
331.221547	2151.319966
331.615091	2171.219920
332.008571	2192.642304
332.401986	2211.382793
332.795338	2234.103273
333.188625	2251.795203
333.581847	2270.424787
333.975006	2287.272323
334.368100	2305.942236
334.761129	2321.998311
335.154095	2337.976248
335.546996	2384.294370
335.939833	2473.265694
336.332606	2484.131901
336.725315	2494.980464
337.117960	2506.607886
337.510540	2515.477796
337.903056	2522.653878
338.295508	2531.526309
338.687896	2536.978317
339.080220	2540.970911
339.472480	2548.086500
339.864676	2548.575492
340.256807	2555.212171
340.648875	2555.847356
341.040879	2555.585216
341.432818	2558.299877
341.824694	2560.780125
342.216506	2557.422717
342.608253	2558.335165
342.999937	2555.733930
343.391557	2554.869372
343.783113	2554.347613
344.174605	2553.563713
344.566033	2552.878116
344.957397	2546.465769
345.348697	2547.857127
345.739934	2547.980635
346.131106	2546.075079
346.522215	2542.437887
346.913260	2542.228679
347.304241	2543.877136
347.695159	2539.025026
348.086012	2540.358411
348.476802	2533.862884
348.867528	2532.272400
349.258191	2530.616381
349.648789	2529.366175
350.039324	2524.708149
350.429796	2528.675537
350.820203	2528.035310
351.210548	2529.247708
351.600828	2525.204702
351.991045	2526.412059
352.381198	2525.502130
352.771288	2524.042716
353.161314	2524.564476
353.551276	2523.760412
353.941175	2523.783097
354.331010	2525.091276
354.720782	2531.100332
355.110490	2527.846267
355.500135	2528.713345
355.889717	2525.476925
356.279235	2526.157480
356.668689	2524.907274
357.058080	2528.045393
357.447408	2526.860721
357.836672	2528.272244
358.225873	2528.975485
358.615010	2526.507841
359.004084	2527.321987
359.393095	2531.032276
359.782043	2525.847449
360.170927	2530.596216
360.559748	2532.085877
360.948505	2533.386495
361.337199	2532.043028
361.725830	2532.325332
362.114398	2535.208872
362.502903	2532.340456
362.891344	2535.884387
363.279722	2532.116124
363.668037	2535.972607
364.056289	2535.823893
364.444478	2533.988913
364.832603	2537.686599
365.220665	2536.809438
365.608665	2538.435211
365.996601	2537.794984
366.384474	2536.514531
366.772284	2536.227185
367.160031	2539.279604
367.547715	2538.979655
367.935336	2538.962011
368.322893	2537.757175
368.710388	2534.866074
369.097820	2538.019315
369.485189	2535.405477
369.872495	2542.163144
370.259738	2540.028215
370.646918	2540.108874
371.034035	2540.761703
371.421090	2538.654501
371.808081	2542.543751
372.195010	2541.056611
372.581875	2541.991745
372.968678	2542.115253
373.355418	2540.731456
373.742096	2541.091899
374.128710	2543.060469
374.515262	2544.938299
374.901751	2543.738504
375.288177	2543.342774
375.674540	2543.436035
376.060841	2540.565098
376.447079	2544.353525
376.833254	2544.421581
377.219367	2544.991231
377.605417	2542.389996
377.991404	2545.961653
378.377329	2543.602393
378.763191	2543.511653
379.148991	2548.449463
379.534727	2543.347815
379.920402	2545.160110
380.306013	2545.323947
380.691563	2549.777807
381.077049	2548.600697
381.462474	2544.880326
381.847835	2546.541386
382.233134	2545.623896
382.618371	2546.193546
383.003545	2545.689431
383.388657	2548.081458
383.773706	2545.858310
384.158693	2550.798640
384.543618	2551.653116
384.928480	2551.123795
385.313280	2543.950233
385.698017	2549.336706
386.082692	2548.835111
386.467305	2550.564227
386.851856	2551.360729
387.236344	2549.409802
387.620770	2545.906201
388.005133	2544.015768
388.389435	2554.841646
388.773674	2546.241437
389.157851	2549.419885
389.541965	2551.506922
389.926018	2551.539690
390.310008	2554.125802
390.693936	2552.530277
391.077802	2552.484906
391.461606	2550.591953
391.845348	2553.064639
392.229027	2554.380380
392.612645	2552.353836
392.996200	2555.872562
393.379694	2552.701676
393.763125	2555.222253
394.146494	2555.418858
394.529801	2554.589588
394.913047	2553.465411
395.296230	2553.931717
395.679351	2555.834753
396.062410	2556.550597
396.445408	2556.389280
396.828343	2558.604867
397.211217	2556.255689
397.594028	2557.039589
397.976778	2555.166800
398.359466	2555.431461
398.742092	2555.751574
399.124656	2554.982798
399.507158	2556.084290
399.889598	2558.602347
400.271977	2559.141750
400.654294	2554.967675
401.036549	2557.137891
401.418742	2558.562017
401.800874	2559.277861
402.182944	2556.348951
402.564952	2556.787531
402.946898	2558.136040
403.328783	2561.140568
403.710606	2559.020762
404.092367	2558.914898
404.474067	2558.355330
404.855705	2557.788200
405.237282	2559.986143
405.618797	2564.341700
406.000250	2562.857080
406.381642	2562.736093
406.762972	2559.618139
407.144240	2558.463715
407.525447	2558.226781
407.906593	2555.958261
408.287677	2563.721638
408.668700	2560.659137
409.049661	2560.449929
409.430560	2561.715259
409.811399	2563.648542
410.192176	2563.482183
410.572891	2562.451268
410.953545	2564.596278
411.334138	2561.417831
411.714669	2561.906823
412.095139	2564.399673
412.475547	2564.019066
412.855894	2564.624005
413.236180	2563.167111
413.616405	2564.180383
413.996568	2564.371947
414.376670	2565.687688
414.756711	2566.217009
415.136691	2562.549570
415.516609	2565.924622
415.896466	2564.971844
416.276262	2564.813048
416.655997	2562.579817
417.035670	2566.302709
417.415283	2565.564180
417.794834	2565.488563
418.174324	2567.167267
418.553753	2565.536454
418.933121	2564.888665
419.312428	2567.807493
419.691674	2566.111145
420.070859	2566.890003
420.449983	2568.145251
420.829045	2564.031669
421.208047	2564.187945
421.586988	2566.726166
421.965867	2568.936712
422.344686	2567.283213
422.723444	2565.730538
423.102141	2567.298337
423.480777	2566.958059
423.859352	2568.926630
424.237866	2565.281875
424.616319	2567.162226
424.994712	2567.744479
425.373044	2566.501835
425.751314	2566.416135
426.129524	2561.304405
426.507673	2563.751885
426.885762	2560.313818
427.263789	2566.587534
427.641756	2569.178687
428.019662	2568.407391
428.397508	2569.254305
428.775292	2567.545353
429.153016	2566.615261
429.530679	2569.798749
429.908282	2567.220199
430.285824	2566.642987
430.663305	2563.910682
431.040726	2567.789849
431.418086	2569.203893
431.795385	2569.458471
432.172624	2565.649880
432.549802	2569.975190
432.926920	2565.420507
433.303977	2566.711043
433.680974	2566.426217
434.057910	2570.045766
434.434786	2568.142730
434.811601	2566.126269
435.188355	2567.084088
435.565050	2570.136507
435.941683	2568.929150
436.318257	2569.478636
436.694770	2571.018708
437.071222	2567.116855
437.447614	2570.164233
437.823946	2569.773543
438.200218	2567.442010
438.576429	2570.678431
438.952580	2567.343707
439.328670	2569.672720
439.704700	2566.199365
440.080670	2570.063410
440.456580	2569.019891
440.832429	2569.440827
441.208218	2567.862946
441.583947	2572.079871
441.959616	2568.397308
442.335224	2569.448389
442.710773	2572.284038
443.086261	2570.759089
443.461689	2568.450241
443.837057	2571.958884
444.212365	2568.805642
444.587612	2568.024263
444.962800	2567.787329
445.337927	2568.324212
445.712995	2566.859757
446.088002	2569.329922
446.462949	2571.268246
446.837837	2570.691033
447.212664	2573.231775
447.587431	2572.160530
447.962139	2569.584500
448.336786	2574.867629
448.711374	2573.486353
449.085901	2571.285890
449.460369	2572.185736
449.834776	2570.403688
450.209124	2570.953173
450.583412	2573.839234
450.957640	2573.375448
451.331808	2574.620613
451.705917	2569.934860
452.079965	2572.659604
452.453954	2575.044070
452.827883	2572.130283
453.201752	2571.076682
453.575562	2574.792012
453.949311	2574.965932
454.323001	2571.840417
454.696632	2572.273956
455.070202	2573.040211
455.443713	2573.065417
455.817164	2573.146075
456.190556	2572.427711
456.563888	2575.235634
456.937160	2573.725808
457.310373	2576.727815
457.683526	2574.113977
458.056619	2571.999213
458.429653	2574.229923
458.802628	2575.696899
459.175542	2578.527507
459.548398	2576.168247
459.921194	2575.286045
460.293930	2577.894842
460.666607	2578.197312
461.039224	2575.749831
461.411782	2577.945254
461.784280	2579.790316
462.156719	2578.814853
462.529099	2578.356108
462.901419	2579.001376
463.273680	2577.415933
463.645882	2570.136507
464.018024	2577.511715
464.390106	2575.754872
464.762130	2578.346026
465.134094	2581.297621
465.505999	2582.729309
465.877845	2585.585122
466.249631	2585.136460
466.621358	2586.336254
466.993026	2587.619228
467.364634	2586.006059
467.736184	2585.035637
468.107674	2585.529670
468.479105	2581.209401
468.850477	2584.944896
469.221790	2585.375915
469.593043	2583.031778
469.964238	2582.905749
470.335373	2581.610173
470.706449	2583.407344
471.077467	2586.558065
471.448425	2591.095104
471.819324	2590.001173
472.190164	2590.817840
472.560945	2587.525967
472.931667	2587.783066
473.302330	2589.756677
473.672934	2587.616707
474.043479	2590.285998
474.413965	2587.929259
474.784393	2588.821543
475.154761	2591.634507
475.525070	2588.952613
475.895321	2593.603078
476.265513	2591.780701
476.635645	2594.714652
477.005719	2593.819847
477.375734	2595.511154
477.745691	2595.037286
478.115588	2597.517534
478.485427	2600.121290
478.855207	2605.109511
479.224928	2605.094388
479.594591	2604.907865
479.964194	2606.780654
480.333739	2606.876436
480.703226	2609.805346
481.072653	2611.887343
481.442022	2612.792230
481.811333	2608.227465
482.180584	2607.105808
482.549777	2611.481530
482.918912	2610.012033
483.287988	2616.497478
483.657005	2615.562344
484.025964	2614.914556
484.394864	2619.585185
484.763706	2618.345061
485.132489	2618.839094
485.501213	2619.302880
485.869879	2622.196502
486.238487	2619.164248
486.607036	2621.982253
486.975527	2622.962758
487.343959	2625.795886
487.712333	2625.611884
488.080648	2627.557769
488.448905	2625.561472
488.817104	2630.058182
489.185244	2631.436937
489.553326	2636.248719
489.921350	2640.904224
490.289315	2647.777837
490.657222	2650.487458
491.025070	2651.228507
491.392861	2652.761018
491.760593	2655.621873
492.128267	2650.923517
492.495883	2652.592139
492.863440	2652.186327
493.230939	2650.893271
493.598380	2656.909888
493.965763	2657.736637
494.333088	2656.690597
494.700354	2656.846873
495.067563	2659.984992
495.434713	2661.772081
495.801805	2665.147133
496.168839	2667.700477
496.535815	2672.050993
496.902733	2675.824297
497.269593	2677.465192
497.636395	2681.455266
498.003139	2682.506346
498.369825	2687.839887
498.736453	2693.859025
499.103023	2699.154757
499.469535	2700.916640
499.835989	2707.374358
500.202385	2706.532486
500.568723	2712.445759
500.935003	2721.635782
501.301226	2722.066801
501.667390	2737.833010
502.033497	2747.600245
502.399546	2750.826584
502.765537	2756.641555
503.131470	2766.681013
503.497345	2777.912703
503.863163	2780.728188
504.228923	2795.891979
504.594625	2808.754483
504.960269	2816.033909
505.325856	2832.135354
505.691385	2842.956191
506.056856	2856.466483
506.422270	2874.213865
506.787625	2889.657440
507.152924	2902.431724
507.518164	2920.995773
507.883347	2936.572938
508.248472	2953.246555
508.613540	2978.671614
508.978550	3000.081395
509.343503	3017.652336
509.708398	3043.208466
510.073236	3073.417580
510.438016	3099.775253
510.802738	3118.699745
511.167403	3155.636279
511.532010	3184.733819
511.896561	3224.024572
512.261053	3266.856736
512.625488	3291.999490
512.989866	3321.916218
513.354186	3357.244624
513.718449	3386.609345
514.082655	3447.501443
514.446803	3476.873725
514.810894	3528.651417
515.174927	3573.764702
515.538904	3617.763893
515.902822	3674.807069
516.266684	3716.363821
516.630488	3772.577728
516.994235	3822.212928
517.357925	3892.400913
517.721558	3956.433650
518.085133	4023.105430
518.448651	4085.414091
518.812112	4135.641628
519.175516	4199.707131
519.538863	4275.548770
519.902152	4343.856405
520.265385	4437.684881
520.628560	4506.010160
520.991678	4573.821241
521.354739	4651.079444
521.717743	4737.119337
522.080690	4812.174556
522.443580	4921.343263
522.806413	5003.594729
523.169189	5090.161423
523.531908	5185.139282
523.894569	5252.894911
524.257174	5348.276062
524.619722	5458.964677
524.982213	5554.623092
525.344647	5650.573893
525.707025	5750.666003
526.069345	5879.318770
526.431608	5968.521987
526.793815	6092.884732
527.155964	6156.942674
527.518057	6276.294512
527.880093	6363.740887
528.242072	6515.474577
528.603995	6597.494150
528.965860	6700.447114
529.327669	6832.963925
529.689421	6946.999866
530.051117	7055.591361
530.412755	7198.129986
530.774337	7318.364026
531.135862	7435.225534
531.497331	7573.176709
531.858743	7689.312291
532.220098	7866.602110
532.581396	7959.477808
532.942638	8050.349647
533.303824	8214.817291
533.664953	8343.049122
534.026025	8428.012728
534.387040	8643.388465
534.747999	8793.778687
535.108902	8979.981266
535.469748	9019.818984
535.830537	9192.549080
536.191270	9376.163026
536.551947	9481.051794
536.912567	9664.766563
537.273131	9836.145629
537.633638	9921.089072
537.994089	10110.397002
538.354483	10217.642508
538.714821	10487.341719
539.075103	10706.155522
539.435328	10834.704945
539.795497	10943.735020
540.155609	11136.060081
540.515665	11417.308574
540.875665	11438.352871
541.235609	11661.698672
541.595496	11864.295083
541.955328	12160.871205
542.315102	12210.433309
542.674821	12353.236595
543.034483	12506.117147
543.394090	12693.396012
543.753640	12871.704144
544.113134	13323.121827
544.472571	13288.121096
544.831953	13768.936267
545.191278	13766.279579
545.550548	13861.882542
545.909761	14221.647006
546.268918	14462.528461
546.628019	14771.503300
546.987064	14812.019054
547.346053	14793.487772
547.704986	15256.500109
548.063863	15351.901425
548.422684	15620.486540
548.781449	15700.713983
549.140158	16064.420630
549.498811	16203.349789
549.857408	16205.383895
550.215949	16691.456990
550.574434	16855.717947
550.932864	17045.857667
551.291237	17510.372267
551.649555	17636.053274
552.007817	17933.466227
552.366022	18029.873253
552.724173	18275.959699
553.082267	18660.234254
553.440305	19004.366101
553.798288	18944.051215
554.156215	19319.324790
554.514086	19612.936713
554.871902	19692.750782
555.229661	19989.689867
555.587365	20090.911195
555.945014	20365.812876
556.302606	20593.045406
556.660143	20867.420286
557.017625	21185.895181
557.375050	21282.844131
557.732421	21700.735620
558.089735	21956.294394
558.446994	22116.920679
558.804197	22576.003436
559.161345	22740.448395
559.518437	22664.664729
559.875474	23020.154296
560.232455	23365.082645
560.589381	23626.912614
560.946251	23763.485033
561.303065	24326.034952
561.659825	24406.007817
562.016528	24535.230234
562.373177	24544.513519
562.729770	25112.192812
563.086307	25087.118113
563.442789	25599.863953
563.799216	25758.332624
564.155587	25933.515241
564.511904	26142.415615
564.868164	26397.198051
565.224370	26793.755378
565.580520	26862.904885
565.936615	27209.794243
566.292654	27239.106032
566.648638	27683.110698
567.004567	27867.500982
567.360441	28155.164344
567.716260	28208.396408
568.072023	28673.362192
568.427732	28846.886269
568.783385	28780.146433
569.138982	29260.840617
569.494525	29565.943851
569.850013	29522.605051
570.205445	29810.666664
570.560823	29876.322652
570.916145	30032.550530
571.271412	30388.211496
571.626625	30358.660252
571.981782	30640.599384
572.336884	30563.535265
572.691931	30997.878560
573.046923	30978.129839
573.401860	31057.976675
573.756743	31290.192386
574.111570	31589.740268
574.466342	31729.919633
574.821059	32024.164221
575.175722	31868.334594
575.530330	32152.663233
575.884882	32077.756728
576.239380	32204.650132
576.593823	32455.434933
576.948211	32600.121089
577.302544	32462.618577
577.656823	32641.186329
578.011047	33025.997766
578.365216	33061.338775
578.719330	33036.175856
579.073389	33206.130796
579.427394	33410.116045
579.781344	33524.036040
580.135239	33520.872716
580.489080	33741.803804
580.842866	33515.491284
581.196597	34049.097419
581.550273	34219.465734
581.903895	34316.760003
582.257463	34831.285370
582.610975	34538.275865
582.964434	34955.809432
583.317837	34755.814256
583.671186	34860.198908
584.024481	35210.291919
584.377721	35017.815624
584.730906	35333.175085
585.084037	35585.381492
585.437113	35488.699723
585.790135	35741.085090
586.143103	35539.622938
586.496016	35814.953117
586.848874	36025.685951
587.201679	36186.602102
587.554428	35921.097132
587.907124	36288.627494
588.259765	36221.013018
588.612352	36484.413307
588.964884	36151.382081
589.317362	36547.909160
589.669786	36670.832656
590.022155	36661.708167
590.374470	37170.915117
590.726731	36948.847249
591.078937	36509.780393
591.431090	36910.683194
591.783188	36632.214897
592.135232	36583.056085
592.487222	36928.130627
592.839157	37166.887235
593.191038	36965.525907
593.542866	36921.370440
593.894639	36505.933993
594.246358	36887.095635
594.598022	36977.440674
594.949633	36709.891516
595.301190	36803.586401
595.652692	36850.854780
596.004141	37379.939000
596.355535	36520.807917
596.706876	36625.973948
597.058162	36472.201112
597.409395	37009.774634
597.760573	37299.396485
598.111698	37027.093518
598.462768	37043.401651
598.813785	37144.726323
599.164748	36883.614718
599.515657	37218.518733
599.866511	36850.514502
600.217312	37556.207985
600.568060	36679.306835
600.918753	37512.216356
601.269392	37509.587394
601.619978	37327.644590
601.970510	37589.338448
602.320988	37799.158833
602.671412	38108.156358
603.021783	38056.323214
603.372100	37714.623724
603.722363	37898.358658
604.072572	37998.549070
604.422728	38063.746313
604.772830	37929.321425
605.122878	38128.817527
605.472872	38082.222142
605.822813	38376.698623
606.172701	38214.318017
606.522534	38584.051363
606.872314	38832.237449
607.222041	38744.738142
607.571714	39100.762071
607.921333	38681.325468
608.270899	38933.698232
608.620411	39363.517092
608.969870	39141.585335
609.319276	39233.919108
609.668627	39317.292231
610.017926	39745.598744
610.367171	39901.352754
610.716362	40002.657261
611.065500	39943.159043
611.414585	40204.956245
611.763616	40429.859762
612.112594	40367.793076
612.461518	40531.088652
612.810389	40933.488675
613.159207	40795.653447
613.507971	40804.102420
613.856682	41314.178969
614.205340	41202.708976
614.553945	41881.049158
614.902496	41279.216047
615.250994	41707.141953
615.599439	41809.767242
615.947830	41958.514048
616.296169	42002.793023
616.644454	42077.334044
616.992686	42254.709563
617.340864	42714.107392
617.688990	42301.519197
618.037063	42972.705982
618.385082	42833.736494
618.733048	43187.834702
619.080961	43102.147689
619.428821	43147.891119
619.776628	43176.149307
620.124382	43029.242522
620.472083	43157.340762
620.819731	43304.572701
621.167326	42899.200918
621.514868	42933.594190
621.862357	42439.873664
622.209793	42531.126111
622.557176	42151.091166
622.904506	41927.619337
623.251783	41603.377363
623.599007	41320.520741
623.946179	41275.225974
624.293297	41052.553167
624.640363	40535.512264
624.987376	40388.209749
625.334336	40228.241334
625.681243	39826.199233
626.028097	39774.741655
626.374899	39608.572621
626.721647	39592.224159
627.068343	39410.848485
627.414987	39132.894385
627.761577	38894.977130
628.108115	39254.444166
628.454600	38519.693473
628.801032	38760.660627
629.147412	38664.979527
629.493739	38602.196997
629.840014	38177.323509
630.186236	38604.662121
630.532405	38066.536592
630.878521	38309.684045
631.224585	38102.986655
631.570597	37780.930021
631.916556	37937.523383
632.262462	37831.444903
632.608316	37785.600650
632.954117	37665.981631
633.299866	37626.489231
633.645562	37547.864875
633.991206	37029.407408
634.336797	36650.337845
634.682336	36555.087763
635.027823	36353.731476
635.373257	36225.237505
635.718639	35895.241054
636.063968	35808.596222
636.409245	35156.200338
636.754470	35130.946678
637.099642	34921.146458
637.444762	34369.780338
637.789829	34514.572359
638.134845	34156.390817
638.479808	34074.746810
638.824719	34023.861403
639.169577	33517.956408
639.514383	33630.865652
639.859137	33251.032353
640.203839	33427.056843
640.548489	33131.844353
640.893086	33137.266114
641.237632	32865.202603
641.582125	32968.921823
641.926566	32758.630090
642.270955	32807.735969
642.615292	32748.636002
642.959576	32635.099135
643.303809	32650.293173
643.647990	32743.005033
643.992118	32689.200798
644.336195	32550.937072
644.680219	32631.983702
645.024192	32851.157948
645.368112	33366.371433
645.711981	33374.180180
646.055797	34114.909682
646.399562	33932.757670
646.743274	34793.990914
647.086935	35214.095470
647.430544	35177.383267
647.774101	35206.185899
648.117606	35487.815000
648.461059	35638.802599
648.804460	35230.101133
649.147810	34712.828337
649.491108	34374.932398
649.834354	34229.694235
650.177548	33413.632250
650.520690	32926.999587
650.863781	32916.881991
651.206820	32736.925402
651.549807	32336.400688
651.892742	31766.493204
652.235626	31671.613648
652.578458	31536.954346
652.921238	30853.699039
653.263967	31170.575887
653.606644	30871.491792
653.949269	30800.595524
654.291843	30409.681770
654.634365	30764.531110
654.976836	30320.846557
655.319255	30376.082480
655.661622	30271.453332
656.003938	30141.051284
656.346203	29957.550764
656.688416	30208.484279
657.030577	29969.208432
657.372687	29807.319338
657.714746	29965.606528
658.056753	30157.747586
658.398708	29541.075839
658.740612	29608.040006
659.082465	29832.976291
659.424266	29708.696725
659.766016	29712.883403
660.107715	29567.637678
660.449362	29682.729741
660.790958	29659.595886
661.132503	29594.073489
661.473996	29667.593677
661.815438	29751.823796
662.156829	29875.377436
662.498168	29687.811224
662.839456	29671.913946
663.180693	29792.405084
663.521879	29895.345446
663.863013	29857.186432
664.204097	29842.602374
664.545129	30242.073487
664.886110	30202.923886
665.227040	30278.032037
665.567918	30269.880492
665.908746	30359.340808
666.249522	30438.514649
666.590248	30462.457610
666.930922	30573.809136
667.271545	30577.766442
667.612118	30625.581786
667.952639	30436.732602
668.293109	30470.914145
668.633528	30330.646560
668.973896	30298.799071
669.314213	30276.151687
669.654480	30086.788304
669.994695	30080.229763
670.334859	29998.568112
670.674973	29833.861013
671.015035	30030.481137
671.355047	29953.996750
671.695008	29891.211700
672.034918	29795.177719
672.374777	29909.377498
672.714585	29782.542067
673.054342	29903.464224
673.394049	29763.889798
673.733705	29985.950104
674.073310	29707.333093
674.412864	29760.938202
674.752368	29446.680233
675.091820	29685.477170
675.431223	29272.314283
675.770574	29072.969416
676.109875	28928.063969
676.449125	28708.158756
676.788324	28616.006464
677.127473	28130.402196
677.466571	28036.810655
677.805619	27767.192103
678.144616	27712.384678
678.483562	27643.088977
678.822458	27343.941867
679.161303	27273.249767
679.500098	27196.150360
679.838842	27135.412018
680.177535	27213.507053
680.516179	27449.927086
680.854771	27593.889837
681.193314	28365.042702
681.531805	29404.853780
681.870247	30148.653344
682.208638	30867.607582
682.546978	31141.110343
682.885268	31278.428853
683.223508	30826.862457
683.561697	30546.332327
683.899836	30382.283099
684.237925	29978.862242
684.575963	29836.931076
684.913951	29474.323400
685.251889	29646.294802
685.589776	29667.013944
685.927614	29671.513174
686.265401	29874.270902
686.603137	29993.902524
686.940824	30497.075213
687.278460	30824.646869
687.616046	30997.702119
687.953582	31667.847906
688.291068	31562.039128
688.628504	31898.505900
688.965889	31889.787224
689.303224	31619.077263
689.640510	31320.250266
689.977745	30701.446111
690.314930	29943.937128
690.652065	29504.585447
690.989150	28853.222999
691.326185	27995.962185
691.663170	27375.126445
692.000105	26619.051670
692.336990	26026.612750
692.673825	25597.983603
693.010610	25113.914367
693.347345	24625.643328
693.684030	23994.505990
694.020665	23794.074755
694.357251	23119.061734
694.693786	23122.560295
695.030272	22898.952354
695.366707	22399.394173
695.703093	22117.787757
696.039429	22195.832380
696.375716	21952.115277
696.711952	21954.056121
697.048139	21815.895738
697.384276	21658.722644
697.720363	21783.768465
698.056400	21667.622801
698.392388	21506.515086
698.728326	21507.243532
699.064214	21339.063078
699.400053	21342.619613
699.735842	20954.657454
700.071581	20760.716703
700.407270	20514.345433
700.742910	20351.695124
701.078501	20083.188147
701.414042	19886.958713
701.749533	19574.918852
702.084974	19267.625237
702.420366	19497.771554
702.755709	19086.098328
703.091002	18776.720196
703.426246	18850.931022
703.761440	18783.714797
704.096584	18552.716525
704.431679	18482.538622
704.766725	18441.591850
705.101721	18372.971664
705.436668	18492.094129
705.771565	18213.381336
706.106413	18543.241676
706.441212	18606.805585
706.775961	18706.509526
707.110661	18787.967010
707.445311	19160.977107
707.779913	19038.156955
708.114465	19337.039405
708.448967	19658.596964
708.783421	20287.241452
709.117825	20646.837038
709.452180	20893.707383
709.786485	21335.453612
710.120742	22112.219803
710.454949	22224.957647
710.789107	22721.624727
711.123216	23437.604684
711.457275	23650.981603
711.791286	24203.849986
712.125247	24345.405586
712.459159	24083.313477
712.793023	24823.601878
713.126837	23801.644047
713.460602	24051.072778
713.794318	23714.545512
714.127985	23445.597433
714.461602	22538.613198
714.795171	22514.607223
715.128691	21544.842978
715.462162	21014.700117
715.795584	20587.192626
716.128957	20310.685338
716.462281	19934.990827
716.795556	19661.767850
717.128782	19191.269400
717.461960	18579.525381
717.795088	18537.071304
718.128167	18193.176391
718.461198	17742.315756
718.794180	17625.580277
719.127113	17278.383408
719.459997	17090.242506
719.792833	16734.868886
720.125619	16770.988753
720.458357	16428.835559
720.791046	16295.607946
721.123686	16133.534849
721.456278	15918.975780
721.788821	15908.885911
722.121315	15649.468134
722.453761	15750.220634
722.786158	15636.159487
723.118506	15723.983949
723.450805	15603.391987
723.783056	15787.789833
724.115259	15677.096177
724.447412	15666.724003
724.779518	15885.794905
725.111574	15939.876404
725.443582	16208.494287
725.775542	16176.180490
726.107453	16696.866148
726.439315	16607.587313
726.771129	17026.839914
727.102895	17442.941793
727.434612	17727.209938
727.766281	17890.997027
728.097901	18215.508703
728.429473	18286.412532
728.760996	18301.125139
729.092471	18428.452082
729.423897	18307.061098
729.755276	18183.041151
730.086606	18303.219738
730.417887	18891.151867
730.749120	19443.775755
731.080305	19667.575259
731.411442	20072.211035
731.742530	20190.128664
732.073570	20348.733447
732.404562	20664.360089
732.735506	20504.628609
733.066401	20288.572317
733.397249	19786.075142
733.728048	19167.177726
734.058798	18290.727759
734.389501	17536.873613
734.720156	17020.354469
735.050762	16446.802232
735.381320	16070.512865
735.711831	15791.729495
736.042293	15424.892292
736.372707	15460.986953
736.703073	15244.156844
737.033391	15454.060408
737.363661	15446.382730
737.693883	15577.601444
738.024056	15782.756241
738.354182	16002.863101
738.684260	16365.921959
739.014290	16631.003473
739.344272	16870.828805
739.674207	17213.039972
740.004093	17382.606744
740.333931	17435.702697
740.663722	17524.255605
740.993464	17559.047128
741.323159	17400.883447
741.652806	17098.298270
741.982405	16941.495700
742.311956	16583.629229
742.641460	16461.212370
742.970915	16138.659182
743.300323	15794.406348
743.629683	15569.265897
743.958996	15248.948461
744.288260	14936.903558
744.617477	14631.026507
744.946647	14595.801445
745.275768	14278.112971
745.604842	14073.477413
745.933869	13901.329570
746.262847	13875.092885
746.591778	13792.279330
746.920662	13673.169468
747.249498	13684.597764
747.578286	13844.009131
747.907027	14017.583619
748.235720	14288.444815
748.564365	14360.971896
748.892963	14275.615079
749.221514	14383.621800
749.550017	14237.753493
749.878473	14212.545203
750.206881	13982.414009
750.535242	13913.307352
750.863555	13835.910517
751.191821	13727.286254
751.520039	13749.099327
751.848210	13684.247403
752.176334	13728.302047
752.504411	13650.191889
752.832440	13477.340806
753.160421	13581.692690
753.488356	13477.353408
753.816243	13382.824212
754.144082	13223.266652
754.471875	13167.882015
754.799620	13138.842448
755.127318	13111.973098
755.454969	13102.636881
755.782572	13068.835945
756.110129	13086.890837
756.437638	12990.287206
756.765100	12990.561949
757.092515	13029.078885
757.419882	13069.924834
757.747203	13079.901278
758.074477	13168.623065
758.401703	13147.253613
758.728882	13350.071836
759.056014	13385.271692
759.383099	13552.953072
759.710138	13682.830839
760.037129	13808.227021
760.364073	13866.044014
760.690970	13887.363054
761.017820	13911.190067
761.344623	14142.493329
761.671379	14521.194888
761.998088	15231.407766
762.324751	17025.473761
762.651366	20478.344033
762.977935	24960.638084
763.304456	27913.753569
763.630931	28940.883624
763.957359	27725.731133
764.283740	25442.900067
764.610074	23160.973887
764.936362	20530.315808
765.262602	18648.851328
765.588796	16713.322994
765.914943	15427.367498
766.241044	14330.810672
766.567097	13534.729301
766.893104	12810.159218
767.219064	12347.492200
767.544978	11868.328006
767.870845	11482.707463
768.196665	11262.903073
768.522438	11029.976560
768.848165	10821.353449
769.173846	10623.611669
769.499479	10485.131173
769.825066	10317.787550
770.150607	10088.634340
770.476101	10009.163071
770.801548	9881.821004
771.126949	9725.963650
771.452303	9614.959963
771.777611	9408.305423
772.102872	9404.312829
772.428087	9264.829143
772.753256	9104.807797
773.078378	9020.791927
773.403453	8832.787135
773.728482	8716.447387
774.053465	8651.711410
774.378401	8538.446765
774.703291	8419.606604
775.028135	8297.023387
775.352932	8266.534488
775.677683	8160.153539
776.002388	8050.657157
776.327046	8068.475116
776.651658	7968.135989
776.976224	7863.811831
777.300743	7861.225719
777.625216	7779.153214
777.949643	7729.094556
778.274024	7744.790189
778.598359	7662.100142
778.922647	7678.378028
779.246889	7625.632435
779.571086	7635.540823
779.895236	7642.580795
780.219339	7653.348699
780.543397	7658.258783
780.867409	7734.002120
781.191374	7744.046619
781.515294	7711.057308
781.839167	7803.496946
782.162995	7777.993749
782.486776	7721.991571
782.810511	7673.064652
783.134201	7584.794048
783.457844	7585.719100
783.781441	7524.658124
784.104993	7459.380223
784.428498	7438.502284
784.751958	7424.792866
785.075372	7394.573669
785.398739	7338.145514
785.722061	7387.758029
786.045337	7390.298771
786.368568	7543.285187
786.691752	7569.264774
787.014891	7913.956188
787.337983	8279.565871
787.661030	8879.011996
787.984031	9509.773768
788.306987	9908.047607
788.629897	10111.644687
788.952760	10055.829032
789.275579	9836.904323
789.598351	9435.845247
789.921078	9077.578004
790.243759	8665.035179
790.566395	8374.899132
790.888984	8116.938248
791.211529	7914.036847
791.534027	7688.450253
791.856480	7484.737227
792.178888	7412.651247
792.501249	7315.987122
792.823566	7152.804972
793.145836	7161.886611
793.468062	7132.799153
793.790241	7085.165290
794.112375	7157.185735
794.434464	7308.997562
794.756507	7349.478028
795.078505	7513.139087
795.400457	7823.354051
795.722364	8178.712547
796.044226	8468.092422
796.366042	8739.256087
796.687812	8694.959469
797.009538	8769.082074
797.331218	8656.293819
797.652852	8571.347856
797.974442	8418.038806
798.295986	8328.820465
798.617484	8136.523131
798.938938	7994.579362
799.260346	7893.955411
799.581709	7690.101231
799.903026	7610.309848
800.224299	7504.576688
800.545526	7332.098650
800.866708	7235.268167
801.187845	7164.949112
801.508936	7065.035963
801.829983	7027.711260
802.150984	6866.079265
802.471940	6828.426887
802.792851	6814.188148
803.113717	6779.699094
803.434538	6747.372695
803.755314	6691.468819
804.076045	6688.640732
804.396731	6639.431508
804.717372	6671.052146
805.037967	6671.682290
805.358518	6712.603857
805.679024	6798.036291
805.999485	6807.072559
806.319901	6851.527974
806.640272	6869.477003
806.960598	6951.294929
807.280879	6951.151257
807.601115	7032.878443
807.921306	6978.943138
808.241453	6989.852195
808.561554	7017.485279
808.881611	6973.294525
809.201623	6984.362378
809.521590	6930.979079
809.841513	6908.160297
810.161390	6954.095290
810.481223	6818.289126
810.801011	6804.758669
811.120755	6776.187930
811.440453	6695.050559
811.760107	6666.502505
812.079716	6640.167517
812.399281	6572.505150
812.718801	6557.394291
813.038276	6515.580441
813.357707	6454.375792
813.677093	6500.706516
813.996434	6402.678759
814.315731	6447.282888
814.634983	6436.139418
814.954191	6451.872859
815.273354	6558.268932
815.592473	6620.418797
815.911547	6745.273054
816.230577	6828.419325
816.549562	6977.904660
816.868502	7078.004331
817.187399	7173.042684
817.506250	7335.438414
817.825058	7358.443720
818.143821	7629.453630
818.462539	7903.946978
818.781213	8276.725181
819.099843	8833.013987
819.418429	9832.034568
819.736970	10807.777622
820.055466	11996.191832
820.373919	13534.807439
820.692327	15904.361475
821.010691	20073.304965
821.329011	29064.011286
821.647286	42018.234077
821.965517	55370.387909
822.283704	60715.747664
822.601847	62688.527604
822.919945	59983.540232
823.237999	55792.012373
823.556010	49647.589405
823.873976	42944.389821
824.191897	36422.996930
824.509775	31595.688830
824.827609	27094.760153
825.145398	24529.886611
825.463144	23172.452594
825.780845	23494.559640
826.098502	25289.502796
826.416116	29078.663399
826.733685	32723.767990
827.051210	33877.617530
827.368692	32076.771182
827.686129	28107.056613
828.003522	23973.887671
828.320872	20268.876528
828.638177	17421.552178
828.955439	15270.201965
829.272656	13452.137557
829.589830	11969.020013
829.906960	10697.361229
830.224046	9756.790306
830.541088	9005.862550
830.858086	8558.003922
831.175041	8177.669028
831.491952	8065.944456
831.808819	8104.597503
832.125642	8514.080348
832.442421	9409.472450
832.759157	11221.376568
833.075849	14154.929856
833.392497	17380.527268
833.709101	19555.175173
834.025662	19370.956288
834.342179	17670.128953
834.658653	15470.023221
834.975083	13537.464127
835.291469	11916.365161
835.607811	10596.603687
835.924110	9685.556282
836.240366	8816.080752
836.556578	8015.515274
836.872746	7370.575257
837.188871	6869.827363
837.504952	6447.945800
837.820990	6140.057329
838.136984	5918.339821
838.452935	5823.031767
838.768842	5856.061407
839.084706	6287.468229
839.400526	7501.640215
839.716303	9086.987318
840.032037	10182.455255
840.347727	10097.660526
840.663373	9121.574675
840.978977	8074.471568
841.294537	7264.285048
841.610054	6664.599469
841.925527	6228.224589
842.240957	5871.651175
842.556344	5533.992170
842.871687	5246.724538
843.186987	4969.140963
843.502244	4749.192901
843.817458	4581.045214
844.132629	4443.983803
844.447756	4350.750183
844.762840	4275.959624
845.077881	4195.223025
845.392879	4138.537771
845.707833	4088.277467
846.022745	4047.360942
846.337613	4015.011857
846.652438	3971.909992
846.967221	3954.402065
847.281960	3921.758073
847.596656	3901.419538
847.911309	3884.793812
848.225919	3863.217674
848.540485	3842.501052
848.855009	3830.954289
849.169490	3809.514262
849.483928	3797.533960
849.798323	3790.763690
850.112675	3768.633025
850.426984	3776.552678
850.741251	3759.400152
851.055474	3756.264554
851.369654	3764.653034
851.683792	3761.310749
851.997887	3764.708487
852.311938	3765.817540
852.625947	3770.006739
852.939914	3758.764966
853.253837	3766.893827
853.567718	3771.067902
853.881555	3756.647682
854.195350	3772.318108
854.509103	3770.445320
854.822812	3762.883589
855.136479	3757.890326
855.450103	3769.837861
855.763685	3752.534100
856.077224	3757.681118
856.390720	3773.207872
856.704173	3797.770894
857.017584	3803.028818
857.330953	3818.371569
857.644278	3840.807224
857.957561	3843.549612
858.270802	3847.895087
858.584000	3847.670755
858.897155	3836.776822
859.210268	3824.098320
859.523339	3802.189465
859.836367	3803.222902
860.149352	3792.427271
860.462295	3785.026857
860.775195	3775.325157
861.088054	3773.969086
861.400869	3768.189403
861.713642	3769.875669
862.026373	3782.317237
862.339062	3785.893936
862.651708	3805.506545
862.964312	3842.067513
863.276873	3852.129656
863.589392	3908.126793
863.901869	3958.583702
864.214303	4000.921832
864.526696	4036.698901
864.839045	4078.358997
865.151353	4106.430662
865.463619	4118.020274
865.775842	4121.594452
866.088023	4139.893841
866.400162	4131.679281
866.712258	4136.654900
867.024313	4136.223881
867.336325	4138.396618
867.648296	4139.664468
867.960224	4143.684789
868.272110	4155.292045
868.583954	4157.081655
868.895755	4173.102442
869.207515	4168.091535
869.519233	4207.372206
869.830909	4219.881829
870.142542	4247.388885
870.454134	4262.429168
870.765684	4289.250627
871.077191	4327.495340
871.388657	4353.588353
871.700081	4389.592273
872.011463	4432.512657
872.322803	4464.140856
872.634101	4498.138398
872.945357	4538.979306
873.256571	4589.151389
873.567744	4620.552737
873.878874	4638.824399
874.189963	4678.863763
874.501010	4687.587480
874.812015	4683.020195
875.122979	4726.840424
875.433900	4727.861258
875.744780	4739.115634
876.055618	4767.333493
876.366415	4763.159417
876.677169	4787.888797
876.987882	4828.230631
877.298554	4884.104260
877.609183	4964.918997
877.919771	5072.593002
878.230317	5220.104725
878.540822	5432.138177
878.851285	5754.819914
879.161707	6215.994750
879.472087	6976.578837
879.782425	8209.566929
880.092722	10384.136697
880.402977	13677.053677
880.713191	17395.383548
881.023363	21072.673386
881.333494	23228.651378
881.643583	24436.106026
881.953631	24437.623413
882.263637	23605.777576
882.573602	22138.355665
882.883526	20595.026579
883.193408	18940.446790
883.503248	17256.156961
883.813048	15722.264916
884.122806	14312.690245
884.432522	12842.359588
884.742197	11594.802560
885.051831	10511.337611
885.361424	9514.547740
885.670975	8708.671407
885.980485	8016.145418
886.289954	7447.505785
886.599382	6972.220759
886.908768	6603.296518
887.218113	6244.895685
887.527417	5958.177539
887.836680	5692.314647
888.145901	5468.943641
888.455082	5308.148477
888.764221	5159.217669
889.073319	5024.177761
889.382376	4952.094302
889.691392	4896.994490
890.000366	4867.143298
890.309300	4850.328529
890.618193	4854.986555
890.927044	4843.180173
891.235855	4861.829922
891.544625	4895.719078
891.853353	4959.940858
892.162041	5076.532664
892.470687	5260.610397
892.779293	5511.107852
893.087858	5883.598709
893.396381	6460.465506
893.704864	7260.662979
894.013306	8410.593021
894.321707	9578.484695
894.630068	10390.115505
894.938387	10590.584549
895.246665	10354.275422
895.554903	9748.774872
895.863100	9058.343482
896.171256	8499.377823
896.479371	7995.519537
896.787446	7499.248188
897.095480	7072.844710
897.403473	6753.598520
897.711425	6438.604542
898.019336	6172.471948
898.327207	5896.713271
898.635038	5672.767573
898.942827	5422.859933
899.250576	5231.590994
899.558284	5042.920771
899.865952	4919.805711
900.173579	4770.413638
900.481165	4660.619828
900.788711	4570.541970
901.096216	4502.556969
901.403681	4437.742854
901.711105	4409.537598
902.018489	4396.594436
902.325832	4465.665805
902.633135	4591.752625
902.940397	4936.565027
903.247619	5727.464092
903.554800	7162.468864
903.861941	9073.666069
904.169041	10570.303987
904.476101	11183.154540
904.783121	10827.528863
905.090100	10094.401420
905.397039	9265.408876
905.703938	8519.118981
906.010796	7831.414856
906.317614	7281.568644
906.624391	6751.670278
906.931129	6326.645556
907.237826	5925.780564
907.544483	5555.485129
907.851099	5181.171894
908.157675	4831.398996
908.464211	4509.564173
908.770707	4274.245632
909.077163	4075.772885
909.383578	3933.665278
909.689954	3819.977177
909.996289	3750.283225
910.302584	3685.940458
910.608839	3653.830828
910.915054	3622.860500
911.221229	3612.079992
911.527363	3622.336220
911.833458	3636.877428
912.139513	3661.551355
912.445527	3691.016900
912.751502	3774.379940
913.057436	3875.674365
913.363331	4012.531610
913.669186	4211.193400
913.975000	4466.220332
914.280775	4890.050301
914.586510	5469.074711
914.892205	6259.300782
915.197859	7292.485263
915.503475	8496.791711
915.809050	9547.302637
916.114585	10187.750987
916.420081	10450.644639
916.725536	10413.635008
917.030952	9965.768818
917.336328	9557.684894
917.641665	9150.836052
917.946961	8683.596708
918.252218	8264.576000
918.557435	7752.989626
918.862612	7323.871487
919.167750	6955.088398
919.472848	6535.598863
919.777906	6161.484753
920.082925	5805.866638
920.387904	5444.131082
920.692843	5178.661400
920.997743	4935.995377
921.302603	4704.911405
921.607423	4545.328639
921.912204	4379.323443
922.216946	4257.914814
922.521647	4143.566322
922.826310	4040.898182
923.130932	3946.353862
923.435516	3847.116228
923.740059	3778.506125
924.044564	3706.089950
924.349028	3640.242398
924.653454	3576.325608
924.957840	3508.615351
925.262186	3463.600367
925.566493	3406.307654
925.870761	3343.840196
926.174989	3308.400884
926.479178	3276.092129
926.783328	3232.528998
927.087438	3205.621840
927.391509	3171.692354
927.695541	3140.911068
927.999533	3115.685135
928.303486	3093.244438
928.607400	3079.920669
928.911275	3067.484142
929.215110	3047.672408
929.518906	3038.719318
929.822663	3039.989689
930.126381	3039.815769
930.430060	3046.379352
930.733699	3047.405226
931.037299	3056.517112
931.340861	3054.198181
931.644383	3062.846281
931.947866	3061.941393
932.251309	3056.507030
932.554714	3056.451577
932.858080	3050.722306
933.161407	3039.566232
933.464694	3033.844522
933.767943	3027.212885
934.071153	3024.407482
934.374323	3011.862571
934.677455	3007.993486
934.980548	2997.891013
935.283602	2994.810868
935.586617	2992.381032
935.889593	3000.157012
936.192530	3005.077178
936.495428	3017.599404
936.798287	3040.140924
937.101108	3072.681572
937.403890	3127.304994
937.706632	3186.407482
938.009336	3264.681478
938.312002	3339.451872
938.614628	3402.486459
938.917216	3453.361784
939.219765	3482.698779
939.522275	3515.804036
939.824747	3521.092206
940.127179	3518.536341
940.429573	3508.665762
940.731929	3507.670134
941.034246	3494.600943
941.336524	3483.686845
941.638763	3467.542550
941.940964	3453.339099
942.243126	3410.330495
942.545250	3388.383831
942.847335	3352.954602
943.149381	3316.209632
943.451389	3281.198818
943.753359	3249.449631
944.055290	3223.565827
944.357182	3204.301057
944.659036	3182.251051
944.960851	3174.510359
945.262628	3161.534429
945.564367	3163.414779
945.866067	3154.927997
946.167729	3154.902791
946.469352	3153.622338
946.770937	3147.646050
947.072484	3132.900675
947.373992	3135.630460
947.675462	3129.276085
947.976893	3113.426698
948.278286	3104.448403
948.579641	3097.925150
948.880958	3090.683532
949.182236	3092.034561
949.483476	3084.419898
949.784678	3084.286308
950.085841	3087.807554
950.386967	3098.383895
950.688054	3113.570371
950.989103	3134.160963
951.290114	3154.698624
951.591087	3182.243489
951.892021	3213.284394
952.192917	3239.397571
952.493776	3266.029986
952.794596	3273.238836
953.095378	3276.293776
953.396122	3273.858898
953.696828	3265.611571
953.997496	3253.873244
954.298126	3231.888772
954.598718	3207.363558
954.899272	3182.891277
955.199788	3156.725168
955.500266	3122.745271
955.800706	3088.964499
956.101108	3051.536452
956.401472	3019.792306
956.701798	2989.724344
957.002087	2947.895370
957.302337	2920.728592
957.602550	2893.642472
957.902724	2865.049048
958.202861	2839.896211
958.502960	2819.313179
958.803022	2798.412556
959.103045	2778.968825
959.403031	2762.511978
959.702979	2748.048908
960.002889	2736.035838
960.302762	2720.367932
960.602596	2711.271170
960.902393	2701.007381
961.202153	2694.161494
961.501875	2684.815195
961.801559	2678.753207
962.101205	2673.906138
962.400814	2669.769871
962.700385	2659.506082
962.999918	2656.544404
963.299414	2648.909577
963.598873	2646.429329
963.898293	2640.011940
964.197677	2642.333391
964.497022	2639.729635
964.796331	2636.772999
965.095601	2635.941208
965.394835	2633.360137
965.694030	2631.517596
965.993189	2628.656741
966.292309	2628.137502
966.591393	2627.739251
966.890439	2625.569034
967.189447	2626.121041
967.488419	2627.749333
967.787353	2629.281844
968.086249	2627.751854
968.385108	2630.723614
968.683930	2633.932308
968.982714	2636.762916
969.281462	2639.875829
969.580172	2645.809267
969.878844	2652.166162
970.177480	2662.772750
970.476078	2668.567556
970.774639	2676.940913
971.073162	2684.353929
971.371649	2688.096986
971.670098	2695.399097
971.968510	2700.533513
972.266885	2700.210879
972.565223	2708.727908
972.863524	2709.625233
973.161788	2714.396686
973.460014	2715.399875
973.758204	2719.153014
974.056356	2720.519167
974.354471	2724.494117
974.652550	2721.731564
974.950591	2720.937583
975.248595	2720.945144
975.546563	2719.367263
975.844493	2715.132694
976.142386	2711.293855
976.440243	2704.359748
976.738062	2701.241795
977.035845	2693.838860
977.333590	2686.866944
977.631299	2681.435101
977.928971	2675.673062
978.226606	2668.880107
978.524204	2666.863646
978.821765	2662.036741
979.119290	2666.810714
979.416777	2664.166629
979.714228	2665.338697
980.011642	2669.328770
980.309020	2677.649195
980.606360	2693.576720
980.903664	2715.472972
981.200931	2753.122829
981.498162	2798.994809
981.795356	2872.782178
982.092513	2960.830971
982.389633	3061.636404
982.686717	3157.902277
982.983764	3231.041858
983.280775	3276.500463
983.577749	3284.294087
983.874686	3271.532406
984.171587	3239.274062
984.468451	3199.133875
984.765279	3155.611073
985.062070	3110.782612
985.358824	3065.213102
985.655543	3011.174454
985.952224	2962.030765
986.248869	2898.905437
986.545478	2839.311437
986.842050	2786.560803
987.138586	2742.385172
987.435086	2704.954604
987.731549	2672.822290
988.027975	2651.437715
988.324366	2631.159674
988.620719	2618.806326
988.917037	2607.836776
989.213318	2601.832761
989.509563	2590.049064
989.805772	2588.425813
990.101944	2586.686615
990.398080	2579.528176
990.694180	2580.801067
990.990244	2581.786613
991.286271	2577.678073
991.582262	2580.841397
991.878217	2584.143352
992.174136	2585.620411
992.470019	2587.147880
992.765865	2592.746082
993.061676	2596.063161
993.357450	2603.919799
993.653188	2610.503546
993.948890	2629.808645
994.244556	2648.229021
994.540186	2669.774912
994.835780	2702.277752
995.131337	2739.478947
995.426859	2779.914042
995.722345	2826.592606
996.017795	2874.912065
996.313208	2914.414547
996.608586	2938.823814
996.903928	2952.341668
997.199234	2951.885443
997.494504	2949.316975
997.789738	2934.511107
998.084936	2912.158630
998.380099	2879.423898
998.675225	2848.022551
998.970316	2820.555824
999.265371	2785.366049
999.560390	2749.478075
999.855373	2718.487582
1000.150320	2694.625280
1000.445232	2668.958245
1000.740108	2648.821356
1001.034948	2627.341000
1001.329752	2613.351798
1001.624521	2603.786208
1001.919254	2589.514702
1002.213951	2581.862230
1002.508613	2576.062383
1002.803239	2570.416291
1003.097829	2558.057902
1003.392384	2558.967830
1003.686903	2553.193188
1003.981386	2553.296532
1004.275834	2546.523742
1004.570246	2546.163299
1004.864623	2541.621220
1005.158964	2541.596014
1005.453270	2537.530323
1005.747540	2537.258101
1006.041775	2534.364479
1006.335974	2531.677544
1006.630138	2532.635363
1006.924266	2534.971938
1007.218359	2527.813499
1007.512416	2527.095135
1007.806438	2527.102697
1008.100425	2526.568334
1008.394376	2525.877696
1008.688292	2528.297450
1008.982172	2527.889117
1009.276017	2529.613191
1009.569827	2525.683612
1009.863602	2528.410876
1010.157341	2525.076153
1010.451045	2524.914836
1010.744714	2522.550535
1011.038347	2524.698066
1011.331945	2521.378467
1011.625508	2519.682118
1011.919036	2518.194978
1012.212528	2521.295287
1012.505986	2518.588188
1012.799408	2518.061387
1013.092795	2514.744308
1013.386147	2517.625328
1013.679464	2515.170286
1013.972745	2517.310255
1014.265992	2516.670029
1014.559204	2517.431243
1014.852380	2517.040554
1015.145521	2515.525687
1015.438628	2515.525687
1015.731699	2516.423012
1016.024736	2516.158352
1016.317737	2520.266892
1016.610703	2522.144722
1016.903635	2522.051461
1017.196531	2523.387366
1017.489393	2523.752850
1017.782219	2524.894671
1018.075011	2528.415917
1018.367768	2527.851308
1018.660490	2528.020187
1018.953177	2528.020187
1019.245829	2528.020187
