Dividing Wavelength (nm)	Counts (n)	Blue Motor Position (mm): 41.300000	Red Motor Position (mm): 0.000000	
326.493990	2130.255504
326.888308	2130.255504
327.282561	2130.255504
327.676750	2096.860381
328.070874	2095.700915
328.464933	2097.800556
328.858929	2105.823552
329.252859	2117.118257
329.646726	2128.891872
330.040528	2139.430404
330.434265	2155.831798
330.827938	2173.090188
331.221547	2191.112313
331.615091	2212.128884
332.008571	2230.491287
332.401986	2248.712537
332.795338	2269.212389
333.188625	2288.648558
333.581847	2310.688483
333.975006	2325.025524
334.368100	2345.840448
334.761129	2359.716224
335.154095	2378.023175
335.546996	2398.991854
335.939833	2426.682912
336.332606	2440.072217
336.725315	2452.970009
337.117960	2461.668520
337.510540	2470.377113
337.903056	2481.838176
338.295508	2486.924701
338.687896	2499.003305
339.080220	2506.055879
339.472480	2511.399503
339.864676	2515.964267
340.256807	2518.754546
340.648875	2523.483148
341.040879	2525.093797
341.432818	2528.720907
341.824694	2528.574714
342.216506	2529.620753
342.608253	2530.616381
342.999937	2527.992460
343.391557	2530.379447
343.783113	2531.047400
344.174605	2528.569673
344.566033	2525.023221
344.957397	2524.768643
345.348697	2518.668846
345.739934	2520.022396
346.131106	2519.046933
346.522215	2518.053826
346.913260	2516.700276
347.304241	2511.883453
347.695159	2512.006962
348.086012	2510.282887
348.476802	2507.467403
348.867528	2505.912207
349.258191	2505.952536
349.648789	2503.956239
350.039324	2500.734942
350.429796	2502.287617
350.820203	2501.264263
351.210548	2500.578666
351.600828	2497.223778
351.991045	2500.500528
352.381198	2496.825527
352.771288	2497.395177
353.161314	2494.723366
353.551276	2496.018942
353.941175	2496.676813
354.331010	2498.995743
354.720782	2495.285454
355.110490	2496.843171
355.500135	2497.559015
355.889717	2498.184118
356.279235	2497.400218
356.668689	2496.384426
357.058080	2498.300064
357.447408	2494.327635
357.836672	2494.655310
358.225873	2495.439209
358.615010	2494.625063
359.004084	2499.943480
359.393095	2504.203255
359.782043	2500.876094
360.170927	2503.041269
360.559748	2501.710405
360.948505	2503.434479
361.337199	2502.680827
361.725830	2502.867350
362.114398	2502.907679
362.502903	2503.157216
362.891344	2505.491270
363.279722	2507.285921
363.668037	2507.016219
364.056289	2507.444717
364.444478	2508.508401
364.832603	2504.523369
365.220665	2509.924965
365.608665	2510.287928
365.996601	2508.989831
366.384474	2508.604183
366.772284	2509.801457
367.160031	2509.738442
367.547715	2509.950171
367.935336	2511.001251
368.322893	2512.455624
368.710388	2513.723474
369.097820	2515.392096
369.485189	2513.904956
369.872495	2513.547034
370.259738	2511.742301
370.646918	2513.446211
371.034035	2513.012672
371.421090	2514.908146
371.808081	2514.550224
372.195010	2516.738084
372.581875	2518.769669
372.968678	2514.646006
373.355418	2517.398476
373.742096	2518.883095
374.128710	2517.456449
374.515262	2518.454597
374.901751	2517.930317
375.288177	2520.186234
375.674540	2517.085924
376.060841	2519.966943
376.447079	2518.681449
376.833254	2519.568692
377.219367	2515.981911
377.605417	2518.711696
377.991404	2516.314628
378.377329	2516.538959
378.763191	2516.816222
379.148991	2523.147912
379.534727	2524.458612
379.920402	2522.976512
380.306013	2523.031965
380.691563	2526.001205
381.077049	2524.957686
381.462474	2525.229908
381.847835	2523.001718
382.233134	2527.460619
382.618371	2527.934487
383.003545	2530.969262
383.388657	2531.395239
383.773706	2531.947246
384.158693	2537.366486
384.543618	2540.398740
384.928480	2545.593649
385.313280	2552.051367
385.698017	2557.314332
386.082692	2569.889490
386.467305	2576.632033
386.851856	2586.689135
387.236344	2600.781681
387.620770	2614.833897
388.005133	2627.893006
388.389435	2646.767086
388.773674	2660.584889
389.157851	2679.428722
389.541965	2702.774305
389.926018	2710.542723
390.310008	2743.804257
390.693936	2766.053389
391.077802	2793.638583
391.461606	2815.557520
391.845348	2852.983046
392.229027	2877.828373
392.612645	2904.430542
392.996200	2954.479117
393.379694	2994.636948
393.763125	3050.024106
394.146494	3067.156467
394.529801	3120.028089
394.913047	3175.291738
395.296230	3189.694314
395.679351	3249.457193
396.062410	3293.799182
396.445408	3320.333296
396.828343	3372.552088
397.211217	3414.723860
397.594028	3406.645411
397.976778	3480.493274
398.359466	3531.802138
398.742092	3584.018409
399.124656	3567.717838
399.507158	3651.834531
399.889598	3696.105944
400.271977	3773.444806
400.654294	3784.270684
401.036549	3824.231911
401.418742	3829.005883
401.800874	3937.816668
402.182944	3982.693020
402.564952	4062.950710
402.946898	4076.914706
403.328783	4096.335751
403.710606	4047.575191
404.092367	4234.203747
404.474067	4229.286102
404.855705	4258.239969
405.237282	4211.939491
405.618797	4327.702028
406.000250	4373.208523
406.381642	4466.598419
406.762972	4448.377168
407.144240	4467.163028
407.525447	4485.147344
407.906593	4552.991193
408.287677	4600.957772
408.668700	4547.239236
409.049661	4605.048668
409.430560	4649.153723
409.811399	4586.832459
410.192176	4756.583232
410.572891	4698.105847
410.953545	4806.800686
411.334138	4691.663253
411.714669	4766.466414
412.095139	4663.959592
412.475547	4806.750275
412.855894	4790.053973
413.236180	4807.193896
413.616405	4759.819653
413.996568	4845.897355
414.376670	4788.859220
414.756711	4744.592848
415.136691	4776.836068
415.516609	4856.176267
415.896466	4895.719078
416.276262	4928.201753
416.655997	4910.293054
417.035670	5094.277525
417.415283	5181.693654
417.794834	5124.794150
418.174324	5084.976597
418.553753	4991.092668
418.933121	5174.061347
419.312428	5243.180607
419.691674	5182.653993
420.070859	5307.167973
420.449983	5219.136824
420.829045	5339.436399
421.208047	5245.219754
421.586988	5313.920598
421.965867	5326.384851
422.344686	5460.166992
422.723444	5312.887162
423.102141	5131.554338
423.480777	5428.427887
423.859352	5201.938928
424.237866	5457.152382
424.616319	5450.520744
424.994712	5559.807918
425.373044	5438.686636
425.751314	5576.592440
426.129524	5384.935333
426.507673	5576.156380
426.885762	5661.130070
427.263789	5590.856385
427.641756	5473.843642
428.019662	5597.150266
428.397508	5600.207725
428.775292	5547.973810
429.153016	5647.718080
429.530679	5578.371967
429.908282	5662.758362
430.285824	5535.091141
430.663305	5801.710206
431.040726	5540.843098
431.418086	5538.826636
431.795385	5646.349407
432.172624	5660.648639
432.549802	5650.594058
432.926920	5666.203991
433.303977	5675.671278
433.680974	5712.116300
434.057910	5728.164813
434.434786	5736.359208
434.811601	5704.521801
435.188355	5944.042144
435.565050	5810.963244
435.941683	5793.972035
436.318257	6009.703173
436.694770	5990.871943
437.071222	6025.474423
437.447614	5957.428928
437.823946	5867.840063
438.200218	6025.739083
438.576429	5892.788733
438.952580	5986.692826
439.328670	6030.732346
439.704700	5939.048881
440.080670	5924.668990
440.456580	6195.963725
440.832429	6079.611374
441.208218	5927.492036
441.583947	6084.123207
441.959616	6088.186377
442.335224	6011.752402
442.710773	6146.434389
443.086261	6173.248286
443.461689	5965.313293
443.837057	6120.273321
444.212365	6276.029851
444.587612	6169.721999
444.962800	6317.004350
445.337927	6304.237627
445.712995	5914.763123
446.088002	6488.597665
446.462949	6315.615512
446.837837	6248.048927
447.212664	6420.400936
447.587431	6563.005096
447.962139	7107.464834
448.336786	8031.105042
448.711374	7772.246833
449.085901	6849.042685
449.460369	6771.545027
449.834776	6701.959460
450.209124	7095.978565
450.583412	7251.672081
450.957640	7389.769450
451.331808	7157.518451
451.705917	6706.151180
452.079965	6632.925899
452.453954	6839.971129
452.827883	6721.783798
453.201752	6814.263765
453.575562	6614.843281
453.949311	6812.108672
454.323001	6709.717796
454.696632	6782.630525
455.070202	6919.225629
455.443713	7073.888229
455.817164	7170.885070
456.190556	7255.571414
456.563888	7326.807959
456.937160	7371.754887
457.310373	7028.127155
457.683526	7051.790331
458.056619	6949.694363
458.429653	6933.088802
458.802628	6863.599017
459.175542	6979.074208
459.548398	7333.111922
459.921194	7494.322981
460.293930	7497.440934
460.666607	8027.523302
461.039224	8328.661668
461.411782	8454.471224
461.784280	8470.665931
462.156719	8363.100311
462.529099	8238.246054
462.901419	7834.636153
463.273680	7725.510296
463.645882	7738.329950
464.018024	7603.385823
464.390106	7771.790609
464.762130	8165.666041
465.134094	8627.324828
465.505999	9652.889605
465.877845	10870.454288
466.249631	11510.834581
466.621358	11130.764349
466.993026	10504.257310
467.364634	10248.524617
467.736184	9886.274863
468.107674	9550.309686
468.479105	9586.701775
468.850477	9357.125109
469.221790	9131.548598
469.593043	8789.733161
469.964238	8658.146443
470.335373	8667.979213
470.706449	8721.549035
471.077467	8709.966984
471.448425	10017.236478
471.819324	11085.492267
472.190164	11103.587488
472.560945	9862.803251
472.931667	9067.818331
473.302330	8943.062376
473.672934	8588.641534
474.043479	8937.146582
474.413965	8883.733036
474.784393	8768.053679
475.154761	8923.127133
475.525070	9011.314558
475.895321	8838.473557
476.265513	9016.900156
476.635645	9183.343933
477.005719	9189.181589
477.375734	9298.672930
477.745691	9534.235967
478.115588	9669.984157
478.485427	9911.715046
478.855207	10454.649836
479.224928	11262.459452
479.594591	11895.562840
479.964194	11705.821371
480.333739	11638.607667
480.703226	11562.544217
481.072653	11646.126548
481.442022	11885.364586
481.811333	12077.530850
482.180584	11878.339738
482.549777	11585.670510
482.918912	11409.217522
483.287988	11433.397417
483.657005	11444.644231
484.025964	11127.500202
484.394864	11263.543300
484.763706	11234.594474
485.132489	10988.268573
485.501213	10944.125710
485.869879	11028.892712
486.238487	10872.259021
486.607036	10985.720270
486.975527	10757.388768
487.343959	10953.560229
487.712333	11004.579227
488.080648	10928.558627
488.448905	10974.014711
488.817104	10912.338714
489.185244	11178.035248
489.553326	11335.324289
489.921350	11874.944521
490.289315	12934.937857
490.657222	13268.122839
491.025070	13181.788038
491.392861	13052.333728
491.760593	12669.024554
492.128267	12319.770895
492.495883	11997.681493
492.863440	11655.964359
493.230939	11328.062507
493.598380	11261.236972
493.965763	11126.328133
494.333088	11029.275839
494.700354	10945.277613
495.067563	11014.772440
495.434713	10836.441623
495.801805	10967.730913
496.168839	10891.879191
496.535815	10826.631537
496.902733	10822.049128
497.269593	10756.083110
497.636395	10860.480365
498.003139	10848.520227
498.369825	10718.949970
498.736453	10872.805986
499.103023	10796.124995
499.469535	10828.834521
499.835989	10817.749024
500.202385	10782.776019
500.568723	10632.668102
500.935003	10854.516680
501.301226	10658.332616
501.667390	10919.716443
502.033497	11016.647749
502.399546	10871.901099
502.765537	10786.304827
503.131470	10852.878305
503.497345	11034.324555
503.863163	10642.344597
504.228923	10950.792636
504.594625	11013.842347
504.960269	10761.963616
505.325856	10982.811524
505.691385	10775.811665
506.056856	10933.067939
506.422270	10953.656011
506.787625	10846.002171
507.152924	10963.634975
507.518164	10941.751326
507.883347	10860.593791
508.248472	10782.231575
508.613540	11013.736483
508.978550	10907.784032
509.343503	10879.805628
509.708398	10999.021355
510.073236	11106.168559
510.438016	11115.340938
510.802738	11060.762886
511.167403	11116.976793
511.532010	11008.198775
511.896561	11246.607543
512.261053	11311.905609
512.625488	11185.856598
512.989866	11165.054277
513.354186	11147.758078
513.718449	11057.077803
514.082655	11250.038049
514.446803	11144.435958
514.810894	11264.541448
515.174927	11129.776283
515.538904	11152.970631
515.902822	11310.567183
516.266684	11193.441014
516.630488	11133.133691
516.994235	11189.304748
517.357925	11259.102043
517.721558	11342.938952
518.085133	11357.497805
518.448651	11370.612366
518.812112	11253.556774
519.175516	11262.688824
519.538863	11383.724408
519.902152	11299.108640
520.265385	11460.985131
520.628560	11375.572862
520.991678	11351.647546
521.354739	11420.318143
521.717743	11348.325425
522.080690	11334.520225
522.443580	11469.325720
522.806413	11418.662124
523.169189	11447.951228
523.531908	11503.842501
523.894569	11326.958495
524.257174	11332.468476
524.619722	11445.138264
524.982213	11397.859803
525.344647	11451.691764
525.707025	11394.976263
526.069345	11497.621717
526.431608	11411.286916
526.793815	11522.083916
527.155964	11304.530401
527.518057	11361.797909
527.880093	11316.800570
528.242072	11378.900023
528.603995	11284.758996
528.965860	11207.049609
529.327669	11252.329253
529.689421	11209.146729
530.051117	11179.759323
530.412755	11279.619539
530.774337	11166.143166
531.135862	11146.308747
531.497331	11174.841677
531.858743	11026.349450
532.220098	11193.085613
532.581396	11061.824049
532.942638	11048.931298
533.303824	11015.470640
533.664953	11028.267609
534.026025	10934.144225
534.387040	11039.527026
534.747999	11042.022397
535.108902	11095.756056
535.469748	10848.295896
535.830537	10962.667074
536.191270	10938.262848
536.551947	10960.668256
536.912567	10968.487086
537.273131	10891.354911
537.633638	10867.003618
537.994089	10858.602535
538.354483	10806.774432
538.714821	10949.716349
539.075103	10956.254726
539.435328	10924.066959
539.795497	10747.223282
540.155609	10913.523385
540.515665	10997.080510
540.875665	10732.200643
541.235609	10800.203288
541.595496	10787.824735
541.955328	10947.223499
542.315102	10831.362660
542.674821	10780.162181
543.034483	10782.707964
543.394090	10789.894128
543.753640	10719.612882
544.113134	10938.595564
544.472571	10786.249374
544.831953	10930.363360
545.191278	10731.734337
545.550548	10772.708835
545.909761	10908.328476
546.268918	10880.014836
546.628019	10959.370159
546.987064	10826.013996
547.346053	10750.386606
547.704986	10850.816473
548.063863	10831.249234
548.422684	10833.099338
548.781449	10750.331153
549.140158	10847.277583
549.498811	10728.596218
549.857408	10580.865205
550.215949	10816.027470
550.574434	10661.551393
550.932864	10754.885836
551.291237	10813.295165
551.649555	10774.039700
552.007817	10784.595876
552.366022	10741.166335
552.724173	10742.345965
553.082267	10721.236134
553.440305	10857.490960
553.798288	10655.970835
554.156215	10812.735597
554.514086	10782.607141
554.871902	10635.869234
555.229661	10678.499752
555.587365	10650.160906
555.945014	10541.055213
556.302606	10673.385501
556.660143	10561.676053
557.017625	10724.391896
557.375050	10615.636563
557.732421	10748.029866
558.089735	10661.662298
558.446994	10666.332927
558.804197	10694.192864
559.161345	10706.836078
559.518437	10548.836234
559.875474	10635.012238
560.232455	10669.244193
560.589381	10620.022367
560.946251	10612.725297
561.303065	10724.243182
561.659825	10658.718264
562.016528	10589.959446
562.373177	10464.475045
562.729770	10590.725702
563.086307	10502.684470
563.442789	10587.764024
563.799216	10466.625097
564.155587	10517.397078
564.511904	10472.913936
564.868164	10464.533018
565.224370	10477.088012
565.580520	10404.792824
565.936615	10405.871631
566.292654	10275.149471
566.648638	10410.080995
567.004567	10364.007369
567.360441	10350.716367
567.716260	10258.498540
568.072023	10341.891827
568.427732	10313.091715
568.783385	10211.840140
569.138982	10290.179671
569.494525	10300.231732
569.850013	10172.393112
570.205445	10258.725392
570.560823	10154.625565
570.916145	10065.296319
571.271412	10143.172063
571.626625	10086.393547
571.981782	10060.759280
572.336884	10037.307833
572.691931	10040.188852
573.046923	9989.414350
573.401860	9945.188308
573.756743	9880.059121
574.111570	9924.060832
574.466342	9904.768336
574.821059	9935.118603
575.175722	9825.733126
575.530330	9835.865845
575.884882	9829.534156
576.239380	9750.682948
576.593823	9736.124096
576.948211	9749.838555
577.302544	9628.533270
577.656823	9647.619078
578.011047	9645.998347
578.365216	9624.351633
578.719330	9544.585456
579.073389	9550.244151
579.427394	9505.720680
579.781344	9481.371907
580.135239	9430.642776
580.489080	9439.331204
580.842866	9339.269342
581.196597	9345.666566
581.550273	9390.013596
581.903895	9357.092341
582.257463	9417.878574
582.610975	9297.717631
582.964434	9323.155293
583.317837	9249.554447
583.671186	9231.716324
584.024481	9219.340292
584.377721	9145.583170
584.730906	9124.246486
585.084037	9149.172471
585.437113	9081.000948
585.790135	9107.401471
586.143103	9005.524793
586.496016	8979.356163
586.848874	9040.233137
587.201679	9029.939101
587.554428	8908.906038
587.907124	8959.930077
588.259765	8926.862628
588.612352	8931.747506
588.964884	8805.708577
589.317362	8822.427564
589.669786	8820.242224
590.022155	8870.200059
590.374470	8885.464672
590.726731	8823.047626
591.078937	8679.783075
591.431090	8787.177296
591.783188	8654.801637
592.135232	8651.267788
592.487222	8649.170668
592.839157	8702.619502
593.191038	8635.531827
593.542866	8587.386287
593.894639	8483.415009
594.246358	8536.034573
594.598022	8551.546203
594.949633	8450.304711
595.301190	8429.273017
595.652692	8451.648178
596.004141	8563.503820
596.355535	8341.304882
596.706876	8317.916449
597.058162	8254.836491
597.409395	8329.690064
597.760573	8396.863439
598.111698	8301.724263
598.462768	8288.627345
598.813785	8250.117971
599.164748	8225.444043
599.515657	8210.590284
599.866511	8124.174824
600.217312	8256.179958
600.568060	8109.061445
600.918753	8211.800161
601.269392	8183.305038
601.619978	8090.583096
601.970510	8159.929208
602.320988	8151.664236
602.671412	8210.431487
603.021783	8147.467476
603.372100	8118.508567
603.722363	8123.128785
604.072572	8099.581555
604.422728	8111.100592
604.772830	8037.149386
605.122878	8044.597690
605.472872	8043.591980
605.822813	8068.664159
606.172701	8015.366560
606.522534	8085.020183
606.872314	8091.387160
607.222041	8056.157056
607.571714	8114.216025
607.921333	8071.643481
608.270899	8077.697907
608.620411	8162.888365
608.969870	8072.787823
609.319276	8067.224909
609.668627	8085.408351
610.017926	8118.594267
610.367171	8169.739293
610.716362	8138.428687
611.065500	8126.808827
611.414585	8154.388980
611.763616	8149.821695
612.112594	8129.372254
612.461518	8142.459089
612.810389	8205.541568
613.159207	8141.465982
613.507971	8091.034279
613.856682	8212.077424
614.205340	8163.216040
614.553945	8244.653360
614.902496	8142.690983
615.250994	8195.542439
615.599439	8186.680091
615.947830	8190.448353
616.296169	8163.064806
616.644454	8179.277157
616.992686	8172.706012
617.340864	8232.947801
617.688990	8137.075137
618.037063	8230.966627
618.385082	8181.623814
618.733048	8264.782687
619.080961	8198.751134
619.428821	8220.806182
619.776628	8229.711380
620.124382	8175.665170
620.472083	8155.477869
620.819731	8185.220677
621.167326	8074.668173
621.514868	8082.902898
621.862357	7979.009758
622.209793	7995.396029
622.557176	7925.475225
622.904506	7893.269814
623.251783	7828.669948
623.599007	7782.929038
623.946179	7784.577496
624.293297	7745.599294
624.640363	7662.319432
624.987376	7644.443501
625.334336	7594.863753
625.681243	7544.626134
626.028097	7533.586007
626.374899	7510.744539
626.721647	7504.919486
627.068343	7427.265552
627.414987	7406.629589
627.761577	7354.360385
628.108115	7397.106849
628.454600	7292.419728
628.801032	7342.039805
629.147412	7305.365411
629.493739	7292.530633
629.840014	7224.159984
630.186236	7283.577544
630.532405	7165.112949
630.878521	7219.607822
631.224585	7171.699217
631.570597	7098.549554
631.916556	7134.097250
632.262462	7129.613144
632.608316	7088.472287
632.954117	7064.914975
633.299866	7051.568521
633.645562	7047.228087
633.991206	6968.061807
634.336797	6909.725575
634.682336	6865.071034
635.027823	6836.273443
635.373257	6825.364386
635.718639	6760.164623
636.063968	6770.746004
636.409245	6661.642832
636.754470	6661.564694
637.099642	6620.743951
637.444762	6562.672379
637.789829	6575.116468
638.134845	6516.535739
638.479808	6501.203070
638.824719	6508.326220
639.169577	6434.639675
639.514383	6451.882941
639.859137	6387.724176
640.203839	6391.608385
640.548489	6373.760180
640.893086	6352.683116
641.237632	6325.234033
641.582125	6345.065932
641.926566	6313.299102
642.270955	6330.358366
642.615292	6321.634649
642.959576	6341.219532
643.303809	6331.502708
643.647990	6337.489078
643.992118	6323.371327
644.336195	6270.187154
644.680219	6298.278984
645.024192	6289.895545
645.368112	6386.126131
645.711981	6405.927783
646.055797	6476.493854
646.399562	6438.491116
646.743274	6562.490898
647.086935	6621.704291
647.430544	6613.346058
647.774101	6632.363811
648.117606	6641.700028
648.461059	6635.872454
648.804460	6593.055414
649.147810	6505.155335
649.491108	6472.748277
649.834354	6447.401356
650.177548	6364.522266
650.520690	6278.099245
650.863781	6259.746924
651.206820	6279.417507
651.549807	6199.190064
651.892742	6137.488861
652.235626	6146.028576
652.578458	6132.692203
652.921238	6039.309869
653.263967	6084.022383
653.606644	6020.372775
653.949269	6024.801429
654.291843	5965.535103
654.634365	6015.548391
654.976836	5968.179189
655.319255	5966.999559
655.661622	5940.704900
656.003938	5942.141629
656.346203	5901.131843
656.688416	5931.189722
657.030577	5887.127517
657.372687	5858.692889
657.714746	5844.698646
658.056753	5889.161623
658.398708	5826.028732
658.740612	5817.118493
659.082465	5861.520976
659.424266	5858.103074
659.766016	5854.291962
660.107715	5831.490823
660.449362	5846.606723
660.790958	5839.344940
661.132503	5824.249205
661.473996	5863.129104
661.815438	5854.559143
662.156829	5848.388770
662.498168	5844.718810
662.839456	5815.412063
663.180693	5851.637794
663.521879	5854.165933
663.863013	5840.932904
664.204097	5859.234813
664.545129	5902.505557
664.886110	5902.200567
665.227040	5932.510505
665.567918	5895.773096
665.908746	5928.464979
666.249522	5930.226862
666.590248	5913.666672
666.930922	5945.725889
667.271545	5954.736952
667.612118	5960.337674
667.952639	5930.804074
668.293109	5959.868847
668.633528	5911.103245
668.973896	5914.047279
669.314213	5905.011010
669.654480	5888.851592
669.994695	5879.255755
670.334859	5872.099838
670.674973	5862.864444
671.015035	5867.257809
671.355047	5864.396954
671.695008	5852.189800
672.034918	5826.701727
672.374777	5835.879147
672.714585	5822.323484
673.054342	5827.268856
673.394049	5823.596376
673.733705	5848.454305
674.073310	5833.918138
674.412864	5799.454290
674.752368	5785.913751
675.091820	5791.070851
675.431223	5730.577005
675.770574	5728.127004
676.109875	5682.088667
676.449125	5687.863308
676.788324	5654.601775
677.127473	5593.492908
677.466571	5588.303041
677.805619	5579.748202
678.144616	5565.736315
678.483562	5540.369229
678.822458	5510.107183
679.161303	5507.931925
679.500098	5497.342981
679.838842	5482.098532
680.177535	5487.202700
680.516179	5501.277602
680.854771	5515.821331
681.193314	5593.525676
681.531805	5699.100040
681.870247	5849.800293
682.208638	5953.915244
682.546978	5965.068797
682.885268	5940.062153
683.223508	5855.537127
683.561697	5804.296318
683.899836	5773.043685
684.237925	5726.639864
684.575963	5696.803795
684.913951	5651.806456
685.251889	5712.103697
685.589776	5687.318864
685.927614	5650.309233
686.265401	5725.235902
686.603137	5710.480445
686.940824	5784.653462
687.278460	5810.741433
687.616046	5818.096477
687.953582	5882.751796
688.291068	5870.179158
688.628504	5934.758859
688.965889	5895.964660
689.303224	5837.492316
689.640510	5790.206293
689.977745	5711.821392
690.314930	5613.360096
690.652065	5556.213576
690.989150	5468.729392
691.326185	5392.411364
691.663170	5341.520916
692.000105	5261.331282
692.336990	5184.894786
692.673825	5163.399306
693.010610	5093.700313
693.347345	5023.832442
693.684030	5007.398280
694.020665	4968.467969
694.357251	4877.984299
694.693786	4888.762286
695.030272	4852.571842
695.366707	4819.970701
695.703093	4783.709681
696.039429	4805.036282
696.375716	4788.899549
696.711952	4765.553965
697.048139	4753.084671
697.384276	4729.454263
697.720363	4744.706274
698.056400	4753.689610
698.392388	4703.288154
698.728326	4685.439948
699.064214	4662.114530
699.400053	4656.024816
699.735842	4623.098519
700.071581	4600.463739
700.407270	4572.026590
700.742910	4551.675452
701.078501	4499.993543
701.414042	4496.512626
701.749533	4468.077998
702.084974	4405.144233
702.420366	4459.979384
702.755709	4401.572575
703.091002	4348.927806
703.426246	4393.126122
703.761440	4350.462837
704.096584	4313.627126
704.431679	4333.267461
704.766725	4321.236748
705.101721	4305.505827
705.436668	4337.953214
705.771565	4281.681334
706.106413	4309.448009
706.441212	4341.928164
706.775961	4352.948126
707.110661	4330.116740
707.445311	4359.657902
707.779913	4381.864184
708.114465	4393.042943
708.448967	4417.598403
708.783421	4478.059482
709.117825	4519.833003
709.452180	4527.707286
709.786485	4569.357299
710.120742	4658.971370
710.454949	4640.203154
710.789107	4707.663875
711.123216	4782.509886
711.457275	4774.020583
711.791286	4845.652859
712.125247	4857.986042
712.459159	4766.168986
712.793023	4840.094987
713.126837	4801.232732
713.460602	4794.540600
713.794318	4715.795256
714.127985	4723.767841
714.461602	4635.088904
714.795171	4605.391467
715.128691	4544.847209
715.462162	4484.612982
715.795584	4435.910395
716.128957	4419.740894
716.462281	4365.266185
716.795556	4339.868852
717.128782	4299.259838
717.461960	4232.963623
717.795088	4241.614243
718.128167	4201.360630
718.461198	4142.658914
718.794180	4141.065909
719.127113	4117.874081
719.459997	4099.360443
719.792833	4053.216242
720.125619	4041.556053
720.458357	4009.975745
720.791046	4015.097557
721.123686	3987.179647
721.456278	3948.274542
721.788821	3963.198878
722.121315	3936.321966
722.453761	3911.728697
722.786158	3922.554575
723.118506	3946.575673
723.450805	3898.314187
723.783056	3918.299841
724.115259	3934.602933
724.447412	3937.834312
724.779518	3940.012091
725.111574	3939.931432
725.443582	3964.635607
725.775542	3955.780820
726.107453	4003.596164
726.439315	4004.858973
726.771129	4019.649719
727.102895	4058.590112
727.434612	4107.441413
727.766281	4115.224955
728.097901	4115.640850
728.429473	4119.749390
728.760996	4130.461842
729.092471	4122.065800
729.423897	4109.127679
729.755276	4114.315026
730.086606	4111.507104
730.417887	4149.671159
730.749120	4216.587435
731.080305	4279.284265
731.411442	4309.939522
731.742530	4278.399543
732.073570	4283.256695
732.404562	4334.116896
732.735506	4326.769414
733.066401	4292.139208
733.397249	4223.720668
733.728048	4149.177126
734.058798	4062.628076
734.389501	3993.667612
734.720156	3931.182510
735.050762	3886.260788
735.381320	3881.940519
735.711831	3828.128723
736.042293	3799.454639
736.372707	3819.750325
736.703073	3792.626397
737.033391	3784.686579
737.363661	3805.463695
737.693883	3825.547652
738.024056	3835.892099
738.354182	3832.630473
738.684260	3895.037437
739.014290	3915.804470
739.344272	3910.428080
739.674207	3952.436015
740.004093	3958.248465
740.333931	3952.914924
740.663722	3955.047332
740.993464	3951.707568
741.323159	3930.892644
741.652806	3900.900299
741.982405	3869.670351
742.311956	3838.604240
742.641460	3832.517047
742.970915	3805.130979
743.300323	3764.005246
743.629683	3733.470977
743.958996	3721.407496
744.288260	3695.012014
744.617477	3662.967920
744.946647	3651.022906
745.275768	3621.159110
745.604842	3621.771610
745.933869	3571.629774
746.262847	3565.078794
746.591778	3603.348714
746.920662	3574.772933
747.249498	3538.348076
747.578286	3588.474789
747.907027	3609.713170
748.235720	3603.661265
748.564365	3628.539359
748.892963	3629.580358
749.221514	3610.023201
749.550017	3587.884974
749.878473	3583.650405
750.206881	3555.750139
750.535242	3552.435580
750.863555	3554.767114
751.191821	3550.469530
751.520039	3529.916746
751.848210	3510.520907
752.176334	3541.007285
752.504411	3545.882080
752.832440	3509.515197
753.160421	3491.276302
753.488356	3501.038496
753.816243	3510.783047
754.144082	3468.215544
754.471875	3457.498051
754.799620	3476.417501
755.127318	3465.763022
755.454969	3465.117755
755.782572	3470.418528
756.110129	3448.965898
756.437638	3435.324535
756.765100	3450.521094
757.092515	3464.210347
757.419882	3466.367961
757.747203	3439.785957
758.074477	3443.468519
758.401703	3457.694656
758.728882	3479.822800
759.056014	3489.547186
759.383099	3491.634224
759.710138	3486.396465
760.037129	3506.472860
760.364073	3539.469733
760.690970	3521.308976
761.017820	3497.282837
761.344623	3516.172040
761.671379	3563.828588
761.998088	3612.778192
762.324751	3741.587234
762.651366	3987.081344
762.977935	4458.220021
763.304456	4905.803907
763.630931	4999.836549
763.957359	4641.586951
764.283740	4300.825116
764.610074	4104.073922
764.936362	3905.787698
765.262602	3748.932196
765.588796	3636.660658
765.914943	3546.290414
766.241044	3458.405458
766.567097	3428.133329
766.893104	3382.291597
767.219064	3349.869416
767.544978	3323.007628
767.870845	3265.989657
768.196665	3251.261926
768.522438	3254.621855
768.848165	3249.893253
769.173846	3217.483675
769.499479	3200.805017
769.825066	3184.186854
770.150607	3165.753875
770.476101	3186.344467
770.801548	3178.233251
771.126949	3132.603247
771.452303	3113.431739
771.777611	3120.035650
772.102872	3125.487658
772.428087	3102.560491
772.753256	3089.539190
773.078378	3082.753797
773.403453	3051.067625
773.728482	3035.762682
774.053465	3059.274623
774.378401	3046.757438
774.703291	3014.995648
775.028135	3015.978673
775.352932	3011.290400
775.677683	2997.901096
776.002388	2996.834892
776.327046	3001.445027
776.651658	2987.949858
776.976224	2974.961325
777.300743	2975.533496
777.625216	2966.197279
777.949643	2963.044037
778.274024	2965.151240
778.598359	2952.883592
778.922647	2958.610343
779.246889	2957.612194
779.571086	2941.798094
779.895236	2937.684513
780.219339	2944.971501
780.543397	2961.750981
780.867409	2962.048409
781.191374	2954.027934
781.515294	2952.951647
781.839167	2953.226390
782.162995	2943.638116
782.486776	2953.251596
782.810511	2951.116667
783.134201	2934.942125
783.457844	2941.316664
783.781441	2933.089501
784.104993	2914.507808
784.428498	2916.378076
784.751958	2931.688060
785.075372	2926.147832
785.398739	2909.413722
785.722061	2923.743202
786.045337	2936.031014
786.368568	2918.775145
786.691752	2908.750810
787.014891	2961.899695
787.337983	2988.801813
787.661030	3020.210722
787.984031	3088.609097
788.306987	3130.523771
788.629897	3124.988584
788.952760	3107.347066
789.275579	3090.726382
789.598351	3032.306971
789.921078	2985.610763
790.243759	2979.054742
790.566395	2958.625466
790.888984	2938.453289
791.211529	2921.174734
791.534027	2913.323137
791.856480	2901.476425
792.178888	2886.448746
792.501249	2877.311654
792.823566	2879.078579
793.145836	2873.354349
793.468062	2868.109028
793.790241	2867.458719
794.112375	2875.239740
794.434464	2884.654095
794.756507	2887.144425
795.078505	2896.793193
795.400457	2912.143507
795.722364	2946.864454
796.044226	2969.794142
796.366042	2973.799339
796.687812	2960.452884
797.009538	2983.528766
797.331218	2970.630974
797.652852	2955.089097
797.974442	2936.651076
798.295986	2932.406425
798.617484	2928.252514
798.938938	2911.442787
799.260346	2899.306209
799.581709	2893.826474
799.903026	2886.176523
800.224299	2879.408774
800.545526	2868.313195
800.866708	2853.378777
801.187845	2845.650688
801.508936	2846.069103
801.829983	2852.269723
802.150984	2839.528206
802.471940	2825.783500
802.792851	2830.655776
803.113717	2828.082267
803.434538	2832.823472
803.755314	2827.641166
804.076045	2820.518015
804.396731	2819.776966
804.717372	2820.918787
805.037967	2815.640699
805.358518	2817.805874
805.679024	2833.751044
805.999485	2830.328101
806.319901	2833.224243
806.640272	2823.585557
806.960598	2829.604695
807.280879	2836.526199
807.601115	2845.302848
807.921306	2832.291630
808.241453	2827.399190
808.561554	2836.972341
808.881611	2838.421673
809.201623	2833.604851
809.521590	2829.342555
809.841513	2827.318532
810.161390	2830.217195
810.481223	2824.702173
810.801011	2814.420740
811.120755	2810.334884
811.440453	2815.111378
811.760107	2815.597849
812.079716	2812.356387
812.399281	2804.298103
812.718801	2799.521609
813.038276	2792.106072
813.357707	2795.957514
813.677093	2807.557209
813.996434	2798.321815
814.315731	2795.183697
814.634983	2787.143056
814.954191	2793.787297
815.273354	2805.258442
815.592473	2811.806901
815.911547	2815.660863
816.230577	2822.355516
816.549562	2833.146106
816.868502	2831.210302
817.187399	2840.972497
817.506250	2855.906915
817.825058	2850.996831
818.143821	2864.217257
818.462539	2879.071017
818.781213	2905.809297
819.099843	2942.511418
819.418429	2999.809172
819.736970	3062.168245
820.055466	3137.110038
820.373919	3240.249526
820.692327	3384.534910
821.010691	3555.505643
821.329011	4000.188344
821.647286	4903.169904
821.965517	6291.982582
822.283704	7047.671709
822.601847	7024.673965
822.919945	6386.360544
823.237999	5873.108068
823.556010	5289.017298
823.873976	4733.772011
824.191897	4318.665759
824.509775	4023.365049
824.827609	3754.006117
825.145398	3629.434164
825.463144	3615.137452
825.780845	3708.817214
826.098502	3813.370745
826.416116	4093.530349
826.733685	4421.865740
827.051210	4480.874967
827.368692	4366.932287
827.686129	4090.190585
828.003522	3768.554887
828.320872	3510.704909
828.638177	3312.847182
828.955439	3174.618744
829.272656	3090.045826
829.589830	3024.188192
829.906960	2970.497383
830.224046	2926.223450
830.541088	2895.323697
830.858086	2876.046325
831.175041	2862.319263
831.491952	2860.622915
831.808819	2873.792929
832.125642	2897.836712
832.442421	2942.627364
832.759157	3026.189530
833.075849	3205.311809
833.392497	3489.726147
833.709101	3696.403373
834.025662	3642.621823
834.342179	3481.516628
834.658653	3305.290493
834.975083	3155.318686
835.291469	3056.847307
835.607811	2971.984524
835.924110	2911.893970
836.240366	2859.821371
836.556578	2817.654640
836.872746	2794.225877
837.188871	2772.044800
837.504952	2753.279105
837.820990	2746.798702
838.136984	2732.086094
838.452935	2722.734754
838.768842	2721.799620
839.084706	2744.205028
839.400526	2818.352840
839.716303	2956.230918
840.032037	3036.584390
840.347727	3019.230218
840.663373	2958.428861
840.978977	2882.254506
841.294537	2809.482929
841.610054	2761.781011
841.925527	2741.036663
842.240957	2717.280226
842.556344	2696.195600
842.871687	2682.602128
843.186987	2670.679799
843.502244	2669.548060
843.817458	2659.417862
844.132629	2650.613487
844.447756	2642.517393
844.762840	2635.681589
845.077881	2638.466826
845.392879	2636.089922
845.707833	2632.752678
846.022745	2625.332100
846.337613	2627.083901
846.652438	2626.499127
846.967221	2625.299332
847.281960	2624.311266
847.596656	2623.159363
847.911309	2620.598457
848.225919	2617.230966
848.540485	2617.384721
848.855009	2615.940430
849.169490	2613.364401
849.483928	2613.908845
849.798323	2618.594598
850.112675	2614.901953
850.426984	2613.485388
850.741251	2610.702672
851.055474	2613.709720
851.369654	2614.075203
851.683792	2617.157869
851.997887	2614.052518
852.311938	2610.924482
852.625947	2613.198043
852.939914	2614.919597
853.253837	2617.304063
853.567718	2611.748711
853.881555	2612.172168
854.195350	2614.544031
854.509103	2614.339864
854.822812	2610.523711
855.136479	2611.395830
855.450103	2613.361880
855.763685	2617.472941
856.077224	2611.564709
856.390720	2608.557661
856.704173	2613.739967
857.017584	2616.883126
857.330953	2616.747015
857.644278	2620.041409
857.957561	2620.832870
858.270802	2614.367590
858.584000	2614.707868
858.897155	2618.415637
859.210268	2620.043930
859.523339	2617.147787
859.836367	2610.924482
860.149352	2610.014554
860.462295	2613.235851
860.775195	2611.191663
861.088054	2610.725357
861.400869	2607.693103
861.713642	2608.277877
862.026373	2606.178236
862.339062	2610.773248
862.651708	2615.443877
862.964312	2615.862292
863.276873	2614.286932
863.589392	2615.595111
863.901869	2622.236832
864.214303	2626.302522
864.526696	2629.430558
864.839045	2630.698408
865.151353	2631.018522
865.463619	2632.127575
865.775842	2632.810652
866.088023	2632.278810
866.400162	2634.834675
866.712258	2635.011115
867.024313	2633.163532
867.336325	2629.536422
867.648296	2628.810496
867.960224	2638.580252
868.272110	2633.481125
868.583954	2628.089611
868.895755	2629.223871
869.207515	2633.851650
869.519233	2641.783906
869.830909	2638.469347
870.142542	2630.272431
870.454134	2634.159160
870.765684	2637.897176
871.077191	2638.986065
871.388657	2644.370017
871.700081	2642.429173
872.011463	2643.598721
872.322803	2645.471510
872.634101	2648.314720
872.945357	2655.125319
873.256571	2662.364416
873.567744	2658.485248
873.878874	2655.702531
874.189963	2657.151863
874.501010	2662.394663
874.812015	2667.498831
875.122979	2667.458502
875.433900	2660.574807
875.744780	2656.804023
876.055618	2663.264262
876.366415	2667.347597
876.677169	2669.981600
876.987882	2663.095383
877.298554	2662.709735
877.609183	2669.792556
877.919771	2681.866120
878.230317	2686.569516
878.540822	2695.610826
878.851285	2711.303938
879.161707	2734.934346
879.472087	2774.492281
879.782425	2823.668736
880.092722	2940.812549
880.402977	3129.646610
880.713191	3391.963051
881.023363	3694.394473
881.333494	3890.835635
881.643583	4062.650761
881.953631	4059.900812
882.263637	3881.300293
882.573602	3657.087414
882.883526	3523.973226
883.193408	3408.084661
883.503248	3305.076243
883.813048	3187.997966
884.122806	3073.657035
884.432522	2985.792244
884.742197	2920.080804
885.051831	2881.089999
885.361424	2846.605986
885.670975	2809.150213
885.980485	2777.711057
886.289954	2757.634662
886.599382	2742.803587
886.908768	2732.408728
887.218113	2712.700337
887.527417	2702.376054
887.836680	2690.000022
888.145901	2683.930472
888.455082	2677.223217
888.764221	2669.958914
889.073319	2661.267965
889.382376	2658.021462
889.691392	2657.638334
890.000366	2659.256545
890.309300	2655.742861
890.618193	2659.644714
890.927044	2662.553459
891.235855	2662.175373
891.544625	2661.381391
891.853353	2661.346103
892.162041	2669.638801
892.470687	2689.233766
892.779293	2700.178111
893.087858	2709.791592
893.396381	2735.390571
893.704864	2777.395985
894.013306	2848.294773
894.321707	2943.234823
894.630068	2995.904799
894.938387	3018.169055
895.246665	3009.248733
895.554903	2962.053451
895.863100	2921.154569
896.171256	2859.957482
896.479371	2800.476908
896.787446	2760.480393
897.095480	2738.944584
897.403473	2734.009295
897.711425	2716.284598
898.019336	2698.701053
898.327207	2683.670853
898.635038	2683.212108
898.942827	2680.091634
899.250576	2670.430262
899.558284	2659.879127
899.865952	2653.955772
900.173579	2651.838487
900.481165	2651.785555
900.788711	2641.602424
901.096216	2636.505817
901.403681	2631.860394
901.711105	2633.506331
902.018489	2629.697739
902.325832	2635.676548
902.633135	2635.603451
902.940397	2652.410658
903.247619	2691.217460
903.554800	2760.044334
903.861941	2889.458315
904.169041	3021.365146
904.476101	3086.824529
904.783121	3078.899835
905.090100	3021.695342
905.397039	2942.902107
905.703938	2865.540560
906.010796	2802.934471
906.317614	2748.328692
906.624391	2712.975080
906.931129	2685.765452
907.237826	2659.034734
907.544483	2641.264667
907.851099	2628.107255
908.157675	2620.540483
908.464211	2613.056890
908.770707	2602.291506
909.077163	2596.713470
909.383578	2595.216247
909.689954	2594.018973
909.996289	2589.718869
910.302584	2590.976637
910.608839	2585.822057
910.915054	2590.086873
911.221229	2589.406317
911.527363	2591.914291
911.833458	2589.663416
912.139513	2590.838005
912.445527	2591.906729
912.751502	2597.630960
913.057436	2604.824686
913.363331	2611.252157
913.669186	2621.800772
913.975000	2633.886938
914.280775	2654.918632
914.586510	2674.606858
914.892205	2709.842003
915.197859	2777.476644
915.503475	2865.906044
915.809050	2932.421548
916.114585	2951.298149
916.420081	2961.929942
916.725536	2973.774133
917.030952	2945.016871
917.336328	2894.323028
917.641665	2848.307376
917.946961	2793.134467
918.252218	2760.427461
918.557435	2733.479973
918.862612	2709.368135
919.167750	2690.365505
919.472848	2676.582991
919.777906	2659.695125
920.082925	2645.378248
920.387904	2634.176804
920.692843	2629.843933
920.997743	2627.701442
921.302603	2616.973867
921.607423	2611.973042
921.912204	2605.921137
922.216946	2602.689757
922.521647	2601.817638
922.826310	2597.275558
923.130932	2593.149374
923.435516	2586.384145
923.740059	2583.702252
924.044564	2585.063363
924.349028	2583.558579
924.653454	2572.876374
924.957840	2570.577607
925.262186	2571.038873
925.566493	2570.416291
925.870761	2564.248439
926.174989	2568.374623
926.479178	2562.920095
926.783328	2565.881773
927.087438	2562.499158
927.391509	2561.896741
927.695541	2558.342727
927.999533	2557.647048
928.303486	2555.542366
928.607400	2556.548076
928.911275	2555.766698
929.215110	2555.610422
929.518906	2557.039589
929.822663	2555.212171
930.126381	2555.060936
930.430060	2554.496327
930.733699	2556.207798
931.037299	2556.885834
931.340861	2556.240566
931.644383	2555.449105
931.947866	2556.568241
932.251309	2558.849363
932.554714	2555.045812
932.858080	2555.630586
933.161407	2554.574465
933.464694	2558.496482
933.767943	2555.474311
934.071153	2553.903991
934.374323	2554.042623
934.677455	2551.975750
934.980548	2551.643034
935.283602	2553.021789
935.586617	2554.876934
935.889593	2551.330482
936.192530	2552.409289
936.495428	2551.484237
936.798287	2553.727551
937.101108	2555.222253
937.403890	2556.835422
937.706632	2561.092677
938.009336	2562.473953
938.312002	2569.665159
938.614628	2571.482495
938.917216	2577.408371
939.219765	2575.757393
939.522275	2577.829307
939.824747	2577.143710
940.127179	2571.822772
940.429573	2568.235992
940.731929	2568.079716
941.034246	2566.227092
941.336524	2570.086095
941.638763	2569.932340
941.940964	2567.804973
942.243126	2564.634087
942.545250	2563.114179
942.847335	2563.202399
943.149381	2563.099056
943.451389	2556.336348
943.753359	2560.039075
944.055290	2558.887172
944.357182	2556.006152
944.659036	2558.937583
944.960851	2555.638148
945.262628	2556.021276
945.564367	2556.749723
945.866067	2557.001780
946.167729	2557.730227
946.469352	2557.253838
946.770937	2559.547563
947.072484	2557.150494
947.373992	2558.451112
947.675462	2554.640000
947.976893	2553.278888
948.278286	2553.886347
948.579641	2551.852242
948.880958	2552.928528
949.182236	2553.876265
949.483476	2554.463559
949.784678	2554.007335
950.085841	2554.652603
950.386967	2554.249310
950.688054	2552.928528
950.989103	2554.980277
951.290114	2555.534804
951.591087	2556.709393
951.892021	2556.106975
952.192917	2558.178890
952.493776	2558.584702
952.794596	2560.921277
953.095378	2559.852553
953.396122	2560.175187
953.696828	2560.880948
953.997496	2557.712583
954.298126	2556.396842
954.598718	2556.792572
954.899272	2555.554969
955.199788	2556.071687
955.500266	2551.219577
955.800706	2548.731767
956.101108	2544.103988
956.401472	2546.196067
956.701798	2542.430325
957.002087	2543.652805
957.302337	2543.302445
957.602550	2544.300593
957.902724	2540.555016
958.202861	2542.495860
958.502960	2542.382434
958.803022	2543.078113
959.103045	2541.432177
959.403031	2540.676003
959.702979	2538.780530
960.002889	2540.547454
960.302762	2538.578883
960.602596	2539.609799
960.902393	2540.572660
961.202153	2541.406971
961.501875	2536.259953
961.801559	2537.603420
962.101205	2538.783050
962.400814	2541.298586
962.700385	2536.839685
962.999918	2536.917823
963.299414	2538.810777
963.598873	2537.200128
963.898293	2538.321785
964.197677	2540.166847
964.497022	2537.159799
964.796331	2537.575694
965.095601	2535.763399
965.394835	2540.169367
965.694030	2536.098636
965.993189	2538.117618
966.292309	2536.378420
966.591393	2538.636857
966.890439	2535.977648
967.189447	2536.055786
967.488419	2534.102339
967.787353	2536.154088
968.086249	2536.454037
968.385108	2536.708615
968.683930	2537.316074
968.982714	2536.761547
969.281462	2536.075951
969.580172	2540.827238
969.878844	2538.712474
970.177480	2536.585107
970.476078	2536.998482
970.774639	2535.604603
971.073162	2537.631147
971.371649	2535.937319
971.670098	2535.647452
971.968510	2534.626619
972.266885	2531.526309
972.565223	2537.298430
972.863524	2536.577545
973.161788	2539.619882
973.460014	2539.841692
973.758204	2536.809438
974.056356	2536.620395
974.354471	2540.837320
974.652550	2537.142155
974.950591	2538.099974
975.248595	2539.060314
975.546563	2538.936805
975.844493	2535.763399
976.142386	2540.839841
976.440243	2538.089892
976.738062	2538.886394
977.035845	2537.381609
977.333590	2537.426980
977.631299	2536.801877
977.928971	2537.179963
978.226606	2535.017308
978.524204	2536.789274
978.821765	2536.542257
979.119290	2533.434386
979.416777	2535.660055
979.714228	2534.901362
980.011642	2534.311547
980.309020	2537.600900
980.606360	2534.102339
980.903664	2539.882022
981.200931	2537.187525
981.498162	2539.201466
981.795356	2539.120808
982.092513	2544.028371
982.389633	2545.659184
982.686717	2551.030533
982.983764	2548.978784
983.280775	2554.118240
983.577749	2551.988353
983.874686	2550.856614
984.171587	2548.532642
984.468451	2546.503577
984.765279	2545.142466
985.062070	2542.266488
985.358824	2541.580891
985.655543	2537.399253
985.952224	2539.098122
986.248869	2539.302289
986.545478	2533.729293
986.842050	2533.008408
987.138586	2535.309695
987.435086	2531.561597
987.731549	2530.311391
988.027975	2534.543440
988.324366	2532.922709
988.620719	2532.852133
988.917037	2533.820034
989.213318	2535.914634
989.509563	2533.189890
989.805772	2534.515713
990.101944	2533.714170
990.398080	2530.444982
990.694180	2535.352545
990.990244	2534.243491
991.286271	2534.130065
991.582262	2534.500590
991.878217	2533.706608
992.174136	2532.857174
992.470019	2531.503624
992.765865	2532.040507
993.061676	2533.860363
993.357450	2533.885569
993.653188	2532.942873
993.948890	2533.613347
994.244556	2531.516227
994.540186	2534.888759
994.835780	2534.344314
995.131337	2535.917154
995.426859	2536.106197
995.722345	2535.607123
996.017795	2536.441434
996.313208	2537.258101
996.608586	2539.695499
996.903928	2540.950746
997.199234	2537.540406
997.494504	2535.382792
997.789738	2535.534027
998.084936	2539.017464
998.380099	2535.839016
998.675225	2538.778009
998.970316	2533.595703
999.265371	2535.168543
999.560390	2532.005219
999.855373	2535.677699
1000.150320	2533.421783
1000.445232	2535.196269
1000.740108	2532.030425
1001.034948	2530.588655
1001.329752	2532.484128
1001.624521	2531.944725
1001.919254	2527.349713
1002.213951	2530.051772
1002.508613	2528.088242
1002.803239	2531.871628
1003.097829	2528.456247
1003.392384	2531.806093
1003.686903	2529.318284
1003.981386	2535.546629
1004.275834	2529.850126
1004.570246	2533.507483
1004.864623	2531.060002
1005.158964	2531.770805
1005.453270	2531.785929
1005.747540	2532.872297
1006.041775	2533.051258
1006.335974	2533.603265
1006.630138	2531.191072
1006.924266	2531.536392
1007.218359	2531.851464
1007.512416	2530.129910
1007.806438	2531.193593
1008.100425	2531.319622
1008.394376	2533.721732
1008.688292	2530.944056
1008.982172	2530.755013
1009.276017	2533.749458
1009.569827	2534.820703
1009.863602	2530.636546
1010.157341	2531.548994
1010.451045	2532.920188
1010.744714	2529.676206
1011.038347	2528.461288
1011.331945	2533.068902
1011.625508	2530.911288
1011.919036	2530.334076
1012.212528	2531.276772
1012.505986	2531.238963
1012.799408	2530.908768
1013.092795	2529.577903
1013.386147	2532.441279
1013.679464	2530.444982
1013.972745	2530.540764
1014.265992	2532.408511
1014.559204	2531.065044
1014.852380	2533.630991
1015.145521	2531.775846
1015.438628	2530.649148
1015.731699	2530.359282
1016.024736	2531.601927
1016.317737	2530.828109
1016.610703	2532.547143
1016.903635	2528.163860
1017.196531	2525.282840
1017.489393	2527.223684
1017.782219	2526.608664
1018.075011	2529.363654
1018.367768	2529.527492
1018.660490	2530.893644
1018.953177	2530.893644
1019.245829	2530.893644
