Dividing Wavelength (nm)	Counts (n)	Blue Motor Position (mm): 48.100000	Red Motor Position (mm): 0.000000	
326.493990	2279.241765
326.888308	2279.241765
327.282561	2279.241765
327.676750	2240.906311
328.070874	2236.321381
328.464933	2238.894890
328.858929	2243.358832
329.252859	2247.313617
329.646726	2255.729823
330.040528	2265.754158
330.434265	2280.335695
330.827938	2299.063582
331.221547	2314.809626
331.615091	2331.384940
332.008571	2354.992663
332.401986	2373.501260
332.795338	2392.115720
333.188625	2410.352094
333.581847	2431.507296
333.975006	2450.537652
334.368100	2468.829479
334.761129	2487.517036
335.154095	2505.435817
335.546996	2528.423479
335.939833	2573.146075
336.332606	2584.536562
336.725315	2599.241608
337.117960	2611.234513
337.510540	2622.420834
337.903056	2632.891310
338.295508	2640.841210
338.687896	2651.009217
339.080220	2656.539363
339.472480	2663.690240
339.864676	2668.514624
340.256807	2674.874039
340.648875	2679.043074
341.040879	2679.637930
341.432818	2681.944258
341.824694	2684.295956
342.216506	2686.095648
342.608253	2688.170083
342.999937	2686.138498
343.391557	2688.253262
343.783113	2688.028930
344.174605	2684.805112
344.566033	2683.522139
344.957397	2685.150432
345.348697	2682.085410
345.739934	2683.948116
346.131106	2680.840245
346.522215	2677.291273
346.913260	2676.676252
347.304241	2674.196004
347.695159	2675.577280
348.086012	2670.573935
348.476802	2668.723832
348.867528	2664.728717
349.258191	2664.625374
349.648789	2661.600681
350.039324	2659.564055
350.429796	2665.116886
350.820203	2662.349293
351.210548	2662.238387
351.600828	2660.491627
351.991045	2657.948365
352.381198	2657.323262
352.771288	2657.109013
353.161314	2657.739157
353.551276	2657.499703
353.941175	2657.623211
354.331010	2658.006339
354.720782	2653.113899
355.110490	2654.868220
355.500135	2657.058602
355.889717	2658.477687
356.279235	2655.221101
356.668689	2657.154384
357.058080	2659.372491
357.447408	2656.385608
357.836672	2655.936945
358.225873	2659.284271
358.615010	2656.559527
359.004084	2658.213026
359.393095	2659.886689
359.782043	2661.807369
360.170927	2659.700166
360.559748	2661.124292
360.948505	2664.960610
361.337199	2667.224088
361.725830	2665.689057
362.114398	2664.017915
362.502903	2665.615960
362.891344	2662.682009
363.279722	2666.629232
363.668037	2665.729386
364.056289	2667.022442
364.444478	2667.854233
364.832603	2668.469253
365.220665	2670.032011
365.608665	2670.115190
365.996601	2670.465550
366.384474	2669.359017
366.772284	2670.387412
367.160031	2672.277845
367.547715	2671.264573
367.935336	2673.054183
368.322893	2673.515448
368.710388	2671.766168
369.097820	2671.309944
369.485189	2669.555622
369.872495	2675.357990
370.259738	2679.612724
370.646918	2682.433250
371.034035	2683.890143
371.421090	2688.706966
371.808081	2689.823581
372.195010	2699.172401
372.581875	2705.627598
372.968678	2714.807540
373.355418	2725.225084
373.742096	2735.612382
374.128710	2750.057808
374.515262	2763.333687
374.901751	2780.299690
375.288177	2794.135137
375.674540	2816.449804
376.060841	2836.798422
376.447079	2860.955631
376.833254	2889.032337
377.219367	2906.878022
377.605417	2942.133331
377.991404	2966.035962
378.377329	3003.411077
378.763191	3023.421937
379.148991	3067.705953
379.534727	3109.073661
379.920402	3144.848210
380.306013	3167.114986
380.691563	3232.985223
381.077049	3254.964654
381.462474	3295.487969
381.847835	3352.972246
382.233134	3393.614028
382.618371	3420.506064
383.003545	3489.761435
383.388657	3512.764220
383.773706	3572.582552
384.158693	3603.449537
384.543618	3631.599340
384.928480	3694.606201
385.313280	3748.188625
385.698017	3769.227881
386.082692	3862.395966
386.467305	3865.718086
386.851856	3899.987850
387.236344	3976.537771
387.620770	4006.593130
388.005133	4054.539545
388.389435	4101.281123
388.773674	4113.498359
389.157851	4189.183723
389.541965	4254.070934
389.926018	4218.901325
390.310008	4317.781037
390.693936	4378.163978
391.077802	4408.501641
391.461606	4407.216147
391.845348	4471.011949
392.229027	4533.605436
392.612645	4526.663767
392.996200	4632.785097
393.379694	4694.173747
393.763125	4800.048061
394.146494	4825.755425
394.529801	4882.917068
394.913047	4968.102486
395.296230	4915.545936
395.679351	5019.486967
396.062410	5074.334721
396.445408	5045.912695
396.828343	5106.945945
397.211217	5163.605994
397.594028	5049.411256
397.976778	5166.792003
398.359466	5211.910330
398.742092	5231.989246
399.124656	5155.729191
399.507158	5273.941728
399.889598	5336.056305
400.271977	5457.285973
400.654294	5454.102484
401.036549	5502.376573
401.418742	5420.931692
401.800874	5626.736797
402.182944	5690.562846
402.564952	5791.771572
402.946898	5854.581828
403.328783	5685.047824
403.710606	5711.408017
404.092367	6031.145721
404.474067	6056.870729
404.855705	5945.972906
405.237282	5887.150202
405.618797	6152.085522
406.000250	6120.096880
406.381642	6330.577656
406.762972	6352.443661
407.144240	6404.581795
407.525447	6390.527058
407.906593	6402.129273
408.287677	6570.707979
408.668700	6489.326112
409.049661	6593.758655
409.430560	6623.624971
409.811399	6487.826368
410.192176	6748.285143
410.572891	6778.411079
410.953545	6959.426311
411.334138	6692.993768
411.714669	6863.717484
412.095139	6654.617984
412.475547	6901.009420
412.855894	6974.695966
413.236180	7163.025912
413.616405	6813.139588
413.996568	7030.899790
414.376670	7089.382216
414.756711	6984.359857
415.136691	7087.950528
415.516609	7287.328162
415.896466	7266.954339
416.276262	7474.932182
416.655997	7465.515307
417.035670	7635.097202
417.415283	7984.275243
417.794834	8047.708082
418.174324	7911.528873
418.553753	7837.033222
418.933121	8125.873693
419.312428	8224.748364
419.691674	8001.757965
420.070859	8477.723547
420.449983	8165.852564
420.829045	8538.865181
421.208047	8297.535064
421.586988	8617.174465
421.965867	8642.052559
422.344686	8725.909633
422.723444	8807.644381
423.102141	8136.490363
423.480777	8900.691478
423.859352	8432.191845
424.237866	9044.497953
424.616319	8912.782685
424.994712	9346.503398
425.373044	8878.618786
425.751314	9374.161688
426.129524	9253.274819
426.507673	9329.345830
426.885762	9485.888781
427.263789	9402.692098
427.641756	9343.387964
428.019662	9428.636397
428.397508	9712.652484
428.775292	9355.343061
429.153016	9746.216486
429.530679	9579.046783
429.908282	9583.765303
430.285824	9317.877205
430.663305	10007.605354
431.040726	9459.876427
431.418086	9438.517058
431.795385	9772.236402
432.172624	9871.050579
432.549802	9768.546277
432.926920	9840.793573
433.303977	9715.294048
433.680974	9918.903732
434.057910	10017.833855
434.434786	10098.411658
434.811601	9906.842771
435.188355	10474.675820
435.565050	10226.275484
435.941683	10142.546960
436.318257	10621.570002
436.694770	10803.459873
437.071222	10848.343787
437.447614	10665.238997
437.823946	10603.462177
438.200218	10682.641060
438.576429	10530.317555
438.952580	10784.883222
439.328670	10790.168871
439.704700	10601.612073
440.080670	10594.698131
440.456580	11103.985739
440.832429	10901.238093
441.208218	10507.728145
441.583947	10785.639395
441.959616	10977.661986
442.335224	10797.864193
442.710773	10894.210725
443.086261	11134.197374
443.461689	10391.811853
443.837057	11087.392782
444.212365	11311.209930
444.587612	10943.064547
444.962800	11156.474233
445.337927	10894.034285
445.712995	10584.993910
446.088002	11609.726896
446.462949	11320.591517
446.837837	11281.325970
447.212664	11187.989007
447.587431	11805.797534
447.962139	12577.812437
448.336786	14874.985586
448.711374	15345.141238
449.085901	13156.826765
449.460369	12805.327272
449.834776	12251.916964
450.209124	13199.802601
450.583412	13629.215648
450.957640	14547.580288
451.331808	13564.381368
451.705917	12652.870176
452.079965	11883.002805
452.453954	12807.749546
452.827883	12467.164151
453.201752	12749.045309
453.575562	12312.241932
453.949311	12720.910630
454.323001	12714.377294
454.696632	12952.962503
455.070202	13223.407804
455.443713	13410.341350
455.817164	13914.829780
456.190556	13878.001631
456.563888	14237.279624
456.937160	14370.298030
457.310373	13741.875354
457.683526	13864.687944
458.056619	13372.999003
458.429653	13595.417232
458.802628	12934.605141
459.175542	13363.703116
459.548398	14306.414008
459.921194	14687.124467
460.293930	14758.844963
460.666607	15593.155925
461.039224	16649.983417
461.411782	17384.839975
461.784280	17134.198847
462.156719	17270.272192
462.529099	16933.467662
462.901419	15894.798406
463.273680	15644.903369
463.645882	15564.559979
464.018024	15272.755310
464.390106	15513.087278
464.762130	16220.580453
465.134094	17028.301848
465.505999	19117.073698
465.877845	22396.687073
466.249631	25176.865775
466.621358	24770.332006
466.993026	23365.979970
467.364634	22767.942848
467.736184	21286.728340
468.107674	20505.026860
468.479105	20629.992023
468.850477	20083.016748
469.221790	19699.140444
469.593043	19001.008692
469.964238	18420.166946
470.335373	18052.785298
470.706449	18572.424916
471.077467	18166.445673
471.448425	20057.269055
471.819324	24229.653132
472.190164	26007.529462
472.560945	22287.904014
472.931667	20012.569143
473.302330	19421.428320
473.672934	19079.713707
474.043479	19272.868037
474.413965	19090.317774
474.784393	18670.959309
475.154761	19475.177102
475.525070	19357.675368
475.895321	19099.752293
476.265513	19716.988649
476.635645	20296.736465
477.005719	20041.374297
477.375734	20231.035107
477.745691	20727.293853
478.115588	21278.962442
478.485427	21848.693485
478.855207	22950.694757
479.224928	24751.364664
479.594591	26991.330800
479.964194	26845.182708
480.333739	27096.859794
480.703226	26688.049943
481.072653	26408.807829
481.442022	27053.856231
481.811333	27988.208890
482.180584	27844.291510
482.549777	26897.875369
482.918912	26571.889156
483.287988	26719.756280
483.657005	26320.741392
484.025964	26121.729241
484.394864	25978.968805
484.763706	25622.274403
485.132489	25114.383194
485.501213	25283.755881
485.869879	25202.353849
486.238487	25061.360338
486.607036	25165.709702
486.975527	24943.634272
487.343959	25217.489913
487.712333	25118.441323
488.080648	24782.745847
488.448905	25302.995444
488.817104	25073.938017
489.185244	25790.782532
489.553326	25728.791463
489.921350	26797.619422
490.289315	29173.162349
490.657222	30841.237307
491.025070	31378.357126
491.392861	31105.149272
491.760593	30232.704503
492.128267	29302.563727
492.495883	28246.058868
492.863440	27368.474642
493.230939	26521.669181
493.598380	26347.562851
493.965763	25972.001930
494.333088	25453.254597
494.700354	25442.821929
495.067563	25272.188953
495.434713	25026.717528
495.801805	25216.645520
496.168839	24980.999304
496.535815	24858.799214
496.902733	25092.418887
497.269593	24793.667507
497.636395	24943.946823
498.003139	24864.805749
498.369825	24613.592450
498.736453	24826.442568
499.103023	24697.658732
499.469535	24683.046947
499.835989	24926.690954
500.202385	24937.567243
500.568723	24481.098324
500.935003	24651.577544
501.301226	24347.797614
501.667390	25205.076072
502.033497	25395.631687
502.399546	25127.119669
502.765537	24655.406301
503.131470	25041.034405
503.497345	25189.163670
503.863163	24446.243787
504.228923	24960.539781
504.594625	25231.975669
504.960269	24796.762775
505.325856	25274.160044
505.691385	24659.759337
506.056856	25267.150320
506.422270	25274.434787
506.787625	24783.073522
507.152924	25208.569592
507.518164	25252.573824
507.883347	25070.131945
508.248472	24732.299020
508.613540	25505.022205
508.978550	25301.679703
509.343503	25343.256620
509.708398	25520.798496
510.073236	25703.552926
510.438016	25904.447948
510.802738	25563.295423
511.167403	25828.066906
511.532010	25588.264258
511.896561	26311.379969
512.261053	26289.579499
512.625488	26128.156712
512.989866	26012.759659
513.354186	25839.391858
513.718449	25961.574303
514.082655	26344.210483
514.446803	26054.021503
514.810894	26552.410137
515.174927	26049.025720
515.538904	26076.167292
515.902822	26579.322337
516.266684	26324.670971
516.630488	26225.067853
516.994235	26163.913616
517.357925	26520.698759
517.721558	26663.320563
518.085133	26813.683059
518.448651	26688.609511
518.812112	26452.088655
519.175516	26686.731681
519.538863	26826.870717
519.902152	26628.934852
520.265385	26869.375206
520.628560	26682.817225
520.991678	26653.107185
521.354739	26714.579015
521.717743	26823.543556
522.080690	26580.396103
522.443580	26922.445953
522.806413	26880.790899
523.169189	27005.929981
523.531908	27034.407459
523.894569	26683.429726
524.257174	26777.595959
524.619722	26899.486018
524.982213	26628.324873
525.344647	26628.738247
525.707025	26809.929920
526.069345	26746.063542
526.431608	26731.020738
526.793815	26892.405717
527.155964	26406.677941
527.518057	26580.948109
527.880093	26485.236762
528.242072	26713.621196
528.603995	26442.437366
528.965860	26205.848454
529.327669	26254.377122
529.689421	26246.674239
530.051117	26093.312256
530.412755	26259.874500
530.774337	26036.621961
531.135862	25933.812669
531.497331	26128.040765
531.858743	25727.760547
532.220098	26154.685784
532.581396	25871.398143
532.942638	25755.532263
533.303824	25875.529369
533.664953	25874.690017
534.026025	25538.992021
534.387040	25787.939321
534.747999	25818.544166
535.108902	25979.470400
535.469748	25495.814538
535.830537	25639.585725
536.191270	25787.515864
536.551947	25594.790032
536.912567	25211.201074
537.273131	25684.789752
537.633638	25342.157648
537.994089	25558.491204
538.354483	25044.343923
538.714821	25552.961058
539.075103	25610.480623
539.435328	25369.815939
539.795497	24987.567928
540.155609	25295.133765
540.515665	25619.075791
540.875665	24826.921478
541.235609	25189.282137
541.595496	25100.081440
541.955328	25466.994261
542.315102	25390.078857
542.674821	24905.959209
543.034483	24785.848677
543.394090	24950.712052
543.753640	24768.098774
544.113134	25410.946713
544.472571	24979.282791
544.831953	25271.604179
545.191278	24944.760970
545.550548	24818.119623
545.909761	25029.873291
546.268918	25259.339052
546.628019	25264.123107
546.987064	24923.303298
547.346053	24647.295084
547.704986	24754.341466
548.063863	24909.296452
548.422684	24955.133144
548.781449	24436.826911
549.140158	24847.340672
549.498811	24423.979531
549.857408	24191.678120
550.215949	24566.014040
550.574434	24281.521564
550.932864	24462.728360
551.291237	24665.609596
551.649555	24498.218083
552.007817	24556.967690
552.366022	24412.546194
552.724173	24421.038017
553.082267	24388.043665
553.440305	24878.404262
553.798288	24107.652168
554.156215	24595.961015
554.514086	24750.167390
554.871902	24142.831860
555.229661	24401.294338
555.587365	24241.971192
555.945014	24166.981508
556.302606	24352.705177
556.660143	24362.467371
557.017625	24587.809469
557.375050	24114.780359
557.732421	24488.158460
558.089735	24318.707635
558.446994	24360.902093
558.804197	24406.587550
559.161345	24292.607061
559.518437	24100.604635
559.875474	24250.899075
560.232455	24427.291569
560.589381	24234.474996
560.946251	24250.410083
561.303065	24536.475399
561.659825	24646.445650
562.016528	24256.046093
562.373177	23970.252999
562.729770	24343.391645
563.086307	24181.263096
563.442789	24359.019222
563.799216	24214.489341
564.155587	24197.924110
564.511904	24181.051368
564.868164	24146.282530
565.224370	24103.881385
565.580520	24050.790473
565.936615	24162.683924
566.292654	23873.188103
566.648638	24094.693882
567.004567	23934.327216
567.360441	23870.329768
567.716260	23580.856632
568.072023	23888.228385
568.427732	23682.385471
568.783385	23443.220529
569.138982	23702.308111
569.494525	23729.429518
569.850013	23492.265915
570.205445	23597.434467
570.560823	23426.957767
570.916145	23198.464948
571.271412	23383.253484
571.626625	23129.917859
571.981782	23225.941757
572.336884	23043.411659
572.691931	23178.292771
573.046923	22918.164192
573.401860	22784.157719
573.756743	22833.868537
574.111570	22713.821020
574.466342	22636.313280
574.821059	22726.703689
575.175722	22420.249426
575.530330	22374.800904
575.884882	22372.275286
576.239380	22295.737967
576.593823	22184.809898
576.948211	22166.132422
577.302544	22016.533662
577.656823	21868.192668
578.011047	21987.378148
578.365216	21863.688397
578.719330	21734.166032
579.073389	21610.274635
579.427394	21779.957353
579.781344	21512.027588
580.135239	21415.247516
580.489080	21356.631500
580.842866	21140.381123
581.196597	21358.433712
581.550273	21316.037608
581.903895	21188.624965
582.257463	21497.362871
582.610975	21038.539733
582.964434	21382.573277
583.317837	21025.979698
583.671186	21113.990683
584.024481	21105.410639
584.377721	20870.477746
584.730906	20960.971499
585.084037	20931.022004
585.437113	20865.580265
585.790135	21079.020198
586.143103	20530.328411
586.496016	20562.712783
586.848874	20791.936569
587.201679	20692.961075
587.554428	20400.435520
587.907124	20734.527909
588.259765	20479.652212
588.612352	20555.579551
588.964884	20129.201279
589.317362	20289.840167
589.669786	20352.206802
590.022155	20345.567602
590.374470	20599.634194
590.726731	20340.264308
591.078937	20155.838736
591.431090	20225.814992
591.783188	19999.351238
592.135232	19962.427307
592.487222	20049.752694
592.839157	20056.003725
593.191038	19935.099212
593.542866	19827.074847
593.894639	19529.306492
594.246358	19763.531102
594.598022	19627.813158
594.949633	19382.530777
595.301190	19381.691425
595.652692	19554.166942
596.004141	19752.211191
596.355535	19081.808306
596.706876	19118.147463
597.058162	19006.372480
597.409395	19258.757847
597.760573	19298.741759
598.111698	19065.084278
598.462768	19021.926960
598.813785	18996.191870
599.164748	18786.936094
599.515657	18845.239559
599.866511	18653.305188
600.217312	18990.928905
600.568060	18498.514038
600.918753	18813.031627
601.269392	18708.140339
601.619978	18514.991050
601.970510	18685.326597
602.320988	18639.978898
602.671412	18838.612962
603.021783	18779.555845
603.372100	18475.062591
603.722363	18634.496643
604.072572	18584.037213
604.422728	18741.764835
604.772830	18485.361668
605.122878	18437.470707
605.472872	18417.689219
605.822813	18400.506446
606.172701	18401.605418
606.522534	18561.382268
606.872314	18605.600749
607.222041	18437.420295
607.571714	18650.603129
607.921333	18474.646696
608.270899	18558.271876
608.620411	18692.853040
608.969870	18497.047063
609.319276	18492.346187
609.668627	18512.888889
610.017926	18658.001023
610.367171	18770.171737
610.716362	18833.710440
611.065500	18626.665210
611.414585	18791.611764
611.763616	18779.596174
612.112594	18699.681283
612.461518	18676.086162
612.810389	18875.189054
613.159207	18714.834991
613.507971	18640.470410
613.856682	18883.741371
614.205340	18803.554258
614.553945	18963.202559
614.902496	18707.023723
615.250994	18901.637467
615.599439	18858.538123
615.947830	18837.889557
616.296169	18932.249874
616.644454	18874.994969
616.992686	18854.356486
617.340864	19081.483152
617.688990	18822.524120
618.037063	18995.644904
618.385082	18858.016363
618.733048	19120.209295
619.080961	19024.840747
619.428821	19051.863852
619.776628	18915.089787
620.124382	18847.959261
620.472083	18912.818747
620.819731	18909.781452
621.167326	18603.148228
621.514868	18648.747985
621.862357	18437.258978
622.209793	18419.456143
622.557176	18266.913348
622.904506	18092.723839
623.251783	18032.812246
623.599007	17767.544210
623.946179	17706.657154
624.293297	17640.194582
624.640363	17367.987397
624.987376	17398.670380
625.334336	17197.238476
625.681243	17047.201134
626.028097	17069.455308
626.374899	16975.168087
626.721647	16845.063468
627.068343	16686.990527
627.414987	16615.280114
627.761577	16574.383753
628.108115	16601.306035
628.454600	16328.483830
628.801032	16437.854184
629.147412	16380.710184
629.493739	16378.245060
629.840014	16190.746904
630.186236	16287.037984
630.532405	16059.278653
630.878521	16250.303096
631.224585	16159.501833
631.570597	15983.931047
631.916556	16009.280489
632.262462	15975.149357
632.608316	15894.332099
632.954117	15833.775239
633.299866	15828.837429
633.645562	15744.211579
633.991206	15527.210071
634.336797	15389.727723
634.682336	15356.935017
635.027823	15216.904366
635.373257	15080.878912
635.718639	15011.361400
636.063968	14931.509523
636.409245	14691.474983
636.754470	14725.966558
637.099642	14584.224435
637.444762	14362.141443
637.789829	14398.999840
638.134845	14231.003388
638.479808	14263.107976
638.824719	14171.565663
639.169577	14035.240261
639.514383	14065.711515
639.859137	13898.216658
640.203839	13992.415659
640.548489	13853.184031
640.893086	13837.455631
641.237632	13716.041961
641.582125	13879.408113
641.926566	13682.513247
642.270955	13706.050394
642.615292	13654.381087
642.959576	13661.847036
643.303809	13684.572558
643.647990	13624.388743
643.992118	13691.627653
644.336195	13449.495992
644.680219	13686.178165
645.024192	13589.206530
645.368112	13838.978059
645.711981	13866.180125
646.055797	14054.227767
646.399562	14044.843659
646.743274	14296.717349
647.086935	14569.736159
647.430544	14533.281055
647.774101	14580.458693
648.117606	14709.424011
648.461059	14699.288772
648.804460	14667.340459
649.147810	14400.232402
649.491108	14306.923165
649.834354	14331.884438
650.177548	14002.394623
650.520690	13810.818174
650.863781	13734.873191
651.206820	13785.481334
651.549807	13617.505047
651.892742	13390.607754
652.235626	13336.422912
652.578458	13344.110671
652.921238	13049.150239
653.263967	13240.663674
653.606644	13075.583529
653.949269	13058.862022
654.291843	12848.875279
654.634365	13020.856763
654.976836	12865.281714
655.319255	12856.837782
655.661622	12819.964262
656.003938	12748.097572
656.346203	12664.343843
656.688416	12753.471443
657.030577	12693.320395
657.372687	12596.328595
657.714746	12595.070827
658.056753	12780.111420
658.398708	12587.425917
658.740612	12601.319337
659.082465	12704.035367
659.424266	12677.962520
659.766016	12707.012169
660.107715	12624.664921
660.449362	12706.172817
660.790958	12633.255047
661.132503	12583.849218
661.473996	12672.818022
661.815438	12677.307170
662.156829	12700.511601
662.498168	12668.152434
662.839456	12675.091583
663.180693	12687.376874
663.521879	12787.121144
663.863013	12752.095207
664.204097	12725.974469
664.545129	12860.855581
664.886110	12834.838186
665.227040	12926.589707
665.567918	12919.254828
665.908746	12943.651492
666.249522	12935.774689
666.590248	12997.506138
666.930922	13108.202315
667.271545	13071.706882
667.612118	13160.710974
667.952639	13059.754306
668.293109	13087.611722
668.633528	13028.204245
668.973896	13011.029034
669.314213	13070.494484
669.654480	12816.014518
669.994695	12907.781162
670.334859	12928.540633
670.674973	12863.469419
671.015035	12890.530333
671.355047	12845.792613
671.695008	12820.841422
672.034918	12834.089575
672.374777	12871.752035
672.714585	12782.689970
673.054342	12823.331752
673.394049	12782.526133
673.733705	12870.453938
674.073310	12761.854881
674.412864	12785.114765
674.752368	12636.491467
675.091820	12686.000639
675.431223	12657.780260
675.770574	12520.975948
676.109875	12435.755242
676.449125	12392.605486
676.788324	12346.070594
677.127473	12169.947802
677.466571	12165.816577
677.805619	12049.229812
678.144616	11995.196204
678.483562	11966.484313
678.822458	11841.748523
679.161303	11816.585603
679.500098	11792.892180
679.838842	11751.627815
680.177535	11800.216977
680.516179	11865.131915
680.854771	11796.786471
681.193314	12023.381296
681.531805	12188.960514
681.870247	12631.702371
682.208638	13039.466183
682.546978	13325.377743
682.885268	13344.952544
683.223508	13059.938308
683.561697	12904.736305
683.899836	12820.949807
684.237925	12610.716048
684.575963	12521.336390
684.913951	12441.282867
685.251889	12394.889128
685.589776	12499.183040
685.927614	12416.871080
686.265401	12391.955177
686.603137	12453.089249
686.940824	12602.950150
687.278460	12731.237433
687.616046	12755.601330
687.953582	12904.678332
688.291068	12866.027805
688.628504	13082.245414
688.965889	13089.552567
689.303224	13037.558106
689.640510	12921.283892
689.977745	12610.501799
690.314930	12393.185218
690.652065	12292.959518
690.989150	11993.315854
691.326185	11769.062646
691.663170	11565.929352
692.000105	11330.089051
692.336990	11204.087931
692.673825	10944.652510
693.010610	10829.706641
693.347345	10626.139808
693.684030	10434.618811
694.020665	10380.106294
694.357251	10179.455768
694.693786	10096.576678
695.030272	9953.125604
695.366707	9836.067492
695.703093	9779.173029
696.039429	9764.495710
696.375716	9670.601699
696.711952	9545.031598
697.048139	9597.764587
697.384276	9548.590652
697.720363	9573.844312
698.056400	9504.238581
698.392388	9447.331516
698.728326	9421.258668
699.064214	9357.011683
699.400053	9387.674501
699.735842	9206.470226
700.071581	9177.158437
700.407270	9100.384184
700.742910	9019.758490
701.078501	8922.171834
701.414042	8788.661916
701.749533	8731.316270
702.084974	8588.923839
702.420366	8716.170123
702.755709	8592.187986
703.091002	8459.472049
703.426246	8490.523036
703.761440	8439.854399
704.096584	8398.632884
704.431679	8331.807348
704.766725	8317.490472
705.101721	8275.217876
705.436668	8326.546904
705.771565	8214.366108
706.106413	8297.114128
706.441212	8330.249632
706.775961	8297.678737
707.110661	8345.645316
707.445311	8470.459244
707.779913	8368.179273
708.114465	8490.207964
708.448967	8528.785394
708.783421	8696.678502
709.117825	8864.962300
709.452180	8901.223319
709.786485	8981.365063
710.120742	9269.328373
710.454949	9282.216083
710.789107	9391.225994
711.123216	9610.848902
711.457275	9785.789544
711.791286	9922.014123
712.125247	9934.032234
712.459159	9927.188868
712.793023	10136.618563
713.126837	9715.213390
713.460602	9883.638340
713.794318	9707.888593
714.127985	9733.144774
714.461602	9387.435046
714.795171	9353.946661
715.128691	9094.579296
715.462162	8855.192544
715.795584	8790.249879
716.128957	8619.574054
716.462281	8458.259652
716.795556	8497.709201
717.128782	8294.046586
717.461960	8044.103657
717.795088	8109.600849
718.128167	8009.728029
718.461198	7849.825150
718.794180	7806.511556
719.127113	7798.765823
719.459997	7617.788400
719.792833	7397.958804
720.125619	7472.701472
720.458357	7329.124369
720.791046	7319.730179
721.123686	7302.615462
721.456278	7142.654609
721.788821	7158.950139
722.121315	7069.207518
722.453761	7141.472458
722.786158	7073.144659
723.118506	7079.902326
723.450805	7043.573251
723.783056	7104.767817
724.115259	7025.384767
724.447412	7026.582042
724.779518	7082.296874
725.111574	7080.648417
725.443582	7154.529047
725.775542	7128.315047
726.107453	7323.465674
726.439315	7229.937147
726.771129	7317.010476
727.102895	7494.645614
727.434612	7592.685974
727.766281	7636.952346
728.097901	7710.001186
728.429473	7721.532826
728.760996	7714.807926
729.092471	7688.261210
729.423897	7623.709235
729.755276	7615.320755
730.086606	7522.253493
730.417887	7635.142572
730.749120	7859.310081
731.080305	8049.406951
731.411442	8144.203329
731.742530	8125.399825
732.073570	8229.746668
732.404562	8313.334040
732.735506	8185.248403
733.066401	8313.737333
733.397249	8228.630053
733.728048	7981.116961
734.058798	7647.213615
734.389501	7418.322545
734.720156	7247.734940
735.050762	7027.020622
735.381320	6949.414579
735.711831	6883.186420
736.042293	6771.610562
736.372707	6783.348889
736.703073	6660.155692
737.033391	6698.004675
737.363661	6706.577157
737.693883	6748.275061
738.024056	6830.302196
738.354182	6860.617175
738.684260	6893.954325
739.014290	7027.093719
739.344272	7128.925026
739.674207	7162.249574
740.004093	7240.659681
740.333931	7249.204437
740.663722	7255.392453
740.993464	7336.431522
741.323159	7303.515308
741.652806	7064.962866
741.982405	7108.319310
742.311956	7141.737119
742.641460	6958.329860
742.970915	6765.795591
743.300323	6753.129692
743.629683	6718.920422
743.958996	6573.674698
744.288260	6486.155226
744.617477	6436.419202
744.946647	6424.214568
745.275768	6265.188850
745.604842	6219.400049
745.933869	6203.059149
746.262847	6160.214383
746.591778	6149.811962
746.920662	6105.966526
747.249498	6108.615653
747.578286	6157.650956
747.907027	6230.062090
748.235720	6293.749507
748.564365	6260.046873
748.892963	6311.207023
749.221514	6441.394821
749.550017	6248.991622
749.878473	6144.392721
750.206881	6209.665581
750.535242	6157.633312
750.863555	6087.374751
751.191821	6095.700216
751.520039	6086.689154
751.848210	5996.155072
752.176334	6035.894488
752.504411	6072.541156
752.832440	5996.213045
753.160421	5926.798877
753.488356	5980.277958
753.816243	5998.519373
754.144082	5858.486202
754.471875	5833.338406
754.799620	5869.632193
755.127318	5885.847064
755.454969	5844.323080
755.782572	5813.700591
756.110129	5853.724832
756.437638	5827.019319
756.765100	5774.001504
757.092515	5785.805366
757.419882	5842.170507
757.747203	5809.019879
758.074477	5868.122367
758.401703	5846.820972
758.728882	5816.473225
759.056014	5887.659359
759.383099	5993.979814
759.710138	6003.003479
760.037129	5997.624568
760.364073	5998.010217
760.690970	6076.702628
761.017820	6049.830757
761.344623	6019.263721
761.671379	6134.459128
761.998088	6256.631491
762.324751	6523.679054
762.651366	7171.449680
762.977935	8564.073471
763.304456	10228.102903
763.630931	11069.514329
763.957359	10587.390978
764.283740	9615.491805
764.610074	8736.715346
764.936362	7738.299703
765.262602	7147.292470
765.588796	6624.698736
765.914943	6298.309231
766.241044	6117.054544
766.567097	5903.294498
766.893104	5644.113655
767.219064	5473.001770
767.544978	5411.146812
767.870845	5327.781251
768.196665	5223.956167
768.522438	5150.627543
768.848165	5117.981031
769.173846	5042.462026
769.499479	4999.355119
769.825066	4953.568839
770.150607	4892.076845
770.476101	4875.045306
770.801548	4862.271022
771.126949	4770.126292
771.452303	4720.239033
771.777611	4686.296945
772.102872	4707.542887
772.428087	4668.128626
772.753256	4621.543323
773.078378	4569.831167
773.403453	4501.999922
773.728482	4491.189167
774.053465	4447.260553
774.378401	4440.021456
774.703291	4424.691307
775.028135	4352.441490
775.352932	4306.438441
775.677683	4290.957057
776.002388	4309.982372
776.327046	4314.605110
776.651658	4243.328236
776.976224	4178.909851
777.300743	4188.626675
777.625216	4209.897824
777.949643	4197.841904
778.274024	4161.906039
778.598359	4121.695276
778.922647	4153.913290
779.246889	4135.205568
779.571086	4129.935042
779.895236	4114.781333
780.219339	4104.444447
780.543397	4098.274075
780.867409	4153.235255
781.191374	4163.554497
781.515294	4094.236111
781.839167	4094.823405
782.162995	4120.946664
782.486776	4102.579220
782.810511	4118.342908
783.134201	4104.615846
783.457844	4050.667938
783.781441	4001.778828
784.104993	4013.582690
784.428498	4025.381511
784.751958	4020.015202
785.075372	3995.742047
785.398739	3964.320535
785.722061	3976.268069
786.045337	4019.579143
786.368568	4044.782391
786.691752	3958.876089
787.014891	4022.213146
787.337983	4157.495030
787.661030	4321.723219
787.984031	4477.401612
788.306987	4639.608298
788.629897	4733.225046
788.952760	4682.753013
789.275579	4621.029126
789.598351	4544.070871
789.921078	4385.433321
790.243759	4194.938200
790.566395	4188.268753
790.888984	4175.660828
791.211529	4070.348603
791.534027	4008.206300
791.856480	3989.193588
792.178888	3930.567489
792.501249	3891.501067
792.823566	3901.051533
793.145836	3919.383689
793.468062	3866.534753
793.790241	3829.845235
794.112375	3860.301366
794.434464	3931.885751
794.756507	3948.488791
795.078505	3923.416612
795.400457	3967.950166
795.722364	4115.645891
796.044226	4214.570973
796.366042	4289.122077
796.687812	4256.740225
797.009538	4263.669291
797.331218	4228.502202
797.652852	4203.835836
797.974442	4175.829706
798.295986	4172.026156
798.617484	4087.193619
798.938938	4007.727390
799.260346	4055.986356
799.581709	4039.363151
799.903026	3961.270637
800.224299	3931.522788
800.545526	3921.153134
800.866708	3881.038153
801.187845	3834.024352
801.508936	3861.506202
801.829983	3848.920962
802.150984	3773.898510
802.471940	3774.246350
802.792851	3774.526134
803.113717	3774.203500
803.434538	3775.194087
803.755314	3714.748131
804.076045	3696.247097
804.396731	3720.472362
804.717372	3741.950198
805.037967	3722.582084
805.358518	3711.751165
805.679024	3741.735948
805.999485	3757.660953
806.319901	3763.531377
806.640272	3774.195938
806.960598	3786.221611
807.280879	3763.954834
807.601115	3779.957977
807.921306	3798.305256
808.241453	3832.575020
808.561554	3802.975885
808.881611	3738.323087
809.201623	3784.812608
809.521590	3789.306797
809.841513	3761.731685
810.161390	3790.128505
810.481223	3766.649331
810.801011	3717.437587
811.120755	3716.041187
811.440453	3746.867843
811.760107	3745.995723
812.079716	3697.464535
812.399281	3674.098787
812.718801	3696.529401
813.038276	3670.612829
813.357707	3663.948424
813.677093	3678.908048
813.996434	3624.486272
814.315731	3640.217192
814.634983	3644.214827
814.954191	3662.988084
815.273354	3687.730067
815.592473	3677.068027
815.911547	3692.914894
816.230577	3741.521699
816.549562	3791.267806
816.868502	3827.085204
817.187399	3850.919779
817.506250	3847.239737
817.825058	3829.111747
818.143821	3927.368877
818.462539	4026.001573
818.781213	4068.317018
819.099843	4137.496772
819.418429	4411.357455
819.736970	4651.873426
820.055466	4912.203651
820.373919	5278.947594
820.692327	5699.485689
821.010691	6212.793617
821.329011	7731.821821
821.647286	10669.168576
821.965517	15454.899760
822.283704	19440.342729
822.601847	21362.413703
822.919945	19414.519419
823.237999	16731.622383
823.556010	14209.311303
823.873976	12029.120649
824.191897	9920.174102
824.509775	8591.946010
824.827609	7466.543702
825.145398	6944.048271
825.463144	6826.481001
825.780845	6933.439163
826.098502	7174.209711
826.416116	8149.262127
826.733685	9523.064770
827.051210	10606.973341
827.368692	10526.985352
827.686129	9170.388167
828.003522	7668.852768
828.320872	6637.692310
828.638177	5920.147075
828.955439	5342.672819
829.272656	4841.390563
829.589830	4575.255449
829.906960	4395.669384
830.224046	4203.326680
830.541088	4079.979728
830.858086	4029.512736
831.175041	3951.027012
831.491952	3943.979479
831.808819	3956.559678
832.125642	4036.593037
832.442421	4195.220504
832.759157	4497.583871
833.075849	5088.739818
833.392497	5995.255226
833.709101	6781.803775
834.025662	7080.381235
834.342179	6645.105327
834.658653	5959.609227
834.975083	5298.076252
835.291469	4710.083629
835.607811	4319.943692
835.924110	4167.713448
836.240366	3967.340186
836.556578	3760.173969
836.872746	3651.678256
837.188871	3607.268211
837.504952	3539.250442
837.820990	3453.223152
838.136984	3416.999941
838.452935	3440.698405
838.768842	3431.500820
839.084706	3459.045685
839.400526	3634.485400
839.716303	4009.438862
840.032037	4566.067946
840.347727	4791.515908
840.663373	4460.571719
840.978977	4070.078901
841.294537	3763.382663
841.610054	3538.312788
841.925527	3435.964762
842.240957	3360.917105
842.556344	3305.958445
842.871687	3240.287334
843.186987	3194.861497
843.502244	3160.879079
843.817458	3121.540435
844.132629	3098.073864
844.447756	3104.367744
844.762840	3085.428129
845.077881	3051.511246
845.392879	3036.728063
845.707833	3031.059285
846.022745	3034.091539
846.337613	3031.719676
846.652438	3020.477903
846.967221	3018.370701
847.281960	2999.809172
847.596656	2996.960920
847.911309	3000.126765
848.225919	2992.514623
848.540485	2988.365753
848.855009	2984.325268
849.169490	2976.055255
849.483928	2967.528144
849.798323	2967.152578
850.112675	2962.398770
850.426984	2976.534165
850.741251	2971.445120
851.055474	2961.261989
851.369654	2956.324179
851.683792	2962.900364
851.997887	2970.729276
852.311938	2971.646766
852.625947	2959.595888
852.939914	2965.763740
853.253837	2967.336580
853.567718	2950.718416
853.881555	2953.589353
854.195350	2967.666775
854.509103	2961.309880
854.822812	2954.458952
855.136479	2950.844445
855.450103	2956.374591
855.763685	2948.517953
856.077224	2945.828497
856.390720	2958.902729
856.704173	2968.541416
857.017584	2957.760908
857.330953	2957.576906
857.644278	2967.634008
857.957561	2976.743373
858.270802	2980.743528
858.584000	2977.935606
858.897155	2963.139819
859.210268	2961.685446
859.523339	2962.113944
859.836367	2959.908440
860.149352	2953.314610
860.462295	2949.195988
860.775195	2959.293419
861.088054	2956.437605
861.400869	2940.258022
861.713642	2941.127621
862.026373	2958.239818
862.339062	2958.007925
862.651708	2961.952628
862.964312	2965.922536
863.276873	2959.714355
863.589392	2969.305150
863.901869	2983.501040
864.214303	3007.617920
864.526696	3019.010927
864.839045	3011.456758
865.151353	3014.284846
865.463619	3014.108405
865.775842	3016.165196
866.088023	3038.532796
866.400162	3038.941129
866.712258	3008.616068
867.024313	3000.235150
867.336325	3009.697396
867.648296	3032.455685
867.960224	3025.839170
868.272110	3009.639422
868.583954	3015.615710
868.895755	3025.819006
869.207515	3014.322654
869.519233	3025.473687
869.830909	3035.878628
870.142542	3040.100594
870.454134	3037.015408
870.765684	3043.969680
871.077191	3045.787016
871.388657	3055.660116
871.700081	3067.237126
872.011463	3076.593507
872.322803	3080.006368
872.634101	3078.476378
872.945357	3096.710232
873.256571	3120.892647
873.567744	3113.711523
873.878874	3110.089454
874.189963	3130.783390
874.501010	3130.329687
874.812015	3122.657050
875.122979	3120.950620
875.433900	3119.715537
875.744780	3129.800365
876.055618	3135.935450
876.366415	3131.436220
876.677169	3141.881491
876.987882	3136.608444
877.298554	3133.709780
877.609183	3160.460663
877.919771	3185.706762
878.230317	3213.178529
878.540822	3263.232146
878.851285	3301.905358
879.161707	3353.045343
879.472087	3470.650421
879.782425	3728.792786
880.092722	4193.138508
880.402977	4741.852981
880.713191	5407.181945
881.023363	6647.653630
881.333494	7966.270762
881.643583	8468.533523
881.953631	8133.531206
882.263637	7435.074299
882.573602	6805.940820
882.883526	6218.391819
883.193408	5650.427700
883.503248	5202.004463
883.813048	4878.871542
884.122806	4543.294533
884.432522	4217.633474
884.742197	3977.992144
885.051831	3786.511477
885.361424	3658.922394
885.670975	3586.125612
885.980485	3491.477948
886.289954	3407.497366
886.599382	3361.958103
886.908768	3325.165242
887.218113	3286.454221
887.527417	3220.831001
887.836680	3172.294772
888.145901	3169.534740
888.455082	3156.120230
888.764221	3099.520675
889.073319	3074.675348
889.382376	3071.136458
889.691392	3075.854978
890.000366	3071.108732
890.309300	3059.877041
890.618193	3075.602920
890.927044	3088.649427
891.235855	3084.944178
891.544625	3079.973601
891.853353	3092.566403
892.162041	3107.205914
892.470687	3152.331802
892.779293	3202.196376
893.087858	3247.755804
893.396381	3329.765294
893.704864	3464.921150
894.013306	3718.723081
894.321707	4034.838715
894.630068	4231.612594
894.938387	4213.472002
895.246665	4173.478008
895.554903	4042.022360
895.863100	3829.799865
896.171256	3659.297960
896.479371	3512.335722
896.787446	3385.394427
897.095480	3280.135135
897.403473	3222.870148
897.711425	3185.825229
898.019336	3173.620595
898.327207	3142.433497
898.635038	3102.487394
898.942827	3088.447780
899.250576	3078.967891
899.558284	3048.249620
899.865952	3026.761701
900.173579	3001.306395
900.481165	2995.811537
900.788711	2981.643374
901.096216	2958.156639
901.403681	2949.359825
901.711105	2955.754529
902.018489	2951.401493
902.325832	2954.174127
902.633135	2967.051755
902.940397	3003.658093
903.247619	3093.476331
903.554800	3305.865184
903.861941	3684.289480
904.169041	4138.124396
904.476101	4426.677522
904.783121	4344.123586
905.090100	4077.300354
905.397039	3789.029533
905.703938	3533.397663
906.010796	3349.360259
906.317614	3236.924885
906.624391	3136.154740
906.931129	3062.019531
907.237826	3001.593741
907.544483	2953.405351
907.851099	2923.045002
908.157675	2902.214954
908.464211	2880.674104
908.770707	2866.445447
909.077163	2853.242665
909.383578	2836.536282
909.689954	2826.716114
909.996289	2826.968172
910.302584	2829.027483
910.608839	2825.975064
910.915054	2817.929383
911.221229	2813.077272
911.527363	2816.384269
911.833458	2823.714107
912.139513	2828.936742
912.445527	2831.215344
912.751502	2842.260512
913.057436	2849.076152
913.363331	2863.491331
913.669186	2889.438150
913.975000	2930.563883
914.280775	2995.259531
914.586510	3061.719583
914.892205	3148.732419
915.197859	3288.508491
915.503475	3501.547653
915.809050	3733.576841
916.114585	3873.090774
916.420081	3876.924571
916.725536	3810.754386
917.030952	3689.179399
917.336328	3549.269736
917.641665	3418.950868
917.946961	3314.034374
918.252218	3236.377919
918.557435	3156.400014
918.862612	3095.278544
919.167750	3043.077396
919.472848	3001.916375
919.777906	2974.477374
920.082925	2945.437808
920.387904	2915.624424
920.692843	2898.338307
920.997743	2887.298180
921.302603	2871.733618
921.607423	2859.818851
921.912204	2848.267047
922.216946	2836.558967
922.521647	2826.121258
922.826310	2821.780824
923.130932	2809.976962
923.435516	2802.319450
923.740059	2794.261165
924.044564	2786.618776
924.349028	2780.211470
924.653454	2774.698968
924.957840	2769.199069
925.262186	2763.603388
925.566493	2759.053747
925.870761	2753.319434
926.174989	2750.395565
926.479178	2743.733680
926.783328	2740.993813
927.087438	2738.851323
927.391509	2737.580952
927.695541	2733.348903
927.999533	2732.575086
928.303486	2728.595095
928.607400	2727.594426
928.911275	2726.243397
929.215110	2725.456977
929.518906	2723.397666
929.822663	2724.930177
930.126381	2722.553272
930.430060	2723.629559
930.733699	2724.927656
931.037299	2726.853377
931.340861	2730.024262
931.644383	2728.446381
931.947866	2729.207596
932.251309	2723.248952
932.554714	2725.172152
932.858080	2721.718962
933.161407	2721.214846
933.464694	2717.796944
933.767943	2719.309290
934.071153	2717.350802
934.374323	2718.837942
934.677455	2715.200750
934.980548	2715.737632
935.283602	2716.755946
935.586617	2717.938096
935.889593	2718.318703
936.192530	2713.433825
936.495428	2717.073538
936.798287	2718.785010
937.101108	2723.251472
937.403890	2725.845146
937.706632	2730.596433
938.009336	2738.947105
938.312002	2748.154772
938.614628	2755.378746
938.917216	2763.575662
939.219765	2761.949890
939.522275	2762.454005
939.824747	2759.570465
940.127179	2756.598705
940.429573	2755.887902
940.731929	2751.731471
941.034246	2746.760893
941.336524	2744.197467
941.638763	2741.374420
941.940964	2737.775037
942.243126	2737.820407
942.545250	2734.609192
942.847335	2732.577607
943.149381	2729.762122
943.451389	2726.949159
943.753359	2725.320866
944.055290	2722.681822
944.357182	2721.633262
944.659036	2721.499671
944.960851	2718.106975
945.262628	2717.297870
945.564367	2718.661502
945.866067	2719.468086
946.167729	2719.432798
946.469352	2720.163766
946.770937	2719.508416
947.072484	2714.709237
947.373992	2716.985318
947.675462	2713.993393
947.976893	2712.836448
948.278286	2713.433825
948.579641	2708.246478
948.880958	2709.216900
949.182236	2710.482230
949.483476	2708.128011
949.784678	2709.698330
950.085841	2710.162116
950.386967	2713.212014
950.688054	2712.244113
950.989103	2711.644216
951.290114	2712.105481
951.591087	2717.683518
951.892021	2717.680997
952.192917	2721.492110
952.493776	2724.673078
952.794596	2723.586709
953.095378	2719.611759
953.396122	2720.927500
953.696828	2719.117726
953.997496	2718.424567
954.298126	2713.053218
954.598718	2714.593291
954.899272	2710.177240
955.199788	2708.082640
955.500266	2705.012578
955.800706	2701.672813
956.101108	2700.921681
956.401472	2700.079809
956.701798	2696.067050
957.002087	2694.312729
957.302337	2694.290043
957.602550	2693.735517
957.902724	2690.239476
958.202861	2690.045392
958.502960	2691.383818
958.803022	2689.843746
959.103045	2687.199661
959.403031	2687.824764
959.702979	2688.870803
960.002889	2684.989115
960.302762	2686.347706
960.602596	2685.016841
960.902393	2683.103723
961.202153	2682.929803
961.501875	2682.166068
961.801559	2683.103723
962.101205	2681.704803
962.400814	2683.199505
962.700385	2684.679084
962.999918	2680.257992
963.299414	2677.871005
963.598873	2679.423681
963.898293	2676.204904
964.197677	2682.415606
964.497022	2680.678928
964.796331	2680.351253
965.095601	2681.997190
965.394835	2681.614062
965.694030	2680.716737
965.993189	2680.129442
966.292309	2680.028619
966.591393	2678.458300
966.890439	2679.136335
967.189447	2682.773527
967.488419	2680.729340
967.787353	2679.852179
968.086249	2680.202539
968.385108	2680.215142
968.683930	2677.392096
968.982714	2679.489216
969.281462	2680.318486
969.580172	2681.157838
969.878844	2678.410409
970.177480	2681.477951
970.476078	2682.771007
970.774639	2679.809329
971.073162	2684.616069
971.371649	2681.987107
971.670098	2683.179340
971.968510	2681.079700
972.266885	2681.528362
972.565223	2679.602642
972.863524	2680.721778
973.161788	2680.194977
973.460014	2681.440142
973.758204	2680.056346
974.056356	2682.491223
974.354471	2679.045594
974.652550	2679.403516
974.950591	2681.858558
975.248595	2682.660102
975.546563	2682.627334
975.844493	2678.428053
976.142386	2680.356294
976.440243	2679.605162
976.738062	2679.524504
977.035845	2679.998372
977.333590	2677.813032
977.631299	2679.763959
977.928971	2674.682476
978.226606	2674.949657
978.524204	2673.996879
978.821765	2675.365552
979.119290	2679.456448
979.416777	2678.022240
979.714228	2679.874864
980.011642	2676.855213
980.309020	2678.586849
980.606360	2679.632889
980.903664	2679.398475
981.200931	2679.607683
981.498162	2678.947292
981.795356	2680.376459
982.092513	2681.961902
982.389633	2683.030626
982.686717	2687.429033
982.983764	2693.188551
983.280775	2696.107379
983.577749	2697.113090
983.874686	2697.397915
984.171587	2693.067564
984.468451	2689.906760
984.765279	2687.439115
985.062070	2689.233766
985.358824	2683.776717
985.655543	2683.542303
985.952224	2680.706654
986.248869	2682.319824
986.545478	2679.877385
986.842050	2677.129956
987.138586	2677.145079
987.435086	2677.934020
987.731549	2676.895542
988.027975	2675.617610
988.324366	2675.789009
988.620719	2675.567198
988.917037	2675.955367
989.213318	2676.010820
989.509563	2674.644667
989.805772	2674.992507
990.101944	2675.355470
990.398080	2675.037877
990.694180	2676.736746
990.990244	2675.549554
991.286271	2674.112825
991.582262	2674.929492
991.878217	2675.909997
992.174136	2675.360511
992.470019	2676.179698
992.765865	2671.262053
993.061676	2673.399502
993.357450	2672.686179
993.653188	2670.463030
993.948890	2675.705830
994.244556	2674.979904
994.540186	2675.073165
994.835780	2675.816735
995.131337	2674.969821
995.426859	2676.444359
995.722345	2677.951664
996.017795	2678.218845
996.313208	2680.441994
996.608586	2681.556089
996.903928	2679.337981
997.199234	2680.144566
997.494504	2680.016016
997.789738	2675.841941
998.084936	2677.949143
998.380099	2677.253464
998.675225	2677.757579
998.970316	2676.227589
999.265371	2677.215655
999.560390	2674.947136
999.855373	2677.800429
1000.150320	2675.690706
1000.445232	2672.938236
1000.740108	2675.678103
1001.034948	2676.159534
1001.329752	2670.576456
1001.624521	2671.957732
1001.919254	2671.937567
1002.213951	2675.605007
1002.508613	2670.135355
1002.803239	2672.179543
1003.097829	2670.979748
1003.392384	2673.465037
1003.686903	2673.656601
1003.981386	2672.630726
1004.275834	2673.165088
1004.570246	2672.907989
1004.864623	2672.381189
1005.158964	2673.041580
1005.453270	2671.536796
1005.747540	2674.253977
1006.041775	2670.977227
1006.335974	2674.039728
1006.630138	2674.546364
1006.924266	2673.502846
1007.218359	2674.866478
1007.512416	2672.174502
1007.806438	2668.668379
1008.100425	2670.838596
1008.394376	2667.277021
1008.688292	2670.503359
1008.982172	2672.328257
1009.276017	2670.601662
1009.569827	2671.793894
1009.863602	2669.984120
1010.157341	2672.986127
1010.451045	2671.007474
1010.744714	2672.237516
1011.038347	2671.909841
1011.331945	2672.504697
1011.625508	2673.875891
1011.919036	2670.626867
1012.212528	2670.543688
1012.505986	2671.718277
1012.799408	2672.398833
1013.092795	2671.020077
1013.386147	2672.527382
1013.679464	2674.271622
1013.972745	2669.893379
1014.265992	2672.018226
1014.559204	2670.122752
1014.852380	2669.863132
1015.145521	2670.752896
1015.438628	2671.803977
1015.731699	2672.696261
1016.024736	2670.828513
1016.317737	2668.559994
1016.610703	2672.164419
1016.903635	2673.021415
1017.196531	2672.043432
1017.489393	2673.034018
1017.782219	2672.396312
1018.075011	2671.816580
1018.367768	2670.563853
1018.660490	2673.152485
1018.953177	2673.152485
1019.245829	2673.152485
