Dividing Wavelength (nm)	Counts (n)	Blue Motor Position (mm): 38.000000	Red Motor Position (mm): 0.000000	
326.493990	2050.320448
326.888308	2050.320448
327.282561	2050.320448
327.676750	2026.206089
328.070874	2028.157015
328.464933	2037.145393
328.858929	2042.733512
329.252859	2051.111909
329.646726	2066.237892
330.040528	2085.043916
330.434265	2100.253077
330.827938	2120.228649
331.221547	2141.552730
331.615091	2162.196255
332.008571	2183.900943
332.401986	2203.022039
332.795338	2219.607436
333.188625	2244.785478
333.581847	2262.888262
333.975006	2281.270829
334.368100	2299.098870
334.761129	2312.662094
335.154095	2329.214723
335.546996	2379.273381
335.939833	2492.855618
336.332606	2498.136227
336.725315	2513.713392
337.117960	2522.356450
337.510540	2532.930271
337.903056	2541.994265
338.295508	2547.360573
338.687896	2555.507078
339.080220	2559.580330
339.472480	2563.552760
339.864676	2569.493759
340.256807	2573.163719
340.648875	2576.490881
341.040879	2575.517938
341.432818	2575.800243
341.824694	2578.235120
342.216506	2575.659091
342.608253	2574.381158
342.999937	2575.838052
343.391557	2572.301682
343.783113	2571.726991
344.174605	2570.827145
344.566033	2570.496949
344.957397	2568.964438
345.348697	2567.376475
345.739934	2563.260373
346.131106	2563.739282
346.522215	2560.281051
346.913260	2560.638973
347.304241	2559.456822
347.695159	2558.262069
348.086012	2552.915925
348.476802	2550.952396
348.867528	2548.870399
349.258191	2543.032743
349.648789	2543.751107
350.039324	2543.040305
350.429796	2546.886705
350.820203	2547.360573
351.210548	2546.017106
351.600828	2543.995603
351.991045	2546.120450
352.381198	2544.852599
352.771288	2546.175902
353.161314	2543.650284
353.551276	2544.018288
353.941175	2542.437887
354.331010	2545.150028
354.720782	2545.558361
355.110490	2546.274205
355.500135	2546.130532
355.889717	2543.874616
356.279235	2546.007024
356.668689	2545.686910
357.058080	2545.646581
357.447408	2546.347302
357.836672	2548.028526
358.225873	2546.067517
358.615010	2548.003321
359.004084	2550.644885
359.393095	2548.535162
359.782043	2547.776469
360.170927	2547.811757
360.559748	2550.208825
360.948505	2553.485575
361.337199	2554.360216
361.725830	2553.571275
362.114398	2552.308466
362.502903	2551.930379
362.891344	2552.520194
363.279722	2554.067829
363.668037	2551.635472
364.056289	2554.077911
364.444478	2553.339382
364.832603	2555.794424
365.220665	2556.953889
365.608665	2558.040258
365.996601	2556.643858
366.384474	2557.087480
366.772284	2556.815257
367.160031	2558.499003
367.547715	2559.197203
367.935336	2557.263920
368.322893	2554.503888
368.710388	2555.401214
369.097820	2557.478169
369.485189	2555.791903
369.872495	2560.109652
370.259738	2561.183417
370.646918	2562.209292
371.034035	2563.134344
371.421090	2561.064950
371.808081	2560.003787
372.195010	2562.748696
372.581875	2562.342883
372.968678	2562.602502
373.355418	2563.648542
373.742096	2560.636452
374.128710	2565.591906
374.515262	2563.151988
374.901751	2564.356824
375.288177	2565.569221
375.674540	2568.372103
376.060841	2566.600137
376.447079	2564.707184
376.833254	2565.218861
377.219367	2568.709860
377.605417	2568.228430
377.991404	2566.766495
378.377329	2567.414283
378.763191	2570.217165
379.148991	2569.430745
379.534727	2568.377144
379.920402	2571.263204
380.306013	2570.617937
380.691563	2571.928637
381.077049	2569.871846
381.462474	2571.111970
381.847835	2571.545509
382.233134	2574.958370
382.618371	2569.677762
383.003545	2573.496436
383.388657	2574.144224
383.773706	2575.432239
384.158693	2575.754872
384.543618	2578.494740
384.928480	2578.015830
385.313280	2574.529872
385.698017	2576.475757
386.082692	2576.783268
386.467305	2577.219328
386.851856	2578.852662
387.236344	2580.054977
387.620770	2576.299317
388.005133	2577.083217
388.389435	2579.313927
388.773674	2575.991807
389.157851	2581.743763
389.541965	2580.531366
389.926018	2583.424988
390.310008	2581.600090
390.693936	2587.145360
391.077802	2584.249217
391.461606	2584.362643
391.845348	2585.343147
392.229027	2587.712489
392.612645	2586.202664
392.996200	2589.434043
393.379694	2587.142839
393.763125	2589.605443
394.146494	2589.174424
394.529801	2590.898499
394.913047	2590.843046
395.296230	2591.553849
395.679351	2593.023345
396.062410	2593.756833
396.445408	2591.939497
396.828343	2599.652462
397.211217	2595.952255
397.594028	2596.463932
397.976778	2602.654469
398.359466	2602.059613
398.742092	2606.102619
399.124656	2606.735283
399.507158	2612.313320
399.889598	2616.101747
400.271977	2621.876389
400.654294	2624.081894
401.036549	2634.063378
401.418742	2635.406846
401.800874	2644.735501
402.182944	2652.876965
402.564952	2664.690909
402.946898	2670.636950
403.328783	2682.133301
403.710606	2693.029755
404.092367	2710.101622
404.474067	2724.889847
404.855705	2735.624984
405.237282	2746.108064
405.618797	2770.066147
406.000250	2794.515744
406.381642	2821.904332
406.762972	2839.114832
407.144240	2848.635051
407.525447	2879.307951
407.906593	2896.324366
408.287677	2933.933894
408.668700	2960.838533
409.049661	2993.606033
409.430560	3024.001670
409.811399	3049.439332
410.192176	3080.644074
410.572891	3123.977833
410.953545	3176.920030
411.334138	3176.990607
411.714669	3236.892117
412.095139	3245.376379
412.475547	3302.744710
412.855894	3333.984740
413.236180	3398.476221
413.616405	3405.801018
413.996568	3474.814414
414.376670	3509.731966
414.756711	3541.246739
415.136691	3602.065740
415.516609	3670.083508
415.896466	3721.828432
416.276262	3793.662354
416.655997	3882.396744
417.035670	3960.859783
417.415283	4065.940114
417.794834	4133.909991
418.174324	4152.894977
418.553753	4197.690670
418.933121	4324.090041
419.312428	4376.220613
419.691674	4382.728742
420.070859	4547.057755
420.449983	4529.035630
420.829045	4678.838557
421.208047	4682.904248
421.586988	4821.667049
421.965867	4912.443106
422.344686	5005.507847
422.723444	5161.125746
423.102141	4950.997851
423.480777	5255.037401
423.859352	5173.658054
424.237866	5469.039423
424.616319	5504.957644
424.994712	5667.139125
425.373044	5650.261342
425.751314	5918.571714
426.129524	5755.177836
426.507673	5998.920145
426.885762	6068.838428
427.263789	6140.011959
427.641756	6250.710656
428.019662	6340.538976
428.397508	6409.300315
428.775292	6446.705676
429.153016	6607.024451
429.530679	6601.922803
429.908282	6676.516757
430.285824	6652.178066
430.663305	6906.093423
431.040726	6854.368664
431.418086	6878.175513
431.795385	7028.722011
432.172624	7217.545990
432.549802	7136.597662
432.926920	7278.796010
433.303977	7261.446879
433.680974	7330.248546
434.057910	7521.832557
434.434786	7587.929646
434.811601	7564.934423
435.188355	7905.567708
435.565050	7822.275244
435.941683	7852.282712
436.318257	8167.533789
436.694770	8135.595558
437.071222	8354.129578
437.447614	8146.928072
437.823946	8136.160168
438.200218	8289.123899
438.576429	8193.276441
438.952580	8357.202161
439.328670	8384.613435
439.704700	8476.501067
440.080670	8373.656487
440.456580	8625.638562
440.832429	8619.478272
441.208218	8370.868729
441.583947	8495.959921
441.959616	8598.595292
442.335224	8648.263261
442.710773	8730.716373
443.086261	8910.032736
443.461689	8656.127461
443.837057	8807.276376
444.212365	9009.048559
444.587612	9008.816666
444.962800	8906.627436
445.337927	9043.073827
445.712995	8604.097712
446.088002	9246.464220
446.462949	9310.002923
446.837837	9325.968257
447.212664	9378.257626
447.587431	10281.297158
447.962139	11240.106976
448.336786	11994.694610
448.711374	11599.611821
449.085901	10457.863572
449.460369	10443.072826
449.834776	10364.975271
450.209124	11291.183946
450.583412	11052.991948
450.957640	11266.565472
451.331808	10855.963491
451.705917	10371.085149
452.079965	10305.923195
452.453954	10501.104069
452.827883	10456.910793
453.201752	10419.601214
453.575562	10443.851684
453.949311	10798.665736
454.323001	10877.557273
454.696632	10787.630650
455.070202	11379.303316
455.443713	11431.625451
455.817164	11578.743965
456.190556	11904.727657
456.563888	11728.231820
456.937160	11947.809358
457.310373	11452.158071
457.683526	11494.773465
458.056619	11529.559947
458.429653	11615.299892
458.802628	11790.149792
459.175542	11845.652896
459.548398	12392.383675
459.921194	12977.568375
460.293930	13295.221561
460.666607	14123.299136
461.039224	14848.083468
461.411782	15108.101143
461.784280	14722.165528
462.156719	14649.220032
462.529099	14549.755546
462.901419	13970.400940
463.273680	13616.340541
463.645882	13845.665150
464.018024	13807.932113
464.390106	14212.595615
464.762130	15379.365631
465.134094	17040.735854
465.505999	19313.845056
465.877845	21318.346457
466.249631	22206.454092
466.621358	21579.884039
466.993026	20762.365161
467.364634	20056.878365
467.736184	19354.769143
468.107674	18806.795720
468.479105	18667.266663
468.850477	18403.029543
469.221790	17980.832909
469.593043	17349.141044
469.964238	17003.895102
470.335373	17114.399715
470.706449	17975.723699
471.077467	19117.136712
471.448425	21447.833534
471.819324	22955.632567
472.190164	22425.625817
472.560945	20751.423336
472.931667	19343.834880
473.302330	19097.788764
473.672934	18645.761101
474.043479	19085.816023
474.413965	18890.133554
474.784393	18738.210822
475.154761	19365.055617
475.525070	19489.007508
475.895321	19332.230144
476.265513	19852.502427
476.635645	20435.796694
477.005719	20498.717856
477.375734	20882.964684
477.745691	21495.238025
478.115588	22148.997541
478.485427	23411.920005
478.855207	25281.434429
479.224928	27004.014343
479.594591	28173.352827
479.964194	27644.886149
480.333739	28030.816723
480.703226	28328.920314
481.072653	28833.592746
481.442022	29311.773915
481.811333	29608.695356
482.180584	29120.570511
482.549777	28913.502597
482.918912	28716.453975
483.287988	28673.140381
483.657005	28485.322112
484.025964	28156.149890
484.394864	28351.915537
484.763706	28295.200036
485.132489	27790.111709
485.501213	27872.998360
485.869879	28064.781497
486.238487	28024.391772
486.607036	28304.697570
486.975527	28022.304734
487.343959	28347.252470
487.712333	28674.529219
488.080648	28655.090530
488.448905	29072.964375
488.817104	29015.533030
489.185244	29912.979402
489.553326	31055.171273
489.921350	32992.650534
490.289315	35386.520575
490.657222	36048.514816
491.025070	36447.045754
491.392861	36065.823618
491.760593	35275.211898
492.128267	34259.258082
492.495883	33331.416072
492.863440	32498.226767
493.230939	31625.850053
493.598380	31121.772477
493.965763	31003.179333
494.333088	30548.235363
494.700354	30379.192872
495.067563	30345.109630
495.434713	30272.552303
495.801805	30564.261191
496.168839	30423.040828
496.535815	30298.940223
496.902733	30446.290629
497.269593	30269.346129
497.636395	30434.751428
498.003139	30743.784241
498.369825	30507.260864
498.736453	30925.280903
499.103023	30778.532915
499.469535	30874.317358
499.835989	31001.614055
500.202385	30874.952544
500.568723	30959.560749
500.935003	31287.059309
501.301226	31187.738496
501.667390	31884.103323
502.033497	32069.358166
502.399546	31895.453481
502.765537	31501.749448
503.131470	31966.125417
503.497345	32407.014650
503.863163	31400.336556
504.228923	32163.226971
504.594625	32573.503797
504.960269	32060.425241
505.325856	32737.338777
505.691385	32432.593465
506.056856	32753.546086
506.422270	33246.507918
506.787625	32803.382933
507.152924	33267.244704
507.518164	33471.229953
507.883347	33034.585372
508.248472	33194.236194
508.613540	33884.970053
508.978550	34124.044253
509.343503	33993.188502
509.708398	34358.347002
510.073236	34973.274509
510.438016	35073.311166
510.802738	34764.041419
511.167403	35336.960992
511.532010	35582.999547
511.896561	36070.423671
512.261053	36824.502148
512.625488	36599.583508
512.989866	36562.248722
513.354186	36619.153267
513.718449	36585.594306
514.082655	37488.769949
514.446803	37174.428801
514.810894	37808.752149
515.174927	37816.059301
515.538904	37828.710077
515.902822	38474.156730
516.266684	38178.717388
516.630488	38540.999909
516.994235	38563.244001
517.357925	39159.541925
517.721558	39418.679917
518.085133	39800.471704
518.448651	39980.035083
518.812112	39894.085931
519.175516	40042.104290
519.538863	40480.851033
519.902152	40540.200537
520.265385	41090.220669
520.628560	41132.952009
520.991678	41068.984808
521.354739	41323.883191
521.717743	41671.513598
522.080690	41581.813827
522.443580	42268.635751
522.806413	42296.432673
523.169189	42451.644759
523.531908	42671.870085
523.894569	42533.810525
524.257174	42743.199891
524.619722	43077.965274
524.982213	43216.924680
525.344647	43254.967747
525.707025	43401.561981
526.069345	43827.642824
526.431608	43731.369389
526.793815	44124.957475
527.155964	43680.821739
527.518057	43945.958705
527.880093	43806.795133
528.242072	44417.243575
528.603995	44164.089432
528.965860	44091.476652
529.327669	44312.372452
529.689421	44370.118869
530.051117	44326.591026
530.412755	44600.681082
530.774337	44680.444738
531.135862	44607.153923
531.497331	44757.700421
531.858743	44769.413542
532.220098	45171.153174
532.581396	44901.300209
532.942638	44659.745761
533.303824	44907.863791
533.664953	44970.832844
534.026025	44651.044729
534.387040	45234.321352
534.747999	45307.173587
535.108902	45604.397497
535.469748	44937.180621
535.830537	45188.988777
536.191270	45445.981758
536.551947	45186.352253
536.912567	45454.902080
537.273131	45627.917001
537.633638	45232.350261
537.994089	45434.780315
538.354483	45186.589187
538.714821	45834.934504
539.075103	46124.190871
539.435328	45976.868191
539.795497	45742.434372
540.155609	45849.480753
540.515665	46437.387677
540.875665	45745.832110
541.235609	46026.289142
541.595496	46146.389592
541.955328	46725.028353
542.315102	46155.839234
542.674821	46048.903758
543.034483	45938.613395
543.394090	45967.690770
543.753640	45944.108252
544.113134	47012.724483
544.472571	46097.805471
544.831953	47242.434740
545.191278	46494.274577
545.550548	46203.170628
545.909761	46836.768049
546.268918	46989.552819
546.628019	47400.608504
546.987064	46837.125971
547.346053	46126.837476
547.704986	47031.535548
548.063863	46682.629729
548.422684	46885.664721
548.781449	46485.729822
549.140158	47009.692229
549.498811	46779.535829
549.857408	46172.530495
550.215949	47015.849998
550.574434	46837.062957
550.932864	46783.349462
551.291237	47495.722474
551.649555	47258.584077
552.007817	47438.238197
552.366022	47099.039119
552.724173	47178.154987
553.082267	47593.344418
553.440305	47921.415149
553.798288	47185.830144
554.156215	47572.355574
554.514086	47784.777194
554.871902	47397.039367
555.229661	47559.881239
555.587365	47264.053728
555.945014	47384.507058
556.302606	47405.379956
556.660143	47500.478803
557.017625	47729.253926
557.375050	47421.567101
557.732421	47831.730501
558.089735	47906.838653
558.446994	47762.943957
558.804197	48247.217360
559.161345	48117.400087
559.518437	47454.160681
559.875474	47724.646311
560.232455	47941.615052
560.589381	48005.302469
560.946251	47797.997620
561.303065	48477.285539
561.659825	48152.796549
562.016528	47957.114080
562.373177	47540.553455
562.729770	48164.292900
563.086307	47701.885502
563.442789	48239.988346
563.799216	48087.001929
564.155587	47975.894898
564.511904	47938.817212
564.868164	47987.386209
565.224370	48324.334411
565.580520	48038.861431
565.936615	48246.735930
566.292654	47883.157832
566.648638	48257.448382
567.004567	48201.519301
567.360441	48285.167166
567.716260	48019.969707
568.072023	48371.368377
568.427732	48296.857602
568.783385	47855.706229
569.138982	48261.493908
569.494525	48382.993277
569.850013	47990.325201
570.205445	48119.270355
570.560823	47899.604597
570.916145	47762.124770
571.271412	47994.264863
571.626625	47653.044283
571.981782	47728.180160
572.336884	47315.128179
572.691931	47645.011204
573.046923	47312.267324
573.401860	47155.807553
573.756743	47160.621854
574.111570	47322.042121
574.466342	47219.759630
574.821059	47361.279942
575.175722	46868.078656
575.530330	46978.885738
575.884882	46600.781555
576.239380	46510.935591
576.593823	46605.656351
576.948211	46530.613735
577.302544	46087.087978
577.656823	46079.942143
578.011047	46337.724065
578.365216	46157.154976
578.719330	45870.646038
579.073389	45857.244130
579.427394	45901.825574
579.781344	45842.899527
580.135239	45582.972594
580.489080	45642.160781
580.842866	45139.411549
581.196597	45609.284896
581.550273	45623.853831
581.903895	45566.072125
582.257463	46011.846237
582.610975	45428.241938
582.964434	45761.782321
583.317837	45267.623215
583.671186	45225.955558
584.024481	45500.201889
584.377721	45049.507611
584.730906	45265.251352
585.084037	45375.408125
585.437113	45085.309886
585.790135	45218.590432
586.143103	44754.174134
586.496016	44933.525785
586.848874	45051.297221
587.201679	45063.615280
587.554428	44553.243824
587.907124	44829.743551
588.259765	44586.354122
588.612352	44757.259320
588.964884	44205.764651
589.317362	44527.622159
589.669786	44527.057550
590.022155	44370.214651
590.374470	44846.008833
590.726731	44411.831897
591.078937	43738.207714
591.431090	44091.252321
591.783188	43623.110610
592.135232	43402.116508
592.487222	43669.191797
592.839157	43819.392976
593.191038	43448.495123
593.542866	43260.066875
593.894639	42669.427646
594.246358	42967.175836
594.598022	42965.832369
594.949633	42543.804613
595.301190	42510.117102
595.652692	42464.114053
596.004141	42936.616362
596.355535	41838.965605
596.706876	41864.453679
597.058162	41582.842222
597.409395	42083.096083
597.760573	42290.474029
598.111698	41894.340160
598.462768	41818.165805
598.813785	41839.436953
599.164748	41437.689759
599.515657	41709.234032
599.866511	41221.083981
600.217312	41905.962540
600.568060	40831.652326
600.918753	41667.400017
601.269392	41593.350508
601.619978	41307.822074
601.970510	41514.088446
602.320988	41642.877324
602.671412	41910.073601
603.021783	41778.832202
603.372100	41341.940604
603.722363	41451.759620
604.072572	41494.359890
604.422728	41482.445123
604.772830	41257.748293
605.122878	41427.947729
605.472872	41274.696653
605.822813	41543.019628
606.172701	41287.465895
606.522534	41615.103087
606.872314	41819.579848
607.222041	41649.209013
607.571714	41988.284582
607.921333	41487.294713
608.270899	41696.081661
608.620411	42069.737026
608.969870	41829.548730
609.319276	41829.092506
609.668627	41859.730118
610.017926	42269.558282
610.367171	42402.823704
610.716362	42428.672221
611.065500	42324.816890
611.414585	42545.737895
611.763616	42738.433480
612.112594	42626.915596
612.461518	42756.266562
612.810389	43129.793377
613.159207	42933.856330
613.507971	42895.654466
613.856682	43385.924322
614.205340	43221.731420
614.553945	43911.003344
614.902496	43237.850510
615.250994	43667.785315
615.599439	43711.837438
615.947830	43835.786808
616.296169	43830.304554
616.644454	43877.462027
616.992686	44012.575033
617.340864	44473.621319
617.688990	44005.000699
618.037063	44676.578173
618.385082	44498.126368
618.733048	44829.496534
619.080961	44721.832611
619.428821	44739.385909
619.776628	44752.981901
620.124382	44570.096401
620.472083	44677.145303
620.819731	44794.619311
621.167326	44332.340462
621.514868	44326.628835
621.862357	43809.209845
622.209793	43872.864495
622.557176	43433.270838
622.904506	43216.433168
623.251783	42837.209849
623.599007	42529.764999
623.946179	42440.987759
624.293297	42177.995804
624.640363	41632.505150
624.987376	41480.902530
625.334336	41293.752214
625.681243	40864.245906
626.028097	40786.745728
626.374899	40600.439805
626.721647	40563.054608
627.068343	40347.872956
627.414987	40060.809492
627.761577	39812.888066
628.108115	40126.226024
628.454600	39369.563956
628.801032	39615.589907
629.147412	39493.357050
629.493739	39404.219368
629.840014	38972.933533
630.186236	39398.462370
630.532405	38851.035912
630.878521	39072.244263
631.224585	38839.710960
631.570597	38494.679267
631.916556	38664.049434
632.262462	38555.062208
632.608316	38491.142898
632.954117	38347.749797
633.299866	38319.360539
633.645562	38236.088240
633.991206	37695.976496
634.336797	37296.399519
634.682336	37188.405400
635.027823	36947.019831
635.373257	36784.329193
635.718639	36488.307598
636.063968	36396.513228
636.409245	35728.131845
636.754470	35685.997881
637.099642	35458.102439
637.444762	34889.150255
637.789829	35041.922422
638.134845	34662.588198
638.479808	34576.134930
638.824719	34513.165877
639.169577	33995.946013
639.514383	34098.220942
639.859137	33707.624781
640.203839	33886.351329
640.548489	33596.056484
640.893086	33572.660489
641.237632	33311.160716
641.582125	33408.727208
641.926566	33203.726166
642.270955	33241.469285
642.615292	33167.104704
642.959576	33051.755542
643.303809	33051.465676
643.647990	33147.660973
643.992118	33092.140225
644.336195	32945.311578
644.680219	33025.390307
645.024192	33234.746906
645.368112	33752.261678
645.711981	33777.989206
646.055797	34490.662167
646.399562	34285.709016
646.743274	35175.971744
647.086935	35578.565852
647.430544	35526.750352
647.774101	35578.875883
648.117606	35874.655502
648.461059	36007.633579
648.804460	35601.419923
649.147810	35103.928614
649.491108	34734.989249
649.834354	34611.491062
650.177548	33776.895276
650.520690	33284.026705
650.863781	33269.561114
651.206820	33096.047120
651.549807	32688.323638
651.892742	32104.439555
652.235626	31992.707421
652.578458	31875.903887
652.921238	31184.479390
653.263967	31489.426348
653.606644	31199.073530
653.949269	31101.083582
654.291843	30715.175693
654.634365	31075.131722
654.976836	30609.825660
655.319255	30679.892657
655.661622	30553.856249
656.003938	30425.054769
656.346203	30232.212990
656.688416	30477.994446
657.030577	30242.733878
657.372687	30080.522150
657.714746	30250.078839
658.056753	30421.263821
658.398708	29796.879108
658.740612	29866.189933
659.082465	30077.580637
659.424266	29974.902415
659.766016	29984.094959
660.107715	29840.669091
660.449362	29933.459090
660.790958	29916.659444
661.132503	29851.363899
661.473996	29929.048080
661.815438	30004.357877
662.156829	30123.036721
662.498168	29923.903583
662.839456	29908.127292
663.180693	30032.295952
663.521879	30114.192017
663.863013	30069.111498
664.204097	30053.814117
664.545129	30460.252105
664.886110	30390.074202
665.227040	30498.718629
665.567918	30490.746044
665.908746	30572.115309
666.249522	30645.920322
666.590248	30682.067915
666.930922	30767.044125
667.271545	30778.500147
667.612118	30839.372080
667.952639	30637.562088
668.293109	30679.030620
668.633528	30555.232484
668.973896	30502.660812
669.314213	30495.157054
669.654480	30291.799428
669.994695	30284.840116
670.334859	30204.446315
670.674973	30051.452337
671.015035	30230.776261
671.355047	30170.988177
671.695008	30088.219992
672.034918	30010.780307
672.374777	30091.224520
672.714585	29958.359869
673.054342	30092.331053
673.394049	29937.325655
673.733705	30169.657312
674.073310	29882.296419
674.412864	29935.962022
674.752368	29638.090324
675.091820	29863.734891
675.431223	29459.343612
675.770574	29263.285577
676.109875	29101.799775
676.449125	28897.960719
676.788324	28802.115782
677.127473	28322.172730
677.466571	28216.157264
677.805619	27944.686089
678.144616	27868.471404
678.483562	27822.130597
678.822458	27506.667793
679.161303	27439.597761
679.500098	27357.847890
679.838842	27282.681766
680.177535	27365.817954
680.516179	27616.514535
680.854771	27740.378206
681.193314	28509.345731
681.531805	29512.885707
681.870247	30253.403480
682.208638	30985.999081
682.546978	31251.095717
682.885268	31394.735834
683.223508	30964.274228
683.561697	30686.793997
683.899836	30538.679856
684.237925	30117.582193
684.575963	29974.491561
684.913951	29594.438973
685.251889	29763.173954
685.589776	29788.503231
685.927614	29792.483222
686.265401	29980.329218
686.603137	30081.127089
686.940824	30579.747616
687.278460	30903.803067
687.616046	31071.386144
687.953582	31745.587539
688.291068	31651.902736
688.628504	31988.528305
688.965889	31992.493172
689.303224	31721.495865
689.640510	31444.756683
689.977745	30830.774392
690.314930	30096.268194
690.652065	29652.709670
690.989150	28982.223606
691.326185	28143.236974
691.663170	27498.334765
692.000105	26768.640349
692.336990	26161.080487
692.673825	25734.182977
693.010610	25241.591670
693.347345	24733.128290
693.684030	24107.304328
694.020665	23908.297218
694.357251	23231.615576
694.693786	23232.550710
695.030272	22995.621520
695.366707	22495.627279
695.703093	22227.266495
696.039429	22290.802678
696.375716	22045.631202
696.711952	22052.809805
697.048139	21901.698697
697.384276	21733.634190
697.720363	21853.558199
698.056400	21750.670769
698.392388	21577.570149
698.728326	21586.571129
699.064214	21422.153897
699.400053	21427.225298
699.735842	21039.553005
700.071581	20846.834735
700.407270	20596.790983
700.742910	20434.785943
701.078501	20170.168216
701.414042	19977.356684
701.749533	19654.001953
702.084974	19342.435960
702.420366	19580.708617
702.755709	19172.360032
703.091002	18858.449903
703.426246	18929.799873
703.761440	18856.125931
704.096584	18625.992216
704.431679	18556.162153
704.766725	18503.469493
705.101721	18434.360315
705.436668	18553.250887
705.771565	18272.423330
706.106413	18590.815045
706.441212	18658.777360
706.775961	18764.331560
707.110661	18836.117591
707.445311	19205.311534
707.779913	19073.876050
708.114465	19370.154744
708.448967	19681.887095
708.783421	20292.985847
709.117825	20671.548774
709.452180	20895.688557
709.786485	21347.920386
710.120742	22103.488524
710.454949	22208.142878
710.789107	22724.447773
711.123216	23440.959572
711.457275	23648.239215
711.791286	24212.230904
712.125247	24370.855851
712.459159	24102.827784
712.793023	24852.492731
713.126837	23838.331044
713.460602	24097.433749
713.794318	23758.348097
714.127985	23491.718950
714.461602	22595.726950
714.795171	22580.898396
715.128691	21604.406732
715.462162	21093.274061
715.795584	20649.770990
716.128957	20390.275075
716.462281	20005.723257
716.795556	19723.814372
717.128782	19242.333768
717.461960	18643.865627
717.795088	18594.240509
718.128167	18256.730218
718.461198	17797.957491
718.794180	17673.761105
719.127113	17334.312490
719.459997	17139.958365
719.792833	16772.067560
720.125619	16808.315977
720.458357	16474.387426
720.791046	16340.880028
721.123686	16190.807398
721.456278	15964.474714
721.788821	15948.700944
722.121315	15683.934503
722.453761	15788.752694
722.786158	15675.561146
723.118506	15750.825573
723.450805	15638.591844
723.783056	15814.535675
724.115259	15704.764550
724.447412	15691.740729
724.779518	15908.616209
725.111574	15969.122658
725.443582	16231.161835
725.775542	16179.656366
726.107453	16698.444029
726.439315	16606.778208
726.771129	17031.762601
727.102895	17450.581662
727.434612	17726.216831
727.766281	17887.639618
728.097901	18217.825113
728.429473	18296.946023
728.760996	18309.803485
729.092471	18443.174772
729.423897	18328.465837
729.755276	18211.861428
730.086606	18322.068613
730.417887	18908.304393
730.749120	19458.450554
731.080305	19665.248767
731.411442	20064.735003
731.742530	20183.489465
732.073570	20350.838128
732.404562	20679.654950
732.735506	20517.780979
733.066401	20316.023920
733.397249	19823.397325
733.728048	19205.208190
734.058798	18345.555348
734.389501	17577.522957
734.720156	17059.788895
735.050762	16483.317830
735.381320	16096.252996
735.711831	15817.507435
736.042293	15444.832576
736.372707	15484.997969
736.703073	15271.215237
737.033391	15464.114989
737.363661	15465.551718
737.693883	15582.544296
738.024056	15781.228772
738.354182	15991.981770
738.684260	16345.628795
739.014290	16629.319727
739.344272	16848.400712
739.674207	17208.145012
740.004093	17371.667440
740.333931	17429.658353
740.663722	17520.517589
740.993464	17556.990337
741.323159	17402.725989
741.652806	17121.900952
741.982405	16951.686392
742.311956	16591.052328
742.641460	16486.269425
742.970915	16152.280380
743.300323	15805.794314
743.629683	15593.902015
743.958996	15283.369459
744.288260	14961.217043
744.617477	14649.565351
744.946647	14629.688081
745.275768	14304.364779
745.604842	14104.319192
745.933869	13918.590481
746.262847	13904.865940
746.591778	13817.210357
746.920662	13687.337631
747.249498	13692.739227
747.578286	13856.223846
747.907027	14029.710115
748.235720	14296.036793
748.564365	14370.003123
748.892963	14291.345999
749.221514	14400.078647
749.550017	14254.061626
749.878473	14227.973654
750.206881	14007.662628
750.535242	13923.699691
750.863555	13845.254296
751.191821	13744.572371
751.520039	13756.847581
751.848210	13682.304039
752.176334	13730.898241
752.504411	13659.686902
752.832440	13484.158966
753.160421	13600.622223
753.488356	13491.168691
753.816243	13393.665213
754.144082	13236.673600
754.471875	13173.185309
754.799620	13150.903409
755.127318	13121.919295
755.454969	13114.846556
755.782572	13083.356988
756.110129	13093.605654
756.437638	12997.448165
756.765100	13006.832273
757.092515	13026.326415
757.419882	13058.738514
757.747203	13082.681474
758.074477	13165.709278
758.401703	13144.896874
758.728882	13339.170340
759.056014	13382.332700
759.383099	13557.590934
759.710138	13678.931507
760.037129	13799.924240
760.364073	13864.002347
760.690970	13879.423236
761.017820	13910.580088
761.344623	14123.399959
761.671379	14509.779196
761.998088	15204.861050
762.324751	16973.053323
762.651366	20357.724344
762.977935	24837.865823
763.304456	27812.275142
763.630931	28896.367715
763.957359	27718.567653
764.283740	25472.773944
764.610074	23220.961097
764.936362	20590.683625
765.262602	18710.434064
765.588796	16765.496416
765.914943	15472.672348
766.241044	14368.815931
766.567097	13570.327409
766.893104	12851.113551
767.219064	12382.024104
767.544978	11894.773899
767.870845	11509.861638
768.196665	11280.537029
768.522438	11045.641945
768.848165	10846.692809
769.173846	10637.610953
769.499479	10512.156798
769.825066	10342.849647
770.150607	10111.264080
770.476101	10030.570330
770.801548	9908.239171
771.126949	9747.570036
771.452303	9633.340010
771.777611	9437.977655
772.102872	9426.534235
772.428087	9286.460735
772.753256	9124.589285
773.078378	9041.198518
773.403453	8852.261113
773.728482	8737.731138
774.053465	8665.816558
774.378401	8564.998522
774.703291	8443.937733
775.028135	8309.759862
775.352932	8280.649719
775.677683	8178.107609
776.002388	8066.254487
776.327046	8079.026251
776.651658	7982.495716
776.976224	7878.577371
777.300743	7879.439408
777.625216	7792.847508
777.949643	7744.051660
778.274024	7761.889783
778.598359	7675.436515
778.922647	7688.961931
779.246889	7641.355794
779.571086	7647.029613
779.895236	7656.585120
780.219339	7668.008375
780.543397	7666.627098
780.867409	7746.710868
781.191374	7757.209071
781.515294	7721.482414
781.839167	7816.132598
782.162995	7787.171169
782.486776	7737.170485
782.810511	7690.396139
783.134201	7599.662931
783.457844	7602.758200
783.781441	7542.791154
784.104993	7475.506874
784.428498	7452.829243
784.751958	7439.815505
785.075372	7406.642192
785.398739	7356.051692
785.722061	7396.227168
786.045337	7406.559013
786.368568	7558.474184
786.691752	7582.974192
787.014891	7924.025893
787.337983	8281.350440
787.661030	8867.775264
787.984031	9492.195264
788.306987	9902.003263
788.629897	10107.258883
788.952760	10063.857069
789.275579	9848.501497
789.598351	9451.593811
789.921078	9096.525181
790.243759	8683.924383
790.566395	8392.371771
790.888984	8142.612845
791.211529	7931.522089
791.534027	7712.093265
791.856480	7502.169537
792.178888	7426.464009
792.501249	7335.027560
792.823566	7175.212901
793.145836	7178.368663
793.468062	7149.192985
793.790241	7099.802281
794.112375	7163.603124
794.434464	7315.777914
794.756507	7356.311312
795.078505	7508.886874
795.400457	7826.414031
795.722364	8180.113988
796.044226	8466.123852
796.366042	8741.512004
796.687812	8685.759363
797.009538	8764.640818
797.331218	8667.422166
797.652852	8586.849404
797.974442	8435.438348
798.295986	8343.356632
798.617484	8151.414699
798.938938	8009.768358
799.260346	7914.495592
799.581709	7714.500416
799.903026	7632.405226
800.224299	7526.099894
800.545526	7357.077567
800.866708	7254.900940
801.187845	7184.844025
801.508936	7076.101296
801.829983	7038.887498
802.150984	6887.511730
802.471940	6845.612180
802.792851	6826.511248
803.113717	6798.391692
803.434538	6761.369458
803.755314	6700.316044
804.076045	6704.285953
804.396731	6652.190669
804.717372	6684.199475
805.037967	6686.147881
805.358518	6724.077523
805.679024	6805.270347
805.999485	6812.640513
806.319901	6855.898655
806.640272	6875.909515
806.960598	6963.166847
807.280879	6960.154757
807.601115	7042.325565
807.921306	6984.435475
808.241453	6996.632547
808.561554	7027.779316
808.881611	6986.358675
809.201623	6993.834706
809.521590	6942.951820
809.841513	6922.530106
810.161390	6967.063659
810.481223	6834.650191
810.801011	6817.646379
811.120755	6798.023688
811.440453	6716.956893
811.760107	6683.193765
812.079716	6656.702502
812.399281	6594.419046
812.718801	6580.376912
813.038276	6537.751435
813.357707	6477.393700
813.677093	6517.458271
813.996434	6424.464106
814.315731	6464.755528
814.634983	6455.089115
814.954191	6466.383820
815.273354	6575.151756
815.592473	6640.689276
815.911547	6760.971207
816.230577	6848.518405
816.549562	6992.413101
816.868502	7097.926971
817.187399	7197.318361
817.506250	7350.307298
817.825058	7382.197637
818.143821	7655.400449
818.462539	7926.576717
818.781213	8294.275958
819.099843	8841.334412
819.418429	9845.239871
819.736970	10812.637294
820.055466	11999.564364
820.373919	13538.855485
820.692327	15914.090902
821.010691	20060.830630
821.329011	29067.847604
821.647286	42142.044816
821.965517	55620.630786
822.283704	61018.226977
822.601847	63038.726480
822.919945	60396.327553
823.237999	56295.593395
823.556010	50203.376616
823.873976	43463.185045
824.191897	36885.207723
824.509775	31989.309684
824.827609	27417.227641
825.145398	24774.435505
825.463144	23373.022462
825.780845	23670.836187
826.098502	25414.384780
826.416116	29189.500728
826.733685	32824.291119
827.051210	33993.430478
827.368692	32226.707701
827.686129	28272.240101
828.003522	24137.117712
828.320872	20419.566699
828.638177	17557.577632
828.955439	15380.918307
829.272656	13552.905181
829.589830	12069.762432
829.906960	10784.091760
830.224046	9838.688892
830.541088	9079.917100
830.858086	8612.576933
831.175041	8229.519816
831.491952	8109.230324
831.808819	8149.347826
832.125642	8548.929845
832.442421	9437.592006
832.759157	11224.489481
833.075849	14152.822653
833.392497	17380.618008
833.709101	19582.241128
834.025662	19444.879768
834.342179	17755.808404
834.658653	15555.780810
834.975083	13626.087612
835.291469	11994.132521
835.607811	10669.276961
835.924110	9747.703626
836.240366	8881.938385
836.556578	8062.040083
836.872746	7416.328769
837.188871	6909.007210
837.504952	6491.178736
837.820990	6173.011352
838.136984	5951.528258
838.452935	5854.596951
838.768842	5885.398401
839.084706	6310.604605
839.400526	7512.566916
839.716303	9100.545501
840.032037	10202.070384
840.347727	10142.723401
840.663373	9173.274228
840.978977	8119.393290
841.294537	7308.168292
841.610054	6702.279573
841.925527	6269.163800
842.240957	5899.627058
842.556344	5565.607766
842.871687	5287.557884
843.186987	5000.449049
843.502244	4771.817599
843.817458	4602.187813
844.132629	4466.114468
844.447756	4372.603585
844.762840	4293.538128
845.077881	4217.522569
845.392879	4152.595028
845.707833	4103.075774
846.022745	4062.953230
846.337613	4030.276471
846.652438	3986.599914
846.967221	3966.911688
847.281960	3937.186524
847.596656	3917.989810
847.911309	3898.727562
848.225919	3873.284858
848.540485	3857.372456
848.855009	3845.714788
849.169490	3823.546314
849.483928	3810.257832
849.798323	3802.721307
850.112675	3780.474695
850.426984	3792.006335
850.741251	3775.516720
851.055474	3768.577572
851.369654	3773.112090
851.683792	3772.486987
851.997887	3777.848254
852.311938	3777.515538
852.625947	3778.947226
852.939914	3771.743417
853.253837	3777.114766
853.567718	3781.772792
853.881555	3769.535391
854.195350	3781.208183
854.509103	3779.660549
854.822812	3776.542595
855.136479	3766.367026
855.450103	3776.184673
855.763685	3762.591202
856.077224	3767.110596
856.390720	3785.009213
856.704173	3804.949497
857.017584	3820.251920
857.330953	3831.067715
857.644278	3851.348277
857.957561	3860.883620
858.270802	3856.074359
858.584000	3861.433105
858.897155	3852.525387
859.210268	3834.697346
859.523339	3816.327381
859.836367	3815.069613
860.149352	3806.905465
860.462295	3794.801654
860.775195	3788.321251
861.088054	3785.029378
861.400869	3781.339253
861.713642	3782.397895
862.026373	3790.650264
862.339062	3799.202582
862.651708	3816.352587
862.964312	3848.928523
863.276873	3863.094166
863.589392	3919.393772
863.901869	3966.009321
864.214303	4009.887524
864.526696	4046.766085
864.839045	4090.392231
865.151353	4118.040439
865.463619	4129.977891
865.775842	4134.068788
866.088023	4152.789113
866.400162	4144.451044
866.712258	4152.690810
867.024313	4155.039988
867.336325	4154.092251
867.648296	4157.767252
867.960224	4158.399917
868.272110	4171.219571
868.583954	4170.602030
868.895755	4184.636602
869.207515	4183.323381
869.519233	4226.878951
869.830909	4241.367227
870.142542	4267.326648
870.454134	4277.605561
870.765684	4307.807114
871.077191	4344.778936
871.388657	4369.820868
871.700081	4405.865118
872.011463	4450.623002
872.322803	4487.652798
872.634101	4517.922406
872.945357	4558.130649
873.256571	4610.367085
873.567744	4641.783556
873.878874	4659.858613
874.189963	4698.080642
874.501010	4709.894586
874.812015	4707.926015
875.122979	4751.320267
875.433900	4751.983179
875.744780	4762.032719
876.055618	4787.094816
876.366415	4790.217811
876.677169	4811.189011
876.987882	4861.212380
877.298554	4910.560235
877.609183	4989.822297
877.919771	5103.704483
878.230317	5250.258387
878.540822	5471.197037
878.851285	5791.544720
879.161707	6256.833137
879.472087	7015.483941
879.782425	8266.736135
880.092722	10466.320107
880.402977	13797.673365
880.713191	17613.975541
881.023363	21382.979090
881.333494	23644.927177
881.643583	24891.881787
881.953631	24887.843822
882.263637	24051.264342
882.573602	22559.571795
882.883526	20997.537508
883.193408	19305.075969
883.503248	17592.628775
883.813048	16016.605286
884.122806	14573.199432
884.432522	13080.881782
884.742197	11794.376800
885.051831	10683.989568
885.361424	9661.457046
885.670975	8830.115324
885.980485	8124.366388
886.289954	7534.775720
886.599382	7056.113121
886.908768	6672.715727
887.218113	6308.043699
887.527417	6008.715107
887.836680	5742.101083
888.145901	5521.338873
888.455082	5356.571281
888.764221	5204.409093
889.073319	5060.874840
889.382376	4992.088296
889.691392	4931.576806
890.000366	4904.268875
890.309300	4885.871184
890.618193	4894.667998
890.927044	4874.052199
891.235855	4898.090941
891.544625	4926.633954
891.853353	4992.789016
892.162041	5111.387202
892.470687	5298.819822
892.779293	5551.139654
893.087858	5924.656387
893.396381	6507.479307
893.704864	7312.344888
894.013306	8477.237075
894.321707	9662.336727
894.630068	10485.264763
894.938387	10702.558659
895.246665	10463.963368
895.554903	9858.941727
895.863100	9160.512547
896.171256	8587.386287
896.479371	8086.136798
896.787446	7580.839263
897.095480	7150.039899
897.403473	6824.983779
897.711425	6498.586711
898.019336	6232.444035
898.327207	5959.132838
898.635038	5723.481581
898.942827	5474.264579
899.250576	5285.324653
899.558284	5085.770578
899.865952	4959.598059
900.173579	4812.716480
900.481165	4697.500909
900.788711	4608.050675
901.096216	4534.858162
901.403681	4469.156804
901.711105	4447.074030
902.018489	4426.095268
902.325832	4503.484542
902.633135	4623.370742
902.940397	4968.387311
903.247619	5763.064721
903.554800	7219.459108
903.861941	9152.983584
904.169041	10695.974912
904.476101	11345.875424
904.783121	10999.061684
905.090100	10250.447817
905.397039	9411.539323
905.703938	8646.012385
906.010796	7942.713451
906.317614	7379.578757
906.624391	6835.320665
906.931129	6409.549852
907.237826	6001.438201
907.544483	5620.838647
907.851099	5245.229836
908.157675	4884.943612
908.464211	4557.129980
908.770707	4317.939833
909.077163	4114.683031
909.383578	3966.609219
909.689954	3850.488760
909.996289	3779.950415
910.302584	3711.458778
910.608839	3679.639015
910.915054	3642.394971
911.221229	3635.034886
911.527363	3640.219713
911.833458	3655.305366
912.139513	3684.629758
912.445527	3715.093450
912.751502	3796.548414
913.057436	3899.163621
913.363331	4040.313408
913.669186	4244.633894
913.975000	4505.127958
914.280775	4930.129994
914.586510	5516.862329
914.892205	6324.692109
915.197859	7369.047787
915.503475	8602.149306
915.809050	9674.838789
916.114585	10328.245424
916.420081	10592.467420
916.725536	10570.704759
917.030952	10122.256316
917.336328	9702.648314
917.641665	9292.774780
917.946961	8804.833937
918.252218	8386.506388
918.557435	7870.566977
918.862612	7433.740914
919.167750	7056.529016
919.472848	6622.578931
919.777906	6243.794193
920.082925	5879.800200
920.387904	5514.389643
920.692843	5241.330504
920.997743	4991.198532
921.302603	4755.595166
921.607423	4588.483437
921.912204	4422.904218
922.216946	4302.680260
922.521647	4181.044780
922.826310	4071.220723
923.130932	3976.689006
923.435516	3876.392729
923.740059	3805.655259
924.044564	3727.963516
924.349028	3670.179290
924.653454	3603.237808
924.957840	3532.984288
925.262186	3483.717092
925.566493	3422.847680
925.870761	3362.842825
926.174989	3330.236642
926.479178	3293.035448
926.783328	3248.809405
927.087438	3221.501474
927.391509	3185.051412
927.695541	3154.333141
927.999533	3125.323821
928.303486	3106.099381
928.607400	3089.118254
928.911275	3079.497212
929.215110	3062.074984
929.518906	3050.147614
929.822663	3052.358160
930.126381	3046.984290
930.430060	3053.051319
930.733699	3055.624828
931.037299	3064.396435
931.340861	3063.045406
931.644383	3071.900193
931.947866	3069.856005
932.251309	3062.322001
932.554714	3063.849470
932.858080	3060.451733
933.161407	3048.836914
933.464694	3042.364073
933.767943	3037.736293
934.071153	3032.039789
934.374323	3021.975126
934.677455	3014.894825
934.980548	3007.398629
935.283602	3003.617764
935.586617	3001.954183
935.889593	3007.920389
936.192530	3012.490195
936.495428	3027.180117
936.798287	3048.121070
937.101108	3079.650967
937.403890	3132.542753
937.706632	3195.053061
938.009336	3273.017026
938.312002	3346.552337
938.614628	3410.577511
938.917216	3464.001139
939.219765	3496.075480
939.522275	3528.235521
939.824747	3536.757592
940.127179	3532.891027
940.429573	3529.064791
940.731929	3524.104296
941.034246	3511.115763
941.336524	3497.295440
941.638763	3484.979901
941.940964	3467.328301
942.243126	3425.453956
942.545250	3404.878487
942.847335	3367.616798
943.149381	3329.475428
943.451389	3299.357054
943.753359	3264.058895
944.055290	3237.809607
944.357182	3214.075855
944.659036	3198.160932
944.960851	3189.933769
945.262628	3172.635050
945.564367	3174.434742
945.866067	3170.878207
946.167729	3165.650531
946.469352	3165.337979
946.770937	3157.627535
947.072484	3142.874598
947.373992	3147.484733
947.675462	3139.809576
947.976893	3123.367853
948.278286	3113.129270
948.579641	3107.503342
948.880958	3101.494287
949.182236	3104.012343
949.483476	3095.079418
949.784678	3098.651076
950.085841	3101.731221
950.386967	3108.665328
950.688054	3127.100827
950.989103	3147.903149
951.290114	3166.726817
951.591087	3198.344934
951.892021	3222.318141
952.192917	3249.615989
952.493776	3278.489198
952.794596	3283.396761
953.095378	3290.630817
953.396122	3286.376083
953.696828	3275.998868
953.997496	3266.624842
954.298126	3242.291193
954.598718	3223.215467
954.899272	3197.276210
955.199788	3168.161026
955.500266	3141.289155
955.800706	3104.476129
956.101108	3062.851322
956.401472	3031.039120
956.701798	3000.653566
957.002087	2957.750826
957.302337	2931.771239
957.602550	2900.962228
957.902724	2871.625233
958.202861	2845.638085
958.502960	2825.050012
958.803022	2804.935809
959.103045	2783.967129
959.403031	2766.832247
959.702979	2751.910432
960.002889	2739.138669
960.302762	2727.296998
960.602596	2717.938096
960.902393	2706.499718
961.202153	2699.560570
961.501875	2687.204702
961.801559	2683.007941
962.101205	2676.764472
962.400814	2670.246260
962.700385	2666.236022
962.999918	2657.126657
963.299414	2652.836635
963.598873	2648.307159
963.898293	2642.671149
964.197677	2642.570326
964.497022	2638.668472
964.796331	2637.032618
965.095601	2633.355096
965.394835	2633.014818
965.694030	2631.136989
965.993189	2629.468367
966.292309	2629.302009
966.591393	2631.620939
966.890439	2626.347892
967.189447	2627.550208
967.488419	2628.510547
967.787353	2631.225209
968.086249	2631.625981
968.385108	2633.034983
968.683930	2635.369037
968.982714	2637.284676
969.281462	2643.818011
969.580172	2647.122487
969.878844	2650.343785
970.177480	2659.891730
970.476078	2666.974551
970.774639	2677.041736
971.073162	2687.030782
971.371649	2688.475072
971.670098	2695.439427
971.968510	2702.439069
972.266885	2704.425283
972.565223	2708.037270
972.863524	2711.215718
973.161788	2714.575647
973.460014	2718.623693
973.758204	2721.565206
974.056356	2721.844990
974.354471	2724.156359
974.652550	2723.606874
974.950591	2723.576627
975.248595	2723.669888
975.546563	2720.320041
975.844493	2719.460525
976.142386	2709.153886
976.440243	2708.054914
976.738062	2702.983513
977.035845	2694.799200
977.333590	2687.751667
977.631299	2684.795030
977.928971	2676.661128
978.226606	2670.407577
978.524204	2667.347597
978.821765	2662.077070
979.119290	2665.631084
979.416777	2666.765343
979.714228	2671.204079
980.011642	2671.841785
980.309020	2680.285718
980.606360	2691.270392
980.903664	2718.832901
981.200931	2755.822367
981.498162	2804.754327
981.795356	2879.549927
982.092513	2971.498052
982.389633	3075.822211
982.686717	3173.761747
982.983764	3248.716143
983.280775	3303.909216
983.577749	3308.431131
983.874686	3293.524439
984.171587	3262.962444
984.468451	3224.584140
984.765279	3178.737366
985.062070	3130.581744
985.358824	3085.886874
985.655543	3026.686084
985.952224	2975.014257
986.248869	2911.163003
986.545478	2848.236800
986.842050	2794.392235
987.138586	2746.886922
987.435086	2705.887218
987.731549	2676.015861
988.027975	2649.950575
988.324366	2634.627988
988.620719	2617.518312
988.917037	2607.788885
989.213318	2598.220775
989.509563	2591.369847
989.805772	2585.391038
990.101944	2581.101016
990.398080	2578.739236
990.694180	2578.260326
990.990244	2577.892322
991.286271	2577.466344
991.582262	2578.378793
991.878217	2583.298959
992.174136	2581.882395
992.470019	2587.036975
992.765865	2590.701894
993.061676	2593.237594
993.357450	2603.788729
993.653188	2610.395161
993.948890	2627.043572
994.244556	2648.677683
994.540186	2671.438493
994.835780	2702.726414
995.131337	2741.001375
995.426859	2783.853703
995.722345	2831.101918
996.017795	2882.894732
996.313208	2920.642892
996.608586	2949.498457
996.903928	2962.849953
997.199234	2963.666620
997.494504	2960.641928
997.789738	2942.876901
998.084936	2922.193047
998.380099	2887.464538
998.675225	2857.205012
998.970316	2828.377174
999.265371	2791.612039
999.560390	2754.685587
999.855373	2722.273488
1000.150320	2694.710980
1000.445232	2666.916578
1000.740108	2647.621562
1001.034948	2630.569859
1001.329752	2614.271808
1001.624521	2599.385281
1001.919254	2589.169383
1002.213951	2583.901377
1002.508613	2573.952660
1002.803239	2568.430076
1003.097829	2560.260886
1003.392384	2554.037582
1003.686903	2551.688404
1003.981386	2546.551468
1004.275834	2542.309337
1004.570246	2544.981149
1004.864623	2537.600900
1005.158964	2536.297761
1005.453270	2532.847092
1005.747540	2532.337935
1006.041775	2528.912471
1006.335974	2529.416586
1006.630138	2529.963552
1006.924266	2528.241998
1007.218359	2526.311236
1007.512416	2522.979033
1007.806438	2519.810668
1008.100425	2521.703621
1008.394376	2520.161028
1008.688292	2523.084897
1008.982172	2522.729496
1009.276017	2522.114475
1009.569827	2525.544980
1009.863602	2520.065246
1010.157341	2519.583816
1010.451045	2520.352592
1010.744714	2515.014010
1011.038347	2520.433250
1011.331945	2516.808661
1011.625508	2515.699607
1011.919036	2513.277332
1012.212528	2515.641633
1012.505986	2514.371263
1012.799408	2513.587363
1013.092795	2511.507887
1013.386147	2510.555109
1013.679464	2513.080727
1013.972745	2512.281704
1014.265992	2508.803308
1014.559204	2511.921262
1014.852380	2511.134842
1015.145521	2510.214831
1015.438628	2509.105777
1015.731699	2511.646519
1016.024736	2512.006962
1016.317737	2514.338495
1016.610703	2513.731036
1016.903635	2515.324041
1017.196531	2515.964267
1017.489393	2517.388393
1017.782219	2517.975688
1018.075011	2519.956861
1018.367768	2520.977695
1018.660490	2524.335103
1018.953177	2524.335103
1019.245829	2524.335103
