Dividing Wavelength (nm)	Counts (n)	Blue Motor Position (mm): 33.700000	Red Motor Position (mm): 0.000000	
326.493990	2131.155350
326.888308	2131.155350
327.282561	2131.155350
327.676750	2099.176791
328.070874	2097.046903
328.464933	2099.496904
328.858929	2108.018975
329.252859	2116.026848
329.646726	2128.319701
330.040528	2139.831176
330.434265	2155.771304
330.827938	2172.732267
331.221547	2193.035514
331.615091	2210.435056
332.008571	2230.955073
332.401986	2251.268402
332.795338	2268.703233
333.188625	2287.950358
333.581847	2307.880560
333.975006	2326.789928
334.368100	2344.224759
334.761129	2361.866277
335.154095	2378.542413
335.546996	2400.957904
335.939833	2424.346337
336.332606	2440.662032
336.725315	2451.434978
337.117960	2465.303192
337.510540	2471.274438
337.903056	2485.873620
338.295508	2485.548466
338.687896	2497.385095
339.080220	2502.322905
339.472480	2510.418998
339.864676	2515.485358
340.256807	2521.058353
340.648875	2524.153622
341.040879	2525.706297
341.432818	2526.674199
341.824694	2528.889786
342.216506	2528.451205
342.608253	2529.749302
342.999937	2529.540095
343.391557	2530.487832
343.783113	2528.073119
344.174605	2527.523633
344.566033	2523.994825
344.957397	2523.135309
345.348697	2523.203364
345.739934	2519.606501
346.131106	2520.166069
346.522215	2518.492406
346.913260	2515.772703
347.304241	2514.560306
347.695159	2510.272805
348.086012	2511.969153
348.476802	2507.200221
348.867528	2509.297341
349.258191	2504.598986
349.648789	2506.474295
350.039324	2502.963132
350.429796	2502.940446
350.820203	2501.004643
351.210548	2499.968686
351.600828	2496.207985
351.991045	2500.427431
352.381198	2496.412152
352.771288	2501.234016
353.161314	2497.498521
353.551276	2499.245281
353.941175	2497.226298
354.331010	2496.785198
354.720782	2497.397698
355.110490	2495.857625
355.500135	2494.108345
355.889717	2497.659838
356.279235	2494.667913
356.668689	2497.687564
357.058080	2494.947697
357.447408	2494.506596
357.836672	2495.643376
358.225873	2494.746051
358.615010	2491.950731
359.004084	2498.234529
359.393095	2498.940291
359.782043	2503.961280
360.170927	2499.976248
360.559748	2503.540344
360.948505	2502.224602
361.337199	2502.363234
361.725830	2502.852226
362.114398	2502.519510
362.502903	2504.782988
362.891344	2505.980262
363.279722	2504.155364
363.668037	2505.072854
364.056289	2508.110150
364.444478	2507.384223
364.832603	2505.337515
365.220665	2508.110150
365.608665	2506.093688
365.996601	2508.992352
366.384474	2507.875736
366.772284	2511.517970
367.160031	2507.384223
367.547715	2508.155520
367.935336	2508.866323
368.322893	2507.416991
368.710388	2509.589728
369.097820	2515.250944
369.485189	2511.500326
369.872495	2510.603000
370.259738	2511.041581
370.646918	2511.071827
371.034035	2510.161899
371.421090	2509.821621
371.808081	2513.173989
372.195010	2512.690038
372.581875	2513.098371
372.968678	2514.731705
373.355418	2514.938393
373.742096	2514.169617
374.128710	2514.189781
374.515262	2513.015192
374.901751	2518.089114
375.288177	2514.310769
375.674540	2514.386386
376.060841	2515.669360
376.447079	2516.982580
376.833254	2513.284894
377.219367	2513.047960
377.605417	2514.353619
377.991404	2512.032167
378.377329	2513.761283
378.763191	2513.630213
379.148991	2520.128260
379.534727	2516.914525
379.920402	2515.334123
380.306013	2516.811181
380.691563	2517.963085
381.077049	2516.871675
381.462474	2517.900070
381.847835	2518.036182
382.233134	2518.784793
382.618371	2518.447036
383.003545	2519.782941
383.388657	2519.793024
383.773706	2520.082890
384.158693	2519.160359
384.543618	2520.163548
384.928480	2521.696059
385.313280	2521.572551
385.698017	2520.345030
386.082692	2523.523478
386.467305	2522.278313
386.851856	2523.120185
387.236344	2524.501461
387.620770	2523.157994
388.005133	2521.254958
388.389435	2523.586492
388.773674	2524.756040
389.157851	2522.744619
389.541965	2525.829805
389.926018	2522.522808
390.310008	2524.677902
390.693936	2528.070598
391.077802	2524.224198
391.461606	2526.850639
391.845348	2526.268386
392.229027	2526.659075
392.612645	2525.393746
392.996200	2525.650844
393.379694	2529.207378
393.763125	2529.502286
394.146494	2531.470857
394.529801	2528.302491
394.913047	2529.565300
395.296230	2531.412883
395.679351	2527.553880
396.062410	2530.303829
396.445408	2528.289888
396.828343	2531.236443
397.211217	2526.606143
397.594028	2529.845084
397.976778	2527.427851
398.359466	2530.649148
398.742092	2526.396935
399.124656	2530.717204
399.507158	2532.466484
399.889598	2534.359438
400.271977	2535.909592
400.654294	2535.322298
401.036549	2533.961187
401.418742	2533.464633
401.800874	2535.707946
402.182944	2535.171063
402.564952	2536.176774
402.946898	2538.843544
403.328783	2537.069058
403.710606	2540.774306
404.092367	2539.352701
404.474067	2540.098791
404.855705	2537.850437
405.237282	2539.861857
405.618797	2540.502084
406.000250	2541.837989
406.381642	2544.393854
406.762972	2544.109029
407.144240	2546.019627
407.525447	2547.131201
407.906593	2547.872251
408.287677	2553.851059
408.668700	2558.975392
409.049661	2561.543860
409.430560	2565.362534
409.811399	2569.526527
410.192176	2576.697568
410.572891	2585.602767
410.953545	2591.521081
411.334138	2598.578697
411.714669	2609.767537
412.095139	2617.331789
412.475547	2633.367699
412.855894	2644.997641
413.236180	2657.534991
413.616405	2667.778615
413.996568	2686.662778
414.376670	2697.440765
414.756711	2708.929554
415.136691	2728.426217
415.516609	2753.243817
415.896466	2774.610748
416.276262	2798.483132
416.655997	2815.028199
417.035670	2857.515043
417.415283	2894.292781
417.794834	2911.314237
418.174324	2934.743000
418.553753	2945.909155
418.933121	3004.885614
419.312428	3045.703837
419.691674	3066.531364
420.070859	3123.345168
420.449983	3140.099443
420.829045	3200.189997
421.208047	3216.152810
421.586988	3270.705657
421.965867	3311.503715
422.344686	3398.292219
422.723444	3391.179151
423.102141	3371.201058
423.480777	3507.833972
423.859352	3479.719457
424.237866	3612.803398
424.616319	3653.389727
424.994712	3743.041607
425.373044	3741.436000
425.751314	3849.810725
426.129524	3817.554902
426.507673	3951.500881
426.885762	4034.642110
427.263789	4059.588260
427.641756	4043.806928
428.019662	4156.161644
428.397508	4210.832958
428.775292	4234.912029
429.153016	4342.311291
429.530679	4345.640973
429.908282	4446.181746
430.285824	4409.315788
430.663305	4631.577740
431.040726	4515.542982
431.418086	4557.218200
431.795385	4674.135161
432.172624	4723.306576
432.549802	4764.102113
432.926920	4816.825021
433.303977	4864.882340
433.680974	4933.033699
434.057910	4990.311289
434.434786	5035.296025
434.811601	5043.921440
435.188355	5266.057363
435.565050	5204.000759
435.941683	5226.680911
436.318257	5436.050112
436.694770	5456.570129
437.071222	5522.367269
437.447614	5493.935161
437.823946	5451.637360
438.200218	5614.544767
438.576429	5526.962281
438.952580	5636.904805
439.328670	5710.462801
439.704700	5642.034179
440.080670	5655.604965
440.456580	5926.882056
440.832429	5839.425599
441.208218	5711.904571
441.583947	5876.523450
441.959616	5897.860134
442.335224	5843.559345
442.710773	5985.626622
443.086261	6028.884763
443.461689	5841.497513
443.837057	6000.170351
444.212365	6159.662376
444.587612	6068.833387
444.962800	6227.803653
445.337927	6209.549635
445.712995	5842.568758
446.088002	6414.830461
446.462949	6256.717191
446.837837	6192.601276
447.212664	6369.679366
447.587431	6518.428693
447.962139	7056.508851
448.336786	7969.053479
448.711374	7714.359264
449.085901	6801.459234
449.460369	6734.633699
449.834776	6671.742784
450.209124	7061.449182
450.583412	7220.474901
450.957640	7363.752055
451.331808	7132.405943
451.705917	6684.761564
452.079965	6611.942097
452.453954	6822.586710
452.827883	6700.898297
453.201752	6797.940509
453.575562	6592.982317
453.949311	6797.832124
454.323001	6692.439241
454.696632	6767.958246
455.070202	6905.513691
455.443713	7062.059162
455.817164	7158.892165
456.190556	7239.227993
456.563888	7317.393604
456.937160	7360.339194
457.310373	7021.498038
457.683526	7044.914197
458.056619	6937.328413
458.429653	6925.907679
458.802628	6857.889910
459.175542	6971.280584
459.548398	7322.696898
459.921194	7478.970147
460.293930	7488.545818
460.666607	8013.534100
461.039224	8322.345103
461.411782	8447.259854
461.784280	8459.857697
462.156719	8352.816357
462.529099	8230.429745
462.901419	7822.920512
463.273680	7721.230356
463.645882	7732.220072
464.018024	7594.475584
464.390106	7767.364476
464.762130	8150.224987
465.134094	8620.189075
465.505999	9642.580445
465.877845	10857.007010
466.249631	11494.024854
466.621358	11120.629109
466.993026	10486.872891
467.364634	10234.863090
467.736184	9870.458243
468.107674	9542.011947
468.479105	9576.828676
468.850477	9336.400925
469.221790	9114.330537
469.593043	8786.673181
469.964238	8640.225141
470.335373	8651.232500
470.706449	8723.424344
471.077467	8698.684881
471.448425	10006.745837
471.819324	11075.478014
472.190164	11090.901425
472.560945	9850.205408
472.931667	9062.963699
473.302330	8929.012680
473.672934	8576.184843
474.043479	8930.973689
474.413965	8873.096202
474.784393	8760.711238
475.154761	8911.068693
475.525070	8997.287547
475.895321	8825.084252
476.265513	8999.349379
476.635645	9169.568980
477.005719	9169.942025
477.375734	9283.073079
477.745691	9519.800623
478.115588	9652.198967
478.485427	9896.846163
478.855207	10431.087483
479.224928	11246.635270
479.594591	11878.674974
479.964194	11675.178717
480.333739	11621.308947
480.703226	11535.301821
481.072653	11628.444700
481.442022	11860.100843
481.811333	12047.929194
482.180584	11856.725791
482.549777	11566.136039
482.918912	11392.619523
483.287988	11414.530899
483.657005	11421.160016
484.025964	11111.018149
484.394864	11236.399207
484.763706	11209.993643
485.132489	10968.045985
485.501213	10929.566857
485.869879	11007.548466
486.238487	10850.226658
486.607036	10961.719337
486.975527	10740.332024
487.343959	10930.607856
487.712333	10979.870011
488.080648	10905.780173
488.448905	10958.051897
488.817104	10892.834490
489.185244	11157.361476
489.553326	11319.061527
489.921350	11849.784122
490.289315	12912.303077
490.657222	13245.813212
491.025070	13147.208243
491.392861	13034.256150
491.760593	12653.701967
492.128267	12301.209366
492.495883	11983.929226
492.863440	11641.256793
493.230939	11304.021245
493.598380	11235.953065
493.965763	11107.126378
494.333088	11010.754640
494.700354	10931.404358
495.067563	10991.424336
495.434713	10823.362349
495.801805	10945.985896
496.168839	10870.660975
496.535815	10808.501027
496.902733	10807.291150
497.269593	10744.017108
497.636395	10844.749444
498.003139	10832.005407
498.369825	10700.277537
498.736453	10862.146466
499.103023	10785.803232
499.469535	10812.813734
499.835989	10803.991715
500.202385	10768.698597
500.568723	10617.574887
500.935003	10840.961017
501.301226	10645.185287
501.667390	10902.301777
502.033497	10998.209729
502.399546	10853.450476
502.765537	10765.946127
503.131470	10842.410349
503.497345	11012.942501
503.863163	10625.121494
504.228923	10933.650192
504.594625	11000.397590
504.960269	10745.695812
505.325856	10971.421037
505.691385	10760.748698
506.056856	10911.292675
506.422270	10937.315111
506.787625	10828.826960
507.152924	10942.767119
507.518164	10926.491754
507.883347	10844.620895
508.248472	10759.798440
508.613540	11006.204999
508.978550	10890.427339
509.343503	10862.033040
509.708398	10974.801131
510.073236	11089.378996
510.438016	11089.036198
510.802738	11037.185410
511.167403	11097.356622
511.532010	10995.391724
511.896561	11223.796322
512.261053	11294.261571
512.625488	11170.418065
512.989866	11149.015846
513.354186	11131.137394
513.718449	11035.541994
514.082655	11231.075748
514.446803	11122.869902
514.810894	11251.182391
515.174927	11116.689447
515.538904	11142.331276
515.902822	11292.683690
516.266684	11171.060812
516.630488	11114.874632
516.994235	11175.938128
517.357925	11236.489948
517.721558	11318.325519
518.085133	11332.884371
518.448651	11348.343069
518.812112	11229.124822
519.175516	11242.375495
519.538863	11367.509536
519.902152	11286.813266
520.265385	11439.903026
520.628560	11356.633247
520.991678	11334.888230
521.354739	11397.522046
521.717743	11334.212715
522.080690	11309.264045
522.443580	11444.482914
522.806413	11401.295349
523.169189	11424.618248
523.531908	11489.457568
523.894569	11305.480659
524.257174	11312.326546
524.619722	11432.694176
524.982213	11374.463808
525.344647	11424.368710
525.707025	11381.065199
526.069345	11472.733540
526.431608	11393.199256
526.793815	11500.810247
527.155964	11283.891917
527.518057	11337.444095
527.880093	11288.935592
528.242072	11357.623833
528.603995	11266.593198
528.965860	11186.322905
529.327669	11233.263609
529.689421	11179.598006
530.051117	11161.235603
530.412755	11260.372414
530.774337	11152.837041
531.135862	11126.338216
531.497331	11156.232258
531.858743	11008.108034
532.220098	11172.840339
532.581396	11041.664475
532.942638	11026.465396
533.303824	10992.026754
533.664953	11005.128712
534.026025	10915.300392
534.387040	11016.105825
534.747999	11022.465241
535.108902	11081.489590
535.469748	10831.670170
535.830537	10940.604464
536.191270	10919.149313
536.551947	10942.673857
536.912567	10939.762591
537.273131	10867.351457
537.633638	10844.429331
537.994089	10836.330717
538.354483	10787.466813
538.714821	10928.563668
539.075103	10932.601632
539.435328	10904.035934
539.795497	10727.648481
540.155609	10878.948632
540.515665	10975.471604
540.875665	10713.200534
541.235609	10779.768971
541.595496	10774.637076
541.955328	10924.908831
542.315102	10813.464043
542.674821	10759.939592
543.034483	10765.815057
543.394090	10767.309759
543.753640	10694.160096
544.113134	10916.936247
544.472571	10769.636252
544.831953	10913.563715
545.191278	10720.593387
545.550548	10744.833775
545.909761	10883.042049
546.268918	10864.283915
546.628019	10937.990626
546.987064	10808.974896
547.346053	10728.470189
547.704986	10828.398462
548.063863	10818.432100
548.422684	10809.254680
548.781449	10726.108409
549.140158	10825.091465
549.498811	10703.645027
549.857408	10553.272449
550.215949	10788.301124
550.574434	10640.456684
550.932864	10740.470656
551.291237	10801.042640
551.649555	10749.648077
552.007817	10758.913718
552.366022	10718.029960
552.724173	10716.643642
553.082267	10700.726199
553.440305	10839.196613
553.798288	10639.367795
554.156215	10795.840169
554.514086	10763.881775
554.871902	10617.317788
555.229661	10654.236678
555.587365	10639.292178
555.945014	10531.943327
556.302606	10653.117542
556.660143	10544.596623
557.017625	10696.844511
557.375050	10600.313976
557.732421	10732.087217
558.089735	10644.910544
558.446994	10650.528910
558.804197	10683.364465
559.161345	10680.054948
559.518437	10529.513491
559.875474	10617.660587
560.232455	10652.346246
560.589381	10600.820612
560.946251	10603.615932
561.303065	10703.561848
561.659825	10637.500048
562.016528	10570.203164
562.373177	10445.885790
562.729770	10566.752495
563.086307	10487.140072
563.442789	10569.119316
563.799216	10451.564650
564.155587	10496.488892
564.511904	10456.116812
564.868164	10448.431573
565.224370	10459.852307
565.580520	10385.916224
565.936615	10392.419312
566.292654	10264.051371
566.648638	10390.342357
567.004567	10348.820893
567.360441	10329.190640
567.716260	10244.479091
568.072023	10336.097021
568.427732	10283.807653
568.783385	10196.131905
569.138982	10266.650086
569.494525	10281.841603
569.850013	10163.656792
570.205445	10238.898534
570.560823	10134.982709
570.916145	10057.696779
571.271412	10125.432243
571.626625	10064.237676
571.981782	10044.642711
572.336884	10021.763435
572.691931	10027.462459
573.046923	9971.949273
573.401860	9931.751112
573.756743	9868.779539
574.111570	9904.014684
574.466342	9887.749401
574.821059	9923.221480
575.175722	9816.918669
575.530330	9821.269184
575.884882	9817.027053
576.239380	9741.089632
576.593823	9724.584895
576.948211	9741.198017
577.302544	9616.429460
577.656823	9632.752716
578.011047	9636.029466
578.365216	9611.640363
578.719330	9531.440647
579.073389	9545.959170
579.427394	9493.478238
579.781344	9470.183066
580.135239	9415.647864
580.489080	9427.658413
580.842866	9322.580602
581.196597	9338.593827
581.550273	9376.790650
581.903895	9343.002316
582.257463	9402.218230
582.610975	9287.421074
582.964434	9311.288417
583.317837	9234.302436
583.671186	9216.023213
584.024481	9205.938384
584.377721	9138.220565
584.730906	9106.199155
585.084037	9141.308271
585.437113	9069.527282
585.790135	9093.772711
586.143103	8994.582968
586.496016	8965.127506
586.848874	9024.981126
587.201679	9015.017285
587.554428	8899.605109
587.907124	8947.178478
588.259765	8921.216536
588.612352	8917.728057
588.964884	8795.613667
589.317362	8811.677304
589.669786	8810.757293
590.022155	8855.764715
590.374470	8874.144762
590.726731	8817.673756
591.078937	8663.928646
591.431090	8778.362838
591.783188	8652.747367
592.135232	8644.426943
592.487222	8643.756469
592.839157	8694.712452
593.191038	8625.603274
593.542866	8576.242816
593.894639	8474.761869
594.246358	8527.885548
594.598022	8546.202580
594.949633	8445.417312
595.301190	8419.934279
595.652692	8441.006303
596.004141	8561.673882
596.355535	8330.925147
596.706876	8313.439904
597.058162	8247.584791
597.409395	8325.508427
597.760573	8384.467242
598.111698	8295.170763
598.462768	8280.871530
598.813785	8247.912466
599.164748	8214.076242
599.515657	8207.079120
599.866511	8118.448074
600.217312	8242.198318
600.568060	8105.749407
600.918753	8205.506280
601.269392	8169.182246
601.619978	8089.811799
601.970510	8151.843197
602.320988	8151.994432
602.671412	8204.412350
603.021783	8140.717371
603.372100	8114.032023
603.722363	8114.279039
604.072572	8086.587981
604.422728	8103.322092
604.772830	8030.522789
605.122878	8033.086216
605.472872	8030.656379
605.822813	8063.161739
606.172701	8004.250816
606.522534	8080.062208
606.872314	8079.646312
607.222041	8049.144811
607.571714	8106.208152
607.921333	8062.944970
608.270899	8066.589724
608.620411	8161.252511
608.969870	8059.680823
609.319276	8060.928508
609.668627	8076.987104
610.017926	8108.552289
610.367171	8156.521388
610.716362	8129.732697
611.065500	8121.014021
611.414585	8151.780183
611.763616	8140.508163
612.112594	8122.294474
612.461518	8135.099005
612.810389	8198.599899
613.159207	8140.422463
613.507971	8085.468845
613.856682	8197.969755
614.205340	8158.530288
614.553945	8237.356290
614.902496	8137.886763
615.250994	8193.369702
615.599439	8171.407915
615.947830	8183.932662
616.296169	8164.143613
616.644454	8173.613420
616.992686	8167.707708
617.340864	8227.205927
617.688990	8131.640773
618.037063	8224.125782
618.385082	8169.653594
618.733048	8252.268023
619.080961	8193.823406
619.428821	8217.617652
619.776628	8221.582520
620.124382	8169.325919
620.472083	8156.024834
620.819731	8180.673556
621.167326	8071.456958
621.514868	8082.103875
621.862357	7969.993655
622.209793	7984.030747
622.557176	7919.141015
622.904506	7890.464412
623.251783	7828.851429
623.599007	7778.081969
623.946179	7787.955069
624.293297	7740.452276
624.640363	7662.803383
624.987376	7640.662636
625.334336	7589.063905
625.681243	7536.542644
626.028097	7526.188114
626.374899	7500.826069
626.721647	7495.001016
627.068343	7428.994668
627.414987	7396.370841
627.761577	7354.531784
628.108115	7387.810962
628.454600	7285.798172
628.801032	7335.035122
629.147412	7298.292672
629.493739	7284.583254
629.840014	7225.095118
630.186236	7284.419417
630.532405	7168.571181
630.878521	7219.005404
631.224585	7172.193250
631.570597	7100.674400
631.916556	7128.642722
632.262462	7125.940663
632.608316	7083.295022
632.954117	7065.013278
633.299866	7047.890999
633.645562	7039.401696
633.991206	6959.391023
634.336797	6904.109729
634.682336	6865.103802
635.027823	6831.396126
635.373257	6821.359189
635.718639	6756.812255
636.063968	6764.900787
636.409245	6662.840106
636.754470	6660.611916
637.099642	6617.956193
637.444762	6561.492749
637.789829	6569.485499
638.134845	6511.451736
638.479808	6499.110991
638.824719	6504.510067
639.169577	6432.509787
639.514383	6451.144412
639.859137	6382.917436
640.203839	6388.823148
640.548489	6375.088524
640.893086	6351.327046
641.237632	6322.489125
641.582125	6346.817733
641.926566	6316.694319
642.270955	6326.915258
642.615292	6319.550132
642.959576	6334.734088
643.303809	6328.672100
643.647990	6328.571277
643.992118	6320.618857
644.336195	6268.064828
644.680219	6297.696730
645.024192	6279.750223
645.368112	6381.987343
645.711981	6401.655405
646.055797	6481.797148
646.399562	6438.052536
646.743274	6563.312606
647.086935	6614.548373
647.430544	6611.574092
647.774101	6635.237268
648.117606	6635.479244
648.461059	6628.857688
648.804460	6591.890907
649.147810	6498.556464
649.491108	6472.256765
649.834354	6447.655934
650.177548	6366.846238
650.520690	6277.499347
650.863781	6251.885245
651.206820	6278.361385
651.549807	6196.087233
651.892742	6139.003728
652.235626	6141.171424
652.578458	6127.769517
652.921238	6035.534045
653.263967	6080.488535
653.606644	6014.477146
653.949269	6020.092991
654.291843	5960.012519
654.634365	6013.574779
654.976836	5961.749197
655.319255	5963.531245
655.661622	5944.745385
656.003938	5939.812616
656.346203	5898.061780
656.688416	5929.027067
657.030577	5885.100973
657.372687	5852.519996
657.714746	5841.063974
658.056753	5887.500563
658.398708	5823.800543
658.740612	5815.255787
659.082465	5863.232448
659.424266	5861.631882
659.766016	5854.579307
660.107715	5830.890925
660.449362	5843.841650
660.790958	5839.039951
661.132503	5826.880688
661.473996	5861.329412
661.815438	5846.495817
662.156829	5847.289799
662.498168	5838.419889
662.839456	5817.466333
663.180693	5852.676272
663.521879	5852.157033
663.863013	5837.918294
664.204097	5858.405543
664.545129	5898.250823
664.886110	5895.105143
665.227040	5934.053098
665.567918	5895.049690
665.908746	5921.465337
666.249522	5927.814670
666.590248	5910.163070
666.930922	5936.692142
667.271545	5952.173525
667.612118	5959.508404
667.952639	5931.179640
668.293109	5954.714267
668.633528	5907.513943
668.973896	5911.423358
669.314213	5901.421709
669.654480	5884.143154
669.994695	5878.718873
670.334859	5870.254775
670.674973	5861.226069
671.015035	5865.412747
671.355047	5863.129104
671.695008	5847.393143
672.034918	5828.287169
672.374777	5830.659032
672.714585	5821.211910
673.054342	5826.510163
673.394049	5815.621270
673.733705	5851.809193
674.073310	5836.315207
674.412864	5799.708868
674.752368	5785.833092
675.091820	5787.841992
675.431223	5727.217076
675.770574	5730.667746
676.109875	5675.517523
676.449125	5686.068658
676.788324	5649.573224
677.127473	5593.145069
677.466571	5582.939253
677.805619	5576.617646
678.144616	5566.593312
678.483562	5539.640782
678.822458	5506.162480
679.161303	5504.304815
679.500098	5498.459597
679.838842	5480.308922
680.177535	5485.186239
680.516179	5493.045397
680.854771	5508.887223
681.193314	5590.269091
681.531805	5695.374628
681.870247	5849.409604
682.208638	5953.201921
682.546978	5961.494619
682.885268	5938.418737
683.223508	5853.036714
683.561697	5801.064939
683.899836	5770.283653
684.237925	5725.835800
684.575963	5689.103432
684.913951	5651.327546
685.251889	5709.268048
685.589776	5678.915260
685.927614	5652.192104
686.265401	5721.104677
686.603137	5705.628335
686.940824	5784.124141
687.278460	5803.298170
687.616046	5816.495911
687.953582	5878.202154
688.291068	5861.601635
688.628504	5930.620072
688.965889	5890.747066
689.303224	5836.438715
689.640510	5788.832579
689.977745	5709.396597
690.314930	5612.752637
690.652065	5559.946550
690.989150	5462.387620
691.326185	5389.122011
691.663170	5337.500596
692.000105	5260.930510
692.336990	5183.137944
692.673825	5158.509387
693.010610	5091.383903
693.347345	5015.512017
693.684030	5005.200337
694.020665	4962.894974
694.357251	4871.922312
694.693786	4885.435124
695.030272	4851.810628
695.366707	4817.442562
695.703093	4781.466367
696.039429	4800.360612
696.375716	4788.962563
696.711952	4761.770579
697.048139	4747.078137
697.384276	4728.340168
697.720363	4740.317949
698.056400	4752.459568
698.392388	4701.528791
698.728326	4676.139020
699.064214	4655.929034
699.400053	4650.280421
699.735842	4615.617447
700.071581	4593.932924
700.407270	4568.427206
700.742910	4551.786357
701.078501	4500.457329
701.414042	4495.252337
701.749533	4466.116989
702.084974	4399.891351
702.420366	4456.720278
702.755709	4398.149632
703.091002	4343.755582
703.426246	4392.029671
703.761440	4344.862115
704.096584	4306.814007
704.431679	4329.673119
704.766725	4314.277435
705.101721	4305.430210
705.436668	4335.571269
705.771565	4283.980100
706.106413	4309.173267
706.441212	4341.817258
706.775961	4348.025439
707.110661	4329.839477
707.445311	4355.960215
707.779913	4383.429463
708.114465	4391.424733
708.448967	4415.826438
708.783421	4473.487156
709.117825	4520.019526
709.452180	4522.308210
709.786485	4565.548707
710.120742	4653.657994
710.454949	4638.247187
710.789107	4701.185992
711.123216	4775.795069
711.457275	4770.227115
711.791286	4844.505996
712.125247	4862.162638
712.459159	4760.963995
712.793023	4836.367053
713.126837	4798.376918
713.460602	4785.796719
713.794318	4711.205286
714.127985	4716.117890
714.461602	4634.567144
714.795171	4603.402731
715.128691	4540.542063
715.462162	4482.475533
715.795584	4431.070887
716.128957	4414.611520
716.462281	4361.233262
716.795556	4338.147298
717.128782	4298.339827
717.461960	4233.543356
717.795088	4238.740786
718.128167	4202.809962
718.461198	4137.950476
718.794180	4135.185403
719.127113	4114.524234
719.459997	4092.950616
719.792833	4053.407806
720.125619	4042.297102
720.458357	4004.248994
720.791046	4011.120087
721.123686	3984.452383
721.456278	3946.802525
721.788821	3961.147128
722.121315	3933.735854
722.453761	3908.635949
722.786158	3916.386723
723.118506	3943.457720
723.450805	3898.760329
723.783056	3921.183381
724.115259	3933.486317
724.447412	3936.841205
724.779518	3932.137809
725.111574	3936.455557
725.443582	3964.902788
725.775542	3952.277218
726.107453	4002.373685
726.439315	4002.882841
726.771129	4015.508411
727.102895	4052.986869
727.434612	4098.117799
727.766281	4112.187659
728.097901	4109.253708
728.429473	4115.993731
728.760996	4124.513281
729.092471	4120.301397
729.423897	4104.388994
729.755276	4106.347483
730.086606	4109.881332
730.417887	4143.407525
730.749120	4211.309347
731.080305	4273.922998
731.411442	4304.459788
731.742530	4271.152884
732.073570	4277.343421
732.404562	4334.404242
732.735506	4322.736491
733.066401	4281.880460
733.397249	4224.315524
733.728048	4145.834841
734.058798	4062.801996
734.389501	3993.123167
734.720156	3929.173610
735.050762	3884.506467
735.381320	3875.147564
735.711831	3825.479596
736.042293	3794.562200
736.372707	3820.314934
736.703073	3792.591108
737.033391	3778.765744
737.363661	3801.181235
737.693883	3822.585974
738.024056	3834.115093
738.354182	3828.869772
738.684260	3893.325965
739.014290	3909.041762
739.344272	3908.151999
739.674207	3951.931899
740.004093	3954.913742
740.333931	3954.795275
740.663722	3950.318730
740.993464	3946.081640
741.323159	3928.006583
741.652806	3892.395872
741.982405	3869.093139
742.311956	3836.050896
742.641460	3825.547652
742.970915	3800.992191
743.300323	3760.337806
743.629683	3727.499730
743.958996	3715.552195
744.288260	3694.286088
744.617477	3662.546983
744.946647	3645.722132
745.275768	3617.852113
745.604842	3618.063842
745.933869	3571.917119
746.262847	3561.948238
746.591778	3600.639093
746.920662	3568.554670
747.249498	3539.547871
747.578286	3588.154676
747.907027	3604.107407
748.235720	3599.998867
748.564365	3626.570789
748.892963	3627.911736
749.221514	3609.143520
749.550017	3585.293821
749.878473	3585.860951
750.206881	3553.479099
750.535242	3554.552865
750.863555	3550.023388
751.191821	3550.391393
751.520039	3528.759801
751.848210	3508.005371
752.176334	3537.261707
752.504411	3546.391237
752.832440	3508.043180
753.160421	3491.172958
753.488356	3498.487672
753.816243	3508.055782
754.144082	3464.971561
754.471875	3454.281794
754.799620	3471.885504
755.127318	3459.580047
755.454969	3461.480562
755.782572	3471.083960
756.110129	3445.300979
756.437638	3432.556942
756.765100	3449.107050
757.092515	3458.949903
757.419882	3467.542550
757.747203	3441.298303
758.074477	3442.024229
758.401703	3455.905046
758.728882	3476.477995
759.056014	3483.633913
759.383099	3488.153307
759.710138	3484.206084
760.037129	3500.060513
760.364073	3534.582334
760.690970	3518.939634
761.017820	3495.634379
761.344623	3512.199611
761.671379	3560.340110
761.998088	3609.612347
762.324751	3737.221595
762.651366	3984.507835
762.977935	4454.802119
763.304456	4896.586157
763.630931	4991.390096
763.957359	4630.660250
764.283740	4295.136174
764.610074	4100.585444
764.936362	3902.568921
765.262602	3741.073037
765.588796	3631.740492
765.914943	3546.812173
766.241044	3456.084007
766.567097	3425.685849
766.893104	3378.304044
767.219064	3346.713654
767.544978	3319.403203
767.870845	3264.570572
768.196665	3248.494333
768.522438	3256.827360
768.848165	3251.385434
769.173846	3214.963098
769.499479	3198.440716
769.825066	3181.094106
770.150607	3167.301509
770.476101	3180.736184
770.801548	3175.591686
771.126949	3128.260293
771.452303	3110.901080
771.777611	3122.770476
772.102872	3123.839201
772.428087	3101.045624
772.753256	3089.312338
773.078378	3084.099785
773.403453	3048.786503
773.728482	3037.222096
774.053465	3058.253789
774.378401	3045.529917
774.703291	3013.944568
775.028135	3014.473889
775.352932	3010.826614
775.677683	2997.656600
776.002388	2995.713235
776.327046	2996.308091
776.651658	2985.285608
776.976224	2975.987200
777.300743	2972.644915
777.625216	2964.667289
777.949643	2958.948100
778.274024	2962.587813
778.598359	2950.799075
778.922647	2957.125723
779.246889	2955.089097
779.571086	2941.755245
779.895236	2935.327773
780.219339	2948.162551
780.543397	2960.203347
780.867409	2962.686115
781.191374	2953.188582
781.515294	2948.863272
781.839167	2949.909311
782.162995	2943.733898
782.486776	2954.458952
782.810511	2951.000721
783.134201	2934.211158
783.457844	2942.501335
783.781441	2934.193514
784.104993	2915.521080
784.428498	2914.830442
784.751958	2926.173038
785.075372	2923.102975
785.398739	2902.847619
785.722061	2920.284970
786.045337	2933.167639
786.368568	2919.082655
786.691752	2909.446490
787.014891	2958.829633
787.337983	2986.172851
787.661030	3014.733508
787.984031	3082.776482
788.306987	3127.456229
788.629897	3121.716875
788.952760	3107.178187
789.275579	3090.048347
789.598351	3032.637166
789.921078	2986.462718
790.243759	2979.654639
790.566395	2960.841053
790.888984	2935.368103
791.211529	2919.919487
791.534027	2909.537230
791.856480	2901.249573
792.178888	2885.178375
792.501249	2876.769730
792.823566	2874.440717
793.145836	2873.051879
793.468062	2869.235726
793.790241	2864.534850
794.112375	2871.095912
794.434464	2883.749208
794.756507	2890.055691
795.078505	2892.009138
795.400457	2905.882394
795.722364	2944.351439
796.044226	2968.732979
796.366042	2973.214565
796.687812	2964.397587
797.009538	2983.112871
797.331218	2967.704584
797.652852	2952.729837
797.974442	2936.283072
798.295986	2932.350972
798.617484	2929.601023
798.938938	2911.286511
799.260346	2895.485014
799.581709	2891.474776
799.903026	2887.184754
800.224299	2878.219062
800.545526	2868.792104
800.866708	2854.487830
801.187845	2845.136490
801.508936	2847.278980
801.829983	2852.337778
802.150984	2839.598782
802.471940	2827.661330
802.792851	2824.984477
803.113717	2826.305260
803.434538	2830.933039
803.755314	2825.806186
804.076045	2816.177582
804.396731	2820.303766
804.717372	2818.753611
805.037967	2813.974597
805.358518	2817.833601
805.679024	2830.688543
805.999485	2827.258038
806.319901	2828.893892
806.640272	2820.878458
806.960598	2829.453460
807.280879	2836.385047
807.601115	2847.039526
807.921306	2830.870025
808.241453	2828.246104
808.561554	2834.567711
808.881611	2835.364213
809.201623	2828.336845
809.521590	2829.390446
809.841513	2825.929694
810.161390	2829.987823
810.481223	2824.568582
810.801011	2814.934937
811.120755	2809.782878
811.440453	2812.890749
811.760107	2810.266829
812.079716	2809.213228
812.399281	2801.056641
812.718801	2793.068932
813.038276	2790.848304
813.357707	2796.484314
813.677093	2803.824234
813.996434	2797.409366
814.315731	2791.715383
814.634983	2789.459466
814.954191	2790.213119
815.273354	2803.862043
815.592473	2812.036274
815.911547	2813.011737
816.230577	2819.194712
816.549562	2830.345745
816.868502	2830.333142
817.187399	2840.617096
817.506250	2856.567306
817.825058	2847.994824
818.143821	2861.111907
818.462539	2878.471120
818.781213	2904.526323
819.099843	2943.449072
819.418429	3002.034842
819.736970	3060.895354
820.055466	3132.295737
820.373919	3235.926736
820.692327	3375.806153
821.010691	3542.990979
821.329011	3989.236438
821.647286	4888.091812
821.965517	6271.455004
822.283704	7011.395566
822.601847	6992.481156
822.919945	6355.511203
823.237999	5856.462178
823.556010	5269.845790
823.873976	4715.646542
824.191897	4305.601609
824.509775	4013.219727
824.827609	3743.749889
825.145398	3619.994604
825.463144	3607.595886
825.780845	3701.497458
826.098502	3802.164260
826.416116	4081.207248
826.733685	4405.391249
827.051210	4467.883913
827.368692	4351.597097
827.686129	4087.291921
828.003522	3758.399483
828.320872	3504.947911
828.638177	3309.693940
828.955439	3168.007270
829.272656	3083.686411
829.589830	3018.476565
829.906960	2968.947228
830.224046	2925.003490
830.541088	2891.613408
830.858086	2876.716798
831.175041	2859.297091
831.491952	2860.781711
831.808819	2872.764534
832.125642	2894.338152
832.442421	2939.872374
832.759157	3022.965712
833.075849	3201.472970
833.392497	3482.121567
833.709101	3683.281249
834.025662	3634.868528
834.342179	3473.816266
834.658653	3300.939977
834.975083	3149.322234
835.291469	3046.805329
835.607811	2964.490848
835.924110	2910.870616
836.240366	2856.285002
836.556578	2814.818991
836.872746	2788.368057
837.188871	2769.052876
837.504952	2753.546286
837.820990	2747.128897
838.136984	2731.710528
838.452935	2723.775752
838.768842	2723.014538
839.084706	2739.458782
839.400526	2819.043478
839.716303	2951.787141
840.032037	3034.358720
840.347727	3015.908097
840.663373	2956.208233
840.978977	2879.575133
841.294537	2807.163999
841.610054	2762.532143
841.925527	2737.318812
842.240957	2716.435832
842.556344	2693.864066
842.871687	2679.252282
843.186987	2671.257012
843.502244	2666.846002
843.817458	2662.286278
844.132629	2649.625420
844.447756	2640.095119
844.762840	2634.196969
845.077881	2636.243677
845.392879	2636.853657
845.707833	2630.688326
846.022745	2624.722120
846.337613	2627.908130
846.652438	2624.127264
846.967221	2625.747995
847.281960	2626.494086
847.596656	2623.865124
847.911309	2620.800103
848.225919	2620.290946
848.540485	2613.429936
848.855009	2614.544031
849.169490	2617.475462
849.483928	2616.542848
849.798323	2613.976901
850.112675	2615.471603
850.426984	2612.162086
850.741251	2613.089658
851.055474	2612.497322
851.369654	2617.041922
851.683792	2615.128805
851.997887	2613.311469
852.311938	2610.591766
852.625947	2615.305245
852.939914	2614.662498
853.253837	2617.349433
853.567718	2613.911366
853.881555	2612.020933
854.195350	2617.117540
854.509103	2612.144442
854.822812	2608.199739
855.136479	2610.599328
855.450103	2615.113681
855.763685	2616.404217
856.077224	2611.728546
856.390720	2612.177209
856.704173	2615.166613
857.017584	2618.952520
857.330953	2619.060905
857.644278	2621.031996
857.957561	2621.047119
858.270802	2612.794750
858.584000	2615.827004
858.897155	2619.345730
859.210268	2621.226080
859.523339	2615.174175
859.836367	2608.408947
860.149352	2609.349122
860.462295	2612.469596
860.775195	2610.682507
861.088054	2610.143103
861.400869	2609.177722
861.713642	2603.685385
862.026373	2608.172012
862.339062	2611.458845
862.651708	2614.178547
862.964312	2615.335492
863.276873	2611.899946
863.589392	2618.221552
863.901869	2620.386728
864.214303	2624.497789
864.526696	2631.066412
864.839045	2630.022894
865.151353	2634.441465
865.463619	2633.304685
865.775842	2633.153450
866.088023	2633.017339
866.400162	2634.136475
866.712258	2635.563122
867.024313	2631.225209
867.336325	2627.033489
867.648296	2631.139509
867.960224	2635.391722
868.272110	2635.222844
868.583954	2625.362347
868.895755	2628.876031
869.207515	2634.867442
869.519233	2640.659728
869.830909	2640.168216
870.142542	2631.908285
870.454134	2633.730662
870.765684	2638.877680
871.077191	2641.418422
871.388657	2645.547127
871.700081	2641.617547
872.011463	2640.009419
872.322803	2642.598052
872.634101	2647.820687
872.945357	2654.280926
873.256571	2659.667399
873.567744	2657.161945
873.878874	2655.591626
874.189963	2658.049188
874.501010	2660.844508
874.812015	2667.382885
875.122979	2667.735766
875.433900	2658.412152
875.744780	2657.769404
876.055618	2662.891217
876.366415	2667.801301
876.677169	2667.924809
876.987882	2662.077070
877.298554	2662.296361
877.609183	2670.803308
877.919771	2676.018381
878.230317	2683.930472
878.540822	2694.801721
878.851285	2707.399564
879.161707	2730.934191
879.472087	2770.575304
879.782425	2820.656647
880.092722	2934.722835
880.402977	3121.739560
880.713191	3385.230590
881.023363	3681.554654
881.333494	3869.002398
881.643583	4043.408677
881.953631	4039.721073
882.263637	3861.652396
882.573602	3638.911533
882.883526	3506.737521
883.193408	3394.821385
883.503248	3292.188534
883.813048	3177.824917
884.122806	3063.267217
884.432522	2979.412664
884.742197	2912.811460
885.051831	2875.597662
885.361424	2841.312775
885.670975	2805.986889
885.980485	2771.807866
886.289954	2755.807244
886.599382	2740.933319
886.908768	2731.443347
887.218113	2712.022302
887.527417	2700.420087
887.836680	2690.080680
888.145901	2685.173117
888.455082	2674.120387
888.764221	2666.460354
889.073319	2656.108344
889.382376	2658.593633
889.691392	2657.154384
890.000366	2659.168325
890.309300	2655.389980
890.618193	2658.812923
890.927044	2659.866524
891.235855	2659.392656
891.544625	2659.652275
891.853353	2662.185455
892.162041	2670.084943
892.470687	2687.214784
892.779293	2698.890096
893.087858	2710.328474
893.396381	2732.166753
893.704864	2774.812394
894.013306	2841.721108
894.321707	2934.417845
894.630068	2987.891885
894.938387	3009.049607
895.246665	3001.271107
895.554903	2958.575054
895.863100	2914.228024
896.171256	2855.329703
896.479371	2794.936680
896.787446	2755.751791
897.095480	2737.555746
897.403473	2729.840260
897.711425	2713.842159
898.019336	2696.261135
898.327207	2682.309741
898.635038	2683.406192
898.942827	2680.159689
899.250576	2671.209121
899.558284	2658.568427
899.865952	2656.309990
900.173579	2654.409475
900.481165	2649.446459
900.788711	2637.960190
901.096216	2636.588997
901.403681	2632.656897
901.711105	2631.252935
902.018489	2628.586165
902.325832	2634.806949
902.633135	2635.149747
902.940397	2649.171717
903.247619	2688.273426
903.554800	2757.160794
903.861941	2886.133674
904.169041	3009.357118
904.476101	3072.782395
904.783121	3066.329718
905.090100	3009.662108
905.397039	2936.288113
905.703938	2859.599560
906.010796	2797.850467
906.317614	2747.413723
906.624391	2708.072558
906.931129	2684.008610
907.237826	2662.150167
907.544483	2643.384472
907.851099	2628.916360
908.157675	2618.781121
908.464211	2611.652929
908.770707	2599.584407
909.077163	2598.394694
909.383578	2595.186000
909.689954	2593.323294
909.996289	2588.375401
910.302584	2590.931266
910.608839	2588.398086
910.915054	2586.416913
911.221229	2588.763570
911.527363	2594.404621
911.833458	2588.408169
912.139513	2592.519230
912.445527	2592.365474
912.751502	2598.172884
913.057436	2603.440889
913.363331	2606.160592
913.669186	2621.024434
913.975000	2633.299644
914.280775	2650.381593
914.586510	2669.812721
914.892205	2703.399408
915.197859	2771.916251
915.503475	2860.751464
915.809050	2920.612645
916.114585	2940.603341
916.420081	2952.155145
916.725536	2964.805921
917.030952	2936.104111
917.336328	2890.925290
917.641665	2840.859071
917.946961	2788.756225
918.252218	2754.841863
918.557435	2727.571741
918.862612	2707.129862
919.167750	2686.619928
919.472848	2674.342198
919.777906	2656.504075
920.082925	2642.328350
920.387904	2631.865435
920.692843	2627.817389
920.997743	2623.945783
921.302603	2619.297839
921.607423	2608.522372
921.912204	2606.843668
922.216946	2604.426435
922.521647	2602.601537
922.826310	2595.367482
923.130932	2593.303129
923.435516	2587.944382
923.740059	2585.968250
924.044564	2580.289390
924.349028	2582.320975
924.653454	2572.989800
924.957840	2569.397977
925.262186	2570.673389
925.566493	2570.887638
925.870761	2564.258521
926.174989	2569.955025
926.479178	2565.601989
926.783328	2562.902451
927.087438	2561.934549
927.391509	2560.490259
927.695541	2559.789538
927.999533	2561.042265
928.303486	2555.721327
928.607400	2556.114537
928.911275	2557.790721
929.215110	2556.477500
929.518906	2552.600853
929.822663	2558.115875
930.126381	2555.363405
930.430060	2556.250648
930.733699	2555.388611
931.037299	2557.339537
931.340861	2555.922973
931.644383	2556.169990
931.947866	2557.263920
932.251309	2555.108827
932.554714	2556.553117
932.858080	2560.036555
933.161407	2557.198385
933.464694	2555.078580
933.767943	2556.474980
934.071153	2553.435164
934.374323	2551.839639
934.677455	2552.063970
934.980548	2551.766542
935.283602	2551.232180
935.586617	2552.472303
935.889593	2553.309135
936.192530	2553.238559
936.495428	2553.397355
936.798287	2556.606050
937.101108	2555.239897
937.403890	2556.868190
937.706632	2561.697615
938.009336	2563.477142
938.312002	2565.861608
938.614628	2570.801939
938.917216	2573.622464
939.219765	2574.809656
939.522275	2579.684452
939.824747	2577.403330
940.127179	2571.490056
940.429573	2565.425548
940.731929	2568.500652
941.034246	2564.926474
941.336524	2564.656772
941.638763	2566.960580
941.940964	2566.302709
942.243126	2566.159036
942.545250	2564.021587
942.847335	2562.141237
943.149381	2560.979251
943.451389	2560.402038
943.753359	2559.045968
944.055290	2557.369784
944.357182	2557.891544
944.659036	2555.779300
944.960851	2557.573951
945.262628	2555.451625
945.564367	2555.620504
945.866067	2558.441030
946.167729	2557.447922
946.469352	2558.935063
946.770937	2557.137891
947.072484	2556.593447
947.373992	2555.668395
947.675462	2555.234856
947.976893	2556.240566
948.278286	2553.437684
948.579641	2555.703683
948.880958	2551.827036
949.182236	2552.547921
949.483476	2551.249824
949.784678	2554.844166
950.085841	2554.145967
950.386967	2553.389793
950.688054	2553.006666
950.989103	2553.127653
951.290114	2556.288457
951.591087	2559.789538
951.892021	2557.185782
952.192917	2558.367933
952.493776	2559.771894
952.794596	2562.660475
953.095378	2561.488407
953.396122	2561.291802
953.696828	2560.883469
953.997496	2558.451112
954.298126	2554.768549
954.598718	2553.465411
954.899272	2552.489948
955.199788	2554.725699
955.500266	2553.543549
955.800706	2549.051881
956.101108	2545.255892
956.401472	2545.800336
956.701798	2543.050387
957.002087	2545.250851
957.302337	2545.487785
957.602550	2546.947199
957.902724	2542.142979
958.202861	2546.485933
958.502960	2544.749256
958.803022	2542.745397
959.103045	2541.717002
959.403031	2543.010058
959.702979	2539.456044
960.002889	2542.170706
960.302762	2542.059800
960.602596	2537.971424
960.902393	2538.982176
961.202153	2539.277083
961.501875	2539.544264
961.801559	2539.619882
962.101205	2541.631302
962.400814	2541.028884
962.700385	2539.761034
962.999918	2542.445448
963.299414	2537.109387
963.598873	2540.872608
963.898293	2538.977135
964.197677	2538.684748
964.497022	2539.574511
964.796331	2537.101825
965.095601	2536.547298
965.394835	2540.739018
965.694030	2539.692978
965.993189	2542.989893
966.292309	2537.154758
966.591393	2539.319933
966.890439	2536.564943
967.189447	2538.299099
967.488419	2537.185004
967.787353	2540.741538
968.086249	2537.500077
968.385108	2538.888914
968.683930	2540.973432
968.982714	2538.974614
969.281462	2539.007382
969.580172	2539.534182
969.878844	2538.410005
970.177480	2537.820190
970.476078	2539.123328
970.774639	2539.876981
971.073162	2537.472350
971.371649	2535.503780
971.670098	2538.372196
971.968510	2535.438245
972.266885	2533.018491
972.565223	2540.494522
972.863524	2539.813966
973.161788	2540.146682
973.460014	2536.817000
973.758204	2540.796991
974.056356	2540.250026
974.354471	2541.399409
974.652550	2538.924203
974.950591	2538.346990
975.248595	2538.094933
975.546563	2539.967721
975.844493	2537.114428
976.142386	2539.050231
976.440243	2537.545447
976.738062	2539.539223
977.035845	2537.280786
977.333590	2537.923533
977.631299	2539.582073
977.928971	2536.335570
978.226606	2537.553009
978.524204	2538.203318
978.821765	2534.258615
979.119290	2537.666435
979.416777	2536.320447
979.714228	2538.412525
980.011642	2534.649304
980.309020	2540.625592
980.606360	2538.520910
980.903664	2538.251208
981.200931	2538.157947
981.498162	2538.984696
981.795356	2541.923689
982.092513	2544.446787
982.389633	2545.331509
982.686717	2550.256716
982.983764	2548.522559
983.280775	2552.028682
983.577749	2550.657488
983.874686	2554.085473
984.171587	2550.095399
984.468451	2547.821839
984.765279	2543.168854
985.062070	2540.219779
985.358824	2539.521579
985.655543	2538.788091
985.952224	2540.129038
986.248869	2534.964376
986.545478	2533.167205
986.842050	2534.661907
987.138586	2532.108563
987.435086	2532.123686
987.731549	2533.021011
988.027975	2536.547298
988.324366	2533.202493
988.620719	2536.454037
988.917037	2535.463450
989.213318	2532.635363
989.509563	2534.941691
989.805772	2531.957328
990.101944	2534.568646
990.398080	2534.598892
990.694180	2535.314736
990.990244	2533.686444
991.286271	2534.185518
991.582262	2534.480425
991.878217	2533.555374
992.174136	2533.905734
992.470019	2535.342463
992.765865	2534.561084
993.061676	2534.228368
993.357450	2534.800539
993.653188	2533.842719
993.948890	2535.584438
994.244556	2533.610826
994.540186	2537.517721
994.835780	2532.998326
995.131337	2537.268183
995.426859	2536.653163
995.722345	2538.445293
996.017795	2538.165509
996.313208	2541.384286
996.608586	2536.045704
996.903928	2539.471168
997.199234	2538.881353
997.494504	2540.217258
997.789738	2536.375899
998.084936	2537.432021
998.380099	2535.392874
998.675225	2537.517721
998.970316	2535.907072
999.265371	2535.566794
999.560390	2535.070240
999.855373	2536.317926
1000.150320	2535.234078
1000.445232	2534.717360
1000.740108	2532.474046
1001.034948	2534.198121
1001.329752	2533.230219
1001.624521	2535.057638
1001.919254	2531.337266
1002.213951	2531.927081
1002.508613	2527.720238
1002.803239	2531.024714
1003.097829	2528.022707
1003.392384	2532.842050
1003.686903	2531.554036
1003.981386	2535.823893
1004.275834	2531.833820
1004.570246	2533.550333
1004.864623	2533.326001
1005.158964	2532.360620
1005.453270	2531.453213
1005.747540	2533.409180
1006.041775	2532.285003
1006.335974	2530.172759
1006.630138	2531.748120
1006.924266	2532.060672
1007.218359	2531.881711
1007.512416	2534.855991
1007.806438	2531.637215
1008.100425	2530.586134
1008.394376	2532.007739
1008.688292	2532.078316
1008.982172	2530.525640
1009.276017	2530.427338
1009.569827	2530.722245
1009.863602	2535.392874
1010.157341	2531.133099
1010.451045	2532.234591
1010.744714	2532.216947
1011.038347	2531.899355
1011.331945	2529.930784
1011.625508	2532.970600
1011.919036	2531.415404
1012.212528	2533.878008
1012.505986	2532.826927
1012.799408	2533.139478
1013.092795	2531.488501
1013.386147	2531.851464
1013.679464	2532.211906
1013.972745	2532.224509
1014.265992	2532.458923
1014.559204	2531.627132
1014.852380	2532.675692
1015.145521	2532.300126
1015.438628	2533.295754
1015.731699	2532.617719
1016.024736	2531.344828
1016.317737	2531.589324
1016.610703	2531.959848
1016.903635	2527.957172
1017.196531	2530.497914
1017.489393	2526.041534
1017.782219	2526.832995
1018.075011	2528.463808
1018.367768	2530.679395
1018.660490	2529.943387
1018.953177	2529.943387
1019.245829	2529.943387
