Dividing Wavelength (nm)	Counts (n)	Blue Motor Position (mm): 48.400000	Red Motor Position (mm): 0.000000	
326.493990	2132.829013
326.888308	2132.829013
327.282561	2132.829013
327.676750	2097.147726
328.070874	2096.237798
328.464933	2098.317274
328.858929	2105.069900
329.252859	2115.558020
329.646726	2128.730555
330.040528	2140.708337
330.434265	2156.227529
330.827938	2175.603204
331.221547	2193.002746
331.615091	2210.419933
332.008571	2228.646224
332.401986	2251.008783
332.795338	2270.812956
333.188625	2286.596808
333.581847	2309.274439
333.975006	2325.801862
334.368100	2344.194512
334.761129	2363.648324
335.154095	2378.446632
335.546996	2400.983110
335.939833	2426.105700
336.332606	2441.491302
336.725315	2455.157870
337.117960	2462.742286
337.510540	2473.479943
337.903056	2483.027889
338.295508	2491.928046
338.687896	2497.899292
339.080220	2506.151661
339.472480	2516.705317
339.864676	2516.712879
340.256807	2523.016842
340.648875	2526.817872
341.040879	2525.403828
341.432818	2528.703263
341.824694	2532.496731
342.216506	2529.570342
342.608253	2531.087729
342.999937	2530.001360
343.391557	2531.773326
343.783113	2528.481452
344.174605	2528.814168
344.566033	2527.395084
344.957397	2525.653365
345.348697	2525.242511
345.739934	2520.282016
346.131106	2522.172448
346.522215	2518.472241
346.913260	2518.623476
347.304241	2516.609535
347.695159	2511.170130
348.086012	2513.821777
348.476802	2506.617968
348.867528	2510.103926
349.258191	2507.611075
349.648789	2505.518997
350.039324	2504.903976
350.429796	2504.099912
350.820203	2504.251146
351.210548	2502.206958
351.600828	2500.503048
351.991045	2502.121259
352.381198	2498.778974
352.771288	2499.895589
353.161314	2499.567914
353.551276	2498.234529
353.941175	2498.756289
354.331010	2501.339880
354.720782	2499.285610
355.110490	2500.392143
355.500135	2501.813748
355.889717	2499.910713
356.279235	2497.984992
356.668689	2500.288799
357.058080	2499.918275
357.447408	2501.836434
357.836672	2497.680002
358.225873	2497.317039
358.615010	2497.889210
359.004084	2500.586228
359.393095	2504.271311
359.782043	2504.490601
360.170927	2501.599499
360.559748	2507.341374
360.948505	2506.547392
361.337199	2506.282731
361.725830	2504.362052
362.114398	2508.553771
362.502903	2509.355315
362.891344	2508.465551
363.279722	2511.691889
363.668037	2513.093330
364.056289	2510.998731
364.444478	2513.191633
364.832603	2508.773061
365.220665	2512.090141
365.608665	2511.182733
365.996601	2516.125584
366.384474	2516.526356
366.772284	2516.715399
367.160031	2515.666839
367.547715	2517.020389
367.935336	2516.949813
368.322893	2519.334279
368.710388	2519.387211
369.097820	2523.374763
369.485189	2522.164887
369.872495	2526.570855
370.259738	2528.436082
370.646918	2530.392050
371.034035	2536.726259
371.421090	2543.650284
371.808081	2549.989535
372.195010	2554.839125
372.581875	2565.939746
372.968678	2576.400140
373.355418	2587.473035
373.742096	2600.184304
374.128710	2611.536982
374.515262	2622.289764
374.901751	2640.047228
375.288177	2650.575678
375.674540	2670.500838
376.060841	2685.347037
376.447079	2704.752958
376.833254	2723.884137
377.219367	2737.737228
377.605417	2773.831889
377.991404	2782.099382
378.377329	2802.453040
378.763191	2820.928869
379.148991	2862.709952
379.534727	2885.115361
379.920402	2914.059145
380.306013	2929.628749
380.691563	2978.414515
381.077049	3001.102228
381.462474	3022.020496
381.847835	3060.734037
382.233134	3088.528439
382.618371	3091.714448
383.003545	3160.483348
383.388657	3169.880059
383.773706	3207.071172
384.158693	3228.523802
384.543618	3255.753594
384.928480	3292.115437
385.313280	3340.956656
385.698017	3343.043694
386.082692	3401.483270
386.467305	3405.808580
386.851856	3442.485494
387.236344	3463.749081
387.620770	3502.187879
388.005133	3529.344575
388.389435	3558.076632
388.773674	3566.356727
389.157851	3611.868264
389.541965	3628.680512
389.926018	3595.429061
390.310008	3665.823733
390.693936	3684.833924
391.077802	3725.200964
391.461606	3718.148390
391.845348	3782.723050
392.229027	3779.191722
392.612645	3793.191006
392.996200	3870.978530
393.379694	3912.368924
393.763125	3975.327894
394.146494	3944.639870
394.529801	4002.645907
394.913047	4054.511818
395.296230	4019.755583
395.679351	4074.797421
396.062410	4095.703086
396.445408	4080.395623
396.828343	4116.800315
397.211217	4137.093480
397.594028	4055.446952
397.976778	4124.452787
398.359466	4149.555212
398.742092	4176.091846
399.124656	4100.066205
399.507158	4181.569060
399.889598	4207.561249
400.271977	4267.145167
400.654294	4237.205754
401.036549	4248.588680
401.418742	4216.486612
401.800874	4320.243640
402.182944	4342.636446
402.564952	4405.439140
402.946898	4394.121750
403.328783	4387.419536
403.710606	4302.924756
404.092367	4495.053212
404.474067	4459.112305
404.855705	4467.465497
405.237282	4398.220208
405.618797	4505.846322
406.000250	4539.770767
406.381642	4620.182212
406.762972	4583.366665
407.144240	4594.558027
407.525447	4595.614149
407.906593	4648.964680
408.287677	4693.573850
408.668700	4623.756390
409.049661	4673.721786
409.430560	4717.055545
409.811399	4639.086539
410.192176	4804.421262
410.572891	4741.689143
410.953545	4845.526830
411.334138	4725.179364
411.714669	4794.341474
412.095139	4689.248540
412.475547	4828.197864
412.855894	4815.630267
413.236180	4822.521524
413.616405	4768.041775
413.996568	4860.557030
414.376670	4802.853463
414.756711	4752.396554
415.136691	4787.253612
415.516609	4863.755642
415.896466	4902.978340
416.276262	4938.402528
416.655997	4921.282769
417.035670	5102.083752
417.415283	5193.709244
417.794834	5137.671778
418.174324	5091.338533
418.553753	4992.983101
418.933121	5181.229868
419.312428	5248.451133
419.691674	5187.876629
420.070859	5312.889683
420.449983	5225.985231
420.829045	5339.809444
421.208047	5248.254528
421.586988	5322.843441
421.965867	5329.548175
422.344686	5461.611283
422.723444	5318.540816
423.102141	5136.847549
423.480777	5437.570020
423.859352	5204.225091
424.237866	5461.820491
424.616319	5457.079285
424.994712	5563.082148
425.373044	5439.515905
425.751314	5584.890179
426.129524	5388.794336
426.507673	5580.176701
426.885762	5663.123846
427.263789	5595.864771
427.641756	5478.438654
428.019662	5600.275781
428.397508	5606.201657
428.775292	5556.095109
429.153016	5650.389891
429.530679	5576.622687
429.908282	5663.542262
430.285824	5532.094175
430.663305	5809.400487
431.040726	5540.124733
431.418086	5546.189241
431.795385	5647.836547
432.172624	5663.436397
432.549802	5654.596734
432.926920	5670.914949
433.303977	5674.123644
433.680974	5713.958841
434.057910	5727.640533
434.434786	5739.913222
434.811601	5708.816864
435.188355	5943.081804
435.565050	5815.969110
435.941683	5792.429442
436.318257	6011.601167
436.694770	5991.418908
437.071222	6029.126739
437.447614	5962.303724
437.823946	5873.798706
438.200218	6025.308065
438.576429	5895.387448
438.952580	5992.275904
439.328670	6034.775352
439.704700	5944.160611
440.080670	5926.894659
440.456580	6199.807605
440.832429	6087.805769
441.208218	5930.720895
441.583947	6085.872487
441.959616	6087.735193
442.335224	6020.743300
442.710773	6154.691799
443.086261	6178.433113
443.461689	5970.135156
443.837057	6122.960256
444.212365	6278.036230
444.587612	6169.258213
444.962800	6323.479712
445.337927	6303.655374
445.712995	5914.584162
446.088002	6497.664180
446.462949	6322.063147
446.837837	6254.761223
447.212664	6429.074241
447.587431	6570.614717
447.962139	7109.423323
448.336786	8045.442084
448.711374	7784.227135
449.085901	6848.722572
449.460369	6771.222393
449.834776	6712.235852
450.209124	7102.486695
450.583412	7251.752740
450.957640	7395.113073
451.331808	7161.833679
451.705917	6716.026800
452.079965	6633.717361
452.453954	6844.808116
452.827883	6723.162553
453.201752	6815.380381
453.575562	6617.971317
453.949311	6819.899775
454.323001	6707.293001
454.696632	6782.814527
455.070202	6924.886845
455.443713	7078.833601
455.817164	7175.782551
456.190556	7259.231292
456.563888	7335.960174
456.937160	7375.455093
457.310373	7036.036726
457.683526	7059.155457
458.056619	6950.657223
458.429653	6940.153979
458.802628	6874.513115
459.175542	6980.498334
459.548398	7335.486305
459.921194	7498.673496
460.293930	7502.310689
460.666607	8030.661421
461.039224	8337.566867
461.411782	8463.714180
461.784280	8483.515832
462.156719	8371.876960
462.529099	8252.091583
462.901419	7840.393151
463.273680	7733.901297
463.645882	7747.378821
464.018024	7608.779858
464.390106	7780.133718
464.762130	8167.851381
465.134094	8636.986199
465.505999	9658.475203
465.877845	10888.413398
466.249631	11528.765965
466.621358	11147.095167
466.993026	10515.272232
467.364634	10257.989383
467.736184	9898.648375
468.107674	9564.813085
468.479105	9597.986398
468.850477	9358.977733
469.221790	9132.145974
469.593043	8802.434348
469.964238	8669.965428
470.335373	8677.524638
470.706449	8736.778360
471.077467	8714.060401
471.448425	10025.718220
471.819324	11103.380801
472.190164	11119.199942
472.560945	9870.317091
472.931667	9084.013037
473.302330	8949.840207
473.672934	8590.829395
474.043479	8951.181154
474.413965	8898.249039
474.784393	8779.983569
475.154761	8940.284700
475.525070	9021.953913
475.895321	8847.416564
476.265513	9024.668574
476.635645	9193.411117
477.005719	9188.485910
477.375734	9309.246750
477.745691	9546.611999
478.115588	9674.894241
478.485427	9924.307848
478.855207	10461.069745
479.224928	11278.306319
479.594591	11912.985068
479.964194	11715.507948
480.333739	11652.344811
480.703226	11575.671381
481.072653	11659.949391
481.442022	11897.808674
481.811333	12082.035121
482.180584	11892.089485
482.549777	11594.023702
482.918912	11419.539285
483.287988	11437.967223
483.657005	11451.086826
484.025964	11141.078549
484.394864	11267.775348
484.763706	11243.030845
485.132489	10996.873823
485.501213	10966.964657
485.869879	11040.472242
486.238487	10877.955524
486.607036	10996.354584
486.975527	10771.289750
487.343959	10959.546599
487.712333	11006.081491
488.080648	10949.015629
488.448905	10987.703964
488.817104	10919.557647
489.185244	11191.457320
489.553326	11347.612102
489.921350	11888.054041
490.289315	12944.649640
490.657222	13283.223615
491.025070	13197.561808
491.392861	13060.989389
491.760593	12680.140298
492.128267	12331.622647
492.495883	12003.589726
492.863440	11660.519042
493.230939	11333.080976
493.598380	11261.181519
493.965763	11138.232818
494.333088	11036.736747
494.700354	10956.443769
495.067563	11019.201093
495.434713	10844.368837
495.801805	10971.625204
496.168839	10893.888091
496.535815	10834.047074
496.902733	10838.962199
497.269593	10765.754563
497.636395	10871.323887
498.003139	10857.259067
498.369825	10720.230423
498.736453	10878.759588
499.103023	10812.254166
499.469535	10837.205357
499.835989	10832.718730
500.202385	10794.032916
500.568723	10635.002156
500.935003	10862.091013
501.301226	10667.026086
501.667390	10931.079204
502.033497	11027.657629
502.399546	10879.374609
502.765537	10792.611310
503.131470	10865.919770
503.497345	11039.166583
503.863163	10651.350618
504.228923	10960.935437
504.594625	11023.402895
504.960269	10773.147415
505.325856	10996.679739
505.691385	10783.922882
506.056856	10941.337952
506.422270	10967.708228
506.787625	10849.939312
507.152924	10976.187448
507.518164	10950.202821
507.883347	10873.481500
508.248472	10792.371856
508.613540	11030.561334
508.978550	10910.975082
509.343503	10879.218333
509.708398	11010.747078
510.073236	11121.914603
510.438016	11119.938471
510.802738	11071.520709
511.167403	11124.664552
511.532010	11022.127483
511.896561	11256.273956
512.261053	11331.626603
512.625488	11191.437156
512.989866	11168.784731
513.354186	11168.058805
513.718449	11072.289485
514.082655	11255.406878
514.446803	11155.029943
514.810894	11284.554829
515.174927	11144.211627
515.538904	11158.687300
515.902822	11320.233595
516.266684	11197.375635
516.630488	11144.289764
516.994235	11205.423837
517.357925	11262.146900
517.721558	11352.257525
518.085133	11367.265040
518.448651	11379.966227
518.812112	11255.250602
519.175516	11275.163159
519.538863	11398.121943
519.902152	11310.937708
520.265385	11473.734209
520.628560	11387.086857
520.991678	11369.016841
521.354739	11422.994996
521.717743	11359.917558
522.080690	11341.275372
522.443580	11472.282357
522.806413	11425.369379
523.169189	11455.364245
523.531908	11518.166939
523.894569	11335.490647
524.257174	11343.720331
524.619722	11457.741149
524.982213	11409.000753
525.344647	11460.627209
525.707025	11413.076526
526.069345	11502.148673
526.431608	11419.718246
526.793815	11526.321006
527.155964	11318.927937
527.518057	11371.358457
527.880093	11323.366672
528.242072	11387.507793
528.603995	11296.857765
528.965860	11218.417411
529.327669	11269.181830
529.689421	11220.980838
530.051117	11186.179232
530.412755	11287.420725
530.774337	11182.652945
531.135862	11160.426498
531.497331	11181.773264
531.858743	11038.473425
532.220098	11200.695235
532.581396	11080.151164
532.942638	11056.823225
533.303824	11019.324602
533.664953	11027.776096
534.026025	10941.887437
534.387040	11049.266535
534.747999	11050.541947
535.108902	11105.127561
535.469748	10862.103616
535.830537	10974.740637
536.191270	10948.776174
536.551947	10964.744029
536.912567	10971.952879
537.273131	10894.119984
537.633638	10875.424865
537.994089	10865.788700
538.354483	10814.676441
538.714821	10958.757659
539.075103	10963.004831
539.435328	10930.905284
539.795497	10762.034192
540.155609	10915.726370
540.515665	10998.711324
540.875665	10744.891748
541.235609	10811.233333
541.595496	10806.361058
541.955328	10966.054729
542.315102	10841.649134
542.674821	10791.396392
543.034483	10790.753645
543.394090	10799.210181
543.753640	10725.304345
544.113134	10947.223499
544.472571	10802.227311
544.831953	10940.564135
545.191278	10750.351318
545.550548	10779.539598
545.909761	10914.791236
546.268918	10888.710826
546.628019	10970.143105
546.987064	10831.602115
547.346053	10757.449262
547.704986	10857.246464
548.063863	10846.544095
548.422684	10831.299646
548.781449	10758.676783
549.140158	10860.248472
549.498811	10733.791127
549.857408	10592.212842
550.215949	10826.797895
550.574434	10669.216467
550.932864	10765.610890
551.291237	10826.626496
551.649555	10774.188414
552.007817	10789.236258
552.366022	10754.442214
552.724173	10747.147664
553.082267	10727.580426
553.440305	10866.804492
553.798288	10665.919552
554.156215	10819.435290
554.514086	10796.772783
554.871902	10646.987499
555.229661	10684.276914
555.587365	10661.067442
555.945014	10553.181708
556.302606	10681.975627
556.660143	10570.160315
557.017625	10735.290871
557.375050	10623.311720
557.732421	10760.226938
558.089735	10672.130254
558.446994	10675.154946
558.804197	10712.272962
559.161345	10714.135668
559.518437	10559.150435
559.875474	10653.699796
560.232455	10671.079173
560.589381	10624.347677
560.946251	10625.166865
561.303065	10733.256765
561.659825	10670.191930
562.016528	10595.734088
562.373177	10481.491460
562.729770	10597.571589
563.086307	10507.166056
563.442789	10601.483524
563.799216	10476.047013
564.155587	10531.391321
564.511904	10481.904834
564.868164	10467.479572
565.224370	10490.903294
565.580520	10408.349358
565.936615	10421.501729
566.292654	10292.281832
566.648638	10420.138097
567.004567	10378.402384
567.360441	10359.639209
567.716260	10268.492627
568.072023	10360.972595
568.427732	10314.931737
568.783385	10221.902283
569.138982	10295.593870
569.494525	10314.049535
569.850013	10190.745432
570.205445	10270.347772
570.560823	10163.044292
570.916145	10082.645450
571.271412	10152.634309
571.626625	10095.250855
571.981782	10069.505682
572.336884	10041.199603
572.691931	10054.830883
573.046923	9997.265948
573.401860	9957.357653
573.756743	9892.551100
574.111570	9935.877297
574.466342	9914.333926
574.821059	9947.439183
575.175722	9834.890382
575.530330	9845.118883
575.884882	9837.063119
576.239380	9770.615671
576.593823	9744.782278
576.948211	9764.024362
577.302544	9642.769488
577.656823	9657.834977
578.011047	9665.666409
578.365216	9634.660793
578.719330	9558.937621
579.073389	9567.769722
579.427394	9511.709571
579.781344	9492.308690
580.135239	9440.553684
580.489080	9447.374365
580.842866	9353.261064
581.196597	9354.836425
581.550273	9400.244618
581.903895	9364.636428
582.257463	9437.244167
582.610975	9309.796236
582.964434	9338.850926
583.317837	9262.333772
583.671186	9244.145289
584.024481	9234.753620
584.377721	9151.264550
584.730906	9135.531109
585.084037	9164.260645
585.437113	9102.365358
585.790135	9112.873643
586.143103	9019.105661
586.496016	8992.909305
586.848874	9045.541472
587.201679	9035.519658
587.554428	8925.030168
587.907124	8967.181776
588.259765	8944.483981
588.612352	8938.623640
588.964884	8819.435639
589.317362	8828.507196
589.669786	8831.700767
590.022155	8886.208243
590.374470	8896.376250
590.726731	8835.579935
591.078937	8686.051750
591.431090	8798.794635
591.783188	8673.721087
592.135232	8664.037031
592.487222	8667.979213
592.839157	8720.911329
593.191038	8649.455493
593.542866	8602.449254
593.894639	8493.225095
594.246358	8546.169813
594.598022	8568.335766
594.949633	8466.249880
595.301190	8437.611085
595.652692	8466.310374
596.004141	8575.660563
596.355535	8351.122529
596.706876	8331.409097
597.058162	8267.704036
597.409395	8348.891819
597.760573	8408.087568
598.111698	8315.418557
598.462768	8297.721587
598.813785	8263.623222
599.164748	8234.397133
599.515657	8220.970019
599.866511	8136.316443
600.217312	8261.480732
600.568060	8117.533104
600.918753	8221.695946
601.269392	8193.851132
601.619978	8105.547761
601.970510	8169.560333
602.320988	8166.593613
602.671412	8221.643013
603.021783	8159.351996
603.372100	8129.473077
603.722363	8126.458467
604.072572	8104.196732
604.422728	8114.518494
604.772830	8049.948875
605.122878	8059.905154
605.472872	8049.419554
605.822813	8082.799554
606.172701	8026.991461
606.522534	8095.563756
606.872314	8096.163653
607.222041	8072.853358
607.571714	8125.107438
607.921333	8077.967608
608.270899	8088.100327
608.620411	8175.609717
608.969870	8082.323165
609.319276	8074.181702
609.668627	8090.769618
610.017926	8123.521995
610.367171	8172.917741
610.716362	8148.929410
611.065500	8148.024523
611.414585	8166.328953
611.763616	8156.521388
612.112594	8143.547979
612.461518	8150.396386
612.810389	8216.869041
613.159207	8161.897779
613.507971	8109.444573
613.856682	8229.134168
614.205340	8174.782968
614.553945	8256.114423
614.902496	8157.895103
615.250994	8213.463741
615.599439	8191.993467
615.947830	8206.416208
616.296169	8181.727157
616.644454	8189.062036
616.992686	8182.221190
617.340864	8246.165706
617.688990	8152.007035
618.037063	8246.884071
618.385082	8192.288375
618.733048	8269.213862
619.080961	8215.432312
619.428821	8230.575938
619.776628	8240.224707
620.124382	8187.854680
620.472083	8170.218203
620.819731	8200.581073
621.167326	8090.620904
621.514868	8101.774457
621.862357	7985.172569
622.209793	8003.232502
622.557176	7936.104498
622.904506	7905.386227
623.251783	7843.574119
623.599007	7793.558311
623.946179	7798.344887
624.293297	7758.726459
624.640363	7667.552150
624.987376	7655.735686
625.334336	7608.651309
625.681243	7555.273051
626.028097	7540.051287
626.374899	7515.029520
626.721647	7512.660178
627.068343	7444.337420
627.414987	7416.694253
627.761577	7367.900924
628.108115	7403.609938
628.454600	7298.164123
628.801032	7356.066816
629.147412	7311.225752
629.493739	7298.118752
629.840014	7239.379228
630.186236	7296.881149
630.532405	7178.719023
630.878521	7231.147023
631.224585	7186.580703
631.570597	7108.427695
631.916556	7142.861296
632.262462	7140.192005
632.608316	7100.218176
632.954117	7078.601708
633.299866	7063.354738
633.645562	7059.404994
633.991206	6981.355330
634.336797	6919.523057
634.682336	6872.945316
635.027823	6846.398600
635.373257	6837.848803
635.718639	6765.374655
636.063968	6782.723786
636.409245	6675.821078
636.754470	6672.965264
637.099642	6629.535723
637.444762	6572.389203
637.789829	6587.973931
638.134845	6528.344642
638.479808	6509.228587
638.824719	6513.755543
639.169577	6443.227280
639.514383	6462.436597
639.859137	6386.980606
640.203839	6402.877885
640.548489	6388.785339
640.893086	6361.406833
641.237632	6334.749211
641.582125	6355.228899
641.926566	6325.460885
642.270955	6335.911197
642.615292	6334.713923
642.959576	6345.822106
643.303809	6341.330437
643.647990	6343.278843
643.992118	6334.098902
644.336195	6280.178721
644.680219	6305.780221
645.024192	6298.586494
645.368112	6390.804321
645.711981	6414.727117
646.055797	6493.142265
646.399562	6443.035716
646.743274	6578.612508
647.086935	6630.664942
647.430544	6625.240660
647.774101	6643.903012
648.117606	6649.362582
648.461059	6643.454349
648.804460	6608.269616
649.147810	6512.401993
649.491108	6483.183466
649.834354	6457.922244
650.177548	6375.937959
650.520690	6286.671727
650.863781	6264.571308
651.206820	6285.739113
651.549807	6216.637497
651.892742	6148.879348
652.235626	6155.790770
652.578458	6138.096320
652.921238	6052.033742
653.263967	6089.086223
653.606644	6032.463983
653.949269	6035.521442
654.291843	5974.601619
654.634365	6023.649525
654.976836	5978.881558
655.319255	5973.437112
655.661622	5952.917095
656.003938	5946.534995
656.346203	5907.821454
656.688416	5939.303459
657.030577	5894.906018
657.372687	5865.044743
657.714746	5848.615622
658.056753	5894.573301
658.398708	5830.651471
658.740612	5829.300441
659.082465	5879.323811
659.424266	5869.206215
659.766016	5862.299834
660.107715	5841.920970
660.449362	5854.312126
660.790958	5849.875911
661.132503	5837.479713
661.473996	5872.951793
661.815438	5856.590728
662.156829	5853.397157
662.498168	5847.045303
662.839456	5828.506460
663.180693	5857.205748
663.521879	5860.989134
663.863013	5849.664182
664.204097	5869.690166
664.545129	5909.106948
664.886110	5908.925466
665.227040	5940.901505
665.567918	5905.479838
665.908746	5932.649136
666.249522	5935.991421
666.590248	5925.619247
666.930922	5953.693433
667.271545	5964.496626
667.612118	5970.180527
667.952639	5941.007369
668.293109	5960.854392
668.633528	5915.526857
668.973896	5920.111787
669.314213	5910.485703
669.654480	5895.228651
669.994695	5888.229009
670.334859	5883.510489
670.674973	5869.029775
671.015035	5876.266351
671.355047	5869.435588
671.695008	5857.682138
672.034918	5831.642057
672.374777	5846.843657
672.714585	5826.515204
673.054342	5835.102809
673.394049	5828.486295
673.733705	5857.220872
674.073310	5841.053892
674.412864	5805.854035
674.752368	5792.873064
675.091820	5798.655267
675.431223	5736.472634
675.770574	5732.374176
676.109875	5687.018915
676.449125	5698.691707
676.788324	5661.404812
677.127473	5602.014979
677.466571	5597.331747
677.805619	5587.574594
678.144616	5572.965330
678.483562	5545.576741
678.822458	5515.818810
679.161303	5511.967368
679.500098	5503.029403
679.838842	5486.476774
680.177535	5491.069265
680.516179	5505.996122
680.854771	5515.453326
681.193314	5599.033137
681.531805	5707.294436
681.870247	5858.796233
682.208638	5961.237520
682.546978	5971.032482
682.885268	5949.826868
683.223508	5861.773034
683.561697	5811.800076
683.899836	5778.077277
684.237925	5735.915587
684.575963	5698.248085
684.913951	5661.056973
685.251889	5722.735490
685.589776	5689.731056
685.927614	5662.236603
686.265401	5730.234207
686.603137	5714.087391
686.940824	5789.240912
687.278460	5818.789636
687.616046	5829.038301
687.953582	5895.611779
688.291068	5878.257607
688.628504	5939.827739
688.965889	5900.594960
689.303224	5844.214695
689.640510	5800.233148
689.977745	5720.978648
690.314930	5621.025170
690.652065	5569.242438
690.989150	5476.414631
691.326185	5394.213576
691.663170	5346.521740
692.000105	5268.857724
692.336990	5195.453483
692.673825	5166.711344
693.010610	5098.943113
693.347345	5027.507443
693.684030	5011.005226
694.020665	4973.599864
694.357251	4885.263725
694.693786	4893.299324
695.030272	4859.543758
695.366707	4827.476979
695.703093	4791.407523
696.039429	4811.675482
696.375716	4794.734684
696.711952	4770.544708
697.048139	4752.436883
697.384276	4735.896857
697.720363	4748.441769
698.056400	4760.437194
698.392388	4707.734451
698.728326	4686.412891
699.064214	4663.130322
699.400053	4660.992873
699.735842	4621.737408
700.071581	4598.326289
700.407270	4571.890479
700.742910	4554.465730
701.078501	4500.132174
701.414042	4500.772401
701.749533	4467.962051
702.084974	4400.801279
702.420366	4464.203871
702.755709	4403.276485
703.091002	4345.383875
703.426246	4395.293818
703.761440	4353.379145
704.096584	4314.075789
704.431679	4340.065457
704.766725	4320.634330
705.101721	4307.366013
705.436668	4339.929346
705.771565	4286.712406
706.106413	4313.571673
706.441212	4348.043083
706.775961	4352.335626
707.110661	4337.512113
707.445311	4361.692007
707.779913	4386.696130
708.114465	4398.081576
708.448967	4421.134773
708.783421	4484.693641
709.117825	4525.809291
709.452180	4529.491854
709.786485	4574.237136
710.120742	4663.377339
710.454949	4646.744052
710.789107	4711.253177
711.123216	4786.333602
711.457275	4775.835399
711.791286	4850.575546
712.125247	4866.903843
712.459159	4770.509420
712.793023	4844.926933
713.126837	4801.759532
713.460602	4796.385662
713.794318	4717.494125
714.127985	4728.050301
714.461602	4638.204337
714.795171	4612.875059
715.128691	4545.673958
715.462162	4489.787727
715.795584	4439.555149
716.128957	4421.442283
716.462281	4368.275754
716.795556	4344.010160
717.128782	4303.302843
717.461960	4234.957400
717.795088	4245.322012
718.128167	4206.593348
718.461198	4146.371724
718.794180	4141.164212
719.127113	4121.259216
719.459997	4100.961010
719.792833	4056.790420
720.125619	4046.768606
720.458357	4013.396167
720.791046	4016.720808
721.123686	3990.947909
721.456278	3950.931230
721.788821	3964.963282
722.121315	3941.405970
722.453761	3914.897062
722.786158	3928.384670
723.118506	3949.582722
723.450805	3900.111358
723.783056	3921.024585
724.115259	3937.120989
724.447412	3943.911423
724.779518	3937.529323
725.111574	3941.080816
725.443582	3971.950321
725.775542	3956.990697
726.107453	4006.716639
726.439315	4005.965507
726.771129	4025.129453
727.102895	4059.842838
727.434612	4105.896299
727.766281	4119.227631
728.097901	4120.682004
728.429473	4125.266933
728.760996	4128.422695
729.092471	4126.985967
729.423897	4109.722535
729.755276	4114.892238
730.086606	4115.819811
730.417887	4150.502949
730.749120	4217.207497
731.080305	4282.979431
731.411442	4304.369047
731.742530	4276.796456
732.073570	4283.266777
732.404562	4341.640818
732.735506	4327.875947
733.066401	4292.973519
733.397249	4228.081266
733.728048	4149.991272
734.058798	4066.489600
734.389501	3996.528467
734.720156	3933.143519
735.050762	3887.284142
735.381320	3880.092936
735.711831	3831.284485
736.042293	3801.221564
736.372707	3826.263496
736.703073	3796.132519
737.033391	3785.725057
737.363661	3806.056030
737.693883	3827.599401
738.024056	3838.808407
738.354182	3838.798325
738.684260	3899.392994
739.014290	3917.407557
739.344272	3916.174995
739.674207	3956.799133
740.004093	3962.188127
740.333931	3957.182261
740.663722	3959.072694
740.993464	3955.155717
741.323159	3930.335596
741.652806	3901.376688
741.982405	3872.470712
742.311956	3840.731607
742.641460	3831.483610
742.970915	3805.730876
743.300323	3765.086573
743.629683	3734.113724
743.958996	3721.712485
744.288260	3699.153322
744.617477	3665.057478
744.946647	3648.625837
745.275768	3625.411323
745.604842	3625.159266
745.933869	3574.462902
746.262847	3568.282447
746.591778	3605.413066
746.920662	3574.210844
747.249498	3545.272101
747.578286	3592.490068
747.907027	3607.122017
748.235720	3606.698560
748.564365	3629.018269
748.892963	3632.473980
749.221514	3612.228706
749.550017	3591.764142
749.878473	3587.519491
750.206881	3557.063360
750.535242	3556.894481
750.863555	3555.581260
751.191821	3551.994479
751.520039	3533.929505
751.848210	3510.813294
752.176334	3546.325702
752.504411	3549.814180
752.832440	3510.571318
753.160421	3492.866786
753.488356	3500.811644
753.816243	3513.558202
754.144082	3473.561687
754.471875	3455.708441
754.799620	3475.303406
755.127318	3466.798979
755.454969	3465.768063
755.782572	3473.047490
756.110129	3447.151082
756.437638	3436.680606
756.765100	3454.662402
757.092515	3463.754123
757.419882	3471.641008
757.747203	3443.491205
758.074477	3447.758541
758.401703	3463.683546
758.728882	3482.930672
759.056014	3490.300839
759.383099	3493.043226
759.710138	3490.938545
760.037129	3505.517562
760.364073	3535.590565
760.690970	3521.692104
761.017820	3500.872138
761.344623	3514.135414
761.671379	3563.984864
761.998088	3617.272381
762.324751	3740.150506
762.651366	3988.971777
762.977935	4465.648161
763.304456	4914.502417
763.630931	5008.562787
763.957359	4646.108866
764.283740	4300.615908
764.610074	4107.133903
764.936362	3910.085281
765.262602	3751.092330
765.588796	3639.544198
765.914943	3547.467523
766.241044	3460.621045
766.567097	3431.135337
766.893104	3381.769838
767.219064	3352.480734
767.544978	3326.546518
767.870845	3269.357148
768.196665	3253.069180
768.522438	3261.777773
768.848165	3253.321237
769.173846	3216.462841
769.499479	3201.737631
769.825066	3183.904549
770.150607	3169.045748
770.476101	3182.303983
770.801548	3182.225845
771.126949	3136.910913
771.452303	3115.876698
771.777611	3124.108903
772.102872	3125.666619
772.428087	3101.809359
772.753256	3093.909871
773.078378	3087.300918
773.403453	3053.250444
773.728482	3037.433824
774.053465	3060.222360
774.378401	3048.675597
774.703291	3018.320289
775.028135	3020.432533
775.352932	3014.035308
775.677683	3003.953001
776.002388	2999.410921
776.327046	2999.922598
776.651658	2989.868017
776.976224	2978.777478
777.300743	2979.906697
777.625216	2968.201138
777.949643	2961.607308
778.274024	2965.461271
778.598359	2953.591874
778.922647	2957.758388
779.246889	2959.018676
779.571086	2945.715071
779.895236	2937.780295
780.219339	2950.736060
780.543397	2960.036989
780.867409	2965.826754
781.191374	2957.259313
781.515294	2953.125567
781.839167	2953.745629
782.162995	2946.927468
782.486776	2956.145218
782.810511	2951.651030
783.134201	2937.666869
783.457844	2947.081224
783.781441	2934.954728
784.104993	2915.218611
784.428498	2914.127201
784.751958	2930.947011
785.075372	2925.290836
785.398739	2908.067734
785.722061	2925.285795
786.045337	2934.690068
786.368568	2925.870569
786.691752	2913.073600
787.014891	2963.190231
787.337983	2991.516474
787.661030	3021.370187
787.984031	3085.607090
788.306987	3133.036786
788.629897	3127.930097
788.952760	3109.764299
789.275579	3094.948348
789.598351	3032.450643
789.921078	2990.798110
790.243759	2980.062973
790.566395	2963.916157
790.888984	2941.281376
791.211529	2923.788572
791.534027	2913.605442
791.856480	2903.029101
792.178888	2887.885475
792.501249	2880.752242
792.823566	2875.827035
793.145836	2876.590769
793.468062	2871.156406
793.790241	2868.837475
794.112375	2874.786036
794.434464	2885.213663
794.756507	2890.075856
795.078505	2898.852505
795.400457	2912.183836
795.722364	2949.609362
796.044226	2973.433855
796.366042	2976.708085
796.687812	2965.368009
797.009538	2983.415340
797.331218	2969.776498
797.652852	2954.428705
797.974442	2942.453444
798.295986	2935.519337
798.617484	2927.892072
798.938938	2918.414702
799.260346	2900.276631
799.581709	2895.008625
799.903026	2885.637120
800.224299	2881.762993
800.545526	2871.584904
800.866708	2853.461956
801.187845	2845.897704
801.508936	2849.071111
801.829983	2855.501102
802.150984	2840.957373
802.471940	2828.359530
802.792851	2828.281392
803.113717	2827.893223
803.434538	2835.354131
803.755314	2826.353151
804.076045	2821.387614
804.396731	2821.846359
804.717372	2822.763849
805.037967	2815.229845
805.358518	2822.922646
805.679024	2834.812207
805.999485	2831.129644
806.319901	2834.504697
806.640272	2824.906340
806.960598	2832.831033
807.280879	2842.331088
807.601115	2847.331912
807.921306	2837.093329
808.241453	2832.495797
808.561554	2838.199862
808.881611	2840.531396
809.201623	2833.138544
809.521590	2833.786332
809.841513	2827.575631
810.161390	2833.332628
810.481223	2828.185610
810.801011	2816.485092
811.120755	2814.897129
811.440453	2815.905359
811.760107	2813.382262
812.079716	2816.454845
812.399281	2802.213586
812.718801	2796.222174
813.038276	2795.440795
813.357707	2800.529840
813.677093	2807.100984
813.996434	2799.955149
814.315731	2795.710497
814.634983	2792.010290
814.954191	2790.583644
815.273354	2807.448824
815.592473	2814.806388
815.911547	2816.472489
816.230577	2826.229642
816.549562	2834.018225
816.868502	2830.542350
817.187399	2841.680779
817.506250	2857.714169
817.825058	2852.138653
818.143821	2865.331352
818.462539	2883.267778
818.781213	2908.884401
819.099843	2946.917386
819.418429	3002.904441
819.736970	3066.579255
820.055466	3139.013074
820.373919	3248.564909
820.692327	3387.267216
821.010691	3557.201991
821.329011	4008.125641
821.647286	4915.692130
821.965517	6318.567107
822.283704	7075.251861
822.601847	7054.197482
822.919945	6412.017497
823.237999	5897.174537
823.556010	5301.569772
823.873976	4743.130913
824.191897	4328.067511
824.509775	4030.031975
824.827609	3756.814040
825.145398	3630.601191
825.463144	3621.252372
825.780845	3712.777040
826.098502	3821.643278
826.416116	4106.503758
826.733685	4429.412348
827.051210	4498.783666
827.368692	4377.102815
827.686129	4107.290178
828.003522	3774.357255
828.320872	3516.421577
828.638177	3318.856238
828.955439	3180.799198
829.272656	3093.163780
829.589830	3025.546783
829.906960	2973.159113
830.224046	2927.987853
830.541088	2896.541136
830.858086	2880.603528
831.175041	2860.927904
831.491952	2862.667103
831.808819	2875.862323
832.125642	2898.822258
832.442421	2947.923096
832.759157	3029.988040
833.075849	3208.686861
833.392497	3494.089266
833.709101	3700.111141
834.025662	3649.460148
834.342179	3489.607680
834.658653	3310.266111
834.975083	3155.694252
835.291469	3061.497772
835.607811	2973.708598
835.924110	2911.364649
836.240366	2861.507637
836.556578	2819.280412
836.872746	2796.872483
837.188871	2772.420366
837.504952	2753.637027
837.820990	2748.956316
838.136984	2731.854201
838.452935	2723.722820
838.768842	2725.703994
839.084706	2745.825759
839.400526	2824.210660
839.716303	2955.832667
840.032037	3037.774102
840.347727	3024.346989
840.663373	2963.162504
840.978977	2885.712737
841.294537	2810.392858
841.610054	2763.890734
841.925527	2742.226375
842.240957	2721.335834
842.556344	2695.293233
842.871687	2682.181192
843.186987	2673.759944
843.502244	2667.468584
843.817458	2662.608912
844.132629	2650.895791
844.447756	2645.242137
844.762840	2634.567494
845.077881	2637.375417
845.392879	2636.846095
845.707833	2630.955507
846.022745	2623.292953
846.337613	2630.748820
846.652438	2627.535084
846.967221	2626.854528
847.281960	2624.528036
847.596656	2622.836729
847.911309	2624.434775
848.225919	2620.298508
848.540485	2616.116871
848.855009	2615.617797
849.169490	2615.138887
849.483928	2616.079062
849.798323	2615.653085
850.112675	2611.642847
850.426984	2614.465893
850.741251	2613.306427
851.055474	2612.383896
851.369654	2620.003600
851.683792	2615.181737
851.997887	2614.680142
852.311938	2613.739967
852.625947	2614.007148
852.939914	2615.232148
853.253837	2617.384721
853.567718	2615.509412
853.881555	2611.032867
854.195350	2614.186109
854.509103	2613.868516
854.822812	2614.569237
855.136479	2612.184771
855.450103	2614.075203
855.763685	2614.589401
856.077224	2612.227621
856.390720	2611.587394
856.704173	2615.743825
857.017584	2617.656943
857.330953	2617.568723
857.644278	2622.829167
857.957561	2621.344547
858.270802	2617.732561
858.584000	2616.439505
858.897155	2619.658281
859.210268	2623.560134
859.523339	2615.431274
859.836367	2611.189143
860.149352	2612.492281
860.462295	2613.258537
860.775195	2612.336005
861.088054	2611.148814
861.400869	2609.001282
861.713642	2604.817124
862.026373	2606.715119
862.339062	2609.926334
862.651708	2615.335492
862.964312	2617.656943
863.276873	2615.242231
863.589392	2617.074690
863.901869	2626.365537
864.214303	2628.197996
864.526696	2630.915178
864.839045	2632.079684
865.151353	2635.542957
865.463619	2636.410036
865.775842	2633.793677
866.088023	2637.148565
866.400162	2635.540437
866.712258	2634.401136
867.024313	2631.898203
867.336325	2629.062554
867.648296	2629.372585
867.960224	2637.468678
868.272110	2635.774850
868.583954	2630.567338
868.895755	2630.254787
869.207515	2635.250570
869.519233	2642.454379
869.830909	2638.456744
870.142542	2634.519603
870.454134	2636.382309
870.765684	2641.345325
871.077191	2642.809780
871.388657	2646.693989
871.700081	2644.581746
872.011463	2642.981180
872.322803	2647.382107
872.634101	2648.481078
872.945357	2658.369302
873.256571	2663.223933
873.567744	2659.175886
873.878874	2656.231852
874.189963	2661.028510
874.501010	2663.390291
874.812015	2670.647032
875.122979	2667.337514
875.433900	2658.926349
875.744780	2660.907523
876.055618	2668.121414
876.366415	2671.146106
876.677169	2670.107628
876.987882	2666.321722
877.298554	2663.581855
877.609183	2675.330264
877.919771	2681.931655
878.230317	2689.306863
878.540822	2697.985209
878.851285	2711.046839
879.161707	2736.315622
879.472087	2777.184257
879.782425	2825.871721
880.092722	2943.073506
880.402977	3136.275727
880.713191	3405.485946
881.023363	3704.549877
881.333494	3904.182090
881.643583	4078.517793
881.953631	4071.419848
882.263637	3894.803023
882.573602	3669.123168
882.883526	3534.446223
883.193408	3418.093872
883.503248	3313.792398
883.813048	3196.308308
884.122806	3078.307499
884.432522	2991.944972
884.742197	2928.045827
885.051831	2884.709548
885.361424	2850.298632
885.670975	2812.618527
885.980485	2780.554268
886.289954	2761.077770
886.599382	2749.099989
886.908768	2735.446023
887.218113	2716.884495
887.527417	2699.913451
887.836680	2694.501772
888.145901	2687.018179
888.455082	2677.621468
888.764221	2669.507731
889.073319	2660.501710
889.382376	2658.702018
889.691392	2661.552790
890.000366	2659.180927
890.309300	2661.431803
890.618193	2662.518171
890.927044	2665.008501
891.235855	2663.251659
891.544625	2660.925167
891.853353	2662.170332
892.162041	2670.647032
892.470687	2690.877182
892.779293	2704.543750
893.087858	2717.623024
893.396381	2738.143041
893.704864	2779.273815
894.013306	2852.983046
894.321707	2950.345371
894.630068	3000.973679
894.938387	3022.733819
895.246665	3013.037160
895.554903	2971.160295
895.863100	2925.401742
896.171256	2865.785056
896.479371	2800.653348
896.787446	2762.547267
897.095480	2745.127559
897.403473	2734.601630
897.711425	2721.391287
898.019336	2701.393029
898.327207	2689.611853
898.635038	2683.249917
898.942827	2680.941068
899.250576	2674.314471
899.558284	2660.809220
899.865952	2656.499034
900.173579	2653.955772
900.481165	2652.745895
900.788711	2647.946716
901.096216	2636.583955
901.403681	2631.537760
901.711105	2635.399284
902.018489	2632.505662
902.325832	2637.385499
902.633135	2638.169398
902.940397	2655.074908
903.247619	2692.172759
903.554800	2765.496342
903.861941	2895.268244
904.169041	3027.507792
904.476101	3092.405086
904.783121	3085.264292
905.090100	3027.825385
905.397039	2949.478292
905.703938	2869.964173
906.010796	2805.127372
906.317614	2754.589805
906.624391	2715.213352
906.931129	2687.381142
907.237826	2663.118069
907.544483	2646.094092
907.851099	2630.655558
908.157675	2619.978395
908.464211	2614.846500
908.770707	2601.563060
909.077163	2597.565425
909.383578	2595.974941
909.689954	2595.639704
909.996289	2591.349682
910.302584	2592.138622
910.608839	2590.404466
910.915054	2585.322983
911.221229	2590.084352
911.527363	2591.107707
911.833458	2591.384970
912.139513	2596.204313
912.445527	2595.037286
912.751502	2602.485591
913.057436	2605.568256
913.363331	2613.074534
913.669186	2625.377470
913.975000	2635.132103
914.280775	2653.678508
914.586510	2674.697599
914.892205	2711.215717
915.197859	2781.978394
915.503475	2866.400077
915.809050	2938.765840
916.114585	2956.301494
916.420081	2970.842702
916.725536	2981.797130
917.030952	2953.697738
917.336328	2903.233268
917.641665	2852.468848
917.946961	2800.615540
918.252218	2768.589089
918.557435	2734.652042
918.862612	2713.028012
919.167750	2698.411187
919.472848	2678.521314
919.777906	2658.812923
920.082925	2649.479227
920.387904	2639.457413
920.692843	2635.366517
920.997743	2626.993160
921.302603	2622.945114
921.607423	2615.469082
921.912204	2605.578339
922.216946	2606.062289
922.521647	2604.121445
922.826310	2599.082812
923.130932	2593.845053
923.435516	2589.827253
923.740059	2586.361460
924.044564	2583.175451
924.349028	2586.366501
924.653454	2573.546847
924.957840	2572.475602
925.262186	2571.094326
925.566493	2571.253122
925.870761	2564.742472
926.174989	2569.171126
926.479178	2565.677606
926.783328	2563.232646
927.087438	2564.349262
927.391509	2564.354303
927.695541	2560.843139
927.999533	2557.490772
928.303486	2559.227450
928.607400	2557.533622
928.911275	2554.181255
929.215110	2558.163766
929.518906	2555.086142
929.822663	2558.574620
930.126381	2555.635627
930.430060	2554.803837
930.733699	2556.467418
931.037299	2556.351471
931.340861	2560.623849
931.644383	2559.280382
931.947866	2558.045299
932.251309	2558.582182
932.554714	2556.797613
932.858080	2557.228632
933.161407	2557.538663
933.464694	2557.374826
933.767943	2554.072870
934.071153	2554.077911
934.374323	2553.354505
934.677455	2554.909701
934.980548	2553.853580
935.283602	2554.672767
935.586617	2554.571944
935.889593	2553.772921
936.192530	2553.901471
936.495428	2553.488096
936.798287	2554.380380
937.101108	2554.987839
937.403890	2560.951524
937.706632	2563.835064
938.009336	2566.499314
938.312002	2570.504511
938.614628	2573.352763
938.917216	2574.260170
939.219765	2578.991293
939.522275	2579.901222
939.824747	2577.819225
940.127179	2571.555591
940.429573	2568.704819
940.731929	2569.498801
941.034246	2565.682647
941.336524	2571.023750
941.638763	2571.353945
941.940964	2567.981413
942.243126	2568.004098
942.545250	2566.355641
942.847335	2562.368088
943.149381	2565.417987
943.451389	2561.932029
943.753359	2562.965465
944.055290	2561.211144
944.357182	2558.599826
944.659036	2557.783159
944.960851	2557.916750
945.262628	2555.421378
945.564367	2558.801472
945.866067	2558.811554
946.167729	2560.976730
946.469352	2558.289795
946.770937	2559.091338
947.072484	2556.747202
947.373992	2558.872048
947.675462	2556.696790
947.976893	2556.842984
948.278286	2555.744012
948.579641	2554.967675
948.880958	2553.687222
949.182236	2553.382232
949.483476	2554.975236
949.784678	2554.156049
950.085841	2554.561862
950.386967	2555.776780
950.688054	2553.972047
950.989103	2553.929197
951.290114	2557.125288
951.591087	2556.321224
951.892021	2559.915567
952.192917	2559.504713
952.493776	2558.216698
952.794596	2560.144940
953.095378	2563.010836
953.396122	2564.472770
953.696828	2561.138047
953.997496	2560.636452
954.298126	2555.930535
954.598718	2556.671585
954.899272	2555.529763
955.199788	2553.984650
955.500266	2551.756460
955.800706	2548.668753
956.101108	2543.557023
956.401472	2546.150697
956.701798	2542.304296
957.002087	2544.411498
957.302337	2548.320913
957.602550	2545.825542
957.902724	2546.052394
958.202861	2544.623227
958.502960	2544.429142
958.803022	2542.642053
959.103045	2542.823535
959.403031	2541.732125
959.702979	2541.333874
960.002889	2542.304296
960.302762	2540.691127
960.602596	2541.104502
960.902393	2538.546116
961.202153	2542.016950
961.501875	2540.696168
961.801559	2539.516538
962.101205	2539.607279
962.400814	2538.962011
962.700385	2538.495704
962.999918	2538.357073
963.299414	2538.798174
963.598873	2539.584594
963.898293	2535.672658
964.197677	2539.655170
964.497022	2539.640046
964.796331	2540.285314
965.095601	2537.812628
965.394835	2540.058462
965.694030	2535.655014
965.993189	2538.241126
966.292309	2539.055273
966.591393	2536.572504
966.890439	2540.058462
967.189447	2538.278935
967.488419	2536.166691
967.787353	2537.273225
968.086249	2536.612833
968.385108	2539.251878
968.683930	2538.679707
968.982714	2537.822710
969.281462	2534.382123
969.580172	2536.189377
969.878844	2539.282124
970.177480	2537.414377
970.476078	2538.707433
970.774639	2537.973945
971.073162	2539.632485
971.371649	2537.752134
971.670098	2535.642411
971.968510	2538.014274
972.266885	2532.022863
972.565223	2537.283307
972.863524	2539.345139
973.161788	2538.518390
973.460014	2542.251364
973.758204	2540.539892
974.056356	2533.308357
974.354471	2539.357742
974.652550	2539.398071
974.950591	2539.471168
975.248595	2540.938143
975.546563	2538.911600
975.844493	2537.616023
976.142386	2535.786084
976.440243	2537.386651
976.738062	2534.634181
977.035845	2538.117618
977.333590	2536.454037
977.631299	2540.066024
977.928971	2537.099305
978.226606	2537.593338
978.524204	2537.101825
978.821765	2533.762061
979.119290	2537.442103
979.416777	2535.972607
979.714228	2535.884387
980.011642	2537.190046
980.309020	2537.505118
980.606360	2536.328008
980.903664	2536.713657
981.200931	2539.473688
981.498162	2541.505273
981.795356	2541.737166
982.092513	2544.630789
982.389633	2545.838145
982.686717	2551.015410
982.983764	2553.357026
983.280775	2554.153528
983.577749	2553.992211
983.874686	2552.023641
984.171587	2551.738816
984.468451	2548.247817
984.765279	2543.564585
985.062070	2540.620551
985.358824	2542.702547
985.655543	2541.664070
985.952224	2540.544933
986.248869	2536.144006
986.545478	2531.475898
986.842050	2534.656866
987.138586	2530.830630
987.435086	2534.457740
987.731549	2533.021011
988.027975	2533.996475
988.324366	2533.570497
988.620719	2536.501928
988.917037	2534.503111
989.213318	2533.136958
989.509563	2533.789787
989.805772	2535.113090
990.101944	2532.673172
990.398080	2531.352389
990.694180	2533.149561
990.990244	2533.046217
991.286271	2532.247194
991.582262	2535.334901
991.878217	2532.993285
992.174136	2533.149561
992.470019	2533.653676
992.765865	2534.026722
993.061676	2532.690816
993.357450	2534.268697
993.653188	2531.309540
993.948890	2535.839016
994.244556	2534.140148
994.540186	2536.375899
994.835780	2534.999664
995.131337	2536.161650
995.426859	2535.007226
995.722345	2537.227854
996.017795	2534.309026
996.313208	2537.928575
996.608586	2540.560057
996.903928	2536.287679
997.199234	2537.810108
997.494504	2537.081661
997.789738	2535.985210
998.084936	2535.844058
998.380099	2534.805580
998.675225	2534.707277
998.970316	2535.355066
999.265371	2536.396064
999.560390	2533.880528
999.855373	2538.331867
1000.150320	2529.086391
1000.445232	2536.706095
1000.740108	2530.460105
1001.034948	2535.397915
1001.329752	2535.597041
1001.624521	2529.308202
1001.919254	2526.901051
1002.213951	2531.571680
1002.508613	2527.697553
1002.803239	2532.809283
1003.097829	2526.611184
1003.392384	2534.871115
1003.686903	2533.268028
1003.981386	2535.241640
1004.275834	2531.213758
1004.570246	2533.411701
1004.864623	2534.775333
1005.158964	2531.619571
1005.453270	2532.579910
1005.747540	2529.648479
1006.041775	2531.571680
1006.335974	2532.542102
1006.630138	2532.453882
1006.924266	2531.866587
1007.218359	2533.429345
1007.512416	2531.576721
1007.806438	2532.095960
1008.100425	2531.201155
1008.394376	2530.258459
1008.688292	2533.515044
1008.982172	2527.359796
1009.276017	2531.848943
1009.569827	2529.933305
1009.863602	2532.201824
1010.157341	2530.109745
1010.451045	2532.181659
1010.744714	2533.136958
1011.038347	2531.498583
1011.331945	2529.981196
1011.625508	2531.796011
1011.919036	2531.506145
1012.212528	2529.434230
1012.505986	2531.080167
1012.799408	2529.517409
1013.092795	2529.240146
1013.386147	2532.506814
1013.679464	2528.657893
1013.972745	2531.178470
1014.265992	2531.044879
1014.559204	2532.927750
1014.852380	2529.260311
1015.145521	2532.668131
1015.438628	2528.562111
1015.731699	2531.060002
1016.024736	2529.598068
1016.317737	2529.124199
1016.610703	2532.746268
1016.903635	2529.222502
1017.196531	2524.521626
1017.489393	2529.582944
1017.782219	2524.511544
1018.075011	2528.400794
1018.367768	2530.001360
1018.660490	2532.269879
1018.953177	2532.269879
1019.245829	2532.269879
