Dividing Wavelength (nm)	Counts (n)	Blue Motor Position (mm): 47.500000	Red Motor Position (mm): 0.000000	
326.493990	2130.046296
326.888308	2130.046296
327.282561	2130.046296
327.676750	2095.872314
328.070874	2097.125041
328.464933	2098.143354
328.858929	2105.730291
329.252859	2114.950561
329.646726	2126.482201
330.040528	2138.459982
330.434265	2155.607467
330.827938	2173.291835
331.221547	2192.753209
331.615091	2209.840200
332.008571	2228.903323
332.401986	2249.503998
332.795338	2268.410846
333.188625	2286.886675
333.581847	2306.337967
333.975006	2325.048209
334.368100	2344.078565
334.761129	2360.555577
335.154095	2377.914790
335.546996	2399.374982
335.939833	2425.425144
336.332606	2441.425767
336.725315	2454.709207
337.117960	2461.136678
337.510540	2469.820066
337.903056	2482.425471
338.295508	2489.949393
338.687896	2498.060609
339.080220	2505.488750
339.472480	2512.543844
339.864676	2516.458300
340.256807	2520.949968
340.648875	2525.242511
341.040879	2525.766791
341.432818	2528.736031
341.824694	2530.593696
342.216506	2531.153264
342.608253	2529.807276
342.999937	2529.172090
343.391557	2531.002029
343.783113	2526.999353
344.174605	2527.513551
344.566033	2526.253262
344.957397	2529.159488
345.348697	2524.743437
345.739934	2519.316635
346.131106	2517.655574
346.522215	2519.109947
346.913260	2515.644154
347.304241	2515.742457
347.695159	2513.332785
348.086012	2512.213649
348.476802	2510.960922
348.867528	2508.221055
349.258191	2507.001096
349.648789	2504.871208
350.039324	2506.620489
350.429796	2501.670076
350.820203	2501.135713
351.210548	2501.297030
351.600828	2499.217554
351.991045	2500.402225
352.381198	2499.041114
352.771288	2496.339055
353.161314	2499.232678
353.551276	2498.105980
353.941175	2500.515651
354.331010	2499.141937
354.720782	2498.058089
355.110490	2498.499190
355.500135	2499.300733
355.889717	2497.435506
356.279235	2496.923829
356.668689	2499.441886
357.058080	2498.544560
357.447408	2497.392657
357.836672	2497.543891
358.225873	2500.800477
358.615010	2495.000629
359.004084	2499.522544
359.393095	2501.425580
359.782043	2504.258708
360.170927	2505.556805
360.559748	2506.186949
360.948505	2506.297855
361.337199	2506.320540
361.725830	2503.805004
362.114398	2508.788185
362.502903	2506.318019
362.891344	2505.352638
363.279722	2511.510408
363.668037	2509.042763
364.056289	2512.316993
364.444478	2511.636437
364.832603	2512.422857
365.220665	2511.921262
365.608665	2513.166427
365.996601	2514.961078
366.384474	2511.727178
366.772284	2515.351767
367.160031	2511.757424
367.547715	2516.501150
367.935336	2515.994514
368.322893	2514.439318
368.710388	2515.051818
369.097820	2519.818229
369.485189	2517.655574
369.872495	2521.234794
370.259738	2523.024403
370.646918	2522.598426
371.034035	2524.975330
371.421090	2526.727131
371.808081	2536.164171
372.195010	2538.994779
372.581875	2549.263609
372.968678	2552.527756
373.355418	2560.414641
373.742096	2568.863615
374.128710	2576.944585
374.515262	2591.100145
374.901751	2600.320415
375.288177	2611.274842
375.674540	2630.164046
376.060841	2641.615027
376.447079	2657.855104
376.833254	2674.493432
377.219367	2687.481965
377.605417	2719.321893
377.991404	2726.447564
378.377329	2748.984042
378.763191	2767.749737
379.148991	2797.535395
379.534727	2826.857266
379.920402	2852.720906
380.306013	2868.819831
380.691563	2917.759352
381.077049	2939.630398
381.462474	2961.325004
381.847835	3000.439317
382.233134	3029.400745
382.618371	3038.038762
383.003545	3101.247270
383.388657	3115.574229
383.773706	3155.187616
384.158693	3172.856860
384.543618	3207.426573
384.928480	3245.630957
385.313280	3298.016108
385.698017	3302.724545
386.082692	3357.998277
386.467305	3372.098384
386.851856	3409.317223
387.236344	3434.102056
387.620770	3469.047334
388.005133	3501.063702
388.389435	3535.146943
388.773674	3549.816701
389.157851	3590.576950
389.541965	3611.769961
389.926018	3583.468923
390.310008	3654.715551
390.693936	3675.593489
391.077802	3717.460272
391.461606	3709.149930
391.845348	3773.343983
392.229027	3777.601238
392.612645	3788.285963
392.996200	3868.241184
393.379694	3905.618819
393.763125	3975.093481
394.146494	3941.431176
394.529801	4003.341586
394.913047	4054.325296
395.296230	4019.727857
395.679351	4072.160898
396.062410	4095.783745
396.445408	4080.751024
396.828343	4112.664048
397.211217	4136.170949
397.594028	4057.365111
397.976778	4120.878609
398.359466	4151.044873
398.742092	4179.081250
399.124656	4101.964199
399.507158	4182.763813
399.889598	4202.310887
400.271977	4267.903861
400.654294	4236.565528
401.036549	4242.952670
401.418742	4217.331005
401.800874	4322.081141
402.182944	4340.304912
402.564952	4405.945776
402.946898	4394.046133
403.328783	4388.536152
403.710606	4301.251093
404.092367	4491.499198
404.474067	4460.533911
404.855705	4469.174448
405.237282	4396.488572
405.618797	4503.255169
406.000250	4535.314387
406.381642	4620.840082
406.762972	4579.704267
407.144240	4593.985856
407.525447	4590.288170
407.906593	4653.095905
408.287677	4692.447152
408.668700	4619.869660
409.049661	4675.168597
409.430560	4716.095205
409.811399	4643.865553
410.192176	4804.731292
410.572891	4738.878700
410.953545	4848.128065
411.334138	4726.719437
411.714669	4793.308038
412.095139	4689.099826
412.475547	4828.782637
412.855894	4812.663548
413.236180	4821.462882
413.616405	4772.737610
413.996568	4861.066187
414.376670	4803.186179
414.756711	4758.007358
415.136691	4787.614055
415.516609	4867.539028
415.896466	4902.227208
416.276262	4936.486889
416.655997	4919.750259
417.035670	5103.311273
417.415283	5192.517011
417.794834	5135.539370
418.174324	5090.824335
418.553753	4993.963605
418.933121	5181.013098
419.312428	5251.319550
419.691674	5187.165826
420.070859	5312.715763
420.449983	5226.007917
420.829045	5339.116285
421.208047	5250.475157
421.586988	5321.515097
421.965867	5330.629503
422.344686	5462.248989
422.723444	5321.515097
423.102141	5139.274865
423.480777	5435.843425
423.859352	5206.395308
424.237866	5463.791582
424.616319	5459.642712
424.994712	5564.828908
425.373044	5442.996822
425.751314	5584.191980
426.129524	5386.495570
426.507673	5582.417493
426.885762	5664.782386
427.263789	5595.234627
427.641756	5475.444209
428.019662	5599.728816
428.397508	5608.386997
428.775292	5554.998658
429.153016	5653.472557
429.530679	5580.453964
429.908282	5661.540924
430.285824	5539.363519
430.663305	5809.995343
431.040726	5543.499786
431.418086	5542.489034
431.795385	5650.891486
432.172624	5661.487992
432.549802	5655.012629
432.926920	5668.293549
433.303977	5678.070867
433.680974	5710.881217
434.057910	5737.616976
434.434786	5739.603191
434.811601	5709.411721
435.188355	5942.897802
435.565050	5814.245035
435.941683	5795.577643
436.318257	6014.078894
436.694770	5997.102809
437.071222	6033.444487
437.447614	5960.498991
437.823946	5877.072936
438.200218	6028.970463
438.576429	5896.967849
438.952580	5993.117777
439.328670	6035.544128
439.704700	5945.143636
440.080670	5932.419764
440.456580	6203.099478
440.832429	6084.531540
441.208218	5931.421615
441.583947	6087.730152
441.959616	6090.538075
442.335224	6017.632908
442.710773	6153.121479
443.086261	6183.038207
443.461689	5977.069263
443.837057	6123.633250
444.212365	6278.215191
444.587612	6170.422719
444.962800	6323.361245
445.337927	6301.780065
445.712995	5914.616929
446.088002	6492.517162
446.462949	6322.673127
446.837837	6255.242653
447.212664	6425.684065
447.587431	6577.475728
447.962139	7121.217102
448.336786	8041.691465
448.711374	7777.575333
449.085901	6855.565938
449.460369	6774.000069
449.834776	6706.183947
450.209124	7097.090140
450.583412	7253.174345
450.957640	7396.353197
451.331808	7159.996178
451.705917	6720.031997
452.079965	6637.669625
452.453954	6847.626121
452.827883	6730.752010
453.201752	6820.507234
453.575562	6618.654393
453.949311	6821.344066
454.323001	6709.347271
454.696632	6788.526154
455.070202	6924.140754
455.443713	7079.194044
455.817164	7179.961668
456.190556	7262.850840
456.563888	7339.299938
456.937160	7380.019858
457.310373	7036.142590
457.683526	7062.961528
458.056619	6955.335414
458.429653	6943.158507
458.802628	6876.267437
459.175542	6984.891699
459.548398	7338.390010
459.921194	7496.578897
460.293930	7503.681883
460.666607	8036.799025
461.039224	8335.011002
461.411782	8472.178277
461.784280	8488.332655
462.156719	8381.787868
462.529099	8248.782065
462.901419	7838.883325
463.273680	7730.894248
463.645882	7748.830674
464.018024	7609.778007
464.390106	7783.586909
464.762130	8170.845827
465.134094	8635.814131
465.505999	9665.885699
465.877845	10885.285362
466.249631	11535.019517
466.621358	11143.838581
466.993026	10515.791470
467.364634	10263.708572
467.736184	9899.777594
468.107674	9565.985154
468.479105	9599.077808
468.850477	9362.564514
469.221790	9136.831727
469.593043	8806.679000
469.964238	8667.465016
470.335373	8680.756018
470.706449	8736.468329
471.077467	8719.212460
471.448425	10031.124857
471.819324	11102.899371
472.190164	11119.862853
472.560945	9875.320436
472.931667	9091.368081
473.302330	8953.744581
473.672934	8596.707380
474.043479	8955.524108
474.413965	8895.778873
474.784393	8775.688506
475.154761	8936.002240
475.525070	9027.363071
475.895321	8851.610804
476.265513	9029.344244
476.635645	9192.760808
477.005719	9199.674751
477.375734	9310.093664
477.745691	9545.782730
478.115588	9680.326085
478.485427	9923.750801
478.855207	10465.503440
479.224928	11277.388829
479.594591	11913.491703
479.964194	11714.197248
480.333739	11657.816983
480.703226	11571.930845
481.072653	11660.153558
481.442022	11894.834393
481.811333	12087.038466
482.180584	11888.507745
482.549777	11606.432502
482.918912	11423.335274
483.287988	11451.341404
483.657005	11468.483848
484.025964	11141.925463
484.394864	11274.631318
484.763706	11241.679816
485.132489	10999.084369
485.501213	10958.175406
485.869879	11038.155832
486.238487	10883.520958
486.607036	10991.472227
486.975527	10770.256314
487.343959	10965.175048
487.712333	11010.013591
488.080648	10939.238311
488.448905	10990.494243
488.817104	10927.530231
489.185244	11192.004286
489.553326	11346.823161
489.921350	11886.211499
490.289315	12945.920011
490.657222	13290.742496
491.025070	13203.654043
491.392861	13069.864340
491.760593	12690.552801
492.128267	12334.092813
492.495883	12007.234480
492.863440	11672.350630
493.230939	11339.359733
493.598380	11270.303487
493.965763	11136.798610
494.333088	11039.022910
494.700354	10956.403440
495.067563	11021.925837
495.434713	10846.085350
495.801805	10982.572070
496.168839	10906.271686
496.535815	10838.947076
496.902733	10835.536735
497.269593	10773.603640
497.636395	10873.713393
498.003139	10860.999603
498.369825	10731.182330
498.736453	10885.786957
499.103023	10814.129476
499.469535	10845.989568
499.835989	10830.072125
500.202385	10790.385641
500.568723	10641.149843
500.935003	10866.751560
501.301226	10672.871304
501.667390	10925.964953
502.033497	11027.095540
502.399546	10885.872657
502.765537	10795.260437
503.131470	10868.213495
503.497345	11039.307736
503.863163	10651.332974
504.228923	10962.014244
504.594625	11017.295537
504.960269	10771.947621
505.325856	10996.888947
505.691385	10786.327512
506.056856	10937.292426
506.422270	10967.766201
506.787625	10856.578512
507.152924	10972.608229
507.518164	10953.514859
507.883347	10874.373785
508.248472	10794.063163
508.613540	11028.922959
508.978550	10914.692933
509.343503	10883.861236
509.708398	11009.506955
510.073236	11120.624068
510.438016	11125.960129
510.802738	11075.442726
511.167403	11124.178081
511.532010	11024.995900
511.896561	11259.833011
512.261053	11328.042343
512.625488	11190.476816
512.989866	11177.125320
513.354186	11165.490337
513.718449	11065.521736
514.082655	11259.301169
514.446803	11161.709472
514.810894	11280.748758
515.174927	11138.915894
515.538904	11166.473362
515.902822	11317.965076
516.266684	11201.431243
516.630488	11144.698098
516.994235	11206.323683
517.357925	11262.441808
517.721558	11352.539830
518.085133	11372.817871
518.448651	11377.024714
518.812112	11256.394944
519.175516	11278.366813
519.538863	11405.076215
519.902152	11314.184211
520.265385	11478.384674
520.628560	11384.795653
520.991678	11363.272446
521.354739	11424.560274
521.717743	11361.928979
522.080690	11338.558190
522.443580	11473.797224
522.806413	11424.817373
523.169189	11461.615276
523.531908	11517.095694
523.894569	11335.793117
524.257174	11339.082470
524.619722	11460.627209
524.982213	11411.281875
525.344647	11460.007147
525.707025	11414.563666
526.069345	11510.542194
526.431608	11425.349215
526.793815	11530.116995
527.155964	11315.378964
527.518057	11370.929959
527.880093	11324.384986
528.242072	11395.659339
528.603995	11301.530915
528.965860	11220.154089
529.327669	11267.881213
529.689421	11214.404653
530.051117	11188.470437
530.412755	11292.174533
530.774337	11181.082626
531.135862	11157.598411
531.497331	11189.708040
531.858743	11036.010821
532.220098	11202.510050
532.581396	11081.537481
532.942638	11056.649305
533.303824	11017.736638
533.664953	11034.160718
534.026025	10950.601072
534.387040	11048.112111
534.747999	11050.869622
535.108902	11113.536205
535.469748	10858.584891
535.830537	10965.646396
536.191270	10948.488828
536.551947	10979.630556
536.912567	10967.932559
537.273131	10899.599718
537.633638	10881.617923
537.994089	10867.497651
538.354483	10813.375823
538.714821	10961.404265
539.075103	10967.685542
539.435328	10932.473083
539.795497	10760.471434
540.155609	10917.274004
540.515665	11007.034269
540.875665	10739.618701
541.235609	10811.535802
541.595496	10801.892075
541.955328	10953.598038
542.315102	10844.023518
542.674821	10787.159303
543.034483	10796.861003
543.394090	10798.383432
543.753640	10723.791999
544.113134	10944.879362
544.472571	10801.521550
544.831953	10949.691144
545.191278	10752.322409
545.550548	10779.895000
545.909761	10916.674107
546.268918	10888.851978
546.628019	10970.306942
546.987064	10843.849598
547.346053	10758.013872
547.704986	10863.815088
548.063863	10850.413180
548.422684	10843.433703
548.781449	10756.937585
549.140158	10859.038595
549.498811	10735.300953
549.857408	10592.222924
550.215949	10820.708181
550.574434	10671.580768
550.932864	10773.119689
551.291237	10833.729482
551.649555	10780.220154
552.007817	10791.557709
552.366022	10752.632440
552.724173	10749.932902
553.082267	10730.247196
553.440305	10870.073680
553.798288	10667.951137
554.156215	10828.322844
554.514086	10801.173710
554.871902	10654.070320
555.229661	10685.547285
555.587365	10663.237659
555.945014	10560.481299
556.302606	10681.032932
556.660143	10573.789945
557.017625	10730.796682
557.375050	10622.779878
557.732421	10759.606876
558.089735	10671.943731
558.446994	10673.166211
558.804197	10708.761798
559.161345	10715.542150
559.518437	10557.595239
559.875474	10651.239712
560.232455	10672.495738
560.589381	10626.328851
560.946251	10624.302307
561.303065	10735.048895
561.659825	10670.779225
562.016528	10600.220715
562.373177	10478.388629
562.729770	10592.701834
563.086307	10504.973154
563.442789	10602.186765
563.799216	10477.876952
564.155587	10527.413851
564.511904	10480.425256
564.868164	10480.795780
565.224370	10488.788530
565.580520	10413.803887
565.936615	10418.101471
566.292654	10288.904259
566.648638	10421.340412
567.004567	10378.281396
567.360441	10363.949396
567.716260	10271.993709
568.072023	10373.802331
568.427732	10319.950205
568.783385	10226.870341
569.138982	10296.836515
569.494525	10310.326642
569.850013	10187.864413
570.205445	10265.714952
570.560823	10161.554631
570.916145	10082.358104
571.271412	10152.911572
571.626625	10093.597356
571.981782	10078.524306
572.336884	10047.042301
572.691931	10050.210666
573.046923	10000.283078
573.401860	9950.347929
573.756743	9891.063959
574.111570	9937.508110
574.466342	9922.810626
574.821059	9948.908679
575.175722	9837.637811
575.530330	9844.947484
575.884882	9838.787194
576.239380	9773.743707
576.593823	9747.559953
576.948211	9757.387683
577.302544	9639.754878
577.656823	9654.996807
578.011047	9660.239607
578.365216	9629.644844
578.719330	9556.475017
579.073389	9567.028672
579.427394	9513.531948
579.781344	9493.226180
580.135239	9438.980844
580.489080	9450.628430
580.842866	9357.679636
581.196597	9353.573616
581.550273	9399.163291
581.903895	9367.923260
582.257463	9432.137478
582.610975	9306.632912
582.964434	9338.082150
583.317837	9265.058516
583.671186	9244.228468
584.024481	9235.824865
584.377721	9154.087596
584.730906	9131.581365
585.084037	9163.834667
585.437113	9093.775232
585.790135	9122.582905
586.143103	9015.899487
586.496016	8988.944438
586.848874	9049.960043
587.201679	9035.421355
587.554428	8925.335158
587.907124	8972.147313
588.259765	8939.710008
588.612352	8942.180174
588.964884	8822.740116
589.317362	8829.954007
589.669786	8833.644132
590.022155	8886.603973
590.374470	8897.117300
590.726731	8831.327721
591.078937	8688.978140
591.431090	8804.410480
591.783188	8673.101026
592.135232	8667.129779
592.487222	8665.574583
592.839157	8719.202377
593.191038	8650.519177
593.542866	8596.392308
593.894639	8498.223399
594.246358	8552.130977
594.598022	8565.157319
594.949633	8461.080177
595.301190	8439.592259
595.652692	8465.400446
596.004141	8573.999503
596.355535	8352.423147
596.706876	8332.661824
597.058162	8267.729242
597.409395	8346.381324
597.760573	8408.959688
598.111698	8317.233373
598.462768	8300.695868
598.813785	8270.418698
599.164748	8239.629850
599.515657	8226.225422
599.866511	8134.678068
600.217312	8264.016432
600.568060	8123.577448
600.918753	8223.704845
601.269392	8198.289868
601.619978	8105.388965
601.970510	8168.322729
602.320988	8164.864498
602.671412	8219.651758
603.021783	8156.415524
603.372100	8131.459292
603.722363	8131.847461
604.072572	8111.798792
604.422728	8121.878579
604.772830	8051.362919
605.122878	8056.809886
605.472872	8051.564565
605.822813	8080.702434
606.172701	8018.522322
606.522534	8104.627750
606.872314	8103.039787
607.222041	8070.466371
607.571714	8129.906616
607.921333	8084.087569
608.270899	8088.344823
608.620411	8179.272115
608.969870	8084.311900
609.319276	8076.301507
609.668627	8092.246677
610.017926	8130.824106
610.367171	8170.152668
610.716362	8153.229515
611.065500	8140.775344
611.414585	8170.719798
611.763616	8159.185638
612.112594	8145.267012
612.461518	8154.966192
612.810389	8218.517498
613.159207	8156.223960
613.507971	8104.063141
613.856682	8224.486224
614.205340	8173.157196
614.553945	8249.984380
614.902496	8153.617683
615.250994	8215.898619
615.599439	8193.702418
615.947830	8200.956639
616.296169	8186.871655
616.644454	8194.887089
616.992686	8187.085904
617.340864	8247.115964
617.688990	8152.264134
618.037063	8247.776355
618.385082	8184.489710
618.733048	8276.047146
619.080961	8216.432981
619.428821	8232.605002
619.776628	8235.425528
620.124382	8185.407200
620.472083	8173.507556
620.819731	8199.106535
621.167326	8094.144671
621.514868	8100.277235
621.862357	7986.518557
622.209793	8006.904983
622.557176	7939.545085
622.904506	7909.462000
623.251783	7845.061259
623.599007	7797.649207
623.946179	7801.296482
624.293297	7757.877024
624.640363	7675.759149
624.987376	7656.088566
625.334336	7610.473686
625.681243	7552.868421
626.028097	7545.629324
626.374899	7520.910026
626.721647	7509.683376
627.068343	7442.101668
627.414987	7415.980929
627.761577	7371.908642
628.108115	7409.069507
628.454600	7295.257897
628.801032	7350.811413
629.147412	7309.242058
629.493739	7305.541851
629.840014	7232.772796
630.186236	7296.707229
630.532405	7178.408992
630.878521	7230.494194
631.224585	7189.136568
631.570597	7106.254957
631.916556	7141.225442
632.262462	7140.159238
632.608316	7104.581294
632.954117	7075.965185
633.299866	7065.749286
633.645562	7057.940539
633.991206	6975.447097
634.336797	6923.235867
634.682336	6873.071345
635.027823	6847.114444
635.373257	6836.969122
635.718639	6765.467916
636.063968	6782.214629
636.409245	6675.697569
636.754470	6674.112126
637.099642	6629.359283
637.444762	6574.975315
637.789829	6584.208189
638.134845	6524.336925
638.479808	6512.434761
638.824719	6516.918867
639.169577	6443.703669
639.514383	6467.941537
639.859137	6389.680144
640.203839	6398.570219
640.548489	6387.411625
640.893086	6367.322627
641.237632	6332.581515
641.582125	6356.529516
641.926566	6324.555998
642.270955	6338.323389
642.615292	6333.100754
642.959576	6354.654207
643.303809	6342.986457
643.647990	6346.353947
643.992118	6335.696948
644.336195	6281.912878
644.680219	6306.899357
645.024192	6300.005579
645.368112	6393.982769
645.711981	6415.453043
646.055797	6490.742676
646.399562	6448.734741
646.743274	6571.471713
647.086935	6625.563294
647.430544	6629.455065
647.774101	6644.230687
648.117606	6652.011708
648.461059	6640.419575
648.804460	6610.505368
649.147810	6510.771180
649.491108	6482.533157
649.834354	6460.430218
650.177548	6378.725717
650.520690	6291.090298
650.863781	6267.500219
651.206820	6288.995699
651.549807	6211.561055
651.892742	6147.430017
652.235626	6159.722870
652.578458	6141.310056
652.921238	6048.734307
653.263967	6086.676551
653.606644	6028.514238
653.949269	6028.786461
654.291843	5971.579447
654.634365	6016.218864
654.976836	5970.183047
655.319255	5973.041382
655.661622	5950.656138
656.003938	5946.388801
656.346203	5909.457308
656.688416	5945.186486
657.030577	5894.467437
657.372687	5860.890832
657.714746	5853.986972
658.056753	5891.288990
658.398708	5836.405948
658.740612	5826.295914
659.082465	5873.765939
659.424266	5868.755032
659.766016	5864.089444
660.107715	5835.722871
660.449362	5854.029822
660.790958	5847.461198
661.132503	5834.616338
661.473996	5870.988263
661.815438	5858.776068
662.156829	5854.357497
662.498168	5851.136199
662.839456	5825.411191
663.180693	5857.273804
663.521879	5859.489391
663.863013	5848.877762
664.204097	5873.045054
664.545129	5905.316000
664.886110	5907.082925
665.227040	5938.262461
665.567918	5906.228449
665.908746	5933.780875
666.249522	5938.559889
666.590248	5921.903917
666.930922	5950.875428
667.271545	5965.716585
667.612118	5968.416123
667.952639	5937.763387
668.293109	5961.953364
668.633528	5919.118679
668.973896	5922.065234
669.314213	5913.628863
669.654480	5896.108333
669.994695	5891.662035
670.334859	5880.508482
670.674973	5874.358274
671.015035	5872.571185
671.355047	5873.392893
671.695008	5858.992838
672.034918	5834.684394
672.374777	5843.892061
672.714585	5826.943702
673.054342	5835.367470
673.394049	5824.423125
673.733705	5857.790522
674.073310	5839.473490
674.412864	5806.693387
674.752368	5795.280215
675.091820	5802.698273
675.431223	5734.060442
675.770574	5741.090331
676.109875	5690.167116
676.449125	5695.440163
676.788324	5660.172250
677.127473	5602.982881
677.466571	5595.156489
677.805619	5582.341876
678.144616	5569.489454
678.483562	5549.377771
678.822458	5515.458367
679.161303	5514.069530
679.500098	5502.346326
679.838842	5484.775385
680.177535	5494.628320
680.516179	5509.005691
680.854771	5518.092370
681.193314	5600.888281
681.531805	5712.138985
681.870247	5857.543506
682.208638	5956.526562
682.546978	5971.811340
682.885268	5950.124296
683.223508	5864.094485
683.561697	5807.038706
683.899836	5781.860663
684.237925	5736.573458
684.575963	5702.515422
684.913951	5656.880377
685.251889	5715.962700
685.589776	5687.560839
685.927614	5660.066386
686.265401	5730.272015
686.603137	5713.767278
686.940824	5791.456499
687.278460	5816.788298
687.616046	5824.647456
687.953582	5893.471809
688.291068	5875.484972
688.628504	5937.856648
688.965889	5899.914404
689.303224	5848.756775
689.640510	5796.958919
689.977745	5720.724070
690.314930	5625.418536
690.652065	5569.202109
690.989150	5477.135516
691.326185	5398.803547
691.663170	5344.787583
692.000105	5269.220687
692.336990	5189.252864
692.673825	5161.705479
693.010610	5100.757929
693.347345	5025.243965
693.684030	5012.628477
694.020665	4971.810254
694.357251	4880.202407
694.693786	4893.322010
695.030272	4862.021485
695.366707	4823.116381
695.703093	4785.600114
696.039429	4810.193383
696.375716	4792.130928
696.711952	4768.750057
697.048139	4754.334877
697.384276	4735.173452
697.720363	4745.389350
698.056400	4751.920165
698.392388	4707.923495
698.728326	4688.182336
699.064214	4662.243079
699.400053	4659.546062
699.735842	4625.717399
700.071581	4600.957772
700.407270	4572.742434
700.742910	4555.352973
701.078501	4503.161908
701.414042	4501.372298
701.749533	4470.190241
702.084974	4404.448554
702.420366	4461.050629
702.755709	4405.398811
703.091002	4348.300182
703.426246	4397.005290
703.761440	4353.618599
704.096584	4315.104184
704.431679	4337.673430
704.766725	4321.738343
705.101721	4308.729645
705.436668	4339.652083
705.771565	4289.515287
706.106413	4313.680058
706.441212	4346.644163
706.775961	4355.725802
707.110661	4336.466073
707.445311	4364.600753
707.779913	4383.762179
708.114465	4399.304056
708.448967	4419.188888
708.783421	4480.927899
709.117825	4524.347357
709.452180	4526.726781
709.786485	4573.745623
710.120742	4658.401720
710.454949	4645.236747
710.789107	4705.985171
711.123216	4785.262356
711.457275	4774.375985
711.791286	4849.602603
712.125247	4868.453998
712.459159	4772.840953
712.793023	4843.185214
713.126837	4798.628976
713.460602	4795.115292
713.794318	4715.933888
714.127985	4723.475454
714.461602	4636.455057
714.795171	4612.408753
715.128691	4543.468453
715.462162	4485.291017
715.795584	4439.192186
716.128957	4424.900515
716.462281	4368.706773
716.795556	4338.396835
717.128782	4305.110097
717.461960	4236.570569
717.795088	4243.560129
718.128167	4202.648645
718.461198	4146.328874
718.794180	4138.177328
719.127113	4122.247282
719.459997	4099.131071
719.792833	4055.716654
720.125619	4048.681724
720.458357	4010.505066
720.791046	4016.345242
721.123686	3988.502950
721.456278	3946.512659
721.788821	3961.590750
722.121315	3937.141154
722.453761	3907.501690
722.786158	3920.081889
723.118506	3950.185139
723.450805	3900.078591
723.783056	3918.269594
724.115259	3937.859518
724.447412	3944.428142
724.779518	3934.512192
725.111574	3938.630815
725.443582	3969.167604
725.775542	3956.710913
726.107453	4005.723531
726.439315	4004.264117
726.771129	4019.390099
727.102895	4059.275709
727.434612	4103.892441
727.766281	4117.768217
728.097901	4115.718988
728.429473	4120.797950
728.760996	4128.236173
729.092471	4123.414309
729.423897	4109.384778
729.755276	4112.475005
730.086606	4113.304275
730.417887	4150.349194
730.749120	4219.690265
731.080305	4279.266621
731.411442	4306.965241
731.742530	4275.919295
732.073570	4281.114204
732.404562	4336.677802
732.735506	4324.546265
733.066401	4288.169299
733.397249	4224.799475
733.728048	4149.010768
734.058798	4064.962130
734.389501	3992.276253
734.720156	3932.503292
735.050762	3887.611817
735.381320	3881.650653
735.711831	3825.784586
736.042293	3797.609577
736.372707	3822.205367
736.703073	3793.654792
737.033391	3783.690951
737.363661	3803.966472
737.693883	3826.462621
738.024056	3838.148016
738.354182	3833.058971
738.684260	3894.586254
739.014290	3913.422525
739.344272	3911.035539
739.674207	3956.070687
740.004093	3958.687045
740.333931	3954.928865
740.663722	3955.647230
740.993464	3951.193370
741.323159	3927.552879
741.652806	3897.421903
741.982405	3870.602964
742.311956	3839.123479
742.641460	3832.373374
742.970915	3804.974703
743.300323	3765.547839
743.629683	3727.716500
743.958996	3719.874985
744.288260	3696.340358
744.617477	3664.082015
744.946647	3651.211949
745.275768	3620.670118
745.604842	3621.963174
745.933869	3575.425762
746.262847	3565.134247
746.591778	3601.722942
746.920662	3572.476687
747.249498	3542.444013
747.578286	3587.214501
747.907027	3607.343828
748.235720	3604.835854
748.564365	3629.103969
748.892963	3630.276037
749.221514	3609.393057
749.550017	3584.015889
749.878473	3586.329778
750.206881	3553.380797
750.535242	3553.010272
750.863555	3557.862383
751.191821	3548.442987
751.520039	3532.712066
751.848210	3508.668283
752.176334	3542.189435
752.504411	3545.385527
752.832440	3509.832789
753.160421	3489.302690
753.488356	3499.904237
753.816243	3511.849251
754.144082	3468.938949
754.471875	3456.119295
754.799620	3472.377016
755.127318	3469.007005
755.454969	3466.027683
755.782572	3472.576142
756.110129	3445.628654
756.437638	3436.912499
756.765100	3454.672484
757.092515	3463.456694
757.419882	3468.560863
757.747203	3440.620268
758.074477	3443.687810
758.401703	3459.590129
758.728882	3479.739621
759.056014	3486.711537
759.383099	3487.558451
759.710138	3485.267247
760.037129	3506.919002
760.364073	3534.680637
760.690970	3518.483409
761.017820	3500.481449
761.344623	3515.027698
761.671379	3560.614852
761.998088	3612.672328
762.324751	3738.481884
762.651366	3987.837517
762.977935	4463.888799
763.304456	4902.751488
763.630931	5004.219833
763.957359	4640.263648
764.283740	4295.826812
764.610074	4103.181638
764.936362	3906.438006
765.262602	3745.579828
765.588796	3636.650576
765.914943	3549.728481
766.241044	3455.461424
766.567097	3428.508895
766.893104	3383.171278
767.219064	3346.446473
767.544978	3325.379491
767.870845	3269.551232
768.196665	3246.563571
768.522438	3257.500354
768.848165	3254.243769
769.173846	3215.681462
769.499479	3203.209648
769.825066	3182.258612
770.150607	3167.006601
770.476101	3180.842048
770.801548	3178.568488
771.126949	3131.811786
771.452303	3112.967953
771.777611	3122.084879
772.102872	3124.829788
772.428087	3101.544698
772.753256	3088.692276
773.078378	3083.333530
773.403453	3051.158365
773.728482	3038.815100
774.053465	3063.249573
774.378401	3046.807850
774.703291	3020.707276
775.028135	3016.800381
775.352932	3012.243178
775.677683	3000.036024
776.002388	2997.986795
776.327046	2997.833040
776.651658	2988.353150
776.976224	2975.357056
777.300743	2977.066007
777.625216	2966.396405
777.949643	2960.916670
778.274024	2968.712815
778.598359	2952.704631
778.922647	2955.726803
779.246889	2956.813171
779.571086	2940.555450
779.895236	2937.137548
780.219339	2944.273301
780.543397	2958.441464
780.867409	2962.504634
781.191374	2954.403500
781.515294	2952.770166
781.839167	2953.037347
782.162995	2943.156685
782.486776	2952.233283
782.810511	2946.511573
783.134201	2935.947835
783.457844	2942.539144
783.781441	2936.318360
784.104993	2914.568302
784.428498	2914.112078
784.751958	2928.353337
785.075372	2922.092224
785.398739	2907.243505
785.722061	2924.015424
786.045337	2935.189142
786.368568	2922.782862
786.691752	2912.017478
787.014891	2959.916001
787.337983	2988.499344
787.661030	3014.887263
787.984031	3084.379569
788.306987	3129.389511
788.629897	3125.041516
788.952760	3104.897065
789.275579	3094.350972
789.598351	3033.985675
789.921078	2988.433809
790.243759	2978.490133
790.566395	2962.116465
790.888984	2938.049997
791.211529	2923.279416
791.534027	2912.375400
791.856480	2903.316447
792.178888	2886.854559
792.501249	2879.544886
792.823566	2877.321737
793.145836	2874.844010
793.468062	2869.533154
793.790241	2866.536188
794.112375	2874.697816
794.434464	2885.374980
794.756507	2891.303377
795.078505	2894.567524
795.400457	2909.930440
795.722364	2942.738270
796.044226	2972.108032
796.366042	2974.812611
796.687812	2963.167546
797.009538	2981.779486
797.331218	2968.886735
797.652852	2955.479786
797.974442	2937.810542
798.295986	2934.697629
798.617484	2927.508944
798.938938	2911.830955
799.260346	2898.887793
799.581709	2893.201371
799.903026	2886.350443
800.224299	2880.099413
800.545526	2871.295037
800.866708	2853.744260
801.187845	2843.583815
801.508936	2848.183867
801.829983	2853.333406
802.150984	2837.718432
802.471940	2826.065805
802.792851	2830.597802
803.113717	2827.147132
803.434538	2833.740962
803.755314	2825.755774
804.076045	2818.809064
804.396731	2818.047850
804.717372	2818.473827
805.037967	2816.477530
805.358518	2820.016420
805.679024	2830.247442
805.999485	2827.116886
806.319901	2834.285406
806.640272	2825.050012
806.960598	2830.252483
807.280879	2842.540296
807.601115	2844.665142
807.921306	2833.521672
808.241453	2830.544870
808.561554	2835.616271
808.881611	2836.120386
809.201623	2834.456806
809.521590	2829.990343
809.841513	2825.975064
810.161390	2830.607885
810.481223	2826.355671
810.801011	2813.556182
811.120755	2812.011068
811.440453	2812.943682
811.760107	2816.686738
812.079716	2811.958136
812.399281	2804.466981
812.718801	2797.328707
813.038276	2789.741771
813.357707	2794.414921
813.677093	2803.204172
813.996434	2796.484314
814.315731	2795.261834
814.634983	2788.186575
814.954191	2791.682615
815.273354	2805.833134
815.592473	2815.554999
815.911547	2814.932417
816.230577	2823.298212
816.549562	2835.764985
816.868502	2831.719459
817.187399	2838.267918
817.506250	2858.298943
817.825058	2851.626976
818.143821	2863.481249
818.462539	2879.479351
818.781213	2904.440624
819.099843	2944.152313
819.418429	2999.927639
819.736970	3063.594892
820.055466	3136.807569
820.373919	3241.240112
820.692327	3384.895353
821.010691	3552.821229
821.329011	4002.040968
821.647286	4905.834153
821.965517	6299.539272
822.283704	7053.471556
822.601847	7031.976076
822.919945	6396.210959
823.237999	5882.625767
823.556010	5293.997958
823.873976	4736.456425
824.191897	4319.752128
824.509775	4026.248589
824.827609	3755.241200
825.145398	3628.398207
825.463144	3617.710961
825.780845	3708.552553
826.098502	3813.665652
826.416116	4098.468159
826.733685	4419.856840
827.051210	4485.585925
827.368692	4368.353892
827.686129	4098.379939
828.003522	3769.071605
828.320872	3510.225999
828.638177	3315.498829
828.955439	3175.997499
829.272656	3091.815271
829.589830	3023.008562
829.906960	2974.535348
830.224046	2925.041299
830.541088	2895.921074
830.858086	2878.589587
831.175041	2859.080322
831.491952	2862.493183
831.808819	2875.111191
832.125642	2898.849984
832.442421	2942.705502
832.759157	3024.478059
833.075849	3206.879608
833.392497	3486.893019
833.709101	3696.070656
834.025662	3644.774395
834.342179	3484.574088
834.658653	3307.059938
834.975083	3155.111999
835.291469	3056.812019
835.607811	2970.530151
835.924110	2910.129566
836.240366	2860.547297
836.556578	2816.706903
836.872746	2791.813685
837.188871	2769.350304
837.504952	2754.042840
837.820990	2748.298445
838.136984	2732.302864
838.452935	2725.046123
838.768842	2725.419168
839.084706	2741.939030
839.400526	2820.870896
839.716303	2953.216308
840.032037	3035.581200
840.347727	3022.403624
840.663373	2961.067905
840.978977	2885.032182
841.294537	2811.184319
841.610054	2763.958790
841.925527	2739.695716
842.240957	2720.740978
842.556344	2697.276927
842.871687	2681.241017
843.186987	2673.477640
843.502244	2667.347597
843.817458	2661.734272
844.132629	2649.864875
844.447756	2637.892135
844.762840	2633.342493
845.077881	2637.168729
845.392879	2638.746610
845.707833	2631.928450
846.022745	2621.941924
846.337613	2627.966103
846.652438	2625.203551
846.967221	2627.363685
847.281960	2623.282871
847.596656	2622.672891
847.911309	2620.850514
848.225919	2620.583333
848.540485	2615.829525
848.855009	2614.352467
849.169490	2613.218207
849.483928	2614.365070
849.798323	2618.856738
850.112675	2611.743670
850.426984	2612.073865
850.741251	2610.836262
851.055474	2613.177878
851.369654	2616.832715
851.683792	2615.738784
851.997887	2615.963116
852.311938	2612.172168
852.625947	2614.496140
852.939914	2617.193157
853.253837	2618.992849
853.567718	2613.566047
853.881555	2612.923300
854.195350	2618.047633
854.509103	2618.108127
854.822812	2611.453803
855.136479	2609.434821
855.450103	2614.294494
855.763685	2613.535800
856.077224	2612.930862
856.390720	2609.555809
856.704173	2610.170830
857.017584	2613.891201
857.330953	2617.293980
857.644278	2619.428909
857.957561	2617.878754
858.270802	2616.268105
858.584000	2617.631737
858.897155	2617.596449
859.210268	2621.800772
859.523339	2615.237189
859.836367	2608.963473
860.149352	2610.138062
860.462295	2613.734926
860.775195	2610.354832
861.088054	2609.807867
861.400869	2607.980448
861.713642	2606.929368
862.026373	2606.818462
862.339062	2610.740480
862.651708	2612.714092
862.964312	2616.195009
863.276873	2615.562344
863.589392	2618.115688
863.901869	2622.244393
864.214303	2628.356792
864.526696	2628.197996
864.839045	2631.285703
865.151353	2634.413739
865.463619	2633.864253
865.775842	2634.088584
866.088023	2631.686474
866.400162	2633.594551
866.712258	2632.437606
867.024313	2633.657566
867.336325	2626.879734
867.648296	2628.094652
867.960224	2635.507669
868.272110	2632.644294
868.583954	2629.251597
868.895755	2628.775208
869.207515	2633.082874
869.519233	2640.831127
869.830909	2638.429018
870.142542	2633.864253
870.454134	2636.031949
870.765684	2640.359780
871.077191	2640.500932
871.388657	2649.146511
871.700081	2643.099647
872.011463	2644.128042
872.322803	2643.772641
872.634101	2646.550317
872.945357	2656.758653
873.256571	2661.923315
873.567744	2657.270330
873.878874	2657.897954
874.189963	2658.800320
874.501010	2664.307781
874.812015	2668.504542
875.122979	2665.139571
875.433900	2660.274858
875.744780	2658.283602
876.055618	2663.286947
876.366415	2669.699295
876.677169	2670.248781
876.987882	2661.119251
877.298554	2661.457008
877.609183	2675.068124
877.919771	2680.963753
878.230317	2687.829805
878.540822	2697.166022
878.851285	2710.852754
879.161707	2734.654562
879.472087	2775.228289
879.782425	2825.997749
880.092722	2937.639143
880.402977	3130.155767
880.713191	3395.938000
881.023363	3697.083928
881.333494	3894.508116
881.643583	4068.211154
881.953631	4064.256369
882.263637	3888.161303
882.573602	3664.855832
882.883526	3531.315666
883.193408	3411.578180
883.503248	3305.199752
883.813048	3191.317566
884.122806	3074.458578
884.432522	2987.019765
884.742197	2919.879158
885.051831	2883.366080
885.361424	2844.534072
885.670975	2809.606438
885.980485	2778.247940
886.289954	2759.830085
886.599382	2745.498084
886.908768	2737.495252
887.218113	2713.128835
887.527417	2701.748431
887.836680	2692.097142
888.145901	2688.318797
888.455082	2681.263702
888.764221	2669.260715
889.073319	2659.954745
889.382376	2659.216216
889.691392	2660.499189
890.000366	2662.200579
890.309300	2656.264620
890.618193	2659.170845
890.927044	2665.941115
891.235855	2661.918274
891.544625	2662.135044
891.853353	2663.375167
892.162041	2671.930006
892.470687	2689.906760
892.779293	2701.014943
893.087858	2714.618496
893.396381	2735.698081
893.704864	2777.590070
894.013306	2848.841738
894.321707	2944.243054
894.630068	2997.840602
894.938387	3018.584950
895.246665	3012.838034
895.554903	2967.339100
895.863100	2920.252203
896.171256	2863.261959
896.479371	2799.917340
896.787446	2760.251021
897.095480	2740.595562
897.403473	2735.282186
897.711425	2719.369784
898.019336	2700.412525
898.327207	2686.904753
898.635038	2685.800740
898.942827	2682.806295
899.250576	2672.804646
899.558284	2659.059940
899.865952	2655.805875
900.173579	2654.719506
900.481165	2650.401758
900.788711	2643.129894
901.096216	2634.499438
901.403681	2634.161681
901.711105	2634.590179
902.018489	2630.912657
902.325832	2634.887607
902.633135	2637.793832
902.940397	2652.715648
903.247619	2689.692511
903.554800	2761.937287
903.861941	2892.089797
904.169041	3022.900178
904.476101	3088.087338
904.783121	3084.162800
905.090100	3022.638037
905.397039	2944.971501
905.703938	2868.983668
906.010796	2805.815490
906.317614	2751.822212
906.624391	2714.106819
906.931129	2685.178158
907.237826	2660.935249
907.544483	2645.121149
907.851099	2630.806793
908.157675	2617.853548
908.464211	2611.529421
908.770707	2602.467947
909.077163	2600.070878
909.383578	2594.649117
909.689954	2594.964189
909.996289	2591.367326
910.302584	2590.845567
910.608839	2586.641244
910.915054	2588.851790
911.221229	2590.807758
911.527363	2596.758840
911.833458	2590.780032
912.139513	2590.399424
912.445527	2592.047882
912.751502	2601.731938
913.057436	2604.706219
913.363331	2612.449431
913.669186	2621.689866
913.975000	2635.293420
914.280775	2651.094917
914.586510	2674.374965
914.892205	2708.284287
915.197859	2778.701644
915.503475	2864.607947
915.809050	2936.812393
916.114585	2953.145732
916.420081	2962.688636
916.725536	2976.072899
917.030952	2948.200360
917.336328	2898.275293
917.641665	2848.095647
917.946961	2798.815848
918.252218	2765.476177
918.557435	2736.199676
918.862612	2712.347457
919.167750	2692.956658
919.472848	2677.167764
919.777906	2658.402069
920.082925	2646.106695
920.387904	2637.536733
920.692843	2629.967441
920.997743	2626.557100
921.302603	2621.934362
921.607423	2614.433125
921.912204	2609.139914
922.216946	2606.473143
922.521647	2602.306630
922.826310	2600.574993
923.130932	2594.394539
923.435516	2588.859352
923.740059	2583.566140
924.044564	2583.316603
924.349028	2581.063207
924.653454	2574.567681
924.957840	2574.602969
925.262186	2574.000551
925.566493	2570.597772
925.870761	2566.927812
926.174989	2564.954200
926.479178	2562.408418
926.783328	2563.978737
927.087438	2563.570404
927.391509	2561.962276
927.695541	2557.458005
927.999533	2558.698128
928.303486	2557.853735
928.607400	2554.438353
928.911275	2557.750392
929.215110	2555.565051
929.518906	2557.962120
929.822663	2555.330638
930.126381	2555.222253
930.430060	2557.316852
930.733699	2553.694783
931.037299	2558.751061
931.340861	2555.436502
931.644383	2559.406411
931.947866	2556.399362
932.251309	2557.934394
932.554714	2557.072356
932.858080	2558.771225
933.161407	2556.774928
933.464694	2557.120247
933.767943	2553.856100
934.071153	2554.481203
934.374323	2552.595812
934.677455	2554.844166
934.980548	2550.647406
935.283602	2555.043292
935.586617	2552.220246
935.889593	2552.099258
936.192530	2552.784855
936.495428	2554.554300
936.798287	2555.592778
937.101108	2556.560679
937.403890	2557.904147
937.706632	2563.109138
938.009336	2565.448233
938.312002	2568.356979
938.614628	2569.992834
938.917216	2578.577919
939.219765	2579.518094
939.522275	2579.187898
939.824747	2577.234451
940.127179	2571.404357
940.429573	2566.935374
940.731929	2572.072310
941.034246	2567.270611
941.336524	2568.155333
941.638763	2569.271949
941.940964	2565.284396
942.243126	2566.448903
942.545250	2565.070147
942.847335	2561.354817
943.149381	2561.783315
943.451389	2557.095042
943.753359	2561.490928
944.055290	2559.436657
944.357182	2555.678477
944.659036	2555.991029
944.960851	2558.917419
945.262628	2555.166800
945.564367	2558.277192
945.866067	2559.434137
946.167729	2559.792059
946.469352	2557.258879
946.770937	2559.653427
947.072484	2557.243756
947.373992	2556.207798
947.675462	2555.118909
947.976893	2554.564382
948.278286	2552.827705
948.579641	2554.619835
948.880958	2552.999104
949.182236	2553.760318
949.483476	2554.914742
949.784678	2551.103630
950.085841	2553.294012
950.386967	2552.336192
950.688054	2552.600853
950.989103	2555.965823
951.290114	2557.725186
951.591087	2556.192675
951.892021	2557.274002
952.192917	2559.648386
952.493776	2562.410938
952.794596	2561.553942
953.095378	2564.213151
953.396122	2562.920095
953.696828	2560.545711
953.997496	2556.926163
954.298126	2554.269475
954.598718	2557.556307
954.899272	2554.773590
955.199788	2553.520863
955.500266	2550.846531
955.800706	2547.284956
956.101108	2543.723381
956.401472	2546.180943
956.701798	2542.513504
957.002087	2547.761345
957.302337	2542.868905
957.602550	2544.759338
957.902724	2543.483926
958.202861	2543.521735
958.502960	2542.120294
958.803022	2540.834800
959.103045	2543.229348
959.403031	2539.062834
959.702979	2540.502084
960.002889	2538.830941
960.302762	2539.642567
960.602596	2540.532331
960.902393	2540.313040
961.202153	2539.874460
961.501875	2538.699871
961.801559	2538.505787
962.101205	2537.822710
962.400814	2540.214738
962.700385	2537.951260
962.999918	2539.277083
963.299414	2538.304141
963.598873	2539.541744
963.898293	2539.103163
964.197677	2535.823893
964.497022	2537.941177
964.796331	2534.593851
965.095601	2537.442103
965.394835	2539.861857
965.694030	2536.270035
965.993189	2538.278935
966.292309	2537.873122
966.591393	2534.750127
966.890439	2537.111908
967.189447	2536.068389
967.488419	2538.790612
967.787353	2538.105015
968.086249	2536.035621
968.385108	2536.262473
968.683930	2534.062010
968.982714	2537.512679
969.281462	2536.658204
969.580172	2533.610826
969.878844	2537.479912
970.177480	2535.602082
970.476078	2536.736342
970.774639	2540.494522
971.073162	2535.390354
971.371649	2536.292720
971.670098	2531.793490
971.968510	2536.315405
972.266885	2535.571835
972.565223	2538.830941
972.863524	2539.201466
973.161788	2539.690458
973.460014	2538.042001
973.758204	2541.064172
974.056356	2540.945705
974.354471	2537.041332
974.652550	2541.858154
974.950591	2540.920499
975.248595	2536.890097
975.546563	2535.972607
975.844493	2538.999820
976.142386	2538.546116
976.440243	2536.620395
976.738062	2538.243647
977.035845	2536.174253
977.333590	2537.006043
977.631299	2535.987730
977.928971	2536.678368
978.226606	2536.355735
978.524204	2539.382947
978.821765	2538.422608
979.119290	2535.614685
979.416777	2536.454037
979.714228	2536.365817
980.011642	2535.491177
980.309020	2536.398584
980.606360	2535.352545
980.903664	2539.040149
981.200931	2537.235416
981.498162	2538.765406
981.795356	2541.381765
982.092513	2543.486447
982.389633	2546.075079
982.686717	2550.700338
982.983764	2551.758980
983.280775	2554.236707
983.577749	2549.984494
983.874686	2549.762683
984.171587	2548.436860
984.468451	2547.169010
984.765279	2546.629606
985.062070	2538.092412
985.358824	2540.207176
985.655543	2538.473019
985.952224	2539.350180
986.248869	2535.912113
986.545478	2531.453212
986.842050	2532.035466
987.138586	2530.417255
987.435086	2534.193080
987.731549	2532.499252
988.027975	2535.614685
988.324366	2532.980682
988.620719	2535.665097
988.917037	2532.882380
989.213318	2535.208872
989.509563	2533.452030
989.805772	2531.576721
990.101944	2533.013450
990.398080	2531.833820
990.694180	2532.138809
990.990244	2534.331711
991.286271	2532.400949
991.582262	2533.875487
991.878217	2532.106042
992.174136	2535.740714
992.470019	2532.093439
992.765865	2528.975485
993.061676	2532.557225
993.357450	2534.006557
993.653188	2532.317770
993.948890	2533.197452
994.244556	2532.448840
994.540186	2536.053265
994.835780	2533.741896
995.131337	2532.191742
995.426859	2536.199459
995.722345	2535.871784
996.017795	2536.683410
996.313208	2538.125180
996.608586	2537.981507
996.903928	2539.803884
997.199234	2532.829447
997.494504	2537.507638
997.789738	2538.193235
998.084936	2537.769778
998.380099	2533.111752
998.675225	2534.069571
998.970316	2537.356404
999.265371	2535.201310
999.560390	2533.005888
999.855373	2535.082843
1000.150320	2532.363141
1000.445232	2534.934129
1000.740108	2533.618388
1001.034948	2531.848943
1001.329752	2529.499765
1001.624521	2531.743079
1001.919254	2527.725279
1002.213951	2528.262162
1002.508613	2527.130423
1002.803239	2531.138140
1003.097829	2527.541277
1003.392384	2535.917154
1003.686903	2532.058151
1003.981386	2533.915816
1004.275834	2533.888090
1004.570246	2530.477749
1004.864623	2532.206865
1005.158964	2532.741227
1005.453270	2530.820548
1005.747540	2529.845084
1006.041775	2530.538243
1006.335974	2531.828778
1006.630138	2530.981865
1006.924266	2530.601258
1007.218359	2532.345497
1007.512416	2531.949766
1007.806438	2531.304498
1008.100425	2530.669313
1008.394376	2532.857174
1008.688292	2530.954138
1008.982172	2534.409849
1009.276017	2531.707791
1009.569827	2532.665610
1009.863602	2533.159643
1010.157341	2532.340456
1010.451045	2531.932122
1010.744714	2529.083870
1011.038347	2529.930784
1011.331945	2530.674354
1011.625508	2532.789118
1011.919036	2529.741741
1012.212528	2528.867101
1012.505986	2531.934643
1012.799408	2532.358100
1013.092795	2531.039838
1013.386147	2529.608150
1013.679464	2530.923891
1013.972745	2531.213758
1014.265992	2530.374406
1014.559204	2530.520599
1014.852380	2530.266021
1015.145521	2532.542102
1015.438628	2530.089580
1015.731699	2530.664272
1016.024736	2532.900024
1016.317737	2528.627646
1016.610703	2532.864736
1016.903635	2524.894671
1017.196531	2526.215454
1017.489393	2528.481452
1017.782219	2527.329549
1018.075011	2529.625794
1018.367768	2529.255269
1018.660490	2529.658562
1018.953177	2529.658562
1019.245829	2529.658562
