Dividing Wavelength (nm)	Counts (n)	Blue Motor Position (mm): 44.200000	Red Motor Position (mm): 0.000000	
326.493990	2262.560587
326.888308	2262.560587
327.282561	2262.560587
327.676750	2224.091542
328.070874	2220.658516
328.464933	2223.131202
328.858929	2224.603219
329.252859	2232.046483
329.646726	2237.795919
330.040528	2250.487023
330.434265	2264.508993
330.827938	2284.628238
331.221547	2299.741617
331.615091	2316.198464
332.008571	2334.823007
332.401986	2354.546521
332.795338	2376.326826
333.188625	2394.941287
333.581847	2413.394431
333.975006	2432.150043
334.368100	2451.240893
334.761129	2468.249746
335.154095	2488.353868
335.546996	2512.150634
335.939833	2552.396686
336.332606	2568.583831
336.725315	2580.818712
337.117960	2594.921339
337.510540	2605.916096
337.903056	2617.256172
338.295508	2628.039200
338.687896	2633.284520
339.080220	2638.945736
339.472480	2648.939823
339.864676	2654.507778
340.256807	2657.003149
340.648875	2660.811741
341.040879	2665.381547
341.432818	2667.715601
341.824694	2671.052845
342.216506	2671.153668
342.608253	2672.388751
342.999937	2671.367917
343.391557	2670.326919
343.783113	2671.166271
344.174605	2669.459840
344.566033	2670.122752
344.957397	2670.470592
345.348697	2665.744510
345.739934	2664.363234
346.131106	2662.810558
346.522215	2660.544560
346.913260	2660.083294
347.304241	2657.650937
347.695159	2657.618170
348.086012	2658.553304
348.476802	2651.853610
348.867528	2648.082827
349.258191	2646.333547
349.648789	2648.773465
350.039324	2646.308341
350.429796	2645.630306
350.820203	2645.163999
351.210548	2645.809267
351.600828	2642.403967
351.991045	2643.737353
352.381198	2640.901704
352.771288	2640.906745
353.161314	2641.471354
353.551276	2641.000006
353.941175	2638.146713
354.331010	2642.691313
354.720782	2640.417753
355.110490	2640.150572
355.500135	2639.008750
355.889717	2642.545120
356.279235	2639.616209
356.668689	2640.316930
357.058080	2642.240130
357.447408	2638.653349
357.836672	2641.272228
358.225873	2641.322640
358.615010	2642.552682
359.004084	2641.788947
359.393095	2643.137455
359.782043	2643.752476
360.170927	2645.537045
360.559748	2645.814308
360.948505	2647.974442
361.337199	2645.239617
361.725830	2647.001500
362.114398	2646.774648
362.502903	2646.547796
362.891344	2648.839000
363.279722	2647.571150
363.668037	2651.417551
364.056289	2650.424443
364.444478	2653.607932
364.832603	2651.546100
365.220665	2652.309835
365.608665	2651.755308
365.996601	2652.695483
366.384474	2653.010555
366.772284	2654.359064
367.160031	2653.862510
367.547715	2655.117757
367.935336	2655.488282
368.322893	2654.868220
368.710388	2652.274547
369.097820	2654.258241
369.485189	2651.951913
369.872495	2657.408962
370.259738	2660.678150
370.646918	2660.761329
371.034035	2660.148829
371.421090	2660.703356
371.808081	2660.363078
372.195010	2661.719148
372.581875	2661.993891
372.968678	2662.356854
373.355418	2664.383398
373.742096	2664.315343
374.128710	2664.217040
374.515262	2666.916578
374.901751	2666.588903
375.288177	2668.960766
375.674540	2668.194511
376.060841	2670.279028
376.447079	2675.053000
376.833254	2676.431756
377.219367	2679.206911
377.605417	2686.446008
377.991404	2695.628470
378.377329	2705.201621
378.763191	2715.974567
379.148991	2732.449057
379.534727	2751.827253
379.920402	2771.374327
380.306013	2791.690177
380.691563	2826.592606
381.077049	2851.700072
381.462474	2887.852707
381.847835	2928.549942
382.233134	2965.446147
382.618371	3000.207423
383.003545	3055.566854
383.388657	3091.527925
383.773706	3149.944816
384.158693	3190.412679
384.543618	3233.874987
384.928480	3293.705921
385.313280	3356.375025
385.698017	3395.701066
386.082692	3487.581136
386.467305	3511.899662
386.851856	3563.453022
387.236344	3649.238337
387.620770	3695.816078
388.005133	3761.028444
388.389435	3828.526974
388.773674	3857.422868
389.157851	3943.982000
389.541965	4025.593239
389.926018	4014.172505
390.310008	4128.639465
390.693936	4198.018345
391.077802	4241.316815
391.461606	4257.430863
391.845348	4337.970858
392.229027	4402.243049
392.612645	4418.576387
392.996200	4527.268705
393.379694	4598.900981
393.763125	4707.850398
394.146494	4744.139144
394.529801	4813.008867
394.913047	4896.845776
395.296230	4853.968242
395.679351	4964.545952
396.062410	5021.463099
396.445408	4998.790510
396.828343	5063.607145
397.211217	5122.112256
397.594028	5004.988608
397.976778	5126.946723
398.359466	5173.761398
398.742092	5200.257703
399.124656	5110.447026
399.507158	5234.804730
399.889598	5297.627589
400.271977	5421.609727
400.654294	5419.000930
401.036549	5460.401406
401.418742	5378.046596
401.800874	5588.867650
402.182944	5649.059027
402.564952	5752.682465
402.946898	5812.969623
403.328783	5650.077340
403.710606	5670.141132
404.092367	5994.088199
404.474067	6015.442527
404.855705	5910.828502
405.237282	5849.696950
405.618797	6100.726247
406.000250	6078.242701
406.381642	6283.412621
406.762972	6304.514891
407.144240	6365.550661
407.525447	6346.016190
407.906593	6372.804882
408.287677	6523.868098
408.668700	6438.498678
409.049661	6553.618467
409.430560	6589.332522
409.811399	6438.443225
410.192176	6709.770728
410.572891	6721.055351
410.953545	6915.986688
411.334138	6649.118086
411.714669	6821.003788
412.095139	6619.425689
412.475547	6861.469130
412.855894	6928.589572
413.236180	7109.990452
413.616405	6788.647142
413.996568	7003.480954
414.376670	7045.892181
414.756711	6937.877898
415.136691	7032.581015
415.516609	7240.082469
415.896466	7220.810137
416.276262	7429.226561
416.655997	7408.767038
417.035670	7600.101512
417.415283	7938.695651
417.794834	7992.225143
418.174324	7855.917384
418.553753	7776.551979
418.933121	8079.873164
419.312428	8179.398144
419.691674	7950.602856
420.070859	8431.176053
420.449983	8114.266437
420.829045	8478.018454
421.208047	8257.231039
421.586988	8558.024086
421.965867	8578.150893
422.344686	8679.586470
422.723444	8736.249039
423.102141	8087.933969
423.480777	8845.417746
423.859352	8375.907362
424.237866	8988.062236
424.616319	8856.997277
424.994712	9277.590824
425.373044	8827.937545
425.751314	9304.392119
426.129524	9178.635495
426.507673	9274.036811
426.885762	9426.710676
427.263789	9349.860806
427.641756	9280.391185
428.019662	9374.645639
428.397508	9634.648190
428.775292	9299.517323
429.153016	9684.333802
429.530679	9518.797433
429.908282	9540.761740
430.285824	9262.515254
430.663305	9952.465213
431.040726	9397.396366
431.418086	9381.279797
431.795385	9714.109377
432.172624	9808.562956
432.549802	9711.515703
432.926920	9794.014186
433.303977	9666.425103
433.680974	9870.349858
434.057910	9963.081883
434.434786	10035.926556
434.811601	9858.654381
435.188355	10430.575806
435.565050	10169.638121
435.941683	10087.815153
436.318257	10565.436753
436.694770	10731.525129
437.071222	10788.200301
437.447614	10616.453230
437.823946	10539.011025
438.200218	10645.318877
438.576429	10479.409463
438.952580	10720.525331
439.328670	10754.515311
439.704700	10549.032839
440.080670	10537.201251
440.456580	11070.187323
440.832429	10848.568118
441.208218	10453.026584
441.583947	10752.476164
441.959616	10930.081055
442.335224	10739.525440
442.710773	10857.183450
443.086261	11082.734755
443.461689	10347.933650
443.837057	11030.946982
444.212365	11273.018148
444.587612	10911.068343
444.962800	11128.145469
445.337927	10885.194621
445.712995	10528.984170
446.088002	11577.924777
446.462949	11264.332240
446.837837	11238.420710
447.212664	11176.144816
447.587431	11748.252763
447.962139	12490.134168
448.336786	14787.224139
448.711374	15283.200580
449.085901	13106.087551
449.460369	12750.209816
449.834776	12194.407481
450.209124	13116.273203
450.583412	13528.405173
450.957640	14463.168687
451.331808	13527.812838
451.705917	12586.450454
452.079965	11835.474807
452.453954	12756.226433
452.827883	12408.903536
453.201752	12698.278370
453.575562	12236.425498
453.949311	12651.632573
454.323001	12624.947225
454.696632	12859.456661
455.070202	13142.217501
455.443713	13342.754601
455.817164	13836.858254
456.190556	13805.164520
456.563888	14173.667825
456.937160	14322.376822
457.310373	13682.936703
457.683526	13777.856589
458.056619	13306.854024
458.429653	13496.350997
458.802628	12872.518291
459.175542	13281.988532
459.548398	14229.397780
459.921194	14595.430920
460.293930	14667.365665
460.666607	15509.233316
461.039224	16579.066985
461.411782	17297.650698
461.784280	17085.657576
462.156719	17186.692382
462.529099	16852.821804
462.901419	15809.290355
463.273680	15577.432566
463.645882	15481.607793
464.018024	15203.825093
464.390106	15433.442088
464.762130	16142.530788
465.134094	16934.087724
465.505999	18987.243822
465.877845	22261.246393
466.249631	25054.627877
466.621358	24687.284037
466.993026	23273.709211
467.364634	22689.439480
467.736184	21209.346628
468.107674	20401.597506
468.479105	20536.609689
468.850477	20009.093268
469.221790	19610.085941
469.593043	18914.452081
469.964238	18343.306994
470.335373	17982.405749
470.706449	18483.130958
471.077467	18059.038849
471.448425	19935.931002
471.819324	24056.391195
472.190164	25921.892861
472.560945	22254.415629
472.931667	19951.039340
473.302330	19340.868161
473.672934	18956.472618
474.043479	19199.194094
474.413965	19005.283591
474.784393	18604.441284
475.154761	19361.274752
475.525070	19288.603998
475.895321	19006.627058
476.265513	19603.766855
476.635645	20192.785352
477.005719	19958.568303
477.375734	20134.509614
477.745691	20630.972527
478.115588	21166.995895
478.485427	21721.437118
478.855207	22816.675682
479.224928	24602.567447
479.594591	26829.532446
479.964194	26749.821722
480.333739	26994.718455
480.703226	26561.953041
481.072653	26271.698526
481.442022	26890.295994
481.811333	27813.724473
482.180584	27694.407924
482.549777	26741.924754
482.918912	26421.632524
483.287988	26557.778966
483.657005	26188.579982
484.025964	25980.042571
484.394864	25841.093247
484.763706	25492.116852
485.132489	24961.333763
485.501213	25147.175900
485.869879	25059.051489
486.238487	24905.626493
486.607036	25033.076944
486.975527	24769.336378
487.343959	25060.967128
487.712333	24977.011752
488.080648	24630.127435
488.448905	25145.645909
488.817104	24904.817387
489.185244	25608.491888
489.553326	25556.280658
489.921350	26602.524247
490.289315	28953.620099
490.657222	30676.273109
491.025070	31182.135253
491.392861	30934.269280
491.760593	30068.186447
492.128267	29147.825510
492.495883	28092.868285
492.863440	27215.745325
493.230939	26374.069237
493.598380	26204.424328
493.965763	25814.624669
494.333088	25326.330946
494.700354	25283.012311
495.067563	25132.279290
495.434713	24890.911364
495.801805	25064.745472
496.168839	24830.225954
496.535815	24705.573343
496.902733	24913.094962
497.269593	24614.479693
497.636395	24768.940647
498.003139	24709.555855
498.369825	24456.139572
498.736453	24666.980790
499.103023	24534.262333
499.469535	24537.523959
499.835989	24760.194245
500.202385	24794.776561
500.568723	24315.879548
500.935003	24522.380333
501.301226	24181.636142
501.667390	25029.744741
502.033497	25246.443781
502.399546	24967.297448
502.765537	24508.239897
503.131470	24895.375306
503.497345	25034.979980
503.863163	24280.536018
504.228923	24834.626882
504.594625	25062.998713
504.960269	24630.601303
505.325856	25098.306954
505.691385	24498.928885
506.056856	25108.966474
506.422270	25088.837147
506.787625	24621.885148
507.152924	25045.029520
507.518164	25090.175573
507.883347	24904.824949
508.248472	24587.433903
508.613540	25359.847057
508.978550	25162.800956
509.343503	25178.693193
509.708398	25386.759257
510.073236	25543.130808
510.438016	25758.821616
510.802738	25411.833956
511.167403	25672.305334
511.532010	25408.721043
511.896561	26159.616032
512.261053	26127.692926
512.625488	25955.172038
512.989866	25845.957961
513.354186	25684.152046
513.718449	25811.448742
514.082655	26183.178385
514.446803	25909.063124
514.810894	26393.336528
515.174927	25883.733847
515.538904	25923.889158
515.902822	26412.737408
516.266684	26164.999985
516.630488	26066.884007
516.994235	26020.656627
517.357925	26356.445364
517.721558	26509.903128
518.085133	26643.037480
518.448651	26508.602510
518.812112	26290.413810
519.175516	26510.707192
519.538863	26645.091751
519.902152	26438.984176
520.265385	26692.339965
520.628560	26499.273855
520.991678	26487.434705
521.354739	26542.854630
521.717743	26633.343342
522.080690	26409.206080
522.443580	26743.033808
522.806413	26721.324079
523.169189	26842.208428
523.531908	26870.716153
523.894569	26500.319894
524.257174	26585.734685
524.619722	26731.597951
524.982213	26448.827028
525.344647	26473.062376
525.707025	26644.330536
526.069345	26600.701870
526.431608	26570.157519
526.793815	26743.863078
527.155964	26231.946508
527.518057	26398.970017
527.880093	26318.883726
528.242072	26538.967900
528.603995	26278.569619
528.965860	26058.717338
529.327669	26103.689472
529.689421	26081.770535
530.051117	25916.571923
530.412755	26096.480622
530.774337	25873.719595
531.135862	25771.661435
531.497331	25958.484076
531.858743	25547.574585
532.220098	26009.243454
532.581396	25701.690220
532.942638	25589.060761
533.303824	25723.029424
533.664953	25715.490378
534.026025	25378.055705
534.387040	25621.490503
534.747999	25657.139023
535.108902	25826.920043
535.469748	25337.348387
535.830537	25487.519319
536.191270	25639.605890
536.551947	25466.031401
536.912567	25082.787762
537.273131	25517.761201
537.633638	25175.217318
537.994089	25409.613328
538.354483	24900.234978
538.714821	25421.215543
539.075103	25464.675331
539.435328	25231.343004
539.795497	24830.588917
540.155609	25185.113103
540.515665	25498.193962
540.875665	24701.933630
541.235609	25047.227463
541.595496	24978.667771
541.955328	25335.455434
542.315102	25257.652786
542.674821	24764.607775
543.034483	24645.490351
543.394090	24831.158568
543.753640	24626.666683
544.113134	25267.049497
544.472571	24857.927095
544.831953	25143.417719
545.191278	24805.012623
545.550548	24675.369270
545.909761	24873.973088
546.268918	25113.899243
546.628019	25096.371151
546.987064	24791.338494
547.346053	24521.921588
547.704986	24621.983451
548.063863	24801.599762
548.422684	24813.958151
548.781449	24310.702283
549.140158	24718.738317
549.498811	24289.902482
549.857408	24069.599018
550.215949	24453.848367
550.574434	24145.057529
550.932864	24342.025492
551.291237	24541.498909
551.649555	24374.175451
552.007817	24438.813126
552.366022	24294.247957
552.724173	24311.849146
553.082267	24285.274703
553.440305	24772.398879
553.798288	24002.133256
554.156215	24500.839483
554.514086	24625.814728
554.871902	24018.748899
555.229661	24286.958448
555.587365	24131.700992
555.945014	24046.563466
556.302606	24247.327417
556.660143	24238.301232
557.017625	24474.519618
557.375050	23976.047806
557.732421	24371.191088
558.089735	24203.797054
558.446994	24247.524023
558.804197	24285.892244
559.161345	24188.918088
559.518437	23986.755216
559.875474	24153.647656
560.232455	24336.485264
560.589381	24142.446212
560.946251	24165.194418
561.303065	24452.996412
561.659825	24555.140271
562.016528	24150.660772
562.373177	23889.687799
562.729770	24244.148970
563.086307	24100.481127
563.442789	24256.298151
563.799216	24111.947231
564.155587	24097.085909
564.511904	24076.187806
564.868164	24032.372618
565.224370	23999.980683
565.580520	23946.468835
565.936615	24056.575197
566.292654	23764.326906
566.648638	23993.550692
567.004567	23833.826773
567.360441	23782.449854
567.716260	23504.006762
568.072023	23831.976670
568.427732	23612.008442
568.783385	23368.140104
569.138982	23616.051448
569.494525	23649.292816
569.850013	23413.003853
570.205445	23489.679803
570.560823	23312.309326
570.916145	23081.003543
571.271412	23268.426081
571.626625	23008.756247
571.981782	23126.668835
572.336884	22933.408641
572.691931	23067.518457
573.046923	22807.402480
573.401860	22678.739631
573.756743	22716.492832
574.111570	22606.787242
574.466342	22518.403212
574.821059	22597.067897
575.175722	22311.466367
575.530330	22279.543261
575.884882	22294.830560
576.239380	22215.976831
576.593823	22096.882092
576.948211	22071.061302
577.302544	21938.950304
577.656823	21791.730967
578.011047	21902.966548
578.365216	21763.107296
578.719330	21630.159466
579.073389	21528.149197
579.427394	21689.211542
579.781344	21431.157398
580.135239	21328.932880
580.489080	21268.958272
580.842866	21053.390972
581.196597	21266.102459
581.550273	21226.277343
581.903895	21092.296077
582.257463	21408.749469
582.610975	20949.991866
582.964434	21276.920775
583.317837	20953.515632
583.671186	21042.764220
584.024481	21030.231912
584.377721	20790.278030
584.730906	20885.371835
585.084037	20859.906447
585.437113	20785.045312
585.790135	20993.756643
586.143103	20444.376738
586.496016	20469.501849
586.848874	20701.374761
587.201679	20611.259095
587.554428	20312.202725
587.907124	20648.782923
588.259765	20402.313350
588.612352	20478.359156
588.964884	20043.373114
589.317362	20220.519260
589.669786	20285.852614
590.022155	20284.425968
590.374470	20520.420023
590.726731	20280.498909
591.078937	20077.410985
591.431090	20158.087090
591.783188	19929.490928
592.135232	19893.088756
592.487222	19982.637292
592.839157	19988.190123
593.191038	19876.039574
593.542866	19763.742831
593.894639	19474.645261
594.246358	19700.015084
594.598022	19574.225693
594.949633	19333.964301
595.301190	19321.890737
595.652692	19482.736312
596.004141	19700.546926
596.355535	19034.192087
596.706876	19067.108301
597.058162	18948.326114
597.409395	19202.465803
597.760573	19243.904087
598.111698	19008.348612
598.462768	18949.384756
598.813785	18926.266025
599.164748	18725.562567
599.515657	18779.656668
599.866511	18581.720803
600.217312	18926.918854
600.568060	18447.094269
600.918753	18759.585314
601.269392	18652.307039
601.619978	18449.350186
601.970510	18640.324217
602.320988	18588.498635
602.671412	18782.817471
603.021783	18716.223829
603.372100	18429.306558
603.722363	18582.781966
604.072572	18520.201082
604.422728	18677.394342
604.772830	18425.155168
605.122878	18386.797028
605.472872	18361.250981
605.822813	18350.382253
606.172701	18347.128188
606.522534	18509.221449
606.872314	18542.051964
607.222041	18379.953662
607.571714	18600.393237
607.921333	18420.998736
608.270899	18499.706271
608.620411	18658.835334
608.969870	18451.696843
609.319276	18441.748126
609.668627	18470.124781
610.017926	18610.399928
610.367171	18718.928408
610.716362	18779.583571
611.065500	18583.036544
611.414585	18729.255212
611.763616	18706.464155
612.112594	18648.072470
612.461518	18618.977451
612.810389	18800.811870
613.159207	18667.208690
613.507971	18578.948169
613.856682	18838.403754
614.205340	18752.217668
614.553945	18912.886802
614.902496	18663.110232
615.250994	18871.980359
615.599439	18823.426486
615.947830	18809.961564
616.296169	18889.889058
616.644454	18834.892591
616.992686	18816.535229
617.340864	19027.820069
617.688990	18782.666237
618.037063	18945.455177
618.385082	18805.830339
618.733048	19088.409697
619.080961	18966.854875
619.428821	18992.403442
619.776628	18869.946254
620.124382	18807.070463
620.472083	18861.958546
620.819731	18867.934833
621.167326	18556.883038
621.514868	18588.997709
621.862357	18379.976347
622.209793	18394.653666
622.557176	18221.555567
622.904506	18044.285912
623.251783	17983.691243
623.599007	17718.196355
623.946179	17661.669897
624.293297	17592.843024
624.640363	17333.185792
624.987376	17362.545472
625.334336	17154.597876
625.681243	17006.138416
626.028097	17015.267945
626.374899	16937.059484
626.721647	16801.293650
627.068343	16639.114689
627.414987	16576.090184
627.761577	16542.606840
628.108115	16568.341930
628.454600	16300.001311
628.801032	16408.668423
629.147412	16340.902713
629.493739	16354.410485
629.840014	16160.124415
630.186236	16252.566574
630.532405	16019.899680
630.878521	16213.774895
631.224585	16131.868748
631.570597	15930.124292
631.916556	15967.827081
632.262462	15945.504852
632.608316	15854.385996
632.954117	15804.009746
633.299866	15788.568692
633.645562	15710.597165
633.991206	15469.670341
634.336797	15343.646536
634.682336	15313.031608
635.027823	15181.568398
635.373257	15044.436411
635.718639	14961.968175
636.063968	14910.487912
636.409245	14661.575900
636.754470	14685.821329
637.099642	14546.884608
637.444762	14305.831755
637.789829	14345.722405
638.134845	14187.858673
638.479808	14226.219333
638.824719	14133.643584
639.169577	14007.997865
639.514383	14049.342888
639.859137	13881.641344
640.203839	13967.288027
640.548489	13815.171210
640.893086	13798.384168
641.237632	13677.613245
641.582125	13823.302591
641.926566	13643.101506
642.270955	13662.242767
642.615292	13619.347589
642.959576	13628.046100
643.303809	13665.431297
643.647990	13584.273761
643.992118	13654.368485
644.336195	13412.330086
644.680219	13649.569306
645.024192	13557.492631
645.368112	13800.977841
645.711981	13845.181199
646.055797	14031.403943
646.399562	14016.230069
646.743274	14270.843627
647.086935	14548.591039
647.430544	14510.099309
647.774101	14553.884251
648.117606	14689.826526
648.461059	14670.012271
648.804460	14651.932172
649.147810	14372.248957
649.491108	14285.742757
649.834354	14291.403973
650.177548	13971.351197
650.520690	13782.996046
650.863781	13712.278739
651.206820	13760.477211
651.549807	13587.989091
651.892742	13379.590312
652.235626	13314.370384
652.578458	13314.367863
652.921238	13020.009849
653.263967	13216.468656
653.606644	13045.606308
653.949269	13023.226105
654.291843	12819.525681
654.634365	12982.967451
654.976836	12836.927744
655.319255	12834.283659
655.661622	12795.837299
656.003938	12714.674722
656.346203	12634.631282
656.688416	12724.139489
657.030577	12685.441071
657.372687	12582.992222
657.714746	12568.559399
658.056753	12762.555602
658.398708	12566.162330
658.740612	12567.447824
659.082465	12678.043178
659.424266	12656.051144
659.766016	12675.920852
660.107715	12591.221906
660.449362	12669.725274
660.790958	12612.409876
661.132503	12552.203375
661.473996	12635.233700
661.815438	12641.129329
662.156829	12675.837673
662.498168	12640.448773
662.839456	12643.665029
663.180693	12649.129640
663.521879	12753.151329
663.863013	12728.406826
664.204097	12704.405892
664.545129	12829.363493
664.886110	12807.588229
665.227040	12901.290676
665.567918	12894.132238
665.908746	12913.946493
666.249522	12910.120257
666.590248	12959.115231
666.930922	13078.426740
667.271545	13050.849108
667.612118	13139.351605
667.952639	13034.480481
668.293109	13060.926374
668.633528	13004.407478
668.973896	12981.959220
669.314213	13051.663254
669.654480	12791.943008
669.994695	12881.395763
670.334859	12904.562385
670.674973	12842.283970
671.015035	12875.910987
671.355047	12817.224395
671.695008	12788.661217
672.034918	12799.792085
672.374777	12845.399403
672.714585	12753.466401
673.054342	12794.675313
673.394049	12748.699990
673.733705	12844.534846
674.073310	12748.894075
674.412864	12755.674427
674.752368	12604.926283
675.091820	12651.471256
675.431223	12630.477371
675.770574	12499.717402
676.109875	12408.888412
676.449125	12368.856610
676.788324	12325.936226
677.127473	12146.266982
677.466571	12144.938638
677.805619	12035.008717
678.144616	11964.966925
678.483562	11951.118876
678.822458	11811.483955
679.161303	11789.489401
679.500098	11767.230186
679.838842	11721.937940
680.177535	11761.337078
680.516179	11823.658342
680.854771	11770.262440
681.193314	11983.790594
681.531805	12146.894606
681.870247	12592.971186
682.208638	13004.026871
682.546978	13304.610710
682.885268	13328.210872
683.223508	13029.265408
683.561697	12883.059343
683.899836	12773.986418
684.237925	12575.352354
684.575963	12495.177843
684.913951	12404.328689
685.251889	12362.182122
685.589776	12462.201135
685.927614	12377.779452
686.265401	12357.037625
686.603137	12404.293401
686.940824	12560.733008
687.278460	12694.936085
687.616046	12726.486146
687.953582	12884.561607
688.291068	12829.353411
688.628504	13055.179459
688.965889	13064.137589
689.303224	13020.657638
689.640510	12901.056262
689.977745	12584.282758
690.314930	12370.227804
690.652065	12274.279522
690.989150	11975.084521
691.326185	11743.877041
691.663170	11542.162832
692.000105	11311.678757
692.336990	11184.873573
692.673825	10927.315982
693.010610	10815.304064
693.347345	10604.094842
693.684030	10411.346324
694.020665	10356.238951
694.357251	10152.016768
694.693786	10077.780736
695.030272	9925.510164
695.366707	9813.588987
695.703093	9748.729501
696.039429	9742.186083
696.375716	9649.186877
696.711952	9523.861272
697.048139	9571.411956
697.384276	9524.688021
697.720363	9549.704747
698.056400	9477.762441
698.392388	9421.392258
698.728326	9390.406806
699.064214	9326.880706
699.400053	9366.423517
699.735842	9187.588584
700.071581	9144.080906
700.407270	9070.217920
700.742910	8993.511723
701.078501	8894.836177
701.414042	8763.952700
701.749533	8711.292807
702.084974	8569.066734
702.420366	8691.022327
702.755709	8563.801248
703.091002	8428.905013
703.426246	8462.491700
703.761440	8411.739884
704.096584	8370.742700
704.431679	8307.065365
704.766725	8290.270761
705.101721	8244.315603
705.436668	8295.218654
705.771565	8179.889657
706.106413	8264.994416
706.441212	8300.779047
706.775961	8260.636338
707.110661	8310.319430
707.445311	8433.822658
707.779913	8338.076023
708.114465	8468.047052
708.448967	8505.434769
708.783421	8665.798914
709.117825	8840.847940
709.452180	8872.526551
709.786485	8959.441085
710.120742	9251.855734
710.454949	9254.013348
710.789107	9352.303245
711.123216	9581.998379
711.457275	9757.453218
711.791286	9891.527746
712.125247	9908.541640
712.459159	9889.050018
712.793023	10112.166447
713.126837	9693.836377
713.460602	9852.950316
713.794318	9681.788019
714.127985	9706.391371
714.461602	9363.812199
714.795171	9318.348553
715.128691	9070.822858
715.462162	8827.161208
715.795584	8764.935725
716.128957	8603.578473
716.462281	8437.623688
716.795556	8485.103796
717.128782	8276.979759
717.461960	8024.163373
717.795088	8090.323476
718.128167	7998.723190
718.461198	7830.063827
718.794180	7777.043491
719.127113	7769.685927
719.459997	7597.419618
719.792833	7380.216463
720.125619	7445.408665
720.458357	7295.182280
720.791046	7289.422762
721.123686	7282.042513
721.456278	7115.959179
721.788821	7134.785368
722.121315	7038.784154
722.453761	7107.769824
722.786158	7038.423712
723.118506	7054.857873
723.450805	7018.662389
723.783056	7078.185813
724.115259	7000.652867
724.447412	7001.111612
724.779518	7050.956020
725.111574	7048.276647
725.443582	7125.741538
725.775542	7110.849969
726.107453	7308.541338
726.439315	7210.536266
726.771129	7280.313397
727.102895	7461.041283
727.434612	7568.848878
727.766281	7610.912266
728.097901	7679.287956
728.429473	7682.892381
728.760996	7666.490987
729.092471	7634.751883
729.423897	7571.266112
729.755276	7572.959939
730.086606	7490.070767
730.417887	7605.041843
730.749120	7827.031573
731.080305	8011.570571
731.411442	8115.483875
731.742530	8104.645394
732.073570	8221.670740
732.404562	8308.592835
732.735506	8164.352821
733.066401	8297.487173
733.397249	8217.242086
733.728048	7970.858212
734.058798	7627.875749
734.389501	7402.662201
734.720156	7228.276086
735.050762	7010.939341
735.381320	6916.780670
735.711831	6854.701381
736.042293	6749.323621
736.372707	6761.792915
736.703073	6627.594879
737.033391	6674.500295
737.363661	6682.886255
737.693883	6721.335135
738.024056	6802.883360
738.354182	6835.998700
738.684260	6870.744853
739.014290	6996.423339
739.344272	7108.420133
739.674207	7132.715974
740.004093	7210.100206
740.333931	7215.587502
740.663722	7224.361630
740.993464	7304.374824
741.323159	7280.787265
741.652806	7035.283073
741.982405	7068.801705
742.311956	7111.727130
742.641460	6929.136538
742.970915	6740.451190
743.300323	6732.057669
743.629683	6690.480753
743.958996	6553.860442
744.288260	6465.393234
744.617477	6408.523977
744.946647	6401.751187
745.275768	6244.326035
745.604842	6199.190064
745.933869	6176.799779
746.262847	6132.276308
746.591778	6126.476461
746.920662	6085.048258
747.249498	6081.373257
747.578286	6130.373273
747.907027	6205.385642
748.235720	6264.359580
748.564365	6237.089458
748.892963	6274.028513
749.221514	6415.916829
749.550017	6230.598973
749.878473	6122.032683
750.206881	6186.730852
750.535242	6131.575588
750.863555	6051.690943
751.191821	6064.858437
751.520039	6063.900618
751.848210	5976.121527
752.176334	6002.373335
752.504411	6048.283123
752.832440	5971.508871
753.160421	5901.628396
753.488356	5954.086643
753.816243	5977.931301
754.144082	5826.316078
754.471875	5806.020393
754.799620	5845.676630
755.127318	5860.613568
755.454969	5818.850129
755.782572	5784.860150
756.110129	5825.948074
756.437638	5801.495957
756.765100	5744.725003
757.092515	5754.290593
757.419882	5815.223019
757.747203	5782.914264
758.074477	5845.598492
758.401703	5824.546633
758.728882	5778.122648
759.056014	5852.857753
759.383099	5970.611545
759.710138	5980.633359
760.037129	5965.151976
760.364073	5969.686494
760.690970	6053.813269
761.017820	6030.702099
761.344623	5992.764896
761.671379	6101.769766
761.998088	6228.552264
762.324751	6491.274518
762.651366	7130.676827
762.977935	8500.257504
763.304456	10152.659515
763.630931	11011.193221
763.957359	10558.457276
764.283740	9590.722096
764.610074	8720.036688
764.936362	7720.040644
765.262602	7128.113401
765.588796	6595.046669
765.914943	6270.492144
766.241044	6086.981541
766.567097	5878.865066
766.893104	5623.334019
767.219064	5446.616371
767.544978	5385.366351
767.870845	5299.490296
768.196665	5192.842165
768.522438	5126.959326
768.848165	5088.565898
769.173846	5018.216596
769.499479	4975.402077
769.825066	4924.317544
770.150607	4865.459552
770.476101	4842.597920
770.801548	4834.872351
771.126949	4752.152058
771.452303	4699.111558
771.777611	4661.320548
772.102872	4682.183363
772.428087	4643.991582
772.753256	4595.599025
773.078378	4551.960277
773.403453	4481.119463
773.728482	4470.792659
774.053465	4424.293056
774.378401	4410.235798
774.703291	4405.126589
775.028135	4330.240248
775.352932	4284.499339
775.677683	4272.173718
776.002388	4287.851706
776.327046	4300.961227
776.651658	4225.243096
776.976224	4165.785207
777.300743	4167.647913
777.625216	4193.191440
777.949643	4183.633412
778.274024	4139.273779
778.598359	4103.413531
778.922647	4131.391935
779.246889	4114.773771
779.571086	4108.474850
779.895236	4090.311572
780.219339	4081.696240
780.543397	4073.985796
780.867409	4130.718941
781.191374	4139.992143
781.515294	4073.196855
781.839167	4070.464550
782.162995	4090.644288
782.486776	4078.222885
782.810511	4091.902056
783.134201	4080.635078
783.457844	4032.532387
783.781441	3980.185046
784.104993	3986.388186
784.428498	4006.709077
784.751958	3998.663395
785.075372	3978.365189
785.398739	3946.449644
785.722061	3958.787868
786.045337	4002.908047
786.368568	4028.819578
786.691752	3936.974796
787.014891	3998.391173
787.337983	4132.503509
787.661030	4296.885454
787.984031	4455.606183
788.306987	4624.910814
788.629897	4707.784863
788.952760	4661.854910
789.275579	4597.083645
789.598351	4522.202346
789.921078	4372.175087
790.243759	4174.234181
790.566395	4165.512985
790.888984	4156.083507
791.211529	4046.788771
791.534027	3985.589163
791.856480	3967.879589
792.178888	3908.983789
792.501249	3866.249928
792.823566	3874.580435
793.145836	3898.765370
793.468062	3845.419880
793.790241	3802.925474
794.112375	3836.761698
794.434464	3906.881628
794.756507	3928.356943
795.078505	3901.175042
795.400457	3943.908903
795.722364	4088.048094
796.044226	4189.783620
796.366042	4266.278088
796.687812	4235.665682
797.009538	4242.408225
797.331218	4204.924726
797.652852	4180.868339
797.974442	4156.484278
798.295986	4149.726612
798.617484	4064.788210
798.938938	3983.975994
799.260346	4035.075650
799.581709	4017.386241
799.903026	3940.712811
800.224299	3905.185280
800.545526	3899.534146
800.866708	3860.767673
801.187845	3805.221719
801.508936	3840.648428
801.829983	3828.204340
802.150984	3756.897219
802.471940	3746.560333
802.792851	3752.032505
803.113717	3756.801437
803.434538	3756.337651
803.755314	3692.693083
804.076045	3673.231709
804.396731	3696.836912
804.717372	3721.354563
805.037967	3704.151626
805.358518	3692.637631
805.679024	3722.067887
805.999485	3735.162284
806.319901	3741.332656
806.640272	3753.602825
806.960598	3765.313425
807.280879	3740.652100
807.601115	3757.726488
807.921306	3776.053603
808.241453	3812.586845
808.561554	3783.365797
808.881611	3714.516238
809.201623	3762.505502
809.521590	3770.591513
809.841513	3741.579673
810.161390	3771.498921
810.481223	3747.384561
810.801011	3694.903629
811.120755	3690.888350
811.440453	3723.875140
811.760107	3721.906570
812.079716	3675.406967
812.399281	3651.191784
812.718801	3672.765402
813.038276	3647.191629
813.357707	3643.970331
813.677093	3660.338958
813.996434	3603.573045
814.315731	3620.123153
814.634983	3626.137250
814.954191	3638.702326
815.273354	3667.134433
815.592473	3655.532218
815.911547	3667.948580
816.230577	3713.790312
816.549562	3765.373919
816.868502	3806.290444
817.187399	3826.855831
817.506250	3824.413392
817.825058	3804.372285
818.143821	3901.900968
818.462539	4005.269827
818.781213	4043.073440
819.099843	4109.498204
819.418429	4374.304974
819.736970	4619.814208
820.055466	4875.748547
820.373919	5246.170011
820.692327	5662.471017
821.010691	6158.926368
821.329011	7646.585991
821.647286	10542.184431
821.965517	15290.951354
822.283704	19304.511359
822.601847	21290.531890
822.919945	19376.756135
823.237999	16710.734362
823.556010	14174.802084
823.873976	12026.819362
824.191897	9901.000074
824.509775	8570.029594
824.827609	7435.669156
825.145398	6902.315079
825.463144	6789.541947
825.780845	6901.891622
826.098502	7122.472349
826.416116	8075.714212
826.733685	9448.964849
827.051210	10543.094360
827.368692	10484.972376
827.686129	9153.903594
828.003522	7642.285887
828.320872	6616.902592
828.638177	5900.345423
828.955439	5324.088606
829.272656	4820.704188
829.589830	4550.021953
829.906960	4372.505282
830.224046	4180.258360
830.541088	4059.212694
830.858086	4004.833768
831.175041	3932.848611
831.491952	3921.294287
831.808819	3928.949279
832.125642	4015.011857
832.442421	4167.776463
832.759157	4464.808809
833.075849	5041.582344
833.392497	5947.606240
833.709101	6731.659418
834.025662	7036.127466
834.342179	6622.190762
834.658653	5938.567451
834.975083	5276.366523
835.291469	4692.600907
835.607811	4293.805309
835.924110	4149.139317
836.240366	3944.566773
836.556578	3742.991196
836.872746	3629.625728
837.188871	3584.797267
837.504952	3518.334695
837.820990	3434.643980
838.136984	3394.128226
838.452935	3421.620159
838.768842	3412.009199
839.084706	3439.370061
839.400526	3609.214096
839.716303	3977.399808
840.032037	4522.610679
840.347727	4756.006020
840.663373	4445.218885
840.978977	4059.608425
841.294537	3744.279211
841.610054	3518.062473
841.925527	3413.168664
842.240957	3343.890608
842.556344	3285.445990
842.871687	3226.010787
843.186987	3173.529854
843.502244	3139.955770
843.817458	3105.978393
844.132629	3076.059145
844.447756	3085.269333
844.762840	3067.567321
845.077881	3034.262938
845.392879	3019.394055
845.707833	3014.327695
846.022745	3016.185361
846.337613	3014.052953
846.652438	3001.079543
846.967221	2997.598626
847.281960	2982.205463
847.596656	2979.458034
847.911309	2979.193374
848.225919	2975.039463
848.540485	2972.796149
848.855009	2968.400263
849.169490	2957.488686
849.483928	2946.032664
849.798323	2948.253292
850.112675	2948.525514
850.426984	2958.202009
850.741251	2953.604477
851.055474	2943.726336
851.369654	2941.054524
851.683792	2943.633074
851.997887	2953.354940
852.311938	2953.917028
852.625947	2942.511418
852.939914	2946.498970
853.253837	2947.751697
853.567718	2937.646704
853.881555	2932.035900
854.195350	2949.213632
854.509103	2943.912858
854.822812	2935.524378
855.136479	2934.412804
855.450103	2935.521858
855.763685	2930.377360
856.077224	2929.517844
856.390720	2938.856581
856.704173	2948.291101
857.017584	2940.419339
857.330953	2940.646191
857.644278	2951.043571
857.957561	2960.709983
858.270802	2962.693677
858.584000	2959.545477
858.897155	2945.737756
859.210268	2948.669187
859.523339	2943.093671
859.836367	2943.660801
860.149352	2937.697116
860.462295	2931.400715
860.775195	2938.256684
861.088054	2940.893207
861.400869	2923.581885
861.713642	2921.696493
862.026373	2937.334153
862.339062	2938.344904
862.651708	2947.522325
862.964312	2949.090123
863.276873	2943.507046
863.589392	2952.167748
863.901869	2963.848101
864.214303	2985.633448
864.526696	3002.012157
864.839045	2995.735920
865.151353	2997.023935
865.463619	2996.635766
865.775842	2997.626353
866.088023	3018.900022
866.400162	3021.276926
866.712258	2994.228615
867.024313	2981.547593
867.336325	2991.907164
867.648296	3013.626975
867.960224	3005.551047
868.272110	2989.565548
868.583954	2996.335817
868.895755	3011.907942
869.207515	2995.753564
869.519233	3005.908968
869.830909	3015.270391
870.142542	3021.445805
870.454134	3022.053264
870.765684	3025.496372
871.077191	3024.261289
871.388657	3036.773433
871.700081	3050.475289
872.011463	3058.894016
872.322803	3058.773028
872.634101	3058.770508
872.945357	3080.041656
873.256571	3104.352621
873.567744	3092.460539
873.878874	3093.567072
874.189963	3113.083899
874.501010	3113.225052
874.812015	3106.754731
875.122979	3103.619133
875.433900	3101.716097
875.744780	3107.800770
876.055618	3113.645988
876.366415	3109.741614
876.677169	3122.112606
876.987882	3116.095989
877.298554	3116.680763
877.609183	3138.826551
877.919771	3163.271106
878.230317	3193.838143
878.540822	3245.298241
878.851285	3281.619755
879.161707	3332.631190
879.472087	3441.079013
879.782425	3693.154349
880.092722	4153.424298
880.402977	4695.895302
880.713191	5362.603021
881.023363	6586.116265
881.333494	7893.085812
881.643583	8424.589785
881.953631	8084.148063
882.263637	7404.093888
882.573602	6787.497759
882.883526	6196.082192
883.193408	5626.285614
883.503248	5170.116644
883.813048	4853.970763
884.122806	4524.201163
884.432522	4200.246535
884.742197	3958.097230
885.051831	3763.783435
885.361424	3635.148312
885.670975	3561.083680
885.980485	3468.409628
886.289954	3386.442987
886.599382	3341.982531
886.908768	3304.660348
887.218113	3259.259717
887.527417	3200.588248
887.836680	3151.797440
888.145901	3145.493477
888.455082	3134.065182
888.764221	3079.628282
889.073319	3053.033675
889.382376	3048.988149
889.691392	3055.032492
890.000366	3054.601473
890.309300	3039.475491
890.618193	3053.754560
890.927044	3069.137641
891.235855	3065.669327
891.544625	3057.127092
891.853353	3069.755182
892.162041	3088.009200
892.470687	3132.424286
892.779293	3180.663087
893.087858	3229.595047
893.396381	3307.367448
893.704864	3439.899383
894.013306	3695.745502
894.321707	4008.372658
894.630068	4204.841547
894.938387	4193.531718
895.246665	4148.920027
895.554903	4017.305582
895.863100	3811.021567
896.171256	3639.357676
896.479371	3496.675378
896.787446	3368.423383
897.095480	3261.802979
897.403473	3198.453319
897.711425	3164.425531
898.019336	3152.601504
898.327207	3120.146556
898.635038	3084.195567
898.942827	3070.922209
899.250576	3060.119016
899.558284	3028.047196
899.865952	3006.937364
900.173579	2986.021617
900.481165	2976.211531
900.788711	2962.232412
901.096216	2940.366407
901.403681	2928.993564
901.711105	2938.072682
902.018489	2935.010181
902.325832	2935.685695
902.633135	2947.242541
902.940397	2982.051708
903.247619	3071.801890
903.554800	3280.011627
903.861941	3652.641116
904.169041	4097.467490
904.476101	4390.272829
904.783121	4318.635512
905.090100	4057.662539
905.397039	3772.885238
905.703938	3520.527597
906.010796	3332.971468
906.317614	3218.746484
906.624391	3118.309055
906.931129	3046.729712
907.237826	2986.780310
907.544483	2935.156374
907.851099	2908.622261
908.157675	2883.280381
908.464211	2863.730786
908.770707	2849.292921
909.077163	2836.579131
909.383578	2820.419713
909.689954	2811.771613
909.996289	2811.073413
910.302584	2810.576860
910.608839	2808.623413
910.915054	2802.390026
911.221229	2796.970786
911.527363	2799.778708
911.833458	2804.676189
912.139513	2812.190029
912.445527	2816.359063
912.751502	2823.968685
913.057436	2834.287927
913.363331	2848.080524
913.669186	2873.271170
913.975000	2911.364649
914.280775	2975.795636
914.586510	3046.399516
914.892205	3126.483286
915.197859	3265.677106
915.503475	3472.109835
915.809050	3698.674412
916.114585	3845.460209
916.420081	3856.986808
916.725536	3792.875934
917.030952	3665.707787
917.336328	3530.342724
917.641665	3392.865417
917.946961	3293.421096
918.252218	3219.873182
918.557435	3137.777991
918.862612	3073.959504
919.167750	3025.130888
919.472848	2985.033550
919.777906	2958.091104
920.082925	2930.702515
920.387904	2901.884759
920.692843	2881.213508
920.997743	2873.369472
921.302603	2854.835670
921.607423	2846.006089
921.912204	2833.042762
922.216946	2819.224959
922.521647	2810.493681
922.826310	2806.032260
923.130932	2796.191927
923.435516	2784.468724
923.740059	2778.976387
924.044564	2771.407094
924.349028	2765.214037
924.653454	2757.493510
924.957840	2749.596542
925.262186	2744.515059
925.566493	2743.935327
925.870761	2738.690006
926.174989	2734.576424
926.479178	2729.681464
926.783328	2724.257182
927.087438	2722.898592
927.391509	2721.487068
927.695541	2717.807026
927.999533	2715.190667
928.303486	2712.942313
928.607400	2713.045656
928.911275	2711.193032
929.215110	2709.718495
929.518906	2706.020808
929.822663	2711.228320
930.126381	2708.594317
930.430060	2708.964842
930.733699	2711.240923
931.037299	2711.432487
931.340861	2713.963146
931.644383	2712.521376
931.947866	2709.857127
932.251309	2709.698330
932.554714	2707.681869
932.858080	2708.785881
933.161407	2704.702547
933.464694	2701.488811
933.767943	2698.254911
934.071153	2701.012422
934.374323	2701.345138
934.677455	2704.377392
934.980548	2700.445292
935.283602	2700.936805
935.586617	2698.696012
935.889593	2701.390509
936.192530	2699.610981
936.495428	2699.638708
936.798287	2704.589121
937.101108	2708.082640
937.403890	2710.746890
937.706632	2715.533466
938.009336	2721.676112
938.312002	2730.858573
938.614628	2742.259143
938.917216	2747.428846
939.219765	2745.583784
939.522275	2746.579412
939.824747	2744.278125
940.127179	2738.478277
940.429573	2736.983575
940.731929	2736.892835
941.034246	2730.669530
941.336524	2728.335476
941.638763	2726.949159
941.940964	2724.844477
942.243126	2721.834908
942.545250	2723.107799
942.847335	2717.242417
943.149381	2713.764021
943.451389	2709.723536
943.753359	2707.248329
944.055290	2707.071889
944.357182	2706.388813
944.659036	2705.882177
944.960851	2703.976621
945.262628	2697.720549
945.564367	2703.648946
945.866067	2704.221117
946.167729	2704.528627
946.469352	2702.436548
946.770937	2703.472505
947.072484	2698.612833
947.373992	2703.601055
947.675462	2699.996630
947.976893	2695.320959
948.278286	2692.588654
948.579641	2693.647296
948.880958	2693.460774
949.182236	2693.533870
949.483476	2694.048068
949.784678	2692.419775
950.085841	2694.037986
950.386967	2694.736186
950.688054	2695.820034
950.989103	2694.983202
951.290114	2696.109900
951.591087	2698.539736
951.892021	2699.338759
952.192917	2704.014429
952.493776	2707.112218
952.794596	2706.819831
953.095378	2706.043494
953.396122	2702.832279
953.696828	2702.358410
953.997496	2701.201465
954.298126	2698.002853
954.598718	2695.580579
954.899272	2693.672502
955.199788	2690.930114
955.500266	2691.265351
955.800706	2687.371060
956.101108	2683.438960
956.401472	2684.613549
956.701798	2681.732529
957.002087	2677.752538
957.302337	2679.708506
957.602550	2677.883608
957.902724	2675.715912
958.202861	2673.200376
958.502960	2671.519152
958.803022	2672.366065
959.103045	2674.722805
959.403031	2672.280366
959.702979	2668.870025
960.002889	2668.202072
960.302762	2669.356497
960.602596	2668.834737
960.902393	2665.953718
961.202153	2668.360869
961.501875	2667.307267
961.801559	2667.471105
962.101205	2664.199396
962.400814	2668.897752
962.700385	2664.017915
962.999918	2663.637308
963.299414	2665.300888
963.598873	2664.179232
963.898293	2663.685198
964.197677	2665.411794
964.497022	2663.977585
964.796331	2667.249294
965.095601	2666.203255
965.394835	2662.981957
965.694030	2664.542195
965.993189	2666.896413
966.292309	2665.618481
966.591393	2664.000271
966.890439	2665.399191
967.189447	2662.465239
967.488419	2666.523368
967.787353	2665.003460
968.086249	2666.835920
968.385108	2665.227792
968.683930	2663.410456
968.982714	2665.411794
969.281462	2663.901968
969.580172	2665.885662
969.878844	2663.198727
970.177480	2665.585713
970.476078	2664.161587
970.774639	2665.217709
971.073162	2667.269459
971.371649	2665.419355
971.670098	2664.915240
971.968510	2665.840292
972.266885	2666.422545
972.565223	2668.154181
972.863524	2666.790549
973.161788	2667.518996
973.460014	2663.135713
973.758204	2666.198214
974.056356	2665.366423
974.354471	2664.660662
974.652550	2665.429438
974.950591	2665.172339
975.248595	2664.219561
975.546563	2664.832061
975.844493	2663.796104
976.142386	2666.820796
976.440243	2665.197545
976.738062	2665.953718
977.035845	2662.939108
977.333590	2665.936074
977.631299	2661.976247
977.928971	2658.787717
978.226606	2660.126144
978.524204	2658.999446
978.821765	2661.240239
979.119290	2662.230826
979.416777	2662.840805
979.714228	2662.800476
980.011642	2662.608912
980.309020	2666.016732
980.606360	2665.590755
980.903664	2662.593789
981.200931	2661.792245
981.498162	2664.685867
981.795356	2664.070847
982.092513	2665.074036
982.389633	2669.810200
982.686717	2674.468227
982.983764	2676.406550
983.280775	2679.403516
983.577749	2679.746315
983.874686	2677.979390
984.171587	2677.024092
984.468451	2672.600479
984.765279	2671.158709
985.062070	2670.084943
985.358824	2668.446568
985.655543	2667.282062
985.952224	2665.116886
986.248869	2665.704181
986.545478	2664.063285
986.842050	2662.470280
987.138586	2663.370126
987.435086	2662.772750
987.731549	2661.794766
988.027975	2659.977430
988.324366	2659.778304
988.620719	2661.320897
988.917037	2658.439878
989.213318	2658.142450
989.509563	2659.616987
989.805772	2659.017090
990.101944	2659.657317
990.398080	2657.585402
990.694180	2659.712769
990.990244	2659.140598
991.286271	2658.825526
991.582262	2658.349137
991.878217	2659.117913
992.174136	2660.907523
992.470019	2659.085146
992.765865	2655.886533
993.061676	2656.867038
993.357450	2658.270999
993.653188	2652.912253
993.948890	2657.635814
994.244556	2660.962975
994.540186	2661.653613
994.835780	2657.741678
995.131337	2661.971206
995.426859	2660.831905
995.722345	2662.321566
996.017795	2662.021618
996.313208	2663.455826
996.608586	2665.694098
996.903928	2662.787873
997.199234	2665.560508
997.494504	2662.830723
997.789738	2663.352482
998.084936	2661.237718
998.380099	2661.353665
998.675225	2662.137564
998.970316	2663.962462
999.265371	2661.996412
999.560390	2658.893582
999.855373	2659.624549
1000.150320	2657.212357
1000.445232	2660.360557
1000.740108	2658.961637
1001.034948	2657.645896
1001.329752	2661.416679
1001.624521	2658.795279
1001.919254	2657.958448
1002.213951	2658.202944
1002.508613	2658.185300
1002.803239	2657.230001
1003.097829	2657.822337
1003.392384	2657.161945
1003.686903	2659.407779
1003.981386	2654.273364
1004.275834	2659.284271
1004.570246	2658.122285
1004.864623	2656.385608
1005.158964	2656.189003
1005.453270	2657.013231
1005.747540	2658.984322
1006.041775	2657.356030
1006.335974	2657.960968
1006.630138	2655.967192
1006.924266	2658.593633
1007.218359	2656.917449
1007.512416	2654.787562
1007.806438	2653.020637
1008.100425	2651.994763
1008.394376	2652.342602
1008.688292	2659.286792
1008.982172	2656.632624
1009.276017	2660.350475
1009.569827	2658.762512
1009.863602	2657.192192
1010.157341	2656.138591
1010.451045	2655.362253
1010.744714	2654.515340
1011.038347	2656.788900
1011.331945	2654.354023
1011.625508	2654.686739
1011.919036	2656.637665
1012.212528	2656.131029
1012.505986	2654.870741
1012.799408	2658.911226
1013.092795	2655.379897
1013.386147	2657.824857
1013.679464	2654.923673
1013.972745	2658.654127
1014.265992	2655.601708
1014.559204	2657.003149
1014.852380	2655.594147
1015.145521	2654.495175
1015.438628	2656.012562
1015.731699	2660.264776
1016.024736	2657.015752
1016.317737	2656.577172
1016.610703	2654.109527
1016.903635	2656.599857
1017.196531	2655.241266
1017.489393	2657.343427
1017.782219	2654.419558
1018.075011	2654.676657
1018.367768	2653.986018
1018.660490	2657.013231
1018.953177	2657.013231
1019.245829	2657.013231
