Dividing Wavelength (nm)	Counts (n)	Blue Motor Position (mm): 4.100000	Red Motor Position (mm): 0.000000	
326.493990	2114.764038
326.888308	2114.764038
327.282561	2114.764038
327.676750	2061.831923
328.070874	2104.681731
328.464933	2089.558269
328.858929	2039.146731
329.252859	2041.667308
329.646726	2124.846346
330.040528	2099.640577
330.434265	2112.243462
330.827938	2046.708462
331.221547	2084.517115
331.615091	2180.299038
332.008571	2192.901923
332.401986	2185.340192
332.795338	2192.901923
333.188625	2250.875192
333.581847	2288.683846
333.975006	2250.875192
334.368100	2281.122115
334.761129	2356.739423
335.154095	2334.054231
335.546996	2359.260000
335.939833	2318.930769
336.332606	2404.630385
336.725315	2407.150962
337.117960	2427.315577
337.510540	2450.000769
337.903056	2404.630385
338.295508	2462.603654
338.687896	2397.068654
339.080220	2417.233269
339.472480	2480.247692
339.864676	2482.768269
340.256807	2480.247692
340.648875	2482.768269
341.040879	2457.562500
341.432818	2399.589231
341.824694	2439.918462
342.216506	2510.494615
342.608253	2540.741538
342.999937	2457.562500
343.391557	2490.330000
343.783113	2470.165385
344.174605	2455.041923
344.566033	2450.000769
344.957397	2467.644808
345.348697	2570.988462
345.739934	2500.412308
346.131106	2513.015192
346.522215	2444.959615
346.913260	2422.274423
347.304241	2419.753846
347.695159	2444.959615
348.086012	2475.206538
348.476802	2472.685962
348.867528	2439.918462
349.258191	2404.630385
349.648789	2492.850577
350.039324	2407.150962
350.429796	2465.124231
350.820203	2379.424615
351.210548	2528.138654
351.600828	2369.342308
351.991045	2407.150962
352.381198	2417.233269
352.771288	2434.877308
353.161314	2447.480192
353.551276	2470.165385
353.941175	2432.356731
354.331010	2477.727115
354.720782	2482.768269
355.110490	2452.521346
355.500135	2414.712692
355.889717	2455.041923
356.279235	2528.138654
356.668689	2530.659231
357.058080	2404.630385
357.447408	2371.862885
357.836672	2467.644808
358.225873	2457.562500
358.615010	2439.918462
359.004084	2467.644808
359.393095	2455.041923
359.782043	2477.727115
360.170927	2462.603654
360.559748	2409.671538
360.948505	2386.986346
361.337199	2462.603654
361.725830	2376.904038
362.114398	2500.412308
362.502903	2399.589231
362.891344	2497.891731
363.279722	2465.124231
363.668037	2477.727115
364.056289	2434.877308
364.444478	2480.247692
364.832603	2381.945192
365.220665	2492.850577
365.608665	2467.644808
365.996601	2442.439038
366.384474	2480.247692
366.772284	2455.041923
367.160031	2525.618077
367.547715	2457.562500
367.935336	2515.535769
368.322893	2460.083077
368.710388	2502.932885
369.097820	2452.521346
369.485189	2558.385577
369.872495	2447.480192
370.259738	2439.918462
370.646918	2490.330000
371.034035	2545.782692
371.421090	2487.809423
371.808081	2331.533654
372.195010	2490.330000
372.581875	2414.712692
372.968678	2361.780577
373.355418	2442.439038
373.742096	2419.753846
374.128710	2439.918462
374.515262	2477.727115
374.901751	2414.712692
375.288177	2485.288846
375.674540	2439.918462
376.060841	2419.753846
376.447079	2487.809423
376.833254	2492.850577
377.219367	2432.356731
377.605417	2480.247692
377.991404	2490.330000
378.377329	2543.262115
378.763191	2444.959615
379.148991	2550.823846
379.534727	2495.371154
379.920402	2470.165385
380.306013	2505.453462
380.691563	2462.603654
381.077049	2414.712692
381.462474	2538.220962
381.847835	2404.630385
382.233134	2543.262115
382.618371	2475.206538
383.003545	2452.521346
383.388657	2452.521346
383.773706	2412.192115
384.158693	2399.589231
384.543618	2482.768269
384.928480	2444.959615
385.313280	2495.371154
385.698017	2394.548077
386.082692	2480.247692
386.467305	2475.206538
386.851856	2346.657115
387.236344	2432.356731
387.620770	2417.233269
388.005133	2450.000769
388.389435	2573.509038
388.773674	2452.521346
389.157851	2500.412308
389.541965	2462.603654
389.926018	2404.630385
390.310008	2500.412308
390.693936	2460.083077
391.077802	2495.371154
391.461606	2510.494615
391.845348	2366.821731
392.229027	2419.753846
392.612645	2586.111923
392.996200	2427.315577
393.379694	2510.494615
393.763125	2392.027500
394.146494	2490.330000
394.529801	2502.932885
394.913047	2487.809423
395.296230	2434.877308
395.679351	2545.782692
396.062410	2455.041923
396.445408	2520.576923
396.828343	2487.809423
397.211217	2482.768269
397.594028	2437.397885
397.976778	2477.727115
398.359466	2490.330000
398.742092	2528.138654
399.124656	2475.206538
399.507158	2397.068654
399.889598	2548.303269
400.271977	2409.671538
400.654294	2502.932885
401.036549	2432.356731
401.418742	2417.233269
401.800874	2477.727115
402.182944	2470.165385
402.564952	2510.494615
402.946898	2404.630385
403.328783	2472.685962
403.710606	2472.685962
404.092367	2419.753846
404.474067	2485.288846
404.855705	2543.262115
405.237282	2576.029615
405.618797	2480.247692
406.000250	2540.741538
406.381642	2407.150962
406.762972	2505.453462
407.144240	2407.150962
407.525447	2455.041923
407.906593	2500.412308
408.287677	2528.138654
408.668700	2482.768269
409.049661	2381.945192
409.430560	2452.521346
409.811399	2500.412308
410.192176	2462.603654
410.572891	2515.535769
410.953545	2550.823846
411.334138	2434.877308
411.714669	2455.041923
412.095139	2475.206538
412.475547	2482.768269
412.855894	2581.070769
413.236180	2407.150962
413.616405	2502.932885
413.996568	2492.850577
414.376670	2455.041923
414.756711	2525.618077
415.136691	2442.439038
415.516609	2470.165385
415.896466	2414.712692
416.276262	2392.027500
416.655997	2548.303269
417.035670	2389.506923
417.415283	2434.877308
417.794834	2462.603654
418.174324	2394.548077
418.553753	2447.480192
418.933121	2439.918462
419.312428	2528.138654
419.691674	2429.836154
420.070859	2477.727115
420.449983	2472.685962
420.829045	2510.494615
421.208047	2462.603654
421.586988	2455.041923
421.965867	2477.727115
422.344686	2455.041923
422.723444	2444.959615
423.102141	2510.494615
423.480777	2447.480192
423.859352	2492.850577
424.237866	2528.138654
424.616319	2467.644808
424.994712	2450.000769
425.373044	2533.179808
425.751314	2500.412308
426.129524	2442.439038
426.507673	2482.768269
426.885762	2485.288846
427.263789	2414.712692
427.641756	2394.548077
428.019662	2560.906154
428.397508	2570.988462
428.775292	2452.521346
429.153016	2497.891731
429.530679	2543.262115
429.908282	2470.165385
430.285824	2560.906154
430.663305	2540.741538
431.040726	2518.056346
431.418086	2510.494615
431.795385	2404.630385
432.172624	2520.576923
432.549802	2439.918462
432.926920	2507.974038
433.303977	2434.877308
433.680974	2502.932885
434.057910	2510.494615
434.434786	2485.288846
434.811601	2487.809423
435.188355	2533.179808
435.565050	2520.576923
435.941683	2470.165385
436.318257	2462.603654
436.694770	2452.521346
437.071222	2480.247692
437.447614	2429.836154
437.823946	2576.029615
438.200218	2535.700385
438.576429	2460.083077
438.952580	2525.618077
439.328670	2460.083077
439.704700	2518.056346
440.080670	2583.591346
440.456580	2581.070769
440.832429	2457.562500
441.208218	2424.795000
441.583947	2412.192115
441.959616	2444.959615
442.335224	2470.165385
442.710773	2518.056346
443.086261	2442.439038
443.461689	2475.206538
443.837057	2432.356731
444.212365	2429.836154
444.587612	2497.891731
444.962800	2455.041923
445.337927	2497.891731
445.712995	2455.041923
446.088002	2530.659231
446.462949	2492.850577
446.837837	2578.550192
447.212664	2528.138654
447.587431	2412.192115
447.962139	2450.000769
448.336786	2500.412308
448.711374	2407.150962
449.085901	2417.233269
449.460369	2520.576923
449.834776	2545.782692
450.209124	2495.371154
450.583412	2472.685962
450.957640	2472.685962
451.331808	2550.823846
451.705917	2402.109808
452.079965	2573.509038
452.453954	2424.795000
452.827883	2565.947308
453.201752	2470.165385
453.575562	2460.083077
453.949311	2535.700385
454.323001	2412.192115
454.696632	2553.344423
455.070202	2485.288846
455.443713	2439.918462
455.817164	2457.562500
456.190556	2500.412308
456.563888	2389.506923
456.937160	2442.439038
457.310373	2500.412308
457.683526	2598.714808
458.056619	2576.029615
458.429653	2505.453462
458.802628	2455.041923
459.175542	2409.671538
459.548398	2482.768269
459.921194	2447.480192
460.293930	2457.562500
460.666607	2432.356731
461.039224	2520.576923
461.411782	2535.700385
461.784280	2432.356731
462.156719	2477.727115
462.529099	2475.206538
462.901419	2555.865000
463.273680	2518.056346
463.645882	2565.947308
464.018024	2502.932885
464.390106	2492.850577
464.762130	2518.056346
465.134094	2472.685962
465.505999	2467.644808
465.877845	2470.165385
466.249631	2490.330000
466.621358	2513.015192
466.993026	2414.712692
467.364634	2482.768269
467.736184	2530.659231
468.107674	2525.618077
468.479105	2570.988462
468.850477	2407.150962
469.221790	2480.247692
469.593043	2455.041923
469.964238	2558.385577
470.335373	2510.494615
470.706449	2548.303269
471.077467	2470.165385
471.448425	2548.303269
471.819324	2477.727115
472.190164	2470.165385
472.560945	2452.521346
472.931667	2444.959615
473.302330	2518.056346
473.672934	2583.591346
474.043479	2439.918462
474.413965	2515.535769
474.784393	2432.356731
475.154761	2472.685962
475.525070	2515.535769
475.895321	2424.795000
476.265513	2417.233269
476.635645	2505.453462
477.005719	2429.836154
477.375734	2583.591346
477.745691	2502.932885
478.115588	2558.385577
478.485427	2477.727115
478.855207	2545.782692
479.224928	2490.330000
479.594591	2490.330000
479.964194	2538.220962
480.333739	2467.644808
480.703226	2502.932885
481.072653	2495.371154
481.442022	2530.659231
481.811333	2497.891731
482.180584	2513.015192
482.549777	2444.959615
482.918912	2477.727115
483.287988	2495.371154
483.657005	2477.727115
484.025964	2439.918462
484.394864	2623.920577
484.763706	2467.644808
485.132489	2583.591346
485.501213	2482.768269
485.869879	2570.988462
486.238487	2419.753846
486.607036	2513.015192
486.975527	2419.753846
487.343959	2450.000769
487.712333	2520.576923
488.080648	2636.523462
488.448905	2490.330000
488.817104	2515.535769
489.185244	2444.959615
489.553326	2540.741538
489.921350	2472.685962
490.289315	2480.247692
490.657222	2513.015192
491.025070	2558.385577
491.392861	2530.659231
491.760593	2414.712692
492.128267	2450.000769
492.495883	2530.659231
492.863440	2548.303269
493.230939	2485.288846
493.598380	2447.480192
493.965763	2439.918462
494.333088	2475.206538
494.700354	2578.550192
495.067563	2457.562500
495.434713	2487.809423
495.801805	2475.206538
496.168839	2502.932885
496.535815	2568.467885
496.902733	2442.439038
497.269593	2518.056346
497.636395	2467.644808
498.003139	2540.741538
498.369825	2472.685962
498.736453	2515.535769
499.103023	2371.862885
499.469535	2477.727115
499.835989	2570.988462
500.202385	2540.741538
500.568723	2427.315577
500.935003	2475.206538
501.301226	2472.685962
501.667390	2490.330000
502.033497	2470.165385
502.399546	2518.056346
502.765537	2528.138654
503.131470	2460.083077
503.497345	2475.206538
503.863163	2475.206538
504.228923	2523.097500
504.594625	2497.891731
504.960269	2601.235385
505.325856	2492.850577
505.691385	2457.562500
506.056856	2495.371154
506.422270	2452.521346
506.787625	2525.618077
507.152924	2515.535769
507.518164	2462.603654
507.883347	2573.509038
508.248472	2525.618077
508.613540	2457.562500
508.978550	2452.521346
509.343503	2515.535769
509.708398	2450.000769
510.073236	2462.603654
510.438016	2533.179808
510.802738	2550.823846
511.167403	2457.562500
511.532010	2444.959615
511.896561	2434.877308
512.261053	2434.877308
512.625488	2475.206538
512.989866	2502.932885
513.354186	2487.809423
513.718449	2487.809423
514.082655	2392.027500
514.446803	2376.904038
514.810894	2596.194231
515.174927	2497.891731
515.538904	2507.974038
515.902822	2460.083077
516.266684	2568.467885
516.630488	2482.768269
516.994235	2518.056346
517.357925	2477.727115
517.721558	2379.424615
518.085133	2467.644808
518.448651	2530.659231
518.812112	2457.562500
519.175516	2513.015192
519.538863	2460.083077
519.902152	2482.768269
520.265385	2455.041923
520.628560	2477.727115
520.991678	2480.247692
521.354739	2505.453462
521.717743	2465.124231
522.080690	2507.974038
522.443580	2457.562500
522.806413	2455.041923
523.169189	2513.015192
523.531908	2467.644808
523.894569	2523.097500
524.257174	2447.480192
524.619722	2492.850577
524.982213	2439.918462
525.344647	2528.138654
525.707025	2495.371154
526.069345	2487.809423
526.431608	2409.671538
526.793815	2550.823846
527.155964	2543.262115
527.518057	2497.891731
527.880093	2523.097500
528.242072	2570.988462
528.603995	2470.165385
528.965860	2475.206538
529.327669	2518.056346
529.689421	2455.041923
530.051117	2581.070769
530.412755	2596.194231
530.774337	2467.644808
531.135862	2553.344423
531.497331	2487.809423
531.858743	2550.823846
532.220098	2553.344423
532.581396	2573.509038
532.942638	2485.288846
533.303824	2457.562500
533.664953	2490.330000
534.026025	2510.494615
534.387040	2470.165385
534.747999	2513.015192
535.108902	2502.932885
535.469748	2570.988462
535.830537	2495.371154
536.191270	2535.700385
536.551947	2510.494615
536.912567	2560.906154
537.273131	2470.165385
537.633638	2593.673654
537.994089	2402.109808
538.354483	2465.124231
538.714821	2465.124231
539.075103	2485.288846
539.435328	2505.453462
539.795497	2500.412308
540.155609	2467.644808
540.515665	2513.015192
540.875665	2603.755962
541.235609	2412.192115
541.595496	2444.959615
541.955328	2563.426731
542.315102	2550.823846
542.674821	2515.535769
543.034483	2455.041923
543.394090	2497.891731
543.753640	2470.165385
544.113134	2480.247692
544.472571	2447.480192
544.831953	2452.521346
545.191278	2573.509038
545.550548	2495.371154
545.909761	2485.288846
546.268918	2543.262115
546.628019	2490.330000
546.987064	2480.247692
547.346053	2538.220962
547.704986	2573.509038
548.063863	2576.029615
548.422684	2480.247692
548.781449	2515.535769
549.140158	2543.262115
549.498811	2530.659231
549.857408	2538.220962
550.215949	2565.947308
550.574434	2568.467885
550.932864	2510.494615
551.291237	2470.165385
551.649555	2452.521346
552.007817	2523.097500
552.366022	2477.727115
552.724173	2485.288846
553.082267	2495.371154
553.440305	2495.371154
553.798288	2530.659231
554.156215	2467.644808
554.514086	2492.850577
554.871902	2482.768269
555.229661	2452.521346
555.587365	2545.782692
555.945014	2381.945192
556.302606	2550.823846
556.660143	2540.741538
557.017625	2591.153077
557.375050	2538.220962
557.732421	2525.618077
558.089735	2470.165385
558.446994	2419.753846
558.804197	2460.083077
559.161345	2472.685962
559.518437	2472.685962
559.875474	2414.712692
560.232455	2470.165385
560.589381	2429.836154
560.946251	2540.741538
561.303065	2465.124231
561.659825	2462.603654
562.016528	2485.288846
562.373177	2480.247692
562.729770	2485.288846
563.086307	2543.262115
563.442789	2530.659231
563.799216	2487.809423
564.155587	2525.618077
564.511904	2593.673654
564.868164	2555.865000
565.224370	2429.836154
565.580520	2492.850577
565.936615	2417.233269
566.292654	2460.083077
566.648638	2553.344423
567.004567	2515.535769
567.360441	2505.453462
567.716260	2513.015192
568.072023	2525.618077
568.427732	2505.453462
568.783385	2533.179808
569.138982	2533.179808
569.494525	2475.206538
569.850013	2513.015192
570.205445	2583.591346
570.560823	2460.083077
570.916145	2480.247692
571.271412	2507.974038
571.626625	2515.535769
571.981782	2439.918462
572.336884	2475.206538
572.691931	2465.124231
573.046923	2412.192115
573.401860	2538.220962
573.756743	2434.877308
574.111570	2548.303269
574.466342	2457.562500
574.821059	2525.618077
575.175722	2523.097500
575.530330	2457.562500
575.884882	2497.891731
576.239380	2497.891731
576.593823	2528.138654
576.948211	2480.247692
577.302544	2548.303269
577.656823	2477.727115
578.011047	2598.714808
578.365216	2513.015192
578.719330	2394.548077
579.073389	2452.521346
579.427394	2523.097500
579.781344	2538.220962
580.135239	2545.782692
580.489080	2467.644808
580.842866	2424.795000
581.196597	2475.206538
581.550273	2447.480192
581.903895	2462.603654
582.257463	2417.233269
582.610975	2447.480192
582.964434	2442.439038
583.317837	2518.056346
583.671186	2434.877308
584.024481	2472.685962
584.377721	2477.727115
584.730906	2460.083077
585.084037	2518.056346
585.437113	2507.974038
585.790135	2419.753846
586.143103	2583.591346
586.496016	2555.865000
586.848874	2513.015192
587.201679	2487.809423
587.554428	2495.371154
587.907124	2560.906154
588.259765	2472.685962
588.612352	2535.700385
588.964884	2467.644808
589.317362	2467.644808
589.669786	2429.836154
590.022155	2565.947308
590.374470	2497.891731
590.726731	2487.809423
591.078937	2487.809423
591.431090	2374.383462
591.783188	2578.550192
592.135232	2497.891731
592.487222	2523.097500
592.839157	2533.179808
593.191038	2487.809423
593.542866	2538.220962
593.894639	2502.932885
594.246358	2475.206538
594.598022	2455.041923
594.949633	2482.768269
595.301190	2548.303269
595.652692	2485.288846
596.004141	2452.521346
596.355535	2497.891731
596.706876	2500.412308
597.058162	2482.768269
597.409395	2482.768269
597.760573	2555.865000
598.111698	2528.138654
598.462768	2480.247692
598.813785	2455.041923
599.164748	2465.124231
599.515657	2457.562500
599.866511	2477.727115
600.217312	2510.494615
600.568060	2472.685962
600.918753	2558.385577
601.269392	2452.521346
601.619978	2437.397885
601.970510	2495.371154
602.320988	2555.865000
602.671412	2477.727115
603.021783	2404.630385
603.372100	2548.303269
603.722363	2457.562500
604.072572	2568.467885
604.422728	2432.356731
604.772830	2558.385577
605.122878	2472.685962
605.472872	2472.685962
605.822813	2472.685962
606.172701	2525.618077
606.522534	2528.138654
606.872314	2495.371154
607.222041	2540.741538
607.571714	2606.276538
607.921333	2482.768269
608.270899	2472.685962
608.620411	2507.974038
608.969870	2576.029615
609.319276	2543.262115
609.668627	2434.877308
610.017926	2510.494615
610.367171	2507.974038
610.716362	2507.974038
611.065500	2525.618077
611.414585	2477.727115
611.763616	2465.124231
612.112594	2523.097500
612.461518	2477.727115
612.810389	2502.932885
613.159207	2457.562500
613.507971	2432.356731
613.856682	2419.753846
614.205340	2472.685962
614.553945	2520.576923
614.902496	2482.768269
615.250994	2515.535769
615.599439	2429.836154
615.947830	2495.371154
616.296169	2545.782692
616.644454	2520.576923
616.992686	2528.138654
617.340864	2505.453462
617.688990	2513.015192
618.037063	2533.179808
618.385082	2485.288846
618.733048	2523.097500
619.080961	2386.986346
619.428821	2515.535769
619.776628	2460.083077
620.124382	2447.480192
620.472083	2429.836154
620.819731	2452.521346
621.167326	2513.015192
621.514868	2555.865000
621.862357	2462.603654
622.209793	2525.618077
622.557176	2555.865000
622.904506	2570.988462
623.251783	2528.138654
623.599007	2450.000769
623.946179	2518.056346
624.293297	2548.303269
624.640363	2495.371154
624.987376	2497.891731
625.334336	2495.371154
625.681243	2583.591346
626.028097	2578.550192
626.374899	2427.315577
626.721647	2543.262115
627.068343	2487.809423
627.414987	2465.124231
627.761577	2558.385577
628.108115	2492.850577
628.454600	2515.535769
628.801032	2502.932885
629.147412	2482.768269
629.493739	2417.233269
629.840014	2510.494615
630.186236	2507.974038
630.532405	2475.206538
630.878521	2535.700385
631.224585	2492.850577
631.570597	2419.753846
631.916556	2538.220962
632.262462	2502.932885
632.608316	2437.397885
632.954117	2505.453462
633.299866	2530.659231
633.645562	2578.550192
633.991206	2434.877308
634.336797	2548.303269
634.682336	2427.315577
635.027823	2525.618077
635.373257	2462.603654
635.718639	2422.274423
636.063968	2507.974038
636.409245	2472.685962
636.754470	2477.727115
637.099642	2455.041923
637.444762	2535.700385
637.789829	2502.932885
638.134845	2424.795000
638.479808	2442.439038
638.824719	2553.344423
639.169577	2492.850577
639.514383	2485.288846
639.859137	2497.891731
640.203839	2490.330000
640.548489	2545.782692
640.893086	2485.288846
641.237632	2457.562500
641.582125	2497.891731
641.926566	2470.165385
642.270955	2497.891731
642.615292	2467.644808
642.959576	2573.509038
643.303809	2492.850577
643.647990	2515.535769
643.992118	2497.891731
644.336195	2533.179808
644.680219	2505.453462
645.024192	2570.988462
645.368112	2482.768269
645.711981	2528.138654
646.055797	2470.165385
646.399562	2497.891731
646.743274	2480.247692
647.086935	2409.671538
647.430544	2523.097500
647.774101	2455.041923
648.117606	2437.397885
648.461059	2465.124231
648.804460	2530.659231
649.147810	2414.712692
649.491108	2432.356731
649.834354	2497.891731
650.177548	2407.150962
650.520690	2475.206538
650.863781	2563.426731
651.206820	2525.618077
651.549807	2573.509038
651.892742	2578.550192
652.235626	2487.809423
652.578458	2500.412308
652.921238	2447.480192
653.263967	2515.535769
653.606644	2548.303269
653.949269	2482.768269
654.291843	2450.000769
654.634365	2437.397885
654.976836	2432.356731
655.319255	2472.685962
655.661622	2530.659231
656.003938	2510.494615
656.346203	2583.591346
656.688416	2465.124231
657.030577	2480.247692
657.372687	2570.988462
657.714746	2505.453462
658.056753	2510.494615
658.398708	2472.685962
658.740612	2515.535769
659.082465	2490.330000
659.424266	2523.097500
659.766016	2444.959615
660.107715	2455.041923
660.449362	2397.068654
660.790958	2495.371154
661.132503	2490.330000
661.473996	2492.850577
661.815438	2513.015192
662.156829	2497.891731
662.498168	2507.974038
662.839456	2586.111923
663.180693	2439.918462
663.521879	2505.453462
663.863013	2538.220962
664.204097	2452.521346
664.545129	2518.056346
664.886110	2525.618077
665.227040	2568.467885
665.567918	2467.644808
665.908746	2444.959615
666.249522	2568.467885
666.590248	2417.233269
666.930922	2528.138654
667.271545	2427.315577
667.612118	2533.179808
667.952639	2492.850577
668.293109	2487.809423
668.633528	2472.685962
668.973896	2533.179808
669.314213	2540.741538
669.654480	2470.165385
669.994695	2482.768269
670.334859	2490.330000
670.674973	2540.741538
671.015035	2444.959615
671.355047	2475.206538
671.695008	2545.782692
672.034918	2495.371154
672.374777	2535.700385
672.714585	2462.603654
673.054342	2558.385577
673.394049	2558.385577
673.733705	2487.809423
674.073310	2437.397885
674.412864	2475.206538
674.752368	2497.891731
675.091820	2533.179808
675.431223	2513.015192
675.770574	2518.056346
676.109875	2487.809423
676.449125	2397.068654
676.788324	2540.741538
677.127473	2515.535769
677.466571	2568.467885
677.805619	2457.562500
678.144616	2578.550192
678.483562	2470.165385
678.822458	2502.932885
679.161303	2472.685962
679.500098	2457.562500
679.838842	2457.562500
680.177535	2570.988462
680.516179	2485.288846
680.854771	2515.535769
681.193314	2492.850577
681.531805	2457.562500
681.870247	2424.795000
682.208638	2447.480192
682.546978	2603.755962
682.885268	2450.000769
683.223508	2497.891731
683.561697	2533.179808
683.899836	2553.344423
684.237925	2389.506923
684.575963	2606.276538
684.913951	2457.562500
685.251889	2500.412308
685.589776	2576.029615
685.927614	2429.836154
686.265401	2553.344423
686.603137	2462.603654
686.940824	2560.906154
687.278460	2472.685962
687.616046	2485.288846
687.953582	2475.206538
688.291068	2565.947308
688.628504	2404.630385
688.965889	2505.453462
689.303224	2437.397885
689.640510	2563.426731
689.977745	2523.097500
690.314930	2513.015192
690.652065	2568.467885
690.989150	2457.562500
691.326185	2444.959615
691.663170	2520.576923
692.000105	2510.494615
692.336990	2543.262115
692.673825	2477.727115
693.010610	2467.644808
693.347345	2550.823846
693.684030	2485.288846
694.020665	2581.070769
694.357251	2376.904038
694.693786	2467.644808
695.030272	2520.576923
695.366707	2472.685962
695.703093	2500.412308
696.039429	2548.303269
696.375716	2588.632500
696.711952	2565.947308
697.048139	2480.247692
697.384276	2490.330000
697.720363	2533.179808
698.056400	2482.768269
698.392388	2513.015192
698.728326	2439.918462
699.064214	2490.330000
699.400053	2429.836154
699.735842	2530.659231
700.071581	2500.412308
700.407270	2560.906154
700.742910	2525.618077
701.078501	2505.453462
701.414042	2460.083077
701.749533	2480.247692
702.084974	2525.618077
702.420366	2538.220962
702.755709	2502.932885
703.091002	2500.412308
703.426246	2520.576923
703.761440	2472.685962
704.096584	2523.097500
704.431679	2429.836154
704.766725	2510.494615
705.101721	2601.235385
705.436668	2525.618077
705.771565	2515.535769
706.106413	2505.453462
706.441212	2565.947308
706.775961	2505.453462
707.110661	2518.056346
707.445311	2487.809423
707.779913	2538.220962
708.114465	2543.262115
708.448967	2533.179808
708.783421	2507.974038
709.117825	2472.685962
709.452180	2497.891731
709.786485	2560.906154
710.120742	2475.206538
710.454949	2513.015192
710.789107	2470.165385
711.123216	2528.138654
711.457275	2545.782692
711.791286	2518.056346
712.125247	2515.535769
712.459159	2485.288846
712.793023	2523.097500
713.126837	2432.356731
713.460602	2482.768269
713.794318	2497.891731
714.127985	2528.138654
714.461602	2495.371154
714.795171	2515.535769
715.128691	2505.453462
715.462162	2482.768269
715.795584	2533.179808
716.128957	2487.809423
716.462281	2507.974038
716.795556	2533.179808
717.128782	2520.576923
717.461960	2490.330000
717.795088	2462.603654
718.128167	2417.233269
718.461198	2535.700385
718.794180	2480.247692
719.127113	2439.918462
719.459997	2525.618077
719.792833	2487.809423
720.125619	2492.850577
720.458357	2520.576923
720.791046	2490.330000
721.123686	2492.850577
721.456278	2563.426731
721.788821	2540.741538
722.121315	2586.111923
722.453761	2475.206538
722.786158	2540.741538
723.118506	2510.494615
723.450805	2525.618077
723.783056	2543.262115
724.115259	2507.974038
724.447412	2510.494615
724.779518	2520.576923
725.111574	2558.385577
725.443582	2601.235385
725.775542	2422.274423
726.107453	2525.618077
726.439315	2409.671538
726.771129	2477.727115
727.102895	2510.494615
727.434612	2535.700385
727.766281	2452.521346
728.097901	2530.659231
728.429473	2477.727115
728.760996	2495.371154
729.092471	2467.644808
729.423897	2530.659231
729.755276	2550.823846
730.086606	2467.644808
730.417887	2341.615962
730.749120	2447.480192
731.080305	2475.206538
731.411442	2510.494615
731.742530	2462.603654
732.073570	2485.288846
732.404562	2487.809423
732.735506	2497.891731
733.066401	2545.782692
733.397249	2465.124231
733.728048	2497.891731
734.058798	2442.439038
734.389501	2442.439038
734.720156	2563.426731
735.050762	2482.768269
735.381320	2528.138654
735.711831	2515.535769
736.042293	2520.576923
736.372707	2540.741538
736.703073	2540.741538
737.033391	2472.685962
737.363661	2528.138654
737.693883	2444.959615
738.024056	2490.330000
738.354182	2424.795000
738.684260	2565.947308
739.014290	2432.356731
739.344272	2518.056346
739.674207	2439.918462
740.004093	2482.768269
740.333931	2487.809423
740.663722	2505.453462
740.993464	2578.550192
741.323159	2520.576923
741.652806	2480.247692
741.982405	2502.932885
742.311956	2477.727115
742.641460	2462.603654
742.970915	2520.576923
743.300323	2444.959615
743.629683	2611.317692
743.958996	2482.768269
744.288260	2515.535769
744.617477	2450.000769
744.946647	2543.262115
745.275768	2475.206538
745.604842	2535.700385
745.933869	2598.714808
746.262847	2455.041923
746.591778	2465.124231
746.920662	2543.262115
747.249498	2518.056346
747.578286	2487.809423
747.907027	2533.179808
748.235720	2553.344423
748.564365	2530.659231
748.892963	2553.344423
749.221514	2462.603654
749.550017	2530.659231
749.878473	2475.206538
750.206881	2535.700385
750.535242	2465.124231
750.863555	2525.618077
751.191821	2485.288846
751.520039	2497.891731
751.848210	2487.809423
752.176334	2518.056346
752.504411	2477.727115
752.832440	2513.015192
753.160421	2553.344423
753.488356	2477.727115
753.816243	2497.891731
754.144082	2563.426731
754.471875	2505.453462
754.799620	2485.288846
755.127318	2518.056346
755.454969	2553.344423
755.782572	2460.083077
756.110129	2507.974038
756.437638	2538.220962
756.765100	2518.056346
757.092515	2470.165385
757.419882	2399.589231
757.747203	2442.439038
758.074477	2538.220962
758.401703	2487.809423
758.728882	2525.618077
759.056014	2616.358846
759.383099	2455.041923
759.710138	2518.056346
760.037129	2492.850577
760.364073	2573.509038
760.690970	2487.809423
761.017820	2513.015192
761.344623	2518.056346
761.671379	2535.700385
761.998088	2545.782692
762.324751	2482.768269
762.651366	2450.000769
762.977935	2533.179808
763.304456	2477.727115
763.630931	2502.932885
763.957359	2520.576923
764.283740	2540.741538
764.610074	2490.330000
764.936362	2462.603654
765.262602	2550.823846
765.588796	2460.083077
765.914943	2490.330000
766.241044	2374.383462
766.567097	2525.618077
766.893104	2475.206538
767.219064	2470.165385
767.544978	2500.412308
767.870845	2497.891731
768.196665	2467.644808
768.522438	2492.850577
768.848165	2535.700385
769.173846	2490.330000
769.499479	2502.932885
769.825066	2472.685962
770.150607	2460.083077
770.476101	2634.002885
770.801548	2404.630385
771.126949	2475.206538
771.452303	2530.659231
771.777611	2515.535769
772.102872	2475.206538
772.428087	2457.562500
772.753256	2487.809423
773.078378	2485.288846
773.403453	2553.344423
773.728482	2533.179808
774.053465	2583.591346
774.378401	2513.015192
774.703291	2543.262115
775.028135	2424.795000
775.352932	2550.823846
775.677683	2444.959615
776.002388	2465.124231
776.327046	2470.165385
776.651658	2477.727115
776.976224	2480.247692
777.300743	2507.974038
777.625216	2447.480192
777.949643	2530.659231
778.274024	2502.932885
778.598359	2616.358846
778.922647	2477.727115
779.246889	2447.480192
779.571086	2520.576923
779.895236	2485.288846
780.219339	2528.138654
780.543397	2513.015192
780.867409	2513.015192
781.191374	2490.330000
781.515294	2477.727115
781.839167	2518.056346
782.162995	2510.494615
782.486776	2444.959615
782.810511	2480.247692
783.134201	2487.809423
783.457844	2497.891731
783.781441	2565.947308
784.104993	2452.521346
784.428498	2510.494615
784.751958	2518.056346
785.075372	2467.644808
785.398739	2492.850577
785.722061	2444.959615
786.045337	2550.823846
786.368568	2553.344423
786.691752	2553.344423
787.014891	2505.453462
787.337983	2417.233269
787.661030	2545.782692
787.984031	2500.412308
788.306987	2439.918462
788.629897	2513.015192
788.952760	2472.685962
789.275579	2487.809423
789.598351	2495.371154
789.921078	2500.412308
790.243759	2510.494615
790.566395	2485.288846
790.888984	2462.603654
791.211529	2573.509038
791.534027	2560.906154
791.856480	2515.535769
792.178888	2472.685962
792.501249	2485.288846
792.823566	2485.288846
793.145836	2460.083077
793.468062	2477.727115
793.790241	2540.741538
794.112375	2523.097500
794.434464	2502.932885
794.756507	2560.906154
795.078505	2492.850577
795.400457	2480.247692
795.722364	2450.000769
796.044226	2495.371154
796.366042	2460.083077
796.687812	2480.247692
797.009538	2475.206538
797.331218	2520.576923
797.652852	2477.727115
797.974442	2525.618077
798.295986	2475.206538
798.617484	2563.426731
798.938938	2500.412308
799.260346	2487.809423
799.581709	2482.768269
799.903026	2528.138654
800.224299	2515.535769
800.545526	2535.700385
800.866708	2482.768269
801.187845	2404.630385
801.508936	2523.097500
801.829983	2457.562500
802.150984	2487.809423
802.471940	2444.959615
802.792851	2548.303269
803.113717	2550.823846
803.434538	2427.315577
803.755314	2497.891731
804.076045	2497.891731
804.396731	2397.068654
804.717372	2490.330000
805.037967	2497.891731
805.358518	2553.344423
805.679024	2533.179808
805.999485	2573.509038
806.319901	2495.371154
806.640272	2457.562500
806.960598	2460.083077
807.280879	2505.453462
807.601115	2409.671538
807.921306	2533.179808
808.241453	2467.644808
808.561554	2581.070769
808.881611	2482.768269
809.201623	2535.700385
809.521590	2419.753846
809.841513	2538.220962
810.161390	2480.247692
810.481223	2535.700385
810.801011	2588.632500
811.120755	2480.247692
811.440453	2568.467885
811.760107	2500.412308
812.079716	2518.056346
812.399281	2422.274423
812.718801	2485.288846
813.038276	2462.603654
813.357707	2510.494615
813.677093	2462.603654
813.996434	2465.124231
814.315731	2427.315577
814.634983	2460.083077
814.954191	2465.124231
815.273354	2495.371154
815.592473	2518.056346
815.911547	2528.138654
816.230577	2505.453462
816.549562	2447.480192
816.868502	2553.344423
817.187399	2412.192115
817.506250	2492.850577
817.825058	2497.891731
818.143821	2558.385577
818.462539	2525.618077
818.781213	2439.918462
819.099843	2470.165385
819.418429	2502.932885
819.736970	2523.097500
820.055466	2553.344423
820.373919	2555.865000
820.692327	2490.330000
821.010691	2540.741538
821.329011	2470.165385
821.647286	2545.782692
821.965517	2568.467885
822.283704	2455.041923
822.601847	2490.330000
822.919945	2505.453462
823.237999	2447.480192
823.556010	2507.974038
823.873976	2422.274423
824.191897	2500.412308
824.509775	2462.603654
824.827609	2412.192115
825.145398	2482.768269
825.463144	2480.247692
825.780845	2530.659231
826.098502	2540.741538
826.416116	2500.412308
826.733685	2525.618077
827.051210	2495.371154
827.368692	2560.906154
827.686129	2485.288846
828.003522	2505.453462
828.320872	2502.932885
828.638177	2472.685962
828.955439	2439.918462
829.272656	2472.685962
829.589830	2513.015192
829.906960	2444.959615
830.224046	2495.371154
830.541088	2500.412308
830.858086	2480.247692
831.175041	2530.659231
831.491952	2492.850577
831.808819	2548.303269
832.125642	2525.618077
832.442421	2485.288846
832.759157	2455.041923
833.075849	2525.618077
833.392497	2467.644808
833.709101	2422.274423
834.025662	2442.439038
834.342179	2497.891731
834.658653	2538.220962
834.975083	2538.220962
835.291469	2565.947308
835.607811	2520.576923
835.924110	2523.097500
836.240366	2497.891731
836.556578	2548.303269
836.872746	2573.509038
837.188871	2570.988462
837.504952	2505.453462
837.820990	2513.015192
838.136984	2412.192115
838.452935	2414.712692
838.768842	2540.741538
839.084706	2452.521346
839.400526	2570.988462
839.716303	2485.288846
840.032037	2578.550192
840.347727	2505.453462
840.663373	2550.823846
840.978977	2470.165385
841.294537	2518.056346
841.610054	2402.109808
841.925527	2371.862885
842.240957	2485.288846
842.556344	2460.083077
842.871687	2543.262115
843.186987	2555.865000
843.502244	2500.412308
843.817458	2558.385577
844.132629	2500.412308
844.447756	2565.947308
844.762840	2447.480192
845.077881	2535.700385
845.392879	2507.974038
845.707833	2515.535769
846.022745	2487.809423
846.337613	2472.685962
846.652438	2462.603654
846.967221	2492.850577
847.281960	2442.439038
847.596656	2472.685962
847.911309	2540.741538
848.225919	2555.865000
848.540485	2495.371154
848.855009	2455.041923
849.169490	2455.041923
849.483928	2444.959615
849.798323	2497.891731
850.112675	2487.809423
850.426984	2427.315577
850.741251	2422.274423
851.055474	2482.768269
851.369654	2533.179808
851.683792	2507.974038
851.997887	2563.426731
852.311938	2535.700385
852.625947	2505.453462
852.939914	2495.371154
853.253837	2482.768269
853.567718	2460.083077
853.881555	2502.932885
854.195350	2386.986346
854.509103	2518.056346
854.822812	2555.865000
855.136479	2500.412308
855.450103	2490.330000
855.763685	2442.439038
856.077224	2548.303269
856.390720	2578.550192
856.704173	2485.288846
857.017584	2515.535769
857.330953	2485.288846
857.644278	2502.932885
857.957561	2482.768269
858.270802	2492.850577
858.584000	2573.509038
858.897155	2447.480192
859.210268	2500.412308
859.523339	2505.453462
859.836367	2550.823846
860.149352	2530.659231
860.462295	2462.603654
860.775195	2490.330000
861.088054	2533.179808
861.400869	2439.918462
861.713642	2439.918462
862.026373	2490.330000
862.339062	2490.330000
862.651708	2540.741538
862.964312	2601.235385
863.276873	2520.576923
863.589392	2480.247692
863.901869	2626.441154
864.214303	2525.618077
864.526696	2470.165385
864.839045	2480.247692
865.151353	2419.753846
865.463619	2538.220962
865.775842	2523.097500
866.088023	2505.453462
866.400162	2480.247692
866.712258	2470.165385
867.024313	2437.397885
867.336325	2429.836154
867.648296	2528.138654
867.960224	2414.712692
868.272110	2515.535769
868.583954	2538.220962
868.895755	2485.288846
869.207515	2366.821731
869.519233	2518.056346
869.830909	2457.562500
870.142542	2548.303269
870.454134	2397.068654
870.765684	2482.768269
871.077191	2482.768269
871.388657	2538.220962
871.700081	2543.262115
872.011463	2523.097500
872.322803	2500.412308
872.634101	2455.041923
872.945357	2523.097500
873.256571	2429.836154
873.567744	2555.865000
873.878874	2465.124231
874.189963	2487.809423
874.501010	2480.247692
874.812015	2535.700385
875.122979	2523.097500
875.433900	2437.397885
875.744780	2457.562500
876.055618	2505.453462
876.366415	2548.303269
876.677169	2434.877308
876.987882	2518.056346
877.298554	2447.480192
877.609183	2442.439038
877.919771	2442.439038
878.230317	2417.233269
878.540822	2477.727115
878.851285	2447.480192
879.161707	2419.753846
879.472087	2470.165385
879.782425	2507.974038
880.092722	2578.550192
880.402977	2467.644808
880.713191	2470.165385
881.023363	2460.083077
881.333494	2452.521346
881.643583	2407.150962
881.953631	2533.179808
882.263637	2510.494615
882.573602	2495.371154
882.883526	2419.753846
883.193408	2437.397885
883.503248	2485.288846
883.813048	2505.453462
884.122806	2578.550192
884.432522	2510.494615
884.742197	2392.027500
885.051831	2548.303269
885.361424	2472.685962
885.670975	2523.097500
885.980485	2560.906154
886.289954	2490.330000
886.599382	2497.891731
886.908768	2550.823846
887.218113	2490.330000
887.527417	2470.165385
887.836680	2550.823846
888.145901	2462.603654
888.455082	2570.988462
888.764221	2475.206538
889.073319	2596.194231
889.382376	2475.206538
889.691392	2505.453462
890.000366	2500.412308
890.309300	2518.056346
890.618193	2563.426731
890.927044	2447.480192
891.235855	2513.015192
891.544625	2540.741538
891.853353	2407.150962
892.162041	2434.877308
892.470687	2487.809423
892.779293	2490.330000
893.087858	2475.206538
893.396381	2442.439038
893.704864	2417.233269
894.013306	2518.056346
894.321707	2500.412308
894.630068	2497.891731
894.938387	2485.288846
895.246665	2507.974038
895.554903	2462.603654
895.863100	2450.000769
896.171256	2422.274423
896.479371	2507.974038
896.787446	2523.097500
897.095480	2475.206538
897.403473	2480.247692
897.711425	2510.494615
898.019336	2513.015192
898.327207	2565.947308
898.635038	2467.644808
898.942827	2439.918462
899.250576	2490.330000
899.558284	2510.494615
899.865952	2437.397885
900.173579	2492.850577
900.481165	2480.247692
900.788711	2394.548077
901.096216	2424.795000
901.403681	2477.727115
901.711105	2515.535769
902.018489	2460.083077
902.325832	2502.932885
902.633135	2513.015192
902.940397	2533.179808
903.247619	2432.356731
903.554800	2505.453462
903.861941	2470.165385
904.169041	2429.836154
904.476101	2485.288846
904.783121	2520.576923
905.090100	2452.521346
905.397039	2570.988462
905.703938	2404.630385
906.010796	2482.768269
906.317614	2520.576923
906.624391	2470.165385
906.931129	2485.288846
907.237826	2467.644808
907.544483	2505.453462
907.851099	2500.412308
908.157675	2510.494615
908.464211	2467.644808
908.770707	2482.768269
909.077163	2523.097500
909.383578	2520.576923
909.689954	2485.288846
909.996289	2518.056346
910.302584	2470.165385
910.608839	2495.371154
910.915054	2495.371154
911.221229	2518.056346
911.527363	2437.397885
911.833458	2555.865000
912.139513	2442.439038
912.445527	2543.262115
912.751502	2457.562500
913.057436	2568.467885
913.363331	2523.097500
913.669186	2550.823846
913.975000	2450.000769
914.280775	2442.439038
914.586510	2392.027500
914.892205	2460.083077
915.197859	2424.795000
915.503475	2485.288846
915.809050	2455.041923
916.114585	2429.836154
916.420081	2570.988462
916.725536	2492.850577
917.030952	2497.891731
917.336328	2467.644808
917.641665	2485.288846
917.946961	2530.659231
918.252218	2545.782692
918.557435	2507.974038
918.862612	2472.685962
919.167750	2553.344423
919.472848	2475.206538
919.777906	2543.262115
920.082925	2487.809423
920.387904	2520.576923
920.692843	2520.576923
920.997743	2518.056346
921.302603	2465.124231
921.607423	2497.891731
921.912204	2450.000769
922.216946	2540.741538
922.521647	2402.109808
922.826310	2482.768269
923.130932	2432.356731
923.435516	2419.753846
923.740059	2490.330000
924.044564	2450.000769
924.349028	2480.247692
924.653454	2500.412308
924.957840	2465.124231
925.262186	2485.288846
925.566493	2404.630385
925.870761	2490.330000
926.174989	2535.700385
926.479178	2578.550192
926.783328	2452.521346
927.087438	2492.850577
927.391509	2495.371154
927.695541	2518.056346
927.999533	2472.685962
928.303486	2439.918462
928.607400	2439.918462
928.911275	2472.685962
929.215110	2513.015192
929.518906	2444.959615
929.822663	2565.947308
930.126381	2465.124231
930.430060	2414.712692
930.733699	2475.206538
931.037299	2467.644808
931.340861	2437.397885
931.644383	2422.274423
931.947866	2452.521346
932.251309	2513.015192
932.554714	2492.850577
932.858080	2528.138654
933.161407	2465.124231
933.464694	2505.453462
933.767943	2480.247692
934.071153	2515.535769
934.374323	2462.603654
934.677455	2477.727115
934.980548	2513.015192
935.283602	2490.330000
935.586617	2386.986346
935.889593	2444.959615
936.192530	2422.274423
936.495428	2510.494615
936.798287	2510.494615
937.101108	2417.233269
937.403890	2558.385577
937.706632	2535.700385
938.009336	2455.041923
938.312002	2470.165385
938.614628	2442.439038
938.917216	2523.097500
939.219765	2457.562500
939.522275	2502.932885
939.824747	2500.412308
940.127179	2530.659231
940.429573	2460.083077
940.731929	2518.056346
941.034246	2530.659231
941.336524	2429.836154
941.638763	2480.247692
941.940964	2505.453462
942.243126	2568.467885
942.545250	2429.836154
942.847335	2444.959615
943.149381	2439.918462
943.451389	2412.192115
943.753359	2462.603654
944.055290	2540.741538
944.357182	2462.603654
944.659036	2515.535769
944.960851	2510.494615
945.262628	2581.070769
945.564367	2470.165385
945.866067	2419.753846
946.167729	2497.891731
946.469352	2485.288846
946.770937	2530.659231
947.072484	2515.535769
947.373992	2480.247692
947.675462	2477.727115
947.976893	2427.315577
948.278286	2520.576923
948.579641	2553.344423
948.880958	2520.576923
949.182236	2447.480192
949.483476	2417.233269
949.784678	2480.247692
950.085841	2455.041923
950.386967	2520.576923
950.688054	2457.562500
950.989103	2477.727115
951.290114	2490.330000
951.591087	2477.727115
951.892021	2424.795000
952.192917	2502.932885
952.493776	2477.727115
952.794596	2419.753846
953.095378	2412.192115
953.396122	2518.056346
953.696828	2465.124231
953.997496	2472.685962
954.298126	2490.330000
954.598718	2495.371154
954.899272	2507.974038
955.199788	2492.850577
955.500266	2460.083077
955.800706	2409.671538
956.101108	2523.097500
956.401472	2477.727115
956.701798	2576.029615
957.002087	2510.494615
957.302337	2470.165385
957.602550	2545.782692
957.902724	2487.809423
958.202861	2487.809423
958.502960	2394.548077
958.803022	2525.618077
959.103045	2417.233269
959.403031	2432.356731
959.702979	2507.974038
960.002889	2497.891731
960.302762	2513.015192
960.602596	2548.303269
960.902393	2500.412308
961.202153	2538.220962
961.501875	2543.262115
961.801559	2555.865000
962.101205	2462.603654
962.400814	2429.836154
962.700385	2568.467885
962.999918	2500.412308
963.299414	2482.768269
963.598873	2475.206538
963.898293	2500.412308
964.197677	2487.809423
964.497022	2460.083077
964.796331	2450.000769
965.095601	2558.385577
965.394835	2444.959615
965.694030	2548.303269
965.993189	2460.083077
966.292309	2515.535769
966.591393	2447.480192
966.890439	2447.480192
967.189447	2528.138654
967.488419	2490.330000
967.787353	2502.932885
968.086249	2462.603654
968.385108	2492.850577
968.683930	2502.932885
968.982714	2465.124231
969.281462	2455.041923
969.580172	2465.124231
969.878844	2444.959615
970.177480	2525.618077
970.476078	2477.727115
970.774639	2502.932885
971.073162	2563.426731
971.371649	2447.480192
971.670098	2477.727115
971.968510	2392.027500
972.266885	2500.412308
972.565223	2450.000769
972.863524	2507.974038
973.161788	2487.809423
973.460014	2480.247692
973.758204	2434.877308
974.056356	2490.330000
974.354471	2492.850577
974.652550	2442.439038
974.950591	2545.782692
975.248595	2507.974038
975.546563	2409.671538
975.844493	2470.165385
976.142386	2439.918462
976.440243	2518.056346
976.738062	2437.397885
977.035845	2485.288846
977.333590	2540.741538
977.631299	2470.165385
977.928971	2518.056346
978.226606	2513.015192
978.524204	2457.562500
978.821765	2470.165385
979.119290	2439.918462
979.416777	2543.262115
979.714228	2560.906154
980.011642	2437.397885
980.309020	2434.877308
980.606360	2470.165385
980.903664	2485.288846
981.200931	2450.000769
981.498162	2583.591346
981.795356	2513.015192
982.092513	2525.618077
982.389633	2482.768269
982.686717	2470.165385
982.983764	2500.412308
983.280775	2500.412308
983.577749	2472.685962
983.874686	2540.741538
984.171587	2570.988462
984.468451	2485.288846
984.765279	2545.782692
985.062070	2470.165385
985.358824	2520.576923
985.655543	2485.288846
985.952224	2533.179808
986.248869	2487.809423
986.545478	2490.330000
986.842050	2470.165385
987.138586	2538.220962
987.435086	2495.371154
987.731549	2502.932885
988.027975	2555.865000
988.324366	2480.247692
988.620719	2432.356731
988.917037	2417.233269
989.213318	2545.782692
989.509563	2523.097500
989.805772	2465.124231
990.101944	2455.041923
990.398080	2407.150962
990.694180	2477.727115
990.990244	2409.671538
991.286271	2533.179808
991.582262	2538.220962
991.878217	2523.097500
992.174136	2467.644808
992.470019	2535.700385
992.765865	2470.165385
993.061676	2472.685962
993.357450	2444.959615
993.653188	2497.891731
993.948890	2553.344423
994.244556	2465.124231
994.540186	2515.535769
994.835780	2432.356731
995.131337	2518.056346
995.426859	2475.206538
995.722345	2513.015192
996.017795	2427.315577
996.313208	2455.041923
996.608586	2467.644808
996.903928	2543.262115
997.199234	2434.877308
997.494504	2513.015192
997.789738	2492.850577
998.084936	2497.891731
998.380099	2434.877308
998.675225	2462.603654
998.970316	2525.618077
999.265371	2475.206538
999.560390	2513.015192
999.855373	2427.315577
1000.150320	2510.494615
1000.445232	2538.220962
1000.740108	2558.385577
1001.034948	2495.371154
1001.329752	2457.562500
1001.624521	2505.453462
1001.919254	2558.385577
1002.213951	2518.056346
1002.508613	2427.315577
1002.803239	2467.644808
1003.097829	2392.027500
1003.392384	2523.097500
1003.686903	2528.138654
1003.981386	2502.932885
1004.275834	2548.303269
1004.570246	2414.712692
1004.864623	2520.576923
1005.158964	2467.644808
1005.453270	2475.206538
1005.747540	2528.138654
1006.041775	2518.056346
1006.335974	2545.782692
1006.630138	2593.673654
1006.924266	2533.179808
1007.218359	2558.385577
1007.512416	2502.932885
1007.806438	2467.644808
1008.100425	2505.453462
1008.394376	2495.371154
1008.688292	2518.056346
1008.982172	2495.371154
1009.276017	2497.891731
1009.569827	2442.439038
1009.863602	2533.179808
1010.157341	2477.727115
1010.451045	2397.068654
1010.744714	2482.768269
1011.038347	2475.206538
1011.331945	2535.700385
1011.625508	2518.056346
1011.919036	2528.138654
1012.212528	2490.330000
1012.505986	2487.809423
1012.799408	2497.891731
1013.092795	2513.015192
1013.386147	2502.932885
1013.679464	2525.618077
1013.972745	2487.809423
1014.265992	2492.850577
1014.559204	2525.618077
1014.852380	2480.247692
1015.145521	2518.056346
1015.438628	2518.056346
1015.731699	2434.877308
1016.024736	2523.097500
1016.317737	2439.918462
1016.610703	2497.891731
1016.903635	2371.862885
1017.196531	2477.727115
1017.489393	2455.041923
1017.782219	2555.865000
1018.075011	2513.015192
1018.367768	2576.029615
1018.660490	2432.356731
1018.953177	2432.356731
1019.245829	2432.356731
