Dividing Wavelength (nm)	Counts (n)	Blue Motor Position (mm): 40.800000	Red Motor Position (mm): 0.000000	
326.493990	2128.685185
326.888308	2128.685185
327.282561	2128.685185
327.676750	2096.126893
328.070874	2095.322829
328.464933	2096.643611
328.858929	2104.117122
329.252859	2113.516353
329.646726	2125.037910
330.040528	2136.677934
330.434265	2155.763743
330.827938	2174.042967
331.221547	2190.058712
331.615091	2209.066383
332.008571	2231.355845
332.401986	2247.979049
332.795338	2267.697523
333.188625	2286.952210
333.581847	2305.607000
333.975006	2323.372026
334.368100	2343.345077
334.761129	2359.101204
335.154095	2374.529655
335.546996	2399.601834
335.939833	2425.742737
336.332606	2439.830241
336.725315	2449.181582
337.117960	2460.735906
337.510540	2470.220837
337.903056	2481.024030
338.295508	2487.464104
338.687896	2494.735968
339.080220	2505.118225
339.472480	2512.783299
339.864676	2512.853875
340.256807	2521.139012
340.648875	2523.888961
341.040879	2526.754857
341.432818	2528.161339
341.824694	2527.173273
342.216506	2530.565969
342.608253	2530.215609
342.999937	2529.840043
343.391557	2527.092614
343.783113	2526.636390
344.174605	2526.578417
344.566033	2524.808972
344.957397	2524.763601
345.348697	2520.118178
345.739934	2517.852179
346.131106	2518.184896
346.522215	2517.448887
346.913260	2514.043588
347.304241	2514.295645
347.695159	2509.246930
348.086012	2510.083761
348.476802	2509.148627
348.867528	2506.945643
349.258191	2502.479181
349.648789	2503.978924
350.039324	2499.867863
350.429796	2503.943636
350.820203	2498.471463
351.210548	2500.838285
351.600828	2498.078253
351.991045	2498.647904
352.381198	2496.137409
352.771288	2496.434837
353.161314	2496.152533
353.551276	2493.079949
353.941175	2496.492811
354.331010	2494.725886
354.720782	2492.664054
355.110490	2493.362254
355.500135	2492.464929
355.889717	2494.773777
356.279235	2496.066833
356.668689	2496.860815
357.058080	2496.374343
357.447408	2495.242604
357.836672	2489.520895
358.225873	2493.442913
358.615010	2493.894096
359.004084	2496.946514
359.393095	2497.566576
359.782043	2500.147647
360.170927	2497.964827
360.559748	2501.007164
360.948505	2503.147134
361.337199	2502.232164
361.725830	2502.519510
362.114398	2504.452792
362.502903	2501.861639
362.891344	2501.990189
363.279722	2503.535303
363.668037	2504.808194
364.056289	2504.694768
364.444478	2507.296003
364.832603	2506.605365
365.220665	2508.926817
365.608665	2509.151148
365.996601	2510.411436
366.384474	2507.641322
366.772284	2507.578308
367.160031	2509.403206
367.547715	2509.249450
367.935336	2507.903462
368.322893	2513.143742
368.710388	2508.649553
369.097820	2515.346726
369.485189	2511.916221
369.872495	2511.822959
370.259738	2514.068793
370.646918	2509.854389
371.034035	2512.926972
371.421090	2515.031654
371.808081	2514.623320
372.195010	2514.278001
372.581875	2516.370080
372.968678	2517.431243
373.355418	2514.595594
373.742096	2515.810512
374.128710	2518.515091
374.515262	2517.143897
374.901751	2516.765811
375.288177	2517.219515
375.674540	2517.743795
376.060841	2517.380832
376.447079	2518.250431
376.833254	2521.771677
377.219367	2516.654905
377.605417	2520.181192
377.991404	2515.699607
378.377329	2516.647344
378.763191	2516.874196
379.148991	2524.478776
379.534727	2522.674043
379.920402	2524.141019
380.306013	2523.556245
380.691563	2524.907274
381.077049	2522.535411
381.462474	2526.822913
381.847835	2523.667150
382.233134	2525.350896
382.618371	2524.877027
383.003545	2526.921215
383.388657	2526.210412
383.773706	2528.173942
384.158693	2526.787625
384.543618	2529.812317
384.928480	2533.202493
385.313280	2536.345652
385.698017	2536.083512
386.082692	2542.405119
386.467305	2547.700851
386.851856	2552.202602
387.236344	2560.946483
387.620770	2569.377813
388.005133	2581.416088
388.389435	2593.504775
388.773674	2602.858636
389.157851	2619.343209
389.541965	2633.022380
389.926018	2643.334060
390.310008	2666.372133
390.693936	2683.111285
391.077802	2707.729760
391.461606	2727.453274
391.845348	2758.385794
392.229027	2774.898093
392.612645	2799.889614
392.996200	2839.815552
393.379694	2877.160420
393.763125	2916.993097
394.146494	2938.372630
394.529801	2981.073724
394.913047	3030.749254
395.296230	3046.986811
395.679351	3099.795418
396.062410	3138.773619
396.445408	3164.513751
396.828343	3212.452603
397.211217	3257.702000
397.594028	3254.757966
397.976778	3320.366063
398.359466	3371.498487
398.742092	3419.757452
399.124656	3412.755290
399.507158	3492.002228
399.889598	3538.509393
400.271977	3612.778192
400.654294	3629.933238
401.036549	3669.591996
401.418742	3686.404244
401.800874	3788.979122
402.182944	3833.714321
402.564952	3913.505704
402.946898	3935.512861
403.328783	3961.699135
403.710606	3927.353754
404.092367	4107.559880
404.474067	4106.279427
404.855705	4138.416783
405.237282	4105.286320
405.618797	4216.468968
406.000250	4272.047689
406.381642	4363.524467
406.762972	4352.575081
407.144240	4382.222106
407.525447	4402.479983
407.906593	4479.604596
408.287677	4530.815157
408.668700	4481.313547
409.049661	4544.373340
409.430560	4595.795630
409.811399	4539.674985
410.192176	4703.580541
410.572891	4658.033716
410.953545	4766.715951
411.334138	4659.394827
411.714669	4731.485848
412.095139	4639.585613
412.475547	4782.474598
412.855894	4770.005304
413.236180	4783.480308
413.616405	4740.222167
413.996568	4829.405220
414.376670	4775.479997
414.756711	4731.904263
415.136691	4770.574955
415.516609	4848.712839
415.896466	4887.078541
416.276262	4921.675979
416.655997	4907.507817
417.035670	5084.845527
417.415283	5174.638559
417.794834	5123.622082
418.174324	5074.979988
418.553753	4988.178881
418.933121	5166.885264
419.312428	5235.013938
419.691674	5174.719217
420.070859	5306.850380
420.449983	5214.824117
420.829045	5331.332744
421.208047	5238.051233
421.586988	5313.285413
421.965867	5325.679090
422.344686	5456.862516
422.723444	5313.340866
423.102141	5129.898318
423.480777	5425.446045
423.859352	5200.187127
424.237866	5457.656497
424.616319	5445.144354
424.994712	5556.274070
425.373044	5432.909473
425.751314	5572.836781
426.129524	5381.154467
426.507673	5573.847532
426.885762	5658.082692
427.263789	5587.942598
427.641756	5472.195185
428.019662	5592.068782
428.397508	5598.113126
428.775292	5548.107400
429.153016	5646.898892
429.530679	5571.878961
429.908282	5661.863557
430.285824	5523.488926
430.663305	5798.935051
431.040726	5536.013672
431.418086	5536.137181
431.795385	5645.341176
432.172624	5657.671838
432.549802	5648.433924
432.926920	5658.173433
433.303977	5670.325134
433.680974	5711.395415
434.057910	5726.806222
434.434786	5731.444083
434.811601	5703.049784
435.188355	5932.318941
435.565050	5808.079704
435.941683	5787.705881
436.318257	6008.606722
436.694770	5989.150389
437.071222	6021.479308
437.447614	5953.529596
437.823946	5867.277974
438.200218	6022.628691
438.576429	5890.555502
438.952580	5983.791642
439.328670	6030.029105
439.704700	5936.639210
440.080670	5926.561943
440.456580	6196.823242
440.832429	6078.648513
441.208218	5928.888436
441.583947	6079.979378
441.959616	6085.275110
442.335224	6010.439181
442.710773	6145.549666
443.086261	6172.759294
443.461689	5971.322348
443.837057	6113.810562
444.212365	6274.517505
444.587612	6165.144631
444.962800	6320.918806
445.337927	6300.005579
445.712995	5911.582154
446.088002	6484.342931
446.462949	6318.652807
446.837837	6248.802579
447.212664	6423.622233
447.587431	6563.637760
447.962139	7105.055163
448.336786	8029.446502
448.711374	7770.931092
449.085901	6846.396080
449.460369	6765.528410
449.834776	6700.555499
450.209124	7093.883966
450.583412	7246.507419
450.957640	7386.959007
451.331808	7151.985785
451.705917	6705.972219
452.079965	6631.839531
452.453954	6837.500964
452.827883	6718.935546
453.201752	6811.034906
453.575562	6607.974708
453.949311	6811.458363
454.323001	6702.808895
454.696632	6779.469721
455.070202	6914.318066
455.443713	7070.475368
455.817164	7173.829104
456.190556	7256.662824
456.563888	7329.071437
456.937160	7368.883949
457.310373	7028.590941
457.683526	7052.584313
458.056619	6942.009124
458.429653	6931.523524
458.802628	6871.533793
459.175542	6978.686039
459.548398	7330.868608
459.921194	7491.399111
460.293930	7493.750810
460.666607	8026.099176
461.039224	8324.343920
461.411782	8451.476779
461.784280	8468.662073
462.156719	8358.200309
462.529099	8242.278977
462.901419	7830.121800
463.273680	7722.523412
463.645882	7737.984631
464.018024	7598.016995
464.390106	7772.995445
464.762130	8164.451123
465.134094	8630.286506
465.505999	9649.358277
465.877845	10867.119564
466.249631	11510.310301
466.621358	11132.601849
466.993026	10497.398821
467.364634	10245.144523
467.736184	9880.379234
468.107674	9557.064832
468.479105	9583.611548
468.850477	9346.374848
469.221790	9119.084345
469.593043	8792.893964
469.964238	8650.609918
470.335373	8669.872167
470.706449	8728.788132
471.077467	8708.968835
471.448425	10018.025419
471.819324	11081.532440
472.190164	11101.346695
472.560945	9858.525832
472.931667	9070.109535
473.302330	8939.218496
473.672934	8584.212880
474.043479	8941.555071
474.413965	8881.729177
474.784393	8762.105117
475.154761	8918.569930
475.525070	9007.213579
475.895321	8836.240326
476.265513	9013.439404
476.635645	9184.828553
477.005719	9185.930045
477.375734	9293.871231
477.745691	9531.801089
478.115588	9673.026494
478.485427	9911.800746
478.855207	10449.275966
479.224928	11262.363670
479.594591	11882.707898
479.964194	11693.120184
480.333739	11636.210598
480.703226	11552.608103
481.072653	11648.763071
481.442022	11882.717980
481.811333	12063.758417
482.180584	11873.661547
482.549777	11583.976682
482.918912	11406.155022
483.287988	11438.249527
483.657005	11446.504417
484.025964	11127.112033
484.394864	11260.369893
484.763706	11230.546427
485.132489	10984.926288
485.501213	10947.347007
485.869879	11022.089675
486.238487	10865.365243
486.607036	10977.339352
486.975527	10752.332491
487.343959	10945.935484
487.712333	10989.450724
488.080648	10921.997565
488.448905	10970.710235
488.817104	10902.352188
489.185244	11175.023159
489.553326	11331.606438
489.921350	11876.068698
490.289315	12929.705140
490.657222	13269.105864
491.025070	13174.914425
491.392861	13054.493862
491.760593	12669.448011
492.128267	12316.269813
492.495883	11986.989206
492.863440	11660.259422
493.230939	11321.216620
493.598380	11254.101219
493.965763	11125.151024
494.333088	11020.058090
494.700354	10940.748137
495.067563	11000.437919
495.434713	10835.992960
495.801805	10960.217073
496.168839	10882.454754
496.535815	10822.754890
496.902733	10818.590897
497.269593	10754.288459
497.636395	10855.081289
498.003139	10844.078971
498.369825	10715.403519
498.736453	10873.504186
499.103023	10794.806733
499.469535	10824.284880
499.835989	10814.527727
500.202385	10777.195462
500.568723	10625.446649
500.935003	10850.544250
501.301226	10656.616103
501.667390	10912.177397
502.033497	11011.120124
502.399546	10873.259690
502.765537	10774.735379
503.131470	10856.447442
503.497345	11029.537979
503.863163	10636.552311
504.228923	10949.960845
504.594625	11010.273210
504.960269	10755.372307
505.325856	10979.713735
505.691385	10768.557445
506.056856	10926.448904
506.422270	10950.901021
506.787625	10842.798517
507.152924	10956.045518
507.518164	10933.942579
507.883347	10858.973060
508.248472	10770.221026
508.613540	11014.966524
508.978550	10894.228369
509.343503	10874.272962
509.708398	10992.306538
510.073236	11100.071283
510.438016	11116.455033
510.802738	11060.578884
511.167403	11110.430855
511.532010	11012.105669
511.896561	11235.542211
512.261053	11309.374950
512.625488	11180.666731
512.989866	11156.199490
513.354186	11144.478808
513.718449	11056.069572
514.082655	11241.006822
514.446803	11129.872064
514.810894	11262.265367
515.174927	11131.709565
515.538904	11154.304017
515.902822	11305.606687
516.266684	11185.763337
516.630488	11129.746036
516.994235	11186.237206
517.357925	11252.306568
517.721558	11336.990391
518.085133	11355.448576
518.448651	11367.615400
518.812112	11243.950855
519.175516	11263.661767
519.538863	11390.308154
519.902152	11295.360542
520.265385	11457.383227
520.628560	11368.326203
520.991678	11354.447907
521.354739	11409.577965
521.717743	11342.727224
522.080690	11329.232055
522.443580	11455.202928
522.806413	11411.939746
523.169189	11444.553490
523.531908	11502.499033
523.894569	11327.485295
524.257174	11329.491674
524.619722	11443.124323
524.982213	11393.950388
525.344647	11443.545260
525.707025	11397.269988
526.069345	11490.730460
526.431608	11408.184086
526.793815	11515.124603
527.155964	11308.177676
527.518057	11363.458969
527.880093	11302.776080
528.242072	11375.000691
528.603995	11279.680033
528.965860	11193.710716
529.327669	11253.750858
529.689421	11201.418640
530.051117	11170.511326
530.412755	11278.651638
530.774337	11168.240286
531.135862	11147.473253
531.497331	11176.711945
531.858743	11023.319716
532.220098	11190.713750
532.581396	11057.841538
532.942638	11040.391584
533.303824	11006.378919
533.664953	11014.986689
534.026025	10936.122878
534.387040	11031.902281
534.747999	11034.972343
535.108902	11087.561660
535.469748	10854.597338
535.830537	10956.080806
536.191270	10935.933835
536.551947	10957.129366
536.912567	10959.458379
537.273131	10878.452078
537.633638	10864.707372
537.994089	10842.463281
538.354483	10797.024841
538.714821	10946.147213
539.075103	10959.372680
539.435328	10917.195866
539.795497	10742.625749
540.155609	10901.472507
540.515665	10994.927938
540.875665	10723.580270
541.235609	10796.200612
541.595496	10785.679724
541.955328	10943.233426
542.315102	10824.405868
542.674821	10783.181832
543.034483	10773.593558
543.394090	10780.031111
543.753640	10707.625018
544.113134	10939.308887
544.472571	10792.001331
544.831953	10928.082238
545.191278	10732.614018
545.550548	10766.132650
545.909761	10903.713300
546.268918	10872.758095
546.628019	10956.176588
546.987064	10822.369242
547.346053	10748.944836
547.704986	10844.857829
548.063863	10837.147384
548.422684	10825.668677
548.781449	10742.441747
549.140158	10839.597385
549.498811	10722.030115
549.857408	10578.478218
550.215949	10803.777466
550.574434	10662.118523
550.932864	10756.541855
551.291237	10817.048304
551.649555	10761.633420
552.007817	10779.834506
552.366022	10733.586961
552.724173	10730.940355
553.082267	10715.237161
553.440305	10852.346463
553.798288	10655.890177
554.156215	10805.466253
554.514086	10783.690989
554.871902	10634.389656
555.229661	10672.387353
555.587365	10646.337190
555.945014	10547.976717
556.302606	10665.768318
556.660143	10558.243027
557.017625	10712.270442
557.375050	10608.576428
557.732421	10746.686399
558.089735	10655.665846
558.446994	10662.284881
558.804197	10704.471777
559.161345	10701.968844
559.518437	10552.226410
559.875474	10641.328804
560.232455	10666.627835
560.589381	10613.496594
560.946251	10613.872160
561.303065	10720.099353
561.659825	10653.125104
562.016528	10590.297204
562.373177	10469.095262
562.729770	10587.073386
563.086307	10496.667853
563.442789	10591.980949
563.799216	10469.929573
564.155587	10514.122848
564.511904	10473.692795
564.868164	10457.034302
565.224370	10473.339914
565.580520	10398.085569
565.936615	10404.162680
566.292654	10272.313822
566.648638	10410.290203
567.004567	10355.659218
567.360441	10351.520431
567.716260	10259.466441
568.072023	10350.252581
568.427732	10304.375560
568.783385	10216.162930
569.138982	10281.947467
569.494525	10296.642430
569.850013	10180.703454
570.205445	10262.377708
570.560823	10152.750256
570.916145	10067.607688
571.271412	10140.913626
571.626625	10082.819369
571.981782	10060.643334
572.336884	10037.907730
572.691931	10039.835971
573.046923	9987.821346
573.401860	9942.360220
573.756743	9876.800015
574.111570	9921.943547
574.466342	9904.919571
574.821059	9934.034755
575.175722	9820.802878
575.530330	9836.503551
575.884882	9826.315379
576.239380	9755.620758
576.593823	9739.514272
576.948211	9747.310416
577.302544	9635.293457
577.656823	9650.583277
578.011047	9648.702927
578.365216	9623.020768
578.719330	9541.364158
579.073389	9556.598525
579.427394	9497.669957
579.781344	9484.479778
580.135239	9432.709649
580.489080	9443.263304
580.842866	9342.828396
581.196597	9347.093212
581.550273	9385.312720
581.903895	9356.658802
582.257463	9416.119212
582.610975	9291.837125
582.964434	9320.715375
583.317837	9246.970856
583.671186	9235.565245
584.024481	9225.235921
584.377721	9143.007140
584.730906	9123.394531
585.084037	9155.184047
585.437113	9085.832894
585.790135	9107.164536
586.143103	9010.777675
586.496016	8978.937747
586.848874	9042.849496
587.201679	9031.027990
587.554428	8913.536338
587.907124	8961.046692
588.259765	8931.974358
588.612352	8931.371940
588.964884	8807.074730
589.317362	8825.963934
589.669786	8821.799941
590.022155	8876.340184
590.374470	8888.771669
590.726731	8824.862442
591.078937	8676.251747
591.431090	8793.604767
591.783188	8658.751381
592.135232	8658.378336
592.487222	8653.412799
592.839157	8712.142242
593.191038	8641.765213
593.542866	8585.042150
593.894639	8478.154565
594.246358	8538.981128
594.598022	8551.324393
594.949633	8452.931152
595.301190	8427.435516
595.652692	8455.325700
596.004141	8565.167401
596.355535	8344.995007
596.706876	8320.162283
597.058162	8259.224815
597.409395	8335.953697
597.760573	8396.213130
598.111698	8303.712998
598.462768	8291.082387
598.813785	8257.954445
599.164748	8227.314312
599.515657	8213.446097
599.866511	8127.875031
600.217312	8248.398938
600.568060	8109.381558
600.918753	8217.385759
601.269392	8180.045933
601.619978	8093.993436
601.970510	8163.150505
602.320988	8155.611460
602.671412	8212.652116
603.021783	8152.009555
603.372100	8115.612425
603.722363	8124.898230
604.072572	8104.206814
604.422728	8111.544213
604.772830	8039.717853
605.122878	8041.237761
605.472872	8042.999645
605.822813	8069.823624
606.172701	8012.934203
606.522534	8091.510668
606.872314	8090.971265
607.222041	8057.198054
607.571714	8122.067622
607.921333	8076.172957
608.270899	8078.428874
608.620411	8165.363572
608.969870	8078.575067
609.319276	8073.823780
609.668627	8086.492199
610.017926	8112.774255
610.367171	8165.227461
610.716362	8140.677042
611.065500	8129.004250
611.414585	8164.660331
611.763616	8147.222980
612.112594	8133.624467
612.461518	8146.308010
612.810389	8205.057617
613.159207	8147.054101
613.507971	8090.522602
613.856682	8214.688742
614.205340	8173.923451
614.553945	8251.683249
614.902496	8148.110223
615.250994	8197.543777
615.599439	8180.907970
615.947830	8196.969086
616.296169	8169.998913
616.644454	8179.435953
616.992686	8179.017537
617.340864	8237.489881
617.688990	8143.575705
618.037063	8237.162206
618.385082	8181.059204
618.733048	8270.277545
619.080961	8205.942340
619.428821	8224.584527
619.776628	8227.568890
620.124382	8181.220521
620.472083	8163.057244
620.819731	8189.863580
621.167326	8082.265192
621.514868	8087.581089
621.862357	7979.592012
622.209793	7998.329980
622.557176	7925.818023
622.904506	7896.148312
623.251783	7835.110022
623.599007	7788.008001
623.946179	7790.659648
624.293297	7745.995025
624.640363	7669.924013
624.987376	7647.208574
625.334336	7595.539268
625.681243	7548.830457
626.028097	7531.892180
626.374899	7510.384097
626.721647	7504.135587
627.068343	7434.784433
627.414987	7411.660660
627.761577	7361.486056
628.108115	7398.689772
628.454600	7292.626415
628.801032	7343.627769
629.147412	7305.761142
629.493739	7295.300747
629.840014	7232.377065
630.186236	7285.054602
630.532405	7171.139649
630.878521	7219.973306
631.224585	7180.846390
631.570597	7105.413085
631.916556	7136.658156
632.262462	7130.843185
632.608316	7091.502021
632.954117	7074.914104
633.299866	7060.745941
633.645562	7048.420320
633.991206	6971.235213
634.336797	6909.884371
634.682336	6876.073352
635.027823	6838.872158
635.373257	6827.627864
635.718639	6757.702019
636.063968	6770.922445
636.409245	6672.488875
636.754470	6663.200549
637.099642	6625.424663
637.444762	6566.967443
637.789829	6577.558907
638.134845	6522.716194
638.479808	6504.522670
638.824719	6508.132136
639.169577	6439.035561
639.514383	6459.437110
639.859137	6386.889865
640.203839	6395.961422
640.548489	6383.245111
640.893086	6359.375248
641.237632	6332.309293
641.582125	6349.149267
641.926566	6315.839843
642.270955	6339.240879
642.615292	6332.271484
642.959576	6345.340675
643.303809	6336.594273
643.647990	6338.575447
643.992118	6335.845662
644.336195	6277.945490
644.680219	6299.148583
645.024192	6295.765968
645.368112	6388.429938
645.711981	6411.349544
646.055797	6485.076419
646.399562	6442.312311
646.743274	6565.651701
647.086935	6625.802749
647.430544	6616.310256
647.774101	6641.631972
648.117606	6648.707232
648.461059	6631.915148
648.804460	6599.356856
649.147810	6508.222877
649.491108	6478.548125
649.834354	6456.125072
650.177548	6372.809923
650.520690	6288.541995
650.863781	6265.801350
651.206820	6278.275685
651.549807	6202.013110
651.892742	6142.348533
652.235626	6150.782384
652.578458	6134.905270
652.921238	6043.171393
653.263967	6086.674030
653.606644	6020.760944
653.949269	6026.480133
654.291843	5965.114167
654.634365	6012.964799
654.976836	5971.995342
655.319255	5967.375125
655.661622	5949.244615
656.003938	5940.664571
656.346203	5904.572430
656.688416	5939.822698
657.030577	5893.129011
657.372687	5860.979052
657.714746	5849.147464
658.056753	5891.808228
658.398708	5827.992262
658.740612	5822.429349
659.082465	5868.586153
659.424266	5864.964084
659.766016	5861.286563
660.107715	5835.327141
660.449362	5851.617629
660.790958	5841.784859
661.132503	5837.290670
661.473996	5872.510692
661.815438	5853.150140
662.156829	5856.870512
662.498168	5841.023645
662.839456	5819.137475
663.180693	5853.041755
663.521879	5860.164906
663.863013	5847.279717
664.204097	5864.308734
664.545129	5907.241721
664.886110	5902.503036
665.227040	5932.041677
665.567918	5898.986832
665.908746	5931.827428
666.249522	5930.347850
666.590248	5915.035345
666.930922	5945.960303
667.271545	5958.220389
667.612118	5962.764989
667.952639	5937.801196
668.293109	5955.178053
668.633528	5915.357979
668.973896	5921.684627
669.314213	5910.679788
669.654480	5892.266973
669.994695	5888.259256
670.334859	5877.385487
670.674973	5870.158993
671.015035	5869.203695
671.355047	5868.636565
671.695008	5852.981262
672.034918	5832.360422
672.374777	5840.406103
672.714585	5823.545964
673.054342	5828.398075
673.394049	5822.467157
673.733705	5857.508218
674.073310	5841.031206
674.412864	5797.954547
674.752368	5790.949863
675.091820	5800.013858
675.431223	5730.841666
675.770574	5732.963991
676.109875	5681.985323
676.449125	5689.294996
676.788324	5652.736548
677.127473	5595.224545
677.466571	5593.429894
677.805619	5581.774746
678.144616	5564.952416
678.483562	5545.294437
678.822458	5515.478532
679.161303	5507.079970
679.500098	5503.067211
679.838842	5482.521989
680.177535	5484.845961
680.516179	5502.792468
680.854771	5511.546432
681.193314	5592.595583
681.531805	5708.587492
681.870247	5857.752714
682.208638	5953.839627
682.546978	5966.949147
682.885268	5944.503410
683.223508	5857.057034
683.561697	5801.027130
683.899836	5776.519561
684.237925	5730.539196
684.575963	5699.102561
684.913951	5654.201004
685.251889	5718.889090
685.589776	5686.194687
685.927614	5654.790819
686.265401	5729.432663
686.603137	5715.584613
686.940824	5785.250839
687.278460	5814.071116
687.616046	5821.345501
687.953582	5889.925358
688.291068	5872.135126
688.628504	5932.707110
688.965889	5894.515328
689.303224	5839.566751
689.640510	5792.931037
689.977745	5717.860694
690.314930	5616.931753
690.652065	5566.046346
690.989150	5471.242407
691.326185	5395.277260
691.663170	5337.916491
692.000105	5264.776910
692.336990	5188.688255
692.673825	5160.251106
693.010610	5095.328606
693.347345	5023.182133
693.684030	5011.781563
694.020665	4966.721210
694.357251	4877.704515
694.693786	4885.692223
695.030272	4854.794991
695.366707	4819.610258
695.703093	4789.146565
696.039429	4809.681706
696.375716	4791.715033
696.711952	4764.502885
697.048139	4754.705402
697.384276	4736.499275
697.720363	4743.062857
698.056400	4755.383437
698.392388	4702.504254
698.728326	4686.740566
699.064214	4659.016741
699.400053	4653.287469
699.735842	4624.131956
700.071581	4597.335703
700.407270	4571.635900
700.742910	4552.978590
701.078501	4500.664016
701.414042	4498.319879
701.749533	4467.092452
702.084974	4400.650044
702.420366	4461.842090
702.755709	4403.261362
703.091002	4347.392774
703.426246	4394.706524
703.761440	4349.056355
704.096584	4313.606961
704.431679	4335.777956
704.766725	4319.396727
705.101721	4308.003719
705.436668	4336.892051
705.771565	4283.365079
706.106413	4310.577228
706.441212	4345.162064
706.775961	4354.604145
707.110661	4330.918284
707.445311	4357.565823
707.779913	4385.435842
708.114465	4396.972522
708.448967	4419.430863
708.783421	4478.150223
709.117825	4518.335781
709.452180	4526.434394
709.786485	4571.212443
710.120742	4658.333664
710.454949	4643.187517
710.789107	4708.480542
711.123216	4786.568015
711.457275	4774.290285
711.791286	4846.613199
712.125247	4865.527608
712.459159	4766.569758
712.793023	4841.922405
713.126837	4798.263492
713.460602	4793.328202
713.794318	4711.767374
714.127985	4719.651739
714.461602	4633.637052
714.795171	4604.224439
715.128691	4538.873442
715.462162	4484.378568
715.795584	4434.677833
716.128957	4418.588990
716.462281	4363.786607
716.795556	4338.477494
717.128782	4301.750168
717.461960	4231.237028
717.795088	4239.801948
718.128167	4200.775856
718.461198	4142.737052
718.794180	4136.516268
719.127113	4119.877940
719.459997	4095.806430
719.792833	4056.019123
720.125619	4045.432700
720.458357	4007.561032
720.791046	4014.185108
721.123686	3988.039164
721.456278	3946.421918
721.788821	3962.016727
722.121315	3936.667285
722.453761	3909.180394
722.786158	3920.253288
723.118506	3944.453347
723.450805	3895.226480
723.783056	3920.044081
724.115259	3934.217285
724.447412	3942.066361
724.779518	3933.801389
725.111574	3939.117286
725.443582	3967.725834
725.775542	3953.229996
726.107453	4002.230012
726.439315	4005.617667
726.771129	4019.218700
727.102895	4055.099113
727.434612	4101.455043
727.766281	4112.679172
728.097901	4113.790746
728.429473	4117.589256
728.760996	4126.970843
729.092471	4121.670070
729.423897	4107.746403
729.755276	4112.963997
730.086606	4115.071199
730.417887	4151.861540
730.749120	4213.033422
731.080305	4278.011374
731.411442	4308.485149
731.742530	4275.001805
732.073570	4279.183442
732.404562	4336.042617
732.735506	4325.078107
733.066401	4288.025626
733.397249	4223.692941
733.728048	4145.817197
734.058798	4061.345102
734.389501	3990.332889
734.720156	3929.206378
735.050762	3884.514028
735.381320	3876.165877
735.711831	3827.322138
736.042293	3795.802323
736.372707	3820.750994
736.703073	3792.341571
737.033391	3781.593831
737.363661	3799.764670
737.693883	3826.356757
738.024056	3835.413190
738.354182	3829.431861
738.684260	3895.581882
739.014290	3914.665169
739.344272	3911.630395
739.674207	3951.248823
740.004093	3960.761480
740.333931	3952.536838
740.663722	3950.371662
740.993464	3952.604893
741.323159	3929.055143
741.652806	3895.838980
741.982405	3868.236142
742.311956	3838.594158
742.641460	3827.203671
742.970915	3803.079229
743.300323	3763.707818
743.629683	3729.453177
743.958996	3717.230900
744.288260	3694.160059
744.617477	3662.791479
744.946647	3649.616424
745.275768	3620.425622
745.604842	3620.990232
745.933869	3571.183632
746.262847	3564.473856
746.591778	3603.152109
746.920662	3574.115063
747.249498	3543.638767
747.578286	3587.464038
747.907027	3605.287037
748.235720	3602.524485
748.564365	3625.073566
748.892963	3628.589771
749.221514	3610.086216
749.550017	3589.772886
749.878473	3584.698965
750.206881	3553.610169
750.535242	3551.361815
750.863555	3550.668656
751.191821	3546.207235
751.520039	3529.347096
751.848210	3504.804238
752.176334	3541.221534
752.504411	3550.053635
752.832440	3504.529495
753.160421	3490.799913
753.488356	3496.740913
753.816243	3512.371010
754.144082	3466.637663
754.471875	3452.862710
754.799620	3471.278045
755.127318	3458.329841
755.454969	3463.731437
755.782572	3468.906182
756.110129	3444.018005
756.437638	3433.620625
756.765100	3450.052266
757.092515	3461.556179
757.419882	3466.423413
757.747203	3434.812858
758.074477	3441.129424
758.401703	3455.511836
758.728882	3477.771051
759.056014	3484.304386
759.383099	3489.012824
759.710138	3483.691886
760.037129	3502.777694
760.364073	3533.359854
760.690970	3517.089530
761.017820	3495.684791
761.344623	3513.946371
761.671379	3559.044533
761.998088	3607.588324
762.324751	3739.175042
762.651366	3982.198987
762.977935	4457.426039
763.304456	4902.547321
763.630931	4994.724819
763.957359	4634.080673
764.283740	4292.592912
764.610074	4096.970937
764.936362	3904.343407
765.262602	3740.163108
765.588796	3630.787714
765.914943	3545.269580
766.241044	3460.048874
766.567097	3427.170469
766.893104	3381.482492
767.219064	3346.501925
767.544978	3323.027792
767.870845	3264.883124
768.196665	3248.741349
768.522438	3256.751743
768.848165	3251.093047
769.173846	3218.539797
769.499479	3198.617157
769.825066	3180.756348
770.150607	3165.426200
770.476101	3181.557892
770.801548	3178.064372
771.126949	3130.448154
771.452303	3114.137500
771.777611	3118.094806
772.102872	3124.875158
772.428087	3099.719800
772.753256	3089.201433
773.078378	3082.234558
773.403453	3046.971687
773.728482	3036.019780
774.053465	3055.372770
774.378401	3045.910524
774.703291	3014.284846
775.028135	3016.442459
775.352932	3009.868795
775.677683	2997.298678
776.002388	2998.299347
776.327046	2996.643328
776.651658	2986.056905
776.976224	2974.666418
777.300743	2972.662559
777.625216	2964.954635
777.949643	2959.999180
778.274024	2961.100673
778.598359	2949.332099
778.922647	2955.764611
779.246889	2952.278653
779.571086	2941.140224
779.895236	2933.833071
780.219339	2944.611058
780.543397	2955.283181
780.867409	2960.631845
781.191374	2955.545321
781.515294	2952.223201
781.839167	2953.231431
782.162995	2941.883794
782.486776	2949.561471
782.810511	2951.300669
783.134201	2933.170160
783.457844	2941.863629
783.781441	2933.366765
784.104993	2913.146697
784.428498	2914.648960
784.751958	2926.944335
785.075372	2921.724220
785.398739	2906.580594
785.722061	2921.454518
786.045337	2934.959769
786.368568	2918.596184
786.691752	2910.752148
787.014891	2958.096145
787.337983	2989.842811
787.661030	3016.946575
787.984031	3082.393355
788.306987	3127.214253
788.629897	3121.633696
788.952760	3106.026284
789.275579	3088.780497
789.598351	3031.205478
789.921078	2985.961123
790.243759	2976.234216
790.566395	2959.449695
790.888984	2937.477826
791.211529	2919.347316
791.534027	2909.640574
791.856480	2900.810993
792.178888	2884.535628
792.501249	2879.060935
792.823566	2876.759648
793.145836	2871.282434
793.468062	2867.214223
793.790241	2864.524768
794.112375	2872.552805
794.434464	2880.288456
794.756507	2885.921945
795.078505	2893.261865
795.400457	2906.966242
795.722364	2943.053342
796.044226	2967.666775
796.366042	2973.252374
796.687812	2959.873152
797.009538	2979.105153
797.331218	2965.990592
797.652852	2955.694035
797.974442	2932.880293
798.295986	2930.460539
798.617484	2925.792431
798.938938	2911.616706
799.260346	2898.454254
799.581709	2888.797923
799.903026	2882.501522
800.224299	2880.480020
800.545526	2867.665407
800.866708	2855.168386
801.187845	2840.569205
801.508936	2841.852178
801.829983	2852.539424
802.150984	2836.309430
802.471940	2825.929694
802.792851	2824.533294
803.113717	2823.235197
803.434538	2834.630725
803.755314	2822.136226
804.076045	2818.015082
804.396731	2818.814105
804.717372	2818.277222
805.037967	2813.319247
805.358518	2820.066832
805.679024	2830.413800
805.999485	2827.174859
806.319901	2829.846670
806.640272	2820.991884
806.960598	2825.443222
807.280879	2835.646518
807.601115	2844.098012
807.921306	2831.379181
808.241453	2828.127637
808.561554	2832.188286
808.881611	2836.569049
809.201623	2829.483707
809.521590	2830.055878
809.841513	2826.093531
810.161390	2831.487566
810.481223	2822.194199
810.801011	2813.561223
811.120755	2810.370172
811.440453	2813.974597
811.760107	2811.166675
812.079716	2810.299596
812.399281	2801.422124
812.718801	2794.949283
813.038276	2789.429219
813.357707	2795.718059
813.677093	2803.788946
813.996434	2796.411217
814.315731	2795.226546
814.634983	2786.036523
814.954191	2790.371915
815.273354	2805.248360
815.592473	2809.840851
815.911547	2814.992911
816.230577	2822.229487
816.549562	2829.019921
816.868502	2828.299036
817.187399	2838.812362
817.506250	2854.969261
817.825058	2849.426512
818.143821	2862.614170
818.462539	2878.425749
818.781213	2904.712846
819.099843	2939.335491
819.418429	3000.847650
819.736970	3060.318142
820.055466	3132.366313
820.373919	3241.403950
820.692327	3378.997203
821.010691	3549.814180
821.329011	3996.921677
821.647286	4899.273092
821.965517	6291.052490
822.283704	7040.052005
822.601847	7020.441916
822.919945	6381.137909
823.237999	5869.039857
823.556010	5284.593686
823.873976	4728.317482
824.191897	4316.828259
824.509775	4017.045963
824.827609	3748.309613
825.145398	3624.546766
825.463144	3610.499590
825.780845	3703.937377
826.098502	3811.208090
826.416116	4088.302672
826.733685	4415.723094
827.051210	4480.209534
827.368692	4362.163355
827.686129	4089.557920
828.003522	3767.864249
828.320872	3505.245339
828.638177	3311.342398
828.955439	3172.473733
829.272656	3088.198243
829.589830	3023.046371
829.906960	2971.815645
830.224046	2924.537184
830.541088	2891.442009
830.858086	2874.654966
831.175041	2859.145857
831.491952	2858.288860
831.808819	2873.142620
832.125642	2894.766650
832.442421	2941.107456
832.759157	3021.889426
833.075849	3202.269472
833.392497	3481.529231
833.709101	3689.882640
834.025662	3640.484373
834.342179	3479.822800
834.658653	3299.861170
834.975083	3152.692245
835.291469	3056.005435
835.607811	2967.417238
835.924110	2908.287024
836.240366	2861.200127
836.556578	2817.125319
836.872746	2792.426185
837.188871	2768.652104
837.504952	2753.770618
837.820990	2745.122518
838.136984	2731.612226
838.452935	2725.814899
838.768842	2722.460011
839.084706	2739.932650
839.400526	2819.272850
839.716303	2954.491720
840.032037	3036.370141
840.347727	3021.017307
840.663373	2958.244859
840.978977	2881.934393
841.294537	2808.555357
841.610054	2762.937956
841.925527	2738.611868
842.240957	2716.705534
842.556344	2693.387677
842.871687	2678.254133
843.186987	2670.974707
843.502244	2665.429438
843.817458	2659.581699
844.132629	2649.053249
844.447756	2638.910448
844.762840	2633.082874
845.077881	2635.568163
845.392879	2635.588327
845.707833	2630.572379
846.022745	2621.558796
846.337613	2627.141874
846.652438	2625.702625
846.967221	2624.407048
847.281960	2623.479476
847.596656	2619.996039
847.911309	2618.899588
848.225919	2618.760956
848.540485	2617.278857
848.855009	2616.673918
849.169490	2612.920779
849.483928	2614.118053
849.798323	2614.972529
850.112675	2612.257867
850.426984	2611.761314
850.741251	2610.168309
851.055474	2610.831221
851.369654	2615.680811
851.683792	2614.738115
851.997887	2612.794750
852.311938	2608.202259
852.625947	2611.675614
852.939914	2614.443208
853.253837	2615.983280
853.567718	2609.326437
853.881555	2611.136211
854.195350	2614.869185
854.509103	2613.581170
854.822812	2611.915069
855.136479	2610.223762
855.450103	2614.075203
855.763685	2612.635954
856.077224	2612.595625
856.390720	2609.558330
856.704173	2614.788527
857.017584	2614.113012
857.330953	2616.275667
857.644278	2619.817078
857.957561	2620.169958
858.270802	2615.383383
858.584000	2614.264247
858.897155	2618.307252
859.210268	2621.155504
859.523339	2615.050667
859.836367	2607.965325
860.149352	2608.441714
860.462295	2611.670573
860.775195	2608.388782
861.088054	2608.282918
861.400869	2608.020778
861.713642	2602.442741
862.026373	2606.752927
862.339062	2609.331478
862.651708	2614.448249
862.964312	2615.121243
863.276873	2613.334154
863.589392	2613.964298
863.901869	2623.169445
864.214303	2622.980402
864.526696	2629.791001
864.839045	2627.880403
865.151353	2632.394757
865.463619	2632.911475
865.775842	2630.169087
866.088023	2633.110600
866.400162	2630.998357
866.712258	2629.851494
867.024313	2630.348048
867.336325	2626.206740
867.648296	2628.356792
867.960224	2636.278966
868.272110	2633.987761
868.583954	2624.447377
868.895755	2629.014663
869.207515	2631.966258
869.519233	2640.135448
869.830909	2637.526651
870.142542	2632.193110
870.454134	2631.557925
870.765684	2639.389357
871.077191	2638.507156
871.388657	2643.608803
871.700081	2642.111581
872.011463	2641.375572
872.322803	2644.886736
872.634101	2647.750111
872.945357	2652.125833
873.256571	2660.380722
873.567744	2654.359064
873.878874	2656.647748
874.189963	2655.596667
874.501010	2662.997081
874.812015	2666.823317
875.122979	2664.474139
875.433900	2657.270330
875.744780	2658.800320
876.055618	2662.011535
876.366415	2668.272648
876.677169	2667.312309
876.987882	2662.893737
877.298554	2664.307781
877.609183	2670.079902
877.919771	2678.957374
878.230317	2683.151614
878.540822	2695.646114
878.851285	2711.223279
879.161707	2732.121382
879.472087	2773.075716
879.782425	2819.494661
880.092722	2936.595624
880.402977	3126.770632
880.713191	3389.298801
881.023363	3692.821633
881.333494	3888.425964
881.643583	4060.707396
881.953631	4056.636665
882.263637	3877.413563
882.573602	3653.130108
882.883526	3523.577495
883.193408	3408.256060
883.503248	3299.992240
883.813048	3183.251720
884.122806	3068.396591
884.432522	2984.065649
884.742197	2917.661050
885.051831	2879.275184
885.361424	2842.900738
885.670975	2806.090233
885.980485	2773.184101
886.289954	2758.511823
886.599382	2741.008937
886.908768	2731.246742
887.218113	2712.949874
887.527417	2699.132072
887.836680	2689.836184
888.145901	2686.423323
888.455082	2677.273629
888.764221	2666.130158
889.073319	2658.056750
889.382376	2657.111534
889.691392	2657.421565
890.000366	2659.211174
890.309300	2658.628921
890.618193	2657.497182
890.927044	2662.475322
891.235855	2660.189158
891.544625	2662.114879
891.853353	2660.778973
892.162041	2668.552432
892.470687	2688.240659
892.779293	2699.416897
893.087858	2708.561550
893.396381	2733.227916
893.704864	2774.736777
894.013306	2846.568178
894.321707	2939.053186
894.630068	2990.818274
894.938387	3013.173271
895.246665	3007.275121
895.554903	2962.935653
895.863100	2917.013262
896.171256	2858.069570
896.479371	2796.406176
896.787446	2758.968047
897.095480	2738.369893
897.403473	2731.518965
897.711425	2714.537838
898.019336	2697.423121
898.327207	2683.491892
898.635038	2682.793692
898.942827	2681.591377
899.250576	2670.069820
899.558284	2659.876607
899.865952	2652.839156
900.173579	2650.406799
900.481165	2645.491674
900.788711	2639.931282
901.096216	2638.045890
901.403681	2630.043058
901.711105	2631.300826
902.018489	2627.167080
902.325832	2633.095477
902.633135	2635.772330
902.940397	2651.674649
903.247619	2685.432736
903.554800	2759.194899
903.861941	2889.899416
904.169041	3019.789786
904.476101	3086.010382
904.783121	3071.839699
905.090100	3019.570495
905.397039	2936.199893
905.703938	2866.674820
906.010796	2797.590847
906.317614	2745.825759
906.624391	2714.477344
906.931129	2683.645647
907.237826	2659.927018
907.544483	2642.393885
907.851099	2628.558438
908.157675	2617.712396
908.464211	2610.576643
908.770707	2596.678182
909.077163	2594.427306
909.383578	2594.308839
909.689954	2592.758684
909.996289	2588.985381
910.302584	2589.948241
910.608839	2585.859865
910.915054	2587.026892
911.221229	2590.192737
911.527363	2590.306163
911.833458	2589.386152
912.139513	2590.636359
912.445527	2593.189703
912.751502	2599.508789
913.057436	2602.873760
913.363331	2608.429111
913.669186	2620.452263
913.975000	2634.317957
914.280775	2652.307314
914.586510	2672.429080
914.892205	2710.598176
915.197859	2777.406067
915.503475	2861.384129
915.809050	2929.933739
916.114585	2949.075000
916.420081	2961.831640
916.725536	2970.739359
917.030952	2944.094340
917.336328	2896.342010
917.641665	2846.379134
917.946961	2791.445681
918.252218	2760.026690
918.557435	2733.343862
918.862612	2708.465768
919.167750	2691.184693
919.472848	2674.150634
919.777906	2657.895433
920.082925	2644.170892
920.387904	2633.002216
920.692843	2627.976185
920.997743	2625.866462
921.302603	2615.338012
921.607423	2608.567743
921.912204	2606.077413
922.216946	2603.032556
922.521647	2602.364603
922.826310	2595.425455
923.130932	2591.831112
923.435516	2585.595205
923.740059	2582.870461
924.044564	2580.974987
924.349028	2579.613876
924.653454	2571.197669
924.957840	2569.690364
925.262186	2567.578121
925.566493	2569.720611
925.870761	2562.463870
926.174989	2567.867987
926.479178	2564.311453
926.783328	2561.198541
927.087438	2561.246432
927.391509	2558.713252
927.695541	2557.826009
927.999533	2555.582695
928.303486	2557.004301
928.607400	2555.479352
928.911275	2551.791748
929.215110	2554.516491
929.518906	2553.581357
929.822663	2556.076728
930.126381	2552.560524
930.430060	2556.175031
930.733699	2555.151677
931.037299	2555.711245
931.340861	2555.060936
931.644383	2556.280895
931.947866	2555.600339
932.251309	2555.028168
932.554714	2557.591595
932.858080	2558.488921
933.161407	2554.468600
933.464694	2554.881975
933.767943	2554.294681
934.071153	2554.410627
934.374323	2552.416851
934.677455	2549.455173
934.980548	2552.799978
935.283602	2552.852911
935.586617	2548.167158
935.889593	2551.320400
936.192530	2552.893240
936.495428	2550.803682
936.798287	2554.569423
937.101108	2551.335523
937.403890	2554.335010
937.706632	2562.055537
938.009336	2563.371278
938.312002	2566.753892
938.614628	2568.311609
938.917216	2574.907959
939.219765	2573.675397
939.522275	2577.204204
939.824747	2574.517269
940.127179	2570.204562
940.429573	2566.748851
940.731929	2565.475960
941.034246	2565.160888
941.336524	2565.095353
941.638763	2567.381516
941.940964	2565.208779
942.243126	2566.448903
942.545250	2562.158881
942.847335	2563.154508
943.149381	2559.550083
943.451389	2560.807851
943.753359	2555.532284
944.055290	2556.139743
944.357182	2557.967161
944.659036	2554.697973
944.960851	2554.904660
945.262628	2554.292160
945.564367	2555.590257
945.866067	2557.589075
946.167729	2560.901113
946.469352	2554.002294
946.770937	2557.873900
947.072484	2556.716955
947.373992	2555.686039
947.675462	2556.669064
947.976893	2552.840308
948.278286	2552.860472
948.579641	2553.810730
948.880958	2553.190668
949.182236	2552.684032
949.483476	2549.671942
949.784678	2550.907025
950.085841	2552.109340
950.386967	2552.905843
950.688054	2555.373488
950.989103	2555.968344
951.290114	2554.904660
951.591087	2558.284754
951.892021	2555.532284
952.192917	2559.993705
952.493776	2561.069991
952.794596	2560.916236
953.095378	2560.175187
953.396122	2559.608057
953.696828	2558.400700
953.997496	2556.112017
954.298126	2555.053374
954.598718	2553.616645
954.899272	2554.027499
955.199788	2552.699155
955.500266	2549.893753
955.800706	2546.306972
956.101108	2541.795140
956.401472	2544.628268
956.701798	2541.381765
957.002087	2541.525438
957.302337	2543.816642
957.602550	2545.069369
957.902724	2541.056611
958.202861	2542.044677
958.502960	2541.711961
958.803022	2543.511653
959.103045	2542.412681
959.403031	2542.979811
959.702979	2539.798843
960.002889	2537.439583
960.302762	2540.237423
960.602596	2538.629295
960.902393	2539.438400
961.202153	2540.076106
961.501875	2538.399923
961.801559	2539.758513
962.101205	2537.094264
962.400814	2539.181301
962.700385	2535.977648
962.999918	2539.559388
963.299414	2535.407998
963.598873	2537.003523
963.898293	2537.414377
964.197677	2536.075951
964.497022	2537.404295
964.796331	2533.121834
965.095601	2537.111908
965.394835	2537.096784
965.694030	2534.293903
965.993189	2539.488812
966.292309	2536.454037
966.591393	2534.850950
966.890439	2536.048224
967.189447	2534.435055
967.488419	2534.261135
967.787353	2536.159130
968.086249	2535.536547
968.385108	2535.460930
968.683930	2535.178625
968.982714	2536.108718
969.281462	2534.752648
969.580172	2535.816331
969.878844	2535.924716
970.177480	2537.986548
970.476078	2538.510828
970.774639	2539.503935
971.073162	2535.380271
971.371649	2535.344983
971.670098	2532.985723
971.968510	2535.539068
972.266885	2532.900024
972.565223	2536.237267
972.863524	2537.936136
973.161788	2538.999820
973.460014	2538.621733
973.758204	2537.810108
974.056356	2537.384130
974.354471	2536.612833
974.652550	2534.906403
974.950591	2539.592155
975.248595	2534.361958
975.546563	2536.297761
975.844493	2538.102494
976.142386	2537.981507
976.440243	2537.053934
976.738062	2535.597041
977.035845	2536.862371
977.333590	2535.317257
977.631299	2534.732483
977.928971	2534.873635
978.226606	2533.981351
978.524204	2534.543440
978.821765	2535.947401
979.119290	2536.259953
979.416777	2532.824406
979.714228	2536.154088
980.011642	2534.616537
980.309020	2536.627957
980.606360	2533.767102
980.903664	2535.970086
981.200931	2537.091743
981.498162	2538.634336
981.795356	2540.860006
982.092513	2541.326312
982.389633	2545.306303
982.686717	2548.232693
982.983764	2551.257385
983.280775	2549.417364
983.577749	2552.205122
983.874686	2546.390151
984.171587	2546.727909
984.468451	2545.825542
984.765279	2544.895449
985.062070	2539.962680
985.358824	2539.239275
985.655543	2536.421270
985.952224	2536.693492
986.248869	2537.167360
986.545478	2531.213758
986.842050	2534.261135
987.138586	2530.238294
987.435086	2532.340456
987.731549	2530.518078
988.027975	2533.550333
988.324366	2531.475898
988.620719	2534.268697
988.917037	2531.886752
989.213318	2532.239633
989.509563	2529.696370
989.805772	2532.602596
990.101944	2528.940197
990.398080	2531.916999
990.694180	2530.056813
990.990244	2533.172246
991.286271	2533.373892
991.582262	2531.223840
991.878217	2531.725435
992.174136	2533.915816
992.470019	2530.233253
992.765865	2531.778367
993.061676	2530.961700
993.357450	2532.254756
993.653188	2533.847761
993.948890	2532.874818
994.244556	2529.850126
994.540186	2532.544622
994.835780	2531.700229
995.131337	2532.403470
995.426859	2536.270035
995.722345	2531.821217
996.017795	2538.039480
996.313208	2535.357586
996.608586	2537.053934
996.903928	2536.958153
997.199234	2535.372710
997.494504	2535.546629
997.789738	2537.323636
998.084936	2537.134593
998.380099	2531.460774
998.675225	2534.180477
998.970316	2533.741896
999.265371	2534.240971
999.560390	2530.492873
999.855373	2533.220137
1000.150320	2531.861546
1000.445232	2533.273069
1000.740108	2532.559746
1001.034948	2531.543953
1001.329752	2531.783408
1001.624521	2532.864736
1001.919254	2528.279806
1002.213951	2528.491535
1002.508613	2526.802748
1002.803239	2529.368695
1003.097829	2525.718900
1003.392384	2531.009591
1003.686903	2532.101001
1003.981386	2533.578059
1004.275834	2531.075126
1004.570246	2529.935825
1004.864623	2530.681916
1005.158964	2530.737369
1005.453270	2529.338448
1005.747540	2527.470701
1006.041775	2533.323481
1006.335974	2530.409694
1006.630138	2527.135464
1006.924266	2529.966072
1007.218359	2532.494211
1007.512416	2530.533202
1007.806438	2530.248377
1008.100425	2531.019673
1008.394376	2528.398273
1008.688292	2530.830630
1008.982172	2529.048582
1009.276017	2531.410363
1009.569827	2531.042358
1009.863602	2533.716691
1010.157341	2528.305012
1010.451045	2528.985568
1010.744714	2529.716535
1011.038347	2528.494055
1011.331945	2530.389529
1011.625508	2530.336597
1011.919036	2532.486649
1012.212528	2527.710156
1012.505986	2528.521782
1012.799408	2528.368026
1013.092795	2527.354754
1013.386147	2532.549663
1013.679464	2527.616894
1013.972745	2529.792152
1014.265992	2529.847605
1014.559204	2530.323994
1014.852380	2532.405991
1015.145521	2530.127389
1015.438628	2532.927750
1015.731699	2529.769467
1016.024736	2528.315094
1016.317737	2530.245856
1016.610703	2529.605630
1016.903635	2525.970958
1017.196531	2524.708149
1017.489393	2525.363499
1017.782219	2526.391894
1018.075011	2524.090607
1018.367768	2529.343490
1018.660490	2528.841895
1018.953177	2528.841895
1019.245829	2528.841895
