Dividing Wavelength (nm)	Counts (n)	Blue Motor Position (mm): 36.500000	Red Motor Position (mm): 0.000000	
326.493990	2154.989926
326.888308	2154.989926
327.282561	2154.989926
327.676750	2128.223919
328.070874	2129.491769
328.464933	2135.987296
328.858929	2143.977525
329.252859	2157.548311
329.646726	2169.876453
330.040528	2184.851200
330.434265	2204.214272
330.827938	2221.623897
331.221547	2241.347412
331.615091	2261.943046
332.008571	2279.667743
332.401986	2303.482153
332.795338	2322.779690
333.188625	2343.677793
333.581847	2364.033973
333.975006	2383.013917
334.368100	2401.202400
334.761129	2418.959864
335.154095	2434.194231
335.546996	2456.798765
335.939833	2489.677171
336.332606	2501.977586
336.725315	2513.889832
337.117960	2524.574558
337.510540	2530.659231
337.903056	2539.982845
338.295508	2548.361242
338.687896	2552.159752
339.080220	2561.586710
339.472480	2565.523851
339.864676	2572.299162
340.256807	2575.487691
340.648875	2576.004410
341.040879	2579.727302
341.432818	2580.254102
341.824694	2581.859710
342.216506	2580.387693
342.608253	2579.424832
342.999937	2576.987435
343.391557	2578.356108
343.783113	2576.556416
344.174605	2576.682445
344.566033	2570.655745
344.957397	2573.977866
345.348697	2571.215313
345.739934	2569.892011
346.131106	2565.506207
346.522215	2568.997206
346.913260	2564.079560
347.304241	2562.453788
347.695159	2557.838612
348.086012	2560.112172
348.476802	2555.345761
348.867528	2556.497665
349.258191	2558.158725
349.648789	2555.494475
350.039324	2552.132026
350.429796	2555.423899
350.820203	2549.240924
351.210548	2551.466593
351.600828	2549.924000
351.991045	2547.597508
352.381198	2547.395862
352.771288	2548.517518
353.161314	2547.302600
353.551276	2549.823177
353.941175	2547.347971
354.331010	2549.339226
354.720782	2548.910728
355.110490	2549.205636
355.500135	2547.340409
355.889717	2550.750749
356.279235	2547.665563
356.668689	2549.124977
357.058080	2549.578681
357.447408	2546.105326
357.836672	2546.153217
358.225873	2547.952909
358.615010	2544.305634
359.004084	2551.864844
359.393095	2553.422561
359.782043	2552.996583
360.170927	2551.998435
360.559748	2553.944320
360.948505	2553.251162
361.337199	2553.394835
361.725830	2556.628735
362.114398	2554.022458
362.502903	2555.209650
362.891344	2559.534960
363.279722	2553.757798
363.668037	2557.899106
364.056289	2558.594785
364.444478	2558.965310
364.832603	2558.504044
365.220665	2558.688046
365.608665	2561.811041
365.996601	2564.124931
366.384474	2559.446740
366.772284	2562.214333
367.160031	2560.654096
367.547715	2560.790207
367.935336	2561.904302
368.322893	2558.940104
368.710388	2562.718449
369.097820	2566.000240
369.485189	2565.123079
369.872495	2563.749365
370.259738	2562.713408
370.646918	2564.681978
371.034035	2566.789180
371.421090	2568.142730
371.808081	2566.998388
372.195010	2564.760116
372.581875	2565.617112
372.968678	2566.607699
373.355418	2564.490414
373.742096	2566.786660
374.128710	2564.780281
374.515262	2564.808007
374.901751	2566.534602
375.288177	2565.639797
375.674540	2567.502504
376.060841	2566.877401
376.447079	2570.622978
376.833254	2568.664490
377.219367	2562.849519
377.605417	2566.458985
377.991404	2564.306412
378.377329	2562.668037
378.763191	2566.320353
379.148991	2568.914027
379.534727	2570.005437
379.920402	2571.895869
380.306013	2569.529048
380.691563	2570.895200
381.077049	2571.391754
381.462474	2570.048286
381.847835	2570.895200
382.233134	2572.727660
382.618371	2573.269584
383.003545	2571.790005
383.388657	2571.537947
383.773706	2575.563309
384.158693	2572.548699
384.543618	2572.561302
384.928480	2575.825449
385.313280	2575.754873
385.698017	2572.591548
386.082692	2574.875191
386.467305	2578.285532
386.851856	2577.113463
387.236344	2574.575242
387.620770	2576.427867
388.005133	2576.737897
388.389435	2579.795357
388.773674	2575.570870
389.157851	2574.590366
389.541965	2578.464493
389.926018	2574.945767
390.310008	2577.481468
390.693936	2580.188567
391.077802	2577.869637
391.461606	2579.792837
391.845348	2578.585480
392.229027	2578.645974
392.612645	2582.182344
392.996200	2579.901222
393.379694	2581.821901
393.763125	2583.097313
394.146494	2581.993300
394.529801	2581.360636
394.913047	2582.547827
395.296230	2580.475913
395.679351	2583.009093
396.062410	2584.521439
396.445408	2582.071438
396.828343	2584.672674
397.211217	2577.753690
397.594028	2581.000193
397.976778	2583.455235
398.359466	2581.847107
398.742092	2581.254771
399.124656	2584.271902
399.507158	2584.655030
399.889598	2585.065884
400.271977	2584.317272
400.654294	2587.089907
401.036549	2587.165524
401.418742	2590.790114
401.800874	2591.440423
402.182944	2590.253231
402.564952	2592.685588
402.946898	2593.464446
403.328783	2594.132399
403.710606	2595.770774
404.092367	2596.108531
404.474067	2599.740682
404.855705	2600.864860
405.237282	2603.191352
405.618797	2605.618668
406.000250	2612.399020
406.381642	2614.743156
406.762972	2617.558641
407.144240	2622.975361
407.525447	2627.338479
407.906593	2630.332925
408.287677	2637.481281
408.668700	2641.993113
409.049661	2646.499905
409.430560	2654.684218
409.811399	2665.318532
410.192176	2670.152999
410.572891	2678.720440
410.953545	2688.901050
411.334138	2692.538242
411.714669	2706.451827
412.095139	2709.201777
412.475547	2725.164590
412.855894	2732.161712
413.236180	2746.695358
413.616405	2754.254568
413.996568	2768.747886
414.376670	2780.645009
414.756711	2789.283026
415.136691	2807.163999
415.516609	2821.649754
415.896466	2837.244564
416.276262	2860.431351
416.655997	2877.276366
417.035670	2895.043913
417.415283	2930.775612
417.794834	2950.509208
418.174324	2962.766774
418.553753	2978.550627
418.933121	3011.116480
419.312428	3021.975126
419.691674	3035.845861
420.070859	3069.432548
420.449983	3077.206007
420.829045	3120.202008
421.208047	3128.771970
421.586988	3170.701767
421.965867	3205.949515
422.344686	3223.104561
422.723444	3263.998401
423.102141	3230.197465
423.480777	3306.520534
423.859352	3308.161430
424.237866	3381.938716
424.616319	3393.223339
424.994712	3452.971094
425.373044	3465.271510
425.751314	3524.563041
426.129524	3498.787621
426.507673	3589.130139
426.885762	3593.001745
427.263789	3629.945841
427.641756	3645.207935
428.019662	3689.794420
428.397508	3707.894683
428.775292	3752.287083
429.153016	3781.770272
429.530679	3808.006957
429.908282	3828.663085
430.285824	3829.933456
430.663305	3905.399529
431.040726	3886.996797
431.418086	3892.118609
431.795385	3973.024087
432.172624	4019.511087
432.549802	4003.328983
432.926920	4031.400648
433.303977	4039.877349
433.680974	4091.624793
434.057910	4122.869864
434.434786	4137.272441
434.811601	4142.963904
435.188355	4251.976335
435.565050	4238.529057
435.941683	4242.751023
436.318257	4335.843491
436.694770	4351.032488
437.071222	4411.513731
437.447614	4358.954661
437.823946	4367.196947
438.200218	4393.549579
438.576429	4380.001478
438.952580	4413.835182
439.328670	4426.619548
439.704700	4474.505469
440.080670	4439.671096
440.456580	4504.525540
440.832429	4545.878125
441.208218	4455.649033
441.583947	4508.233308
441.959616	4525.317779
442.335224	4552.996234
442.710773	4575.245367
443.086261	4630.894664
443.461689	4590.678859
443.837057	4605.159573
444.212365	4679.730842
444.587612	4686.995144
444.962800	4655.636647
445.337927	4696.439746
445.712995	4588.506122
446.088002	4779.243219
446.462949	4803.350016
446.837837	4825.009334
447.212664	4814.143127
447.587431	5035.729565
447.962139	5333.886088
448.336786	5671.681205
448.711374	5653.386857
449.085901	5299.180265
449.460369	5234.862703
449.834776	5175.608981
450.209124	5411.746709
450.583412	5421.224079
450.957640	5546.741248
451.331808	5412.359210
451.705917	5260.055870
452.079965	5250.946505
452.453954	5290.063338
452.827883	5252.332822
453.201752	5258.805663
453.575562	5295.013751
453.949311	5426.565181
454.323001	5435.036840
454.696632	5421.239202
455.070202	5577.278037
455.443713	5611.252893
455.817164	5702.671698
456.190556	5773.787255
456.563888	5748.102576
456.937160	5826.379093
457.310373	5670.151214
457.683526	5721.555860
458.056619	5722.836313
458.429653	5702.122212
458.802628	5745.680302
459.175542	5777.149705
459.548398	5920.520120
459.921194	6107.602381
460.293930	6171.385580
460.666607	6421.918323
461.039224	6635.060828
461.411782	6757.570949
461.784280	6673.978536
462.156719	6679.599422
462.529099	6636.938658
462.901419	6496.232492
463.273680	6366.964705
463.645882	6355.430545
464.018024	6357.066399
464.390106	6428.494508
464.762130	6685.283323
465.134094	7076.517191
465.505999	7718.762712
465.877845	8414.976305
466.249631	8769.684492
466.621358	8685.847583
466.993026	8486.719486
467.364634	8278.159389
467.736184	7992.174732
468.107674	7837.277718
468.479105	7755.142198
468.850477	7692.659617
469.221790	7515.707555
469.593043	7296.182949
469.964238	7199.501180
470.335373	7175.749784
470.706449	7327.632187
471.077467	7517.419027
471.448425	8188.550359
471.819324	8763.773739
472.190164	8796.707597
472.560945	8308.025705
472.931667	7847.538987
473.302330	7642.568192
473.672934	7531.236830
474.043479	7607.612831
474.413965	7494.990933
474.784393	7456.295037
475.154761	7609.513346
475.525070	7621.334852
475.895321	7576.274498
476.265513	7678.589757
476.635645	7842.379366
477.005719	7832.062644
477.375734	7919.466170
477.745691	8024.107921
478.115588	8231.964776
478.485427	8468.838513
478.855207	8947.859034
479.224928	9382.935816
479.594591	9761.692828
479.964194	9767.459908
480.333739	9845.847330
480.703226	9849.875212
481.072653	9949.054873
481.442022	10070.362678
481.811333	10208.414676
482.180584	10056.983456
482.549777	9991.070369
482.918912	9926.813302
483.287988	9917.673690
483.657005	9829.108179
484.025964	9737.054189
484.394864	9801.361668
484.763706	9763.777345
485.132489	9680.462196
485.501213	9669.064147
485.869879	9729.925997
486.238487	9664.176748
486.607036	9743.761444
486.975527	9686.441004
487.343959	9747.040715
487.712333	9793.807499
488.080648	9837.085805
488.448905	9931.201626
488.817104	9943.335684
489.185244	10108.282238
489.553326	10323.534466
489.921350	10804.697477
490.289315	11427.128742
490.657222	11717.289996
491.025070	11895.058724
491.392861	11805.391721
491.760593	11645.589665
492.128267	11396.249154
492.495883	11152.234623
492.863440	10926.708523
493.230939	10692.675477
493.598380	10517.538230
493.965763	10491.160393
494.333088	10361.943017
494.700354	10288.367376
495.067563	10264.454663
495.434713	10266.604715
495.801805	10312.736314
496.168839	10269.450447
496.535815	10241.403987
496.902733	10285.907293
497.269593	10250.331871
497.636395	10256.545093
498.003139	10357.413540
498.369825	10291.480289
498.736453	10376.708556
499.103023	10325.835752
499.469535	10331.638120
499.835989	10382.342046
500.202385	10356.770793
500.568723	10370.712104
500.935003	10435.064953
501.301226	10403.721579
501.667390	10571.365150
502.033497	10665.642289
502.399546	10593.049674
502.765537	10502.104738
503.131470	10606.915367
503.497345	10692.725888
503.863163	10472.780346
504.228923	10603.865469
504.594625	10717.241019
504.960269	10628.516712
505.325856	10781.054465
505.691385	10665.254120
506.056856	10723.136649
506.422270	10828.133801
506.787625	10764.534604
507.152924	10817.519652
507.518164	10879.137675
507.883347	10741.481407
508.248472	10820.395630
508.613540	10925.133163
508.978550	11002.436736
509.343503	10982.312450
509.708398	11033.437312
510.073236	11161.916159
510.438016	11179.804693
510.802738	11098.518608
511.167403	11217.820034
511.532010	11276.791452
511.896561	11368.457273
512.261053	11566.932541
512.625488	11489.117290
512.989866	11473.625825
513.354186	11448.034407
513.718449	11464.841614
514.082655	11607.491144
514.446803	11562.264433
514.810894	11674.757781
515.174927	11660.332519
515.538904	11650.078812
515.902822	11805.792493
516.266684	11688.356293
516.630488	11782.900613
516.994235	11779.699480
517.357925	11892.102088
517.721558	11948.094183
518.085133	12012.487362
518.448651	12045.559852
518.812112	12001.197698
519.175516	12015.824606
519.538863	12104.127977
519.902152	12108.962444
520.265385	12219.441851
520.628560	12244.597209
520.991678	12188.894979
521.354739	12244.254410
521.717743	12315.642190
522.080690	12283.429217
522.443580	12417.619691
522.806413	12442.427209
523.169189	12419.704208
523.531908	12482.045637
523.894569	12445.177158
524.257174	12456.635701
524.619722	12577.792272
524.982213	12545.349927
525.344647	12535.537321
525.707025	12545.657437
526.069345	12650.142912
526.431608	12631.488122
526.793815	12702.543186
527.155964	12605.717744
527.518057	12630.878143
527.880093	12600.409409
528.242072	12718.563973
528.603995	12632.322433
528.965860	12640.410965
529.327669	12683.603571
529.689421	12622.242646
530.051117	12639.914411
530.412755	12680.669619
530.774337	12684.374867
531.135862	12642.117395
531.497331	12692.405425
531.858743	12653.954024
532.220098	12740.649268
532.581396	12679.177438
532.942638	12593.346752
533.303824	12665.508349
533.664953	12647.798776
534.026025	12596.903286
534.387040	12705.620810
534.747999	12679.263137
535.108902	12721.071947
535.469748	12608.858383
535.830537	12633.807053
536.191270	12660.091629
536.551947	12587.108324
536.912567	12653.754899
537.273131	12697.527238
537.633638	12571.153073
537.994089	12628.692803
538.354483	12537.561344
538.714821	12666.035150
539.075103	12755.717277
539.435328	12679.414372
539.795497	12670.549503
540.155609	12662.387875
540.515665	12760.748348
540.875665	12611.099176
541.235609	12710.974516
541.595496	12684.095083
541.955328	12851.663037
542.315102	12708.169113
542.674821	12645.893219
543.034483	12657.066937
543.394090	12650.087459
543.753640	12628.201290
544.113134	12860.606044
544.472571	12625.274900
544.831953	12921.631732
545.191278	12728.888256
545.550548	12657.999550
545.909761	12770.369390
546.268918	12813.488900
546.628019	12885.015311
546.987064	12765.645829
547.346053	12606.236983
547.704986	12813.960247
548.063863	12699.531096
548.422684	12754.361206
548.781449	12709.207591
549.140158	12801.420377
549.498811	12761.819593
549.857408	12619.399435
550.215949	12826.593379
550.574434	12795.305458
550.932864	12737.793454
551.291237	12936.606479
551.649555	12826.880725
552.007817	12882.605639
552.366022	12798.491467
552.724173	12845.021317
553.082267	12929.216148
553.440305	13026.152495
553.798288	12839.599556
554.156215	12921.475456
554.514086	12967.034884
554.871902	12909.180082
555.229661	12933.352415
555.587365	12890.784912
555.945014	12905.384093
556.302606	12877.219167
556.660143	12943.417078
557.017625	12972.524701
557.375050	12935.749483
557.732421	13032.058207
558.089735	13034.863609
558.446994	13009.022654
558.804197	13121.314356
559.161345	13118.423255
559.518437	12932.407198
559.875474	13029.703988
560.232455	13055.456723
560.589381	13105.984207
560.946251	13040.028271
561.303065	13205.395761
561.659825	13157.192248
562.016528	13077.224425
562.373177	13017.988347
562.729770	13148.949962
563.086307	13027.208617
563.442789	13139.850679
563.799216	13182.203933
564.155587	13123.948359
564.511904	13143.137511
564.868164	13151.294098
565.224370	13212.276936
565.580520	13162.828258
565.936615	13221.610633
566.292654	13169.429649
566.648638	13231.125811
567.004567	13236.408940
567.360441	13231.884504
567.716260	13207.583622
568.072023	13279.898974
568.427732	13273.262295
568.783385	13178.090352
569.138982	13286.006332
569.494525	13284.443574
569.850013	13224.995768
570.205445	13215.417575
570.560823	13231.627405
570.916145	13184.792566
571.271412	13197.869319
571.626625	13149.680929
571.981782	13158.712156
572.336884	13104.635699
572.691931	13189.264069
573.046923	13083.450250
573.401860	13057.233729
573.756743	13051.847256
574.111570	13073.453642
574.466342	13050.670147
574.821059	13107.269702
575.175722	12977.059218
575.530330	12998.716015
575.884882	12922.473605
576.239380	12924.147268
576.593823	12916.401535
576.948211	12912.429106
577.302544	12790.551650
577.656823	12803.535141
578.011047	12865.395140
578.365216	12794.796301
578.719330	12742.867375
579.073389	12711.763456
579.427394	12728.154768
579.781344	12719.368037
580.135239	12650.042089
580.489080	12660.510045
580.842866	12552.324363
581.196597	12638.439873
581.550273	12633.323102
581.903895	12593.482863
582.257463	12700.309955
582.610975	12546.337993
582.964434	12609.828805
583.317837	12521.722038
583.671186	12485.786173
584.024481	12539.139225
584.377721	12428.589242
584.730906	12497.602638
585.084037	12509.643434
585.437113	12437.822115
585.790135	12459.771299
586.143103	12365.602545
586.496016	12383.480997
586.848874	12393.144889
587.201679	12395.095816
587.554428	12273.039399
587.907124	12316.151346
588.259765	12253.106676
588.612352	12329.709530
588.964884	12186.281141
589.317362	12242.094276
589.669786	12231.742266
590.022155	12190.256091
590.374470	12299.563430
590.726731	12176.203874
591.078937	12071.385683
591.431090	12091.749424
591.783188	12023.966069
592.135232	11938.972216
592.487222	12003.229283
592.839157	12016.280830
593.191038	11938.523553
593.542866	11887.925492
593.894639	11745.102042
594.246358	11800.532049
594.598022	11809.202833
594.949633	11716.737989
595.301190	11706.794313
595.652692	11659.029381
596.004141	11754.927250
596.355535	11528.975173
596.706876	11508.797955
597.058162	11472.342851
597.409395	11572.959241
597.760573	11599.450504
598.111698	11483.960190
598.462768	11485.840540
598.813785	11500.958961
599.164748	11366.604649
599.515657	11446.413676
599.866511	11319.953811
600.217312	11451.543050
600.568060	11211.387522
600.918753	11381.191228
601.269392	11381.884386
601.619978	11291.246961
601.970510	11318.227216
602.320988	11360.673732
602.671412	11433.243662
603.021783	11360.852693
603.372100	11286.757813
603.722363	11295.776437
604.072572	11304.880761
604.422728	11323.893473
604.772830	11257.035170
605.122878	11270.674012
605.472872	11239.925494
605.822813	11301.876234
606.172701	11259.616241
606.522534	11296.441870
606.872314	11354.248781
607.222041	11279.128027
607.571714	11359.355470
607.921333	11229.971736
608.270899	11282.664396
608.620411	11348.451454
608.969870	11288.181939
609.319276	11270.898343
609.668627	11284.461568
610.017926	11368.757222
610.367171	11400.985318
610.716362	11396.619679
611.065500	11366.685308
611.414585	11375.882893
611.763616	11442.451329
612.112594	11399.659495
612.461518	11421.792681
612.810389	11476.048099
613.159207	11420.529872
613.507971	11412.874880
613.856682	11513.423214
614.205340	11465.015534
614.553945	11605.971237
614.902496	11484.925571
615.250994	11549.550643
615.599439	11547.607278
615.947830	11577.647514
616.296169	11541.000846
616.644454	11557.772765
616.992686	11569.967316
617.340864	11664.410813
617.688990	11546.876311
618.037063	11688.232785
618.385082	11655.170377
618.733048	11695.214783
619.080961	11680.355982
619.428821	11667.974908
619.776628	11672.005311
620.124382	11624.729370
620.472083	11638.721092
620.819731	11658.374031
621.167326	11584.400139
621.514868	11568.031513
621.862357	11467.805812
622.209793	11450.769233
622.557176	11371.487007
622.904506	11315.580610
623.251783	11237.157901
623.599007	11179.111535
623.946179	11129.652774
624.293297	11114.385640
624.640363	10974.886831
624.987376	10959.496188
625.334336	10890.800384
625.681243	10810.078908
626.028097	10784.490012
626.374899	10745.131203
626.721647	10712.066275
627.068343	10682.194918
627.414987	10617.975659
627.761577	10550.174660
628.108115	10600.291291
628.454600	10470.254728
628.801032	10488.992697
629.147412	10467.288009
629.493739	10441.931005
629.840014	10354.787099
630.186236	10405.349872
630.532405	10305.134254
630.878521	10346.779226
631.224585	10301.723913
631.570597	10229.146422
631.916556	10228.183561
632.262462	10214.978259
632.608316	10190.710144
632.954117	10161.811730
633.299866	10148.450151
633.645562	10129.288726
633.991206	10019.726808
634.336797	9921.507487
634.682336	9909.703626
635.027823	9855.533907
635.373257	9820.858330
635.718639	9756.588660
636.063968	9724.647909
636.409245	9610.518707
636.754470	9590.833001
637.099642	9539.836689
637.444762	9440.140310
637.789829	9446.867729
638.134845	9374.600268
638.479808	9349.603707
638.824719	9326.951282
639.169577	9239.358714
639.514383	9239.459537
639.859137	9175.275566
640.203839	9204.458806
640.548489	9128.057598
640.893086	9128.249162
641.237632	9068.012415
641.582125	9067.508300
641.926566	9058.464470
642.270955	9042.627685
642.615292	9029.303915
642.959576	9011.407819
643.303809	8997.360644
643.647990	9016.206998
643.992118	8998.653700
644.336195	8976.457499
644.680219	8971.900296
645.024192	9004.440944
645.368112	9080.247295
645.711981	9053.521618
646.055797	9192.385242
646.399562	9147.181216
646.743274	9317.925096
647.086935	9386.502433
647.430544	9358.486220
647.774101	9376.460454
648.117606	9407.844157
648.461059	9474.780598
648.804460	9403.821317
649.147810	9290.261765
649.491108	9256.390252
649.834354	9187.550776
650.177548	9051.943737
650.520690	8954.578892
650.863781	8948.947923
651.206820	8925.650230
651.549807	8832.262855
651.892742	8735.409687
652.235626	8701.006333
652.578458	8661.690374
652.921238	8551.619300
653.263967	8593.942307
653.606644	8517.367180
653.949269	8501.500149
654.291843	8426.565917
654.634365	8490.661668
654.976836	8419.089886
655.319255	8407.835510
655.661622	8396.578614
656.003938	8353.398610
656.346203	8324.026328
656.688416	8354.888271
657.030577	8313.303793
657.372687	8277.236858
657.714746	8305.893297
658.056753	8326.980444
658.398708	8227.173159
658.740612	8217.582364
659.082465	8261.848736
659.424266	8217.373156
659.766016	8227.647028
660.107715	8202.506793
660.449362	8230.490238
660.790958	8218.814926
661.132503	8211.041467
661.473996	8215.044143
661.815438	8231.019560
662.156829	8263.839992
662.498168	8213.438536
662.839456	8203.623409
663.180693	8230.243222
663.521879	8249.737364
663.863013	8229.986123
664.204097	8230.258345
664.545129	8298.155126
664.886110	8286.363867
665.227040	8296.267214
665.567918	8296.983058
665.908746	8314.415368
666.249522	8337.700457
666.590248	8335.931012
666.930922	8344.299328
667.271545	8339.396806
667.612118	8357.454219
667.952639	8313.810429
668.293109	8314.380080
668.633528	8294.956514
668.973896	8275.306096
669.314213	8287.777911
669.654480	8242.616734
669.994695	8238.160354
670.334859	8216.800985
670.674973	8196.485135
671.015035	8222.245431
671.355047	8210.827218
671.695008	8196.638890
672.034918	8176.194491
672.374777	8180.847476
672.714585	8152.382601
673.054342	8181.311262
673.394049	8150.131726
673.733705	8194.723252
674.073310	8142.325499
674.412864	8153.143815
674.752368	8083.563289
675.091820	8138.582442
675.431223	8070.196670
675.770574	8023.613887
676.109875	7998.811411
676.449125	7959.200544
676.788324	7946.708565
677.127473	7859.594906
677.466571	7843.422884
677.805619	7781.991384
678.144616	7782.281250
678.483562	7760.684947
678.822458	7712.491516
679.161303	7696.180863
679.500098	7677.899118
679.838842	7658.742734
680.177535	7675.292842
680.516179	7701.980710
680.854771	7725.669092
681.193314	7847.695262
681.531805	8003.625712
681.870247	8121.513095
682.208638	8272.878781
682.546978	8338.262546
682.885268	8371.360242
683.223508	8299.322153
683.561697	8243.788802
683.899836	8219.485400
684.237925	8135.991289
684.575963	8104.461392
684.913951	8018.305552
685.251889	8038.691979
685.589776	8042.649284
685.927614	8016.047116
686.265401	8038.021505
686.603137	8039.518728
686.940824	8111.892053
687.278460	8164.965321
687.616046	8183.363012
687.953582	8290.096842
688.291068	8266.448789
688.628504	8327.108993
688.965889	8325.538674
689.303224	8293.965927
689.640510	8247.708299
689.977745	8138.796691
690.314930	8017.383021
690.652065	7944.573636
690.989150	7826.807241
691.326185	7678.514139
691.663170	7567.414670
692.000105	7446.852955
692.336990	7337.144845
692.673825	7260.678103
693.010610	7164.208062
693.347345	7074.548620
693.684030	6962.791281
694.020665	6919.674292
694.357251	6804.798999
694.693786	6793.123686
695.030272	6750.483087
695.366707	6654.151678
695.703093	6597.968018
696.039429	6599.291321
696.375716	6553.689043
696.711952	6541.539862
697.048139	6511.434092
697.384276	6480.551983
697.720363	6494.463047
698.056400	6469.887422
698.392388	6438.241579
698.728326	6441.805675
699.064214	6408.541621
699.400053	6405.116157
699.735842	6344.289595
700.071581	6304.071269
700.407270	6257.652325
700.742910	6226.936574
701.078501	6186.443506
701.414042	6144.125540
701.749533	6090.754844
702.084974	6033.497419
702.420366	6067.789868
702.755709	5998.239589
703.091002	5948.372495
703.426246	5955.445234
703.761440	5935.668788
704.096584	5890.066510
704.431679	5881.620057
704.766725	5865.901739
705.101721	5848.527402
705.436668	5866.050453
705.771565	5811.169932
706.106413	5869.448191
706.441212	5865.614393
706.775961	5888.481067
707.110661	5888.339915
707.445311	5950.877949
707.779913	5920.346200
708.114465	5962.525535
708.448967	6005.216546
708.783421	6114.380212
709.117825	6158.465102
709.452180	6191.416604
709.786485	6249.737713
710.120742	6382.816613
710.454949	6386.708384
710.789107	6467.001362
711.123216	6589.972748
711.457275	6618.893848
711.791286	6726.393933
712.125247	6745.847746
712.459159	6715.215174
712.793023	6849.413210
713.126837	6676.282343
713.460602	6730.570529
713.794318	6682.127561
714.127985	6635.690972
714.461602	6488.864846
714.795171	6490.669579
715.128691	6327.651267
715.462162	6236.381176
715.795584	6166.636813
716.128957	6125.823631
716.462281	6057.067334
716.795556	6018.089132
717.128782	5933.218787
717.461960	5837.600701
717.795088	5823.982024
718.128167	5757.622795
718.461198	5676.046844
718.794180	5654.203524
719.127113	5589.253298
719.459997	5557.436056
719.792833	5493.783927
720.125619	5487.437114
720.458357	5425.993010
720.791046	5402.513836
721.123686	5369.458990
721.456278	5326.215973
721.788821	5318.772709
722.121315	5280.028921
722.453761	5285.226351
722.786158	5266.248927
723.118506	5272.157159
723.450805	5246.984158
723.783056	5276.721924
724.115259	5256.607720
724.447412	5238.976285
724.779518	5287.182318
725.111574	5289.413029
725.443582	5329.298638
725.775542	5319.899407
726.107453	5402.244134
726.439315	5374.711873
726.771129	5442.648982
727.102895	5508.115927
727.434612	5552.649480
727.766281	5584.524696
728.097901	5637.209795
728.429473	5647.508872
728.760996	5661.218290
729.092471	5684.044634
729.423897	5674.141288
729.755276	5643.682636
730.086606	5658.019678
730.417887	5747.739613
730.749120	5838.971895
731.080305	5877.750971
731.411442	5955.717456
731.742530	5979.667978
732.073570	5993.765565
732.404562	6055.718825
732.735506	6054.234205
733.066401	6032.461462
733.397249	5966.402182
733.728048	5873.425661
734.058798	5728.457200
734.389501	5603.910453
734.720156	5518.374675
735.050762	5412.507924
735.381320	5339.580072
735.711831	5279.096308
736.042293	5203.451274
736.372707	5195.950037
736.703073	5156.757586
737.033391	5181.270197
737.363661	5167.603629
737.693883	5181.275238
738.024056	5204.225091
738.354182	5234.035954
738.684260	5279.040855
739.014290	5322.639274
739.344272	5353.954922
739.674207	5408.099435
740.004093	5440.138488
740.333931	5447.586793
740.663722	5469.906501
740.993464	5482.534592
741.323159	5461.013906
741.652806	5417.428090
741.982405	5383.828799
742.311956	5331.695707
742.641460	5321.731866
742.970915	5268.444350
743.300323	5203.226942
743.629683	5169.978012
743.958996	5124.665601
744.288260	5075.922684
744.617477	5014.798694
744.946647	4997.721785
745.275768	4942.203558
745.604842	4908.732817
745.933869	4879.663003
746.262847	4869.404255
746.591778	4859.415209
746.920662	4832.944110
747.249498	4827.781968
747.578286	4846.431717
747.907027	4869.172362
748.235720	4913.143827
748.564365	4921.580197
748.892963	4906.469339
749.221514	4929.845169
749.550017	4900.770314
749.878473	4898.670674
750.206881	4860.577195
750.535242	4851.944219
750.863555	4832.369418
751.191821	4807.934946
751.520039	4810.142971
751.848210	4793.232421
752.176334	4800.925221
752.504411	4784.980052
752.832440	4755.799333
753.160421	4766.249645
753.488356	4745.243157
753.816243	4720.092840
754.144082	4689.162841
754.471875	4682.826110
754.799620	4668.020241
755.127318	4662.762318
755.454969	4662.996732
755.782572	4647.222961
756.110129	4655.513139
756.437638	4641.218947
756.765100	4636.823061
757.092515	4641.234070
757.419882	4641.584431
757.747203	4639.169718
758.074477	4655.308972
758.401703	4642.033093
758.728882	4675.624822
759.056014	4684.852654
759.383099	4706.247311
759.710138	4733.393924
760.037129	4754.244137
760.364073	4770.446405
760.690970	4766.655457
761.017820	4767.953555
761.344623	4798.893636
761.671379	4859.034602
761.998088	4946.135658
762.324751	5179.775495
762.651366	5645.076515
762.977935	6339.555951
763.304456	6897.518421
763.630931	7201.535286
763.957359	7138.137735
764.283740	6838.373083
764.610074	6519.953642
764.936362	6123.371110
765.262602	5803.250279
765.588796	5455.380417
765.914943	5203.980595
766.241044	4977.068178
766.567097	4806.977127
766.893104	4658.038757
767.219064	4557.833221
767.544978	4457.322696
767.870845	4375.766909
768.196665	4330.136905
768.522438	4280.625212
768.848165	4238.067792
769.173846	4197.478941
769.499479	4169.137574
769.825066	4134.003253
770.150607	4090.346860
770.476101	4075.188111
770.801548	4054.552147
771.126949	4023.090306
771.452303	4003.263448
771.777611	3967.224239
772.102872	3964.396152
772.428087	3940.591824
772.753256	3912.331115
773.078378	3894.588774
773.403453	3860.568547
773.728482	3837.381760
774.053465	3826.190399
774.378401	3804.379847
774.703291	3783.083492
775.028135	3756.861931
775.352932	3751.921600
775.677683	3728.613825
776.002388	3707.546843
776.327046	3709.704457
776.651658	3690.127136
776.976224	3670.443951
777.300743	3666.020338
777.625216	3654.602125
777.949643	3647.146258
778.274024	3647.675579
778.598359	3631.130512
778.922647	3626.923670
779.246889	3621.045684
779.571086	3619.649285
779.895236	3619.397227
780.219339	3619.480406
780.543397	3618.197432
780.867409	3629.855101
781.191374	3635.957417
781.515294	3625.638175
781.839167	3644.633243
782.162995	3642.115187
782.486776	3633.577993
782.810511	3628.622538
783.134201	3613.057976
783.457844	3613.824231
783.781441	3603.036162
784.104993	3594.579627
784.428498	3591.139039
784.751958	3585.792895
785.075372	3580.532451
785.398739	3570.372006
785.722061	3578.856268
786.045337	3575.526586
786.368568	3601.135647
786.691752	3600.318980
787.014891	3645.833038
787.337983	3689.814584
787.661030	3776.373717
787.984031	3873.262173
788.306987	3950.971559
788.629897	4000.947038
788.952760	4008.682689
789.275579	3993.130729
789.598351	3939.364303
789.921078	3889.295563
790.243759	3825.429185
790.566395	3779.421094
790.888984	3730.693301
791.211529	3695.763146
791.534027	3645.122235
791.856480	3611.883387
792.178888	3593.523505
792.501249	3574.049527
792.823566	3543.689178
793.145836	3538.239691
793.468062	3528.321221
793.790241	3512.406298
794.112375	3520.890560
794.434464	3539.978889
794.756507	3538.887479
795.078505	3557.600242
795.400457	3599.020883
795.722364	3647.824293
796.044226	3695.296839
796.366042	3740.747882
796.687812	3734.154053
797.009538	3757.476951
797.331218	3747.434973
797.652852	3742.096391
797.974442	3718.110581
798.295986	3708.295454
798.617484	3679.974252
798.938938	3658.037671
799.260346	3638.246101
799.581709	3606.131431
799.903026	3591.466714
800.224299	3575.682861
800.545526	3542.570042
800.866708	3524.268133
801.187845	3513.505270
801.508936	3494.041375
801.829983	3485.231958
802.150984	3453.165179
802.471940	3444.761575
802.792851	3438.765123
803.113717	3432.181376
803.434538	3423.109820
803.755314	3412.528438
804.076045	3406.849578
804.396731	3396.792476
804.717372	3395.154101
805.037967	3391.370715
805.358518	3396.825243
805.679024	3408.934095
805.999485	3406.663055
806.319901	3416.337029
806.640272	3415.911052
806.960598	3426.994029
807.280879	3430.422013
807.601115	3439.758230
807.921306	3432.304884
808.241453	3431.301695
808.561554	3440.282510
808.881611	3432.110800
809.201623	3432.050306
809.521590	3423.848349
809.841513	3426.812547
810.161390	3434.974175
810.481223	3411.595824
810.801011	3413.670259
811.120755	3409.841503
811.440453	3394.907084
811.760107	3388.731671
812.079716	3382.163048
812.399281	3373.255329
812.718801	3369.025801
813.038276	3364.377857
813.357707	3358.252855
813.677093	3363.508258
813.996434	3348.541072
814.315731	3356.349819
814.634983	3355.308821
814.954191	3356.821167
815.273354	3376.698437
815.592473	3383.849313
815.911547	3404.202972
816.230577	3419.523039
816.549562	3443.496246
816.868502	3461.004173
817.187399	3484.087617
817.506250	3511.700537
817.825058	3518.579191
818.143821	3563.629463
818.462539	3609.090588
818.781213	3662.216788
819.099843	3748.297010
819.418429	3902.573962
819.736970	4054.085841
820.055466	4238.985282
820.373919	4477.779698
820.692327	4818.029856
821.010691	5327.821580
821.329011	6413.912971
821.647286	8152.228846
821.965517	10326.050001
822.283704	11961.097840
822.601847	13046.478428
822.919945	12629.209521
823.237999	11948.321035
823.556010	11046.357789
823.873976	10087.411861
824.191897	9111.394064
824.509775	8349.206891
824.827609	7548.396917
825.145398	6998.333936
825.463144	6617.547860
825.780845	6485.706563
826.098502	6548.665533
826.416116	6933.751714
826.733685	7436.725277
827.051210	7726.342086
827.368692	7626.801983
827.686129	7186.792431
828.003522	6632.315920
828.320872	6058.410801
828.638177	5594.949802
828.955439	5231.860696
829.272656	4896.810488
829.589830	4613.159885
829.906960	4351.476109
830.224046	4141.527175
830.541088	3970.017039
830.858086	3853.546220
831.175041	3756.493926
831.491952	3713.891135
831.808819	3692.299873
832.125642	3730.736151
832.442421	3835.725741
832.759157	4052.588618
833.075849	4430.874282
833.392497	4892.089447
833.709101	5284.560918
834.025662	5391.476230
834.342179	5267.312611
834.658653	4993.940920
834.975083	4720.788519
835.291469	4476.385819
835.607811	4252.558588
835.924110	4093.535390
836.240366	3933.498920
836.556578	3773.611164
836.872746	3637.673930
837.188871	3520.245292
837.504952	3425.864810
837.820990	3350.839838
838.136984	3294.636014
838.452935	3267.539812
838.768842	3253.338882
839.084706	3286.930610
839.400526	3420.453132
839.716303	3649.722288
840.032037	3860.543342
840.347727	3925.954833
840.663373	3836.121472
840.978977	3687.588915
841.294537	3550.257802
841.610054	3449.885908
841.925527	3371.385061
842.240957	3306.971717
842.556344	3244.017788
842.871687	3183.965043
843.186987	3121.311062
843.502244	3071.128896
843.817458	3029.904861
844.132629	2995.811537
844.447756	2975.195739
844.762840	2952.999538
845.077881	2937.407249
845.392879	2926.472987
845.707833	2912.440935
846.022745	2898.192114
846.337613	2896.596588
846.652438	2887.136863
846.967221	2883.933210
847.281960	2877.939278
847.596656	2871.378216
847.911309	2864.713811
848.225919	2860.496886
848.540485	2858.296422
848.855009	2854.676874
849.169490	2850.278467
849.483928	2847.170596
849.798323	2843.362004
850.112675	2841.063238
850.426984	2838.454441
850.741251	2838.061231
851.055474	2836.445541
851.369654	2836.526199
851.683792	2834.693740
851.997887	2835.308761
852.311938	2835.638956
852.625947	2836.422856
852.939914	2832.599140
853.253837	2835.202896
853.567718	2833.156188
853.881555	2831.200220
854.195350	2834.696260
854.509103	2834.126610
854.822812	2835.157526
855.136479	2833.824141
855.450103	2836.032166
855.763685	2830.431444
856.077224	2829.569407
856.390720	2832.100066
856.704173	2837.955366
857.017584	2837.494101
857.330953	2836.097701
857.644278	2843.485512
857.957561	2847.561285
858.270802	2845.512056
858.584000	2845.433918
858.897155	2843.364524
859.210268	2839.974348
859.523339	2839.510562
859.836367	2837.718432
860.149352	2837.300016
860.462295	2837.685665
860.775195	2829.435816
861.088054	2828.553614
861.400869	2828.125116
861.713642	2827.583192
862.026373	2831.908502
862.339062	2835.240705
862.651708	2837.637774
862.964312	2840.110460
863.276873	2842.646160
863.589392	2850.417099
863.901869	2855.848942
864.214303	2865.306147
864.526696	2870.806045
864.839045	2878.403064
865.151353	2883.325751
865.463619	2886.773900
865.775842	2890.227091
866.088023	2894.123903
866.400162	2893.708007
866.712258	2894.297822
867.024313	2897.304871
867.336325	2895.447205
867.648296	2898.829820
867.960224	2900.861405
868.272110	2899.759913
868.583954	2901.050448
868.895755	2903.974317
869.207515	2901.221847
869.519233	2911.475554
869.830909	2911.331881
870.142542	2917.870258
870.454134	2916.675504
870.765684	2923.339910
871.077191	2929.389294
871.388657	2934.508586
871.700081	2942.849175
872.011463	2947.358487
872.322803	2952.077007
872.634101	2956.185548
872.945357	2966.587968
873.256571	2975.523414
873.567744	2979.137921
873.878874	2985.986328
874.189963	2989.540342
874.501010	2997.283554
874.812015	2996.197186
875.122979	3007.333094
875.433900	3007.408712
875.744780	3008.467354
876.055618	3012.260822
876.366415	3015.204856
876.677169	3020.747605
876.987882	3027.306146
877.298554	3036.118083
877.609183	3052.932852
877.919771	3069.488001
878.230317	3091.167483
878.540822	3129.296250
878.851285	3176.761234
879.161707	3245.777151
879.472087	3354.139273
879.782425	3517.119777
880.092722	3794.975574
880.402977	4217.661201
880.713191	4761.526083
881.023363	5361.410788
881.333494	5804.744981
881.643583	6089.071099
881.953631	6161.986348
882.263637	6115.879955
882.573602	5972.905270
882.883526	5809.609694
883.193408	5603.078662
883.503248	5380.342842
883.813048	5163.041384
884.122806	4944.310760
884.432522	4700.928894
884.742197	4478.976972
885.051831	4269.504427
885.361424	4071.200558
885.670975	3901.124630
885.980485	3755.480654
886.289954	3627.158083
886.599382	3525.495654
886.908768	3441.953653
887.218113	3361.459029
887.527417	3297.053247
887.836680	3242.603744
888.145901	3193.694470
888.455082	3158.844973
888.764221	3125.318780
889.073319	3091.381732
889.382376	3072.681572
889.691392	3058.775549
890.000366	3048.975546
890.309300	3040.647560
890.618193	3037.214534
890.927044	3029.874614
891.235855	3033.874769
891.544625	3037.022970
891.853353	3041.738969
892.162041	3055.854200
892.470687	3084.384610
892.779293	3116.272429
893.087858	3164.365037
893.396381	3242.114752
893.704864	3348.306658
894.013306	3509.217768
894.321707	3694.689380
894.630068	3847.244778
894.938387	3923.393927
895.246665	3926.736212
895.554903	3875.253429
895.863100	3785.415026
896.171256	3709.916185
896.479371	3638.311636
896.787446	3564.045358
897.095480	3490.532732
897.403473	3431.377312
897.711425	3374.926471
898.019336	3328.172290
898.327207	3275.121707
898.635038	3227.127402
898.942827	3176.723425
899.250576	3132.305819
899.558284	3091.432143
899.865952	3066.367527
900.173579	3036.536499
900.481165	3014.489012
900.788711	2995.062926
901.096216	2979.831080
901.403681	2967.384471
901.711105	2959.807617
902.018489	2951.996349
902.325832	2958.779221
902.633135	2969.579893
902.940397	3008.898373
903.247619	3099.999584
903.554800	3277.584311
903.861941	3552.473389
904.169041	3818.094306
904.476101	3982.778720
904.783121	4004.561545
905.090100	3938.713994
905.397039	3835.594671
905.703938	3727.895461
906.010796	3625.542393
906.317614	3541.987789
906.624391	3454.813636
906.931129	3385.273439
907.237826	3317.104437
907.544483	3248.390989
907.851099	3177.199814
908.157675	3106.101901
908.464211	3031.480221
908.770707	2971.692137
909.077163	2925.028696
909.383578	2890.519477
909.689954	2859.350023
909.996289	2840.707836
910.302584	2831.480004
910.608839	2819.988694
910.915054	2811.746407
911.221229	2804.270376
911.527363	2805.656694
911.833458	2806.012095
912.139513	2809.724905
912.445527	2812.880667
912.751502	2824.704693
913.057436	2839.112311
913.363331	2858.019159
913.669186	2883.915566
913.975000	2921.860331
914.280775	2983.518684
914.586510	3064.104048
914.892205	3177.504804
915.197859	3320.880261
915.503475	3503.133096
915.809050	3677.471319
916.114585	3812.700271
916.420081	3888.181468
916.725536	3921.697579
917.030952	3885.577712
917.336328	3848.184953
917.641665	3798.509423
917.946961	3736.626739
918.252218	3679.210517
918.557435	3607.109414
918.862612	3536.082077
919.167750	3478.829693
919.472848	3405.687592
919.777906	3335.124041
920.082925	3268.159874
920.387904	3192.151877
920.692843	3140.117087
920.997743	3084.873602
921.302603	3034.767054
921.607423	3001.661796
921.912204	2967.699543
922.216946	2938.967487
922.521647	2918.576019
922.826310	2891.994015
923.130932	2875.277549
923.435516	2854.157635
923.740059	2845.310410
924.044564	2826.272492
924.349028	2816.354022
924.653454	2801.515386
924.957840	2786.951492
925.262186	2776.992693
925.566493	2765.125817
925.870761	2751.144177
926.174989	2749.669639
926.479178	2741.533217
926.783328	2733.409397
927.087438	2728.320352
927.391509	2722.510423
927.695541	2714.031202
927.999533	2706.650953
928.303486	2704.952084
928.607400	2698.234746
928.911275	2696.888758
929.215110	2693.319621
929.518906	2691.570341
929.822663	2689.611853
930.126381	2689.347192
930.430060	2688.490196
930.733699	2687.292922
931.037299	2693.498582
931.340861	2687.219825
931.644383	2692.384487
931.947866	2689.974816
932.251309	2691.938345
932.554714	2691.542615
932.858080	2691.729137
933.161407	2689.218643
933.464694	2687.555062
933.767943	2685.468024
934.071153	2684.553055
934.374323	2682.161027
934.677455	2681.467869
934.980548	2678.733043
935.283602	2678.775893
935.586617	2679.456448
935.889593	2679.249761
936.192530	2681.666994
936.495428	2681.987108
936.798287	2681.329237
937.101108	2688.946420
937.403890	2697.279448
937.706632	2704.652135
938.009336	2715.029350
938.312002	2730.183059
938.614628	2740.376272
938.917216	2749.651995
939.219765	2756.901174
939.522275	2765.692947
939.824747	2767.485077
940.127179	2762.758995
940.429573	2764.362082
940.731929	2762.902668
941.034246	2763.973913
941.336524	2765.221599
941.638763	2765.181269
941.940964	2762.761516
942.243126	2756.916298
942.545250	2751.474372
942.847335	2749.558734
943.149381	2741.686972
943.451389	2736.970972
943.753359	2729.547873
944.055290	2726.031669
944.357182	2719.155535
944.659036	2717.998590
944.960851	2713.517004
945.262628	2712.854092
945.564367	2709.070707
945.866067	2709.453834
946.167729	2708.672455
946.469352	2705.867053
946.770937	2706.398895
947.072484	2703.686754
947.373992	2704.105170
947.675462	2702.749100
947.976893	2701.405632
948.278286	2700.737679
948.579641	2696.500589
948.880958	2697.629808
949.182236	2699.653831
949.483476	2694.612677
949.784678	2695.499920
950.085841	2693.579241
950.386967	2696.198120
950.688054	2696.364478
950.989103	2702.678523
951.290114	2702.577700
951.591087	2708.125490
951.892021	2709.847044
952.192917	2718.553117
952.493776	2720.529249
952.794596	2724.252141
953.095378	2725.225084
953.396122	2726.916391
953.696828	2725.832543
953.997496	2722.391956
954.298126	2721.250134
954.598718	2717.522201
954.899272	2713.073383
955.199788	2708.070037
955.500266	2705.536858
955.800706	2696.619057
956.101108	2689.543797
956.401472	2683.403672
956.701798	2678.924607
957.002087	2668.441527
957.302337	2667.403049
957.602550	2660.922646
957.902724	2657.900474
958.202861	2651.788075
958.502960	2650.139618
958.803022	2643.384472
959.103045	2639.308699
959.403031	2637.861888
959.702979	2632.845940
960.002889	2628.659262
960.302762	2624.986781
960.602596	2622.690535
960.902393	2621.505864
961.202153	2621.382356
961.501875	2619.285236
961.801559	2617.490585
962.101205	2614.566716
962.400814	2616.222735
962.700385	2613.344236
962.999918	2611.133690
963.299414	2612.220059
963.598873	2610.233844
963.898293	2604.789398
964.197677	2609.281066
964.497022	2609.754935
964.796331	2606.989862
965.095601	2606.185798
965.394835	2608.250150
965.694030	2606.707557
965.993189	2605.895931
966.292309	2603.380396
966.591393	2604.479367
966.890439	2606.856271
967.189447	2603.824017
967.488419	2606.352156
967.787353	2602.692278
968.086249	2604.368462
968.385108	2604.912906
968.683930	2605.792588
968.982714	2606.425252
969.281462	2608.265274
969.580172	2606.352156
969.878844	2609.074379
970.177480	2610.223762
970.476078	2611.794081
970.774639	2613.681993
971.073162	2615.673249
971.371649	2611.400871
971.670098	2611.957919
971.968510	2613.891201
972.266885	2612.809874
972.565223	2617.979577
972.863524	2619.464197
973.161788	2620.416975
973.460014	2619.451594
973.758204	2621.102572
974.056356	2622.698097
974.354471	2622.241873
974.652550	2619.691049
974.950591	2624.407048
975.248595	2624.384363
975.546563	2621.863786
975.844493	2624.041565
976.142386	2622.796400
976.440243	2619.970833
976.738062	2622.415792
977.035845	2617.480503
977.333590	2614.922117
977.631299	2615.380862
977.928971	2616.515122
978.226606	2613.979422
978.524204	2616.512601
978.821765	2611.975563
979.119290	2616.245420
979.416777	2613.452621
979.714228	2611.000100
980.011642	2612.431787
980.309020	2618.239197
980.606360	2619.174331
980.903664	2620.122067
981.200931	2625.029631
981.498162	2631.341155
981.795356	2642.356077
982.092513	2658.840650
982.389633	2677.334122
982.686717	2696.099818
982.983764	2711.220759
983.280775	2725.714076
983.577749	2732.585169
983.874686	2732.751527
984.171587	2727.443192
984.468451	2723.571586
984.765279	2716.506408
985.062070	2706.703885
985.358824	2702.877649
985.655543	2694.332893
985.952224	2682.579443
986.248869	2670.135355
986.545478	2652.304794
986.842050	2642.988741
987.138586	2633.355096
987.435086	2620.641306
987.731549	2615.421192
988.027975	2613.800461
988.324366	2607.262084
988.620719	2606.009357
988.917037	2604.055910
989.213318	2601.250508
989.509563	2595.148191
989.805772	2598.382092
990.101944	2596.736155
990.398080	2595.498552
990.694180	2595.574169
990.990244	2594.792790
991.286271	2592.345310
991.582262	2594.565938
991.878217	2595.811103
992.174136	2597.099118
992.470019	2596.443768
992.765865	2597.247832
993.061676	2597.252873
993.357450	2598.077102
993.653188	2600.353183
993.948890	2601.255549
994.244556	2607.282249
994.540186	2609.941457
994.835780	2617.150307
995.131337	2623.875207
995.426859	2631.043727
995.722345	2637.871970
996.017795	2646.910759
996.313208	2656.488951
996.608586	2662.891217
996.903928	2667.055210
997.199234	2668.565035
997.494504	2669.444717
997.789738	2669.822803
998.084936	2660.962975
998.380099	2660.534477
998.675225	2651.601553
998.970316	2647.808084
999.265371	2644.710295
999.560390	2632.225878
999.855373	2626.632718
1000.150320	2620.653909
1000.445232	2616.404217
1000.740108	2612.290635
1001.034948	2609.780140
1001.329752	2605.298555
1001.624521	2600.794284
1001.919254	2593.996288
1002.213951	2592.960331
1002.508613	2591.982347
1002.803239	2591.059816
1003.097829	2588.677870
1003.392384	2589.514702
1003.686903	2589.320617
1003.981386	2588.294743
1004.275834	2588.209043
1004.570246	2588.345154
1004.864623	2586.638724
1005.158964	2587.289032
1005.453270	2585.277612
1005.747540	2583.540935
1006.041775	2583.780389
1006.335974	2583.190574
1006.630138	2585.980853
1006.924266	2583.190574
1007.218359	2583.036819
1007.512416	2582.159658
1007.806438	2584.796182
1008.100425	2582.938517
1008.394376	2582.003383
1008.688292	2583.845924
1008.982172	2582.492375
1009.276017	2582.550348
1009.569827	2578.925758
1009.863602	2582.504977
1010.157341	2584.327355
1010.451045	2580.531366
1010.744714	2582.991449
1011.038347	2584.692838
1011.331945	2582.071438
1011.625508	2583.089751
1011.919036	2579.041705
1012.212528	2583.326686
1012.505986	2580.612024
1012.799408	2581.968095
1013.092795	2581.282498
1013.386147	2580.959864
1013.679464	2582.182344
1013.972745	2578.373752
1014.265992	2579.152610
1014.559204	2579.888619
1014.852380	2577.713361
1015.145521	2579.767631
1015.438628	2578.396437
1015.731699	2583.099834
1016.024736	2578.817373
1016.317737	2579.414750
1016.610703	2581.048084
1016.903635	2578.638412
1017.196531	2577.806622
1017.489393	2579.102199
1017.782219	2579.893660
1018.075011	2580.155800
1018.367768	2584.206367
1018.660490	2582.794844
1018.953177	2582.794844
1019.245829	2582.794844
