Dividing Wavelength (nm)	Counts (n)	Blue Motor Position (mm): 33.500000	Red Motor Position (mm): 0.000000	
326.493990	2098.977665
326.888308	2098.977665
327.282561	2098.977665
327.676750	2074.026474
328.070874	2077.081413
328.464933	2083.171127
328.858929	2094.206213
329.252859	2107.706423
329.646726	2122.824843
330.040528	2136.435959
330.434265	2153.827940
330.827938	2173.400219
331.221547	2196.728159
331.615091	2215.516539
332.008571	2238.496639
332.401986	2258.051275
332.795338	2277.651281
333.188625	2295.726338
333.581847	2320.100317
333.975006	2334.233192
334.368100	2351.186592
334.761129	2368.213089
335.154095	2385.403424
335.546996	2432.061823
335.939833	2513.867147
336.332606	2528.151257
336.725315	2537.888245
337.117960	2550.755791
337.510540	2554.337530
337.903056	2563.739282
338.295508	2570.272618
338.687896	2579.941551
339.080220	2584.372725
339.472480	2586.406831
339.864676	2591.284147
340.256807	2595.937132
340.648875	2597.111721
341.040879	2599.760847
341.432818	2602.639346
341.824694	2601.363934
342.216506	2598.364447
342.608253	2597.726742
342.999937	2598.248501
343.391557	2595.559045
343.783113	2594.407142
344.174605	2594.722214
344.566033	2591.324476
344.957397	2593.353541
345.348697	2589.713827
345.739934	2588.514033
346.131106	2587.168045
346.522215	2585.885071
346.913260	2583.301480
347.304241	2583.127560
347.695159	2579.321489
348.086012	2579.162692
348.476802	2577.224369
348.867528	2576.261508
349.258191	2576.964749
349.648789	2572.518452
350.039324	2572.115159
350.429796	2574.832341
350.820203	2570.373441
351.210548	2570.779254
351.600828	2568.367062
351.991045	2573.304872
352.381198	2571.132134
352.771288	2570.859912
353.161314	2567.888152
353.551276	2569.627350
353.941175	2567.305899
354.331010	2570.295303
354.720782	2570.832186
355.110490	2572.846127
355.500135	2571.790005
355.889717	2570.002916
356.279235	2572.334450
356.668689	2572.198338
357.058080	2573.413257
357.447408	2570.706157
357.836672	2569.551733
358.225873	2568.621640
358.615010	2569.060220
359.004084	2576.221179
359.393095	2575.502815
359.782043	2573.156158
360.170927	2575.553226
360.559748	2577.731005
360.948505	2577.496591
361.337199	2578.719071
361.725830	2579.833166
362.114398	2579.177816
362.502903	2578.262847
362.891344	2580.443146
363.279722	2577.123546
363.668037	2581.554720
364.056289	2581.653022
364.444478	2580.775862
364.832603	2581.879874
365.220665	2585.935483
365.608665	2584.839032
365.996601	2584.493713
366.384474	2582.870461
366.772284	2587.732654
367.160031	2588.025041
367.547715	2586.555545
367.935336	2586.202664
368.322893	2587.410020
368.710388	2586.910946
369.097820	2591.445464
369.485189	2589.565113
369.872495	2588.995463
370.259738	2589.509661
370.646918	2590.596029
371.034035	2590.152408
371.421090	2591.647110
371.808081	2588.014959
372.195010	2589.459249
372.581875	2590.638879
372.968678	2590.908581
373.355418	2592.153746
373.742096	2592.622573
374.128710	2592.559559
374.515262	2595.506113
374.901751	2595.463263
375.288177	2597.938470
375.674540	2595.198603
376.060841	2596.935280
376.447079	2597.915785
376.833254	2595.997626
377.219367	2592.027717
377.605417	2596.037955
377.991404	2594.084508
378.377329	2597.210023
378.763191	2595.705239
379.148991	2600.335539
379.534727	2603.239243
379.920402	2601.835282
380.306013	2602.556167
380.691563	2606.208483
381.077049	2604.013060
381.462474	2604.028184
381.847835	2608.613113
382.233134	2605.023812
382.618371	2605.694285
383.003545	2607.163782
383.388657	2605.875767
383.773706	2607.395675
384.158693	2606.357197
384.543618	2609.886005
384.928480	2608.850048
385.313280	2609.702002
385.698017	2611.874740
386.082692	2613.271139
386.467305	2614.491099
386.851856	2610.813577
387.236344	2614.170985
387.620770	2613.167796
388.005133	2614.236520
388.389435	2615.330451
388.773674	2615.146449
389.157851	2614.942282
389.541965	2619.242386
389.926018	2617.271295
390.310008	2616.368928
390.693936	2620.994187
391.077802	2620.888323
391.461606	2624.129785
391.845348	2623.814713
392.229027	2622.652727
392.612645	2622.413272
392.996200	2623.726492
393.379694	2625.712707
393.763125	2626.080711
394.146494	2627.935856
394.529801	2624.933849
394.913047	2630.635394
395.296230	2628.883593
395.679351	2627.678757
396.062410	2631.278141
396.445408	2629.828809
396.828343	2632.243522
397.211217	2627.572893
397.594028	2630.937863
397.976778	2629.032307
398.359466	2632.069602
398.742092	2630.690847
399.124656	2637.287196
399.507158	2635.401805
399.889598	2636.571352
400.271977	2641.783906
400.654294	2640.556385
401.036549	2639.243164
401.418742	2642.197280
401.800874	2644.463279
402.182944	2644.778351
402.564952	2645.935296
402.946898	2645.766417
403.328783	2649.895122
403.710606	2649.050729
404.092367	2651.125164
404.474067	2649.905204
404.855705	2653.570123
405.237282	2654.280926
405.618797	2657.403921
406.000250	2660.932728
406.381642	2661.668737
406.762972	2664.990857
407.144240	2665.636125
407.525447	2667.342556
407.906593	2668.035714
408.287677	2671.304902
408.668700	2671.720798
409.049661	2677.757579
409.430560	2679.519463
409.811399	2683.814526
410.192176	2686.103210
410.572891	2689.838705
410.953545	2695.174766
411.334138	2700.054603
411.714669	2706.252702
412.095139	2708.067517
412.475547	2719.591595
412.855894	2723.392625
413.236180	2734.097515
413.616405	2743.088413
413.996568	2756.656678
414.376670	2766.507093
414.756711	2778.252981
415.136691	2800.844912
415.516609	2819.623210
415.896466	2839.588700
416.276262	2870.553988
416.655997	2902.235119
417.035670	2928.953234
417.415283	2979.117756
417.794834	3013.518590
418.174324	3046.928837
418.553753	3085.158427
418.933121	3148.079589
419.312428	3193.215560
419.691674	3238.061665
420.070859	3315.536638
420.449983	3361.257383
420.829045	3458.017289
421.208047	3514.631968
421.586988	3621.643061
421.965867	3725.740367
422.344686	3809.390754
422.723444	3955.667394
423.102141	3925.216304
423.480777	4140.836537
423.859352	4191.812684
424.237866	4428.310855
424.616319	4513.753372
424.994712	4720.836410
425.373044	4817.180422
425.751314	5050.633736
426.129524	5046.815062
426.507673	5370.605853
426.885762	5468.542869
427.263789	5650.636908
427.641756	5844.186969
428.019662	6011.515468
428.397508	6176.724162
428.775292	6417.726603
429.153016	6587.850422
429.530679	6774.347909
429.908282	6962.272042
430.285824	7061.393729
430.663305	7443.130063
431.040726	7526.888834
431.418086	7658.856160
431.795385	8043.140797
432.172624	8383.829536
432.549802	8440.860109
432.926920	8707.431283
433.303977	8866.497331
433.680974	9163.965737
434.057910	9487.040684
434.434786	9714.694151
434.811601	9893.423219
435.188355	10563.306866
435.565050	10636.701025
435.941683	10834.987250
436.318257	11464.365225
436.694770	11589.479102
437.071222	12105.466404
437.447614	11874.205992
437.823946	12092.286307
438.200218	12411.230028
438.576429	12511.969926
438.952580	12907.387952
439.328670	13109.386986
439.704700	13570.206421
440.080670	13517.448226
440.456580	14095.570269
440.832429	14419.383745
441.208218	14002.210621
441.583947	14483.605525
441.959616	14765.017856
442.335224	15130.897240
442.710773	15428.867241
443.086261	16006.981723
443.461689	15745.045890
443.837057	16038.491455
444.212365	16697.014862
444.587612	16898.746715
444.962800	16785.464427
445.337927	17289.279862
445.712995	16481.881101
446.088002	18139.697311
446.462949	18494.004726
446.837837	18823.615529
447.212664	19021.531229
447.587431	21611.655911
447.962139	24232.753442
448.336786	26331.625243
448.711374	25126.640759
449.085901	22176.096263
449.460369	22382.687789
449.834776	22555.233882
450.209124	24948.960251
450.583412	24640.103878
450.957640	25205.718819
451.331808	24181.401728
451.705917	23091.448814
452.079965	23280.277834
452.453954	23757.904476
452.827883	23811.146622
453.201752	23735.834304
453.575562	24009.508464
453.949311	25176.790158
454.323001	25361.760175
454.696632	25250.524595
455.070202	26845.820414
455.443713	27109.409746
455.817164	27775.673844
456.190556	28402.062415
456.563888	27926.074149
456.937160	28429.874461
457.310373	26876.490794
457.683526	27398.222491
458.056619	27472.866856
458.429653	27513.788422
458.802628	28187.740280
459.175542	28377.504434
459.548398	29772.074111
459.921194	31415.344071
460.293930	32171.975893
460.666607	34264.349647
461.039224	36071.631027
461.411782	36488.408421
461.784280	35306.184748
462.156719	34839.429354
462.529099	34336.163404
462.901419	33073.563573
463.273680	32062.650910
463.645882	32226.758112
464.018024	32243.290576
464.390106	33200.033521
464.762130	36109.076718
465.134094	40393.273588
465.505999	45856.787906
465.877845	50389.183465
466.249631	51445.131276
466.621358	49695.719821
466.993026	47558.298317
467.364634	45466.269882
467.736184	43530.363462
468.107674	42262.291458
468.479105	41476.355409
468.850477	40787.363269
469.221790	39331.147843
469.593043	37560.664365
469.964238	36682.253390
470.335373	36630.952087
470.706449	38531.741830
471.077467	41338.484893
471.448425	45964.293032
471.819324	48656.203651
472.190164	46651.619071
472.560945	43059.481884
472.931667	39928.287639
473.302330	38838.828758
473.672934	37991.819130
474.043479	38538.920433
474.413965	37742.055163
474.784393	37361.017029
475.154761	38306.306472
475.525070	38330.451078
475.895321	37863.436065
476.265513	38506.841051
476.635645	39507.842806
477.005719	39345.815080
477.375734	39856.078152
477.745691	40583.400705
478.115588	41983.034221
478.485427	44093.427579
478.855207	47571.286850
479.224928	50201.226564
479.594591	51738.725555
479.964194	50669.806855
480.333739	50841.443020
480.703226	50937.499686
481.072653	51573.201789
481.442022	52033.070967
481.811333	52244.081064
482.180584	50969.135447
482.549777	50460.367078
482.918912	49905.565412
483.287988	49608.593559
483.657005	48784.443043
484.025964	48112.588306
484.394864	48137.158889
484.763706	47681.728448
485.132489	46798.319169
485.501213	46638.534756
485.869879	46811.819379
486.238487	46382.149233
486.607036	46571.925991
486.975527	46009.779363
487.343959	46230.987715
487.712333	46297.427602
488.080648	46193.100923
488.448905	46666.167841
488.817104	46468.398335
489.185244	47508.801748
489.553326	49288.339138
489.921350	52008.061802
490.289315	54778.881602
490.657222	55273.025585
491.025070	55511.961153
491.392861	54618.290605
491.760593	53394.749635
492.128267	51741.309147
492.495883	50223.359750
492.863440	48808.817022
493.230939	47423.071885
493.598380	46329.559917
493.965763	45975.194527
494.333088	45161.073387
494.700354	44670.647256
495.067563	44363.462026
495.434713	44217.429881
495.801805	44306.633098
496.168839	43904.563270
496.535815	43561.046444
496.902733	43594.728914
497.269593	43161.381247
497.636395	43086.842746
498.003139	43501.654090
498.369825	42928.056482
498.736453	43249.581275
499.103023	42769.038325
499.469535	42634.605876
499.835989	42750.973351
500.202385	42395.483784
500.568723	42412.061619
500.935003	42589.119545
501.301226	42391.350038
501.667390	43022.908313
502.033497	43273.970377
502.399546	42685.992877
502.765537	41989.741476
503.131470	42375.782955
503.497345	42734.869385
503.863163	41372.696683
504.228923	42016.189889
504.594625	42425.977724
504.960269	41673.487210
505.325856	42385.663617
505.691385	41745.152253
506.056856	41892.578277
506.422270	42324.655573
506.787625	41883.458829
507.152924	42096.215686
507.518164	42192.768906
507.883347	41370.115612
508.248472	41618.667182
508.613540	42126.359266
508.978550	42421.901951
509.343503	42174.388859
509.708398	42376.261865
510.073236	42913.754729
510.438016	42913.268258
510.802738	42344.268182
511.167403	42987.637880
511.532010	43211.659195
511.896561	43514.466183
512.261053	44392.368002
512.625488	43909.987552
512.989866	43805.040811
513.354186	43639.764062
513.718449	43609.895225
514.082655	44308.498325
514.446803	43956.451867
514.810894	44503.454868
515.174927	44400.869908
515.538904	44294.723372
515.902822	44978.951622
516.266684	44421.866313
516.630488	44854.258682
516.994235	44680.719481
517.357925	45267.368637
517.721558	45450.733046
518.085133	45769.565862
518.448651	45880.214148
518.812112	45651.194529
519.175516	45749.015598
519.538863	46075.107676
519.902152	46046.998202
520.265385	46515.197886
520.628560	46549.170222
520.991678	46315.860581
521.354739	46550.191056
521.717743	46878.997795
522.080690	46761.049918
522.443580	47310.641552
522.806413	47339.887806
523.169189	47302.157290
523.531908	47477.465935
523.894569	47304.191395
524.257174	47484.069847
524.619722	47793.931930
524.982213	47762.318854
525.344647	47677.897171
525.707025	47726.030108
526.069345	48130.801994
526.431608	48029.041263
526.793815	48359.652735
527.155964	47873.173827
527.518057	48054.912464
527.880093	47836.716203
528.242072	48363.083240
528.603995	48064.329340
528.965860	48051.867607
529.327669	48153.003236
529.689421	48056.548319
530.051117	47990.625150
530.412755	48153.744286
530.774337	48207.745126
531.135862	48016.536681
531.497331	48204.402841
531.858743	48104.565309
532.220098	48432.807439
532.581396	48146.762287
532.942638	47808.843663
533.303824	48114.289695
533.664953	48084.690560
534.026025	47799.701530
534.387040	48277.464283
534.747999	48228.582735
535.108902	48387.515192
535.469748	47879.382008
535.830537	47996.808125
536.191270	48191.414308
536.551947	47831.526335
536.912567	48157.910799
537.273131	48290.735121
537.633638	47768.443856
537.994089	48093.114328
538.354483	47667.280501
538.714821	48266.419115
539.075103	48601.935630
539.435328	48346.248307
539.795497	48217.514882
540.155609	48231.347808
540.515665	48694.022387
540.875665	48131.694279
541.235609	48461.466399
541.595496	48448.987022
541.955328	49096.530796
542.315102	48461.899938
542.674821	48211.798213
543.034483	48259.600955
543.394090	48258.519627
543.753640	48192.535964
544.113134	49197.220282
544.472571	48199.253302
544.831953	49436.949833
545.191278	48634.163727
545.550548	48353.227784
545.909761	48833.932051
546.268918	49021.430206
546.628019	49337.389565
546.987064	48875.612311
547.346053	48147.319335
547.704986	49013.707158
548.063863	48565.208304
548.422684	48748.214791
548.781449	48577.082742
549.140158	48971.915993
549.498811	48799.579108
549.857408	48231.123477
550.215949	49075.375593
550.574434	49009.565851
550.932864	48760.190052
551.291237	49490.544860
551.649555	49079.741233
552.007817	49314.800154
552.366022	48959.734045
552.724173	49122.485176
553.082267	49509.035812
553.440305	49776.839548
553.798288	49080.462118
554.156215	49403.907590
554.514086	49616.298963
554.871902	49332.600468
555.229661	49335.342856
555.587365	49160.167801
555.945014	49258.752606
556.302606	49172.054842
556.660143	49400.595552
557.017625	49480.424743
557.375050	49259.276886
557.732421	49590.692422
558.089735	49572.105688
558.446994	49487.109313
558.804197	49940.354414
559.161345	49864.664010
559.518437	49089.669785
559.875474	49410.272046
560.232455	49593.351631
560.589381	49767.203383
560.946251	49439.170461
561.303065	50112.240117
561.659825	49900.138610
562.016528	49564.150747
562.373177	49288.006422
562.729770	49760.554101
563.086307	49270.256519
563.442789	49728.772146
563.799216	49759.802969
564.155587	49525.419562
564.511904	49556.447864
564.868164	49651.244241
565.224370	49862.234174
565.580520	49589.714438
565.936615	49800.285955
566.292654	49506.643784
566.648638	49760.657444
567.004567	49731.002857
567.360441	49764.294637
567.716260	49622.103852
568.072023	49887.729809
568.427732	49862.105624
568.783385	49393.560621
569.138982	49789.386980
569.494525	49725.276106
569.850013	49497.647845
570.205445	49462.238781
570.560823	49408.883208
570.916145	49271.652918
571.271412	49307.089709
571.626625	49034.244819
571.981782	49081.974464
572.336884	48758.415566
572.691931	49089.332028
573.046923	48680.562507
573.401860	48505.543727
573.756743	48479.501127
574.111570	48575.477134
574.466342	48425.805276
574.821059	48519.172487
575.175722	48035.040236
575.530330	48054.736024
575.884882	47745.758664
576.239380	47703.145790
576.593823	47668.089606
576.948211	47594.158565
577.302544	47092.687265
577.656823	47097.975436
578.011047	47338.277157
578.365216	47050.848209
578.719330	46803.438460
579.073389	46653.113773
579.427394	46740.509737
579.781344	46695.900567
580.135239	46327.190574
580.489080	46393.302786
580.842866	45858.731271
581.196597	46313.264387
581.550273	46262.242869
581.903895	46119.759696
582.257463	46525.854886
582.610975	45885.915693
582.964434	46165.102355
583.317837	45793.856662
583.671186	45614.396626
584.024481	45838.954824
584.377721	45352.917017
584.730906	45621.991124
585.084037	45679.160330
585.437113	45374.417538
585.790135	45387.794240
586.143103	44984.713661
586.496016	45087.049084
586.848874	45105.618174
587.201679	45117.495133
587.554428	44585.466879
587.907124	44765.504127
588.259765	44515.019275
588.612352	44764.594199
588.964884	44111.616062
589.317362	44406.369807
589.669786	44350.097927
590.022155	44105.957367
590.374470	44525.971182
590.726731	44026.571796
591.078937	43538.487281
591.431090	43640.071572
591.783188	43275.190336
592.135232	42955.752582
592.487222	43213.100965
592.839157	43277.710913
593.191038	42933.606793
593.542866	42680.283771
593.894639	42074.158118
594.246358	42352.071888
594.598022	42331.095647
594.949633	41927.238730
595.301190	41868.826880
595.652692	41709.808723
596.004141	42022.894624
596.355535	41022.631398
596.706876	40957.000617
597.058162	40788.053907
597.409395	41246.521644
597.760573	41326.000475
598.111698	40914.332290
598.462768	40894.394527
598.813785	40954.553136
599.164748	40382.926619
599.515657	40781.666765
599.866511	40256.358370
600.217312	40862.680628
600.568060	39826.360550
600.918753	40579.181259
601.269392	40527.305266
601.619978	40179.027070
601.970510	40376.015198
602.320988	40547.913503
602.671412	40873.811496
603.021783	40599.764290
603.372100	40262.112847
603.722363	40353.009892
604.072572	40421.335171
604.422728	40429.965626
604.772830	40241.222305
605.122878	40341.095125
605.472872	40275.464343
605.822813	40541.284385
606.172701	40351.787412
606.522534	40616.838678
606.872314	40858.065452
607.222041	40617.037804
607.571714	41003.132215
607.921333	40434.825298
608.270899	40734.975598
608.620411	41091.551533
608.969870	40859.880267
609.319276	40869.181196
609.668627	40920.006109
610.017926	41388.891390
610.367171	41543.556511
610.716362	41613.028652
611.065500	41555.645198
611.414585	41742.064546
611.763616	42039.117057
612.112594	41970.885040
612.461518	42182.671475
612.810389	42476.817760
613.159207	42362.761655
613.507971	42431.565843
613.856682	42897.880135
614.205340	42800.356494
614.553945	43492.373326
614.902496	42931.857512
615.250994	43413.907767
615.599439	43451.539980
615.947830	43665.209286
616.296169	43735.661931
616.644454	43847.411709
616.992686	44008.113612
617.340864	44526.828178
617.688990	44227.255090
618.037063	44840.619840
618.385082	44801.979396
618.733048	45076.331591
619.080961	45107.501045
619.428821	45131.181865
619.776628	45233.113996
620.124382	45065.077215
620.472083	45207.764554
620.819731	45330.325086
621.167326	44998.838974
621.514868	44960.115351
621.862357	44541.656732
622.209793	44570.179580
622.557176	44218.375097
622.904506	43958.717866
623.251783	43616.491575
623.599007	43384.795103
623.946179	43180.837580
624.293297	43111.675470
624.640363	42512.110878
624.987376	42495.709484
625.334336	42246.726896
625.681243	41887.607699
626.028097	41860.687937
626.374899	41705.188506
626.721647	41695.784233
627.068343	41588.299272
627.414987	41328.440394
627.761577	41108.419234
628.108115	41438.070366
628.454600	40872.241176
628.801032	41066.754097
629.147412	41014.542867
629.493739	41008.727896
629.840014	40664.568323
630.186236	41008.581703
630.532405	40569.749260
630.878521	40807.971506
631.224585	40675.275734
631.570597	40384.748997
631.916556	40539.562831
632.262462	40488.768165
632.608316	40502.848108
632.954117	40389.480119
633.299866	40391.146221
633.645562	40315.304582
633.991206	39824.976753
634.336797	39373.112928
634.682336	39377.934792
635.027823	39141.033328
635.373257	38929.564486
635.718639	38710.881753
636.063968	38559.715193
636.409245	37985.668922
636.754470	38027.913792
637.099642	37778.399361
637.444762	37291.393653
637.789829	37442.643392
638.134845	37082.652075
638.479808	37036.084416
638.824719	36924.087622
639.169577	36555.538947
639.514383	36596.142920
639.859137	36300.275080
640.203839	36537.098406
640.548489	36171.188774
640.893086	36232.728660
641.237632	35971.463300
641.582125	36099.884174
641.926566	36022.504983
642.270955	35986.324622
642.615292	36013.272110
642.959576	35968.998176
643.303809	35969.749308
643.647990	36122.188759
643.992118	36076.079845
644.336195	36056.084109
644.680219	36147.087018
645.024192	36447.610363
645.368112	36971.164437
645.711981	36947.919677
646.055797	37828.430293
646.399562	37740.625996
646.743274	38709.936537
647.086935	39144.383175
647.430544	39038.065240
647.774101	39151.859206
648.117606	39412.265049
648.461059	39698.088390
648.804460	39316.566305
649.147810	38699.176194
649.491108	38428.410779
649.834354	38081.944878
650.177548	37225.967038
650.520690	36788.389843
650.863781	36809.976063
651.206820	36653.107959
651.549807	36217.461526
651.892742	35724.343418
652.235626	35540.275768
652.578458	35403.481537
652.921238	34784.581600
653.263967	35111.364316
653.606644	34791.591325
653.949269	34715.411928
654.291843	34307.075946
654.634365	34699.779310
654.976836	34305.321625
655.319255	34307.229702
655.661622	34310.456040
656.003938	34084.934982
656.346203	33952.047646
656.688416	34171.247097
657.030577	33967.408041
657.372687	33798.095848
657.714746	34063.769697
658.056753	34181.757903
658.398708	33628.352637
658.740612	33688.571740
659.082465	33958.757421
659.424266	33790.219045
659.766016	33913.860905
660.107715	33766.404635
660.449362	33899.304573
660.790958	33870.892630
661.132503	33883.233375
661.473996	33912.668672
661.815438	34032.625449
662.156829	34227.813884
662.498168	33987.618027
662.839456	34007.147457
663.180693	34161.641178
663.521879	34319.033563
663.863013	34287.107936
664.204097	34266.076242
664.545129	34729.121346
664.886110	34686.687434
665.227040	34752.968525
665.567918	34875.085435
665.908746	34924.017395
666.249522	35087.418835
666.590248	35090.009988
666.930922	35196.665680
667.271545	35175.457546
667.612118	35225.266667
667.952639	35021.833424
668.293109	35077.187814
668.633528	34965.145649
668.973896	34896.651492
669.314213	34936.670691
669.654480	34669.691184
669.994695	34702.211667
670.334859	34577.405301
670.674973	34469.007890
671.015035	34623.965398
671.355047	34569.606636
671.695008	34513.853995
672.034918	34420.993420
672.374777	34501.956872
672.714585	34327.699307
673.054342	34542.649066
673.394049	34290.082217
673.733705	34580.934108
674.073310	34243.070937
674.412864	34308.179959
674.752368	33928.220632
675.091820	34241.616564
675.431223	33800.467711
675.770574	33512.701006
676.109875	33377.114132
676.449125	33102.953500
676.788324	33029.024979
677.127473	32468.642756
677.466571	32403.707653
677.805619	32050.252192
678.144616	32046.488971
678.483562	31960.696094
678.822458	31634.339356
679.161303	31561.333366
679.500098	31464.497842
679.838842	31358.111852
680.177535	31502.407319
680.516179	31789.216205
680.854771	32037.283824
681.193314	32892.210584
681.531805	33997.508771
681.870247	34741.217595
682.208638	35454.903827
682.546978	35675.713927
682.885268	35751.522799
683.223508	35263.634889
683.561697	34931.274136
683.899836	34729.809464
684.237925	34222.954212
684.575963	34073.456274
684.913951	33603.789614
685.251889	33747.044083
685.589776	33747.654063
685.927614	33738.884976
686.265401	33862.728482
686.603137	33963.115499
686.940824	34458.492043
687.278460	34829.778065
687.616046	34942.596568
687.953582	35544.568310
688.291068	35406.995222
688.628504	35694.814859
688.965889	35621.992872
689.303224	35258.490391
689.640510	34927.228610
689.977745	34200.483269
690.314930	33391.718354
690.652065	32891.111613
690.989150	32157.623728
691.326185	31242.578688
691.663170	30562.680789
692.000105	29808.645162
692.336990	29119.547157
692.673825	28645.807245
693.010610	28143.635225
693.347345	27563.418582
693.684030	26883.692083
694.020665	26597.084843
694.357251	25923.203561
694.693786	25879.317796
695.030272	25632.185311
695.366707	25067.928961
695.703093	24784.943790
696.039429	24789.175839
696.375716	24503.937272
696.711952	24474.915349
697.048139	24305.353619
697.384276	24121.754796
697.720363	24259.980714
698.056400	24036.372773
698.392388	23819.393950
698.728326	23784.592344
699.064214	23586.759823
699.400053	23526.714640
699.735842	23165.347088
700.071581	22881.560373
700.407270	22598.431529
700.742910	22394.942834
701.078501	22130.846866
701.414042	21844.837003
701.749533	21548.034029
702.084974	21183.866116
702.420366	21387.677446
702.755709	20956.557969
703.091002	20647.452059
703.426246	20667.104997
703.761440	20571.605379
704.096584	20290.006525
704.431679	20245.351984
704.766725	20136.836106
705.101721	20082.736964
705.436668	20167.710653
705.771565	19839.942392
706.106413	20189.853921
706.441212	20179.680873
706.775961	20310.213990
707.110661	20364.320694
707.445311	20713.473530
707.779913	20559.685570
708.114465	20794.840274
708.448967	21073.323695
708.783421	21759.205443
709.117825	22022.724198
709.452180	22240.497003
709.786485	22635.196664
710.120742	23430.347943
710.454949	23442.983595
710.789107	23904.788575
711.123216	24616.236535
711.457275	24722.320056
711.791286	25271.142914
712.125247	25332.443345
712.459159	25039.953078
712.793023	25710.562651
713.126837	24616.302070
713.460602	24892.736262
713.794318	24523.113821
714.127985	24151.348889
714.461602	23245.272062
714.795171	23215.990520
715.128691	22194.047812
715.462162	21643.044655
715.795584	21237.531719
716.128957	20971.111780
716.462281	20571.260060
716.795556	20333.998154
717.128782	19826.248097
717.461960	19272.671432
717.795088	19183.324542
718.128167	18785.262431
718.461198	18312.538311
718.794180	18179.013269
719.127113	17813.204461
719.459997	17606.804499
719.792833	17235.805823
720.125619	17215.769757
720.458357	16893.138432
720.791046	16715.992285
721.123686	16543.484001
721.456278	16308.125131
721.788821	16266.079387
722.121315	16006.492731
722.453761	16085.855616
722.786158	16000.771022
723.118506	16006.835530
723.450805	15870.684047
723.783056	16025.349167
724.115259	15919.749597
724.447412	15849.450707
724.779518	16087.403251
725.111574	16115.832838
725.443582	16313.241902
725.775542	16295.222297
726.107453	16759.469717
726.439315	16633.113196
726.771129	17030.492230
727.102895	17408.941731
727.434612	17598.534486
727.766281	17727.545175
728.097901	17992.966966
728.429473	18023.917130
728.760996	18017.444289
729.092471	18113.758053
729.423897	17987.136872
729.755276	17859.270525
730.086606	17978.405593
730.417887	18507.048712
730.749120	19011.068315
731.080305	19174.515125
731.411442	19503.357152
731.742530	19573.464479
732.073570	19684.296767
732.404562	19970.735128
732.735506	19792.043868
733.066401	19506.591052
733.397249	18978.636051
733.728048	18343.261623
734.058798	17509.583327
734.389501	16822.743759
734.720156	16363.545055
735.050762	15832.426730
735.381320	15468.369723
735.711831	15232.037910
736.042293	14880.177974
736.372707	14888.977308
736.703073	14683.444425
737.033391	14859.660478
737.363661	14819.563141
737.693883	14914.604014
738.024056	15070.141254
738.354182	15246.551392
738.684260	15517.402506
739.014290	15749.759369
739.344272	15913.783392
739.674207	16201.953389
740.004093	16310.265100
740.333931	16310.905327
740.663722	16360.722009
740.993464	16346.016963
741.323159	16183.948908
741.652806	15915.162147
741.982405	15706.677668
742.311956	15368.149064
742.641460	15262.136119
742.970915	14953.720847
743.300323	14629.433503
743.629683	14419.028344
743.958996	14135.274397
744.288260	13870.255898
744.617477	13563.947829
744.946647	13501.024146
745.275768	13224.068195
745.604842	13039.330071
745.933869	12861.367258
746.262847	12811.537973
746.591778	12739.177251
746.920662	12625.652987
747.249498	12631.583904
747.578286	12736.384452
747.907027	12882.222512
748.235720	13097.320985
748.564365	13120.863173
748.892963	13023.037062
749.221514	13080.473448
749.550017	12934.426180
749.878473	12899.117939
750.206881	12675.331037
750.535242	12574.694483
750.863555	12495.351763
751.191821	12384.310267
751.520039	12404.434553
751.848210	12315.664875
752.176334	12344.724606
752.504411	12249.219947
752.832440	12091.772109
753.160421	12138.790951
753.488356	12030.343129
753.816243	11940.393821
754.144082	11791.147941
754.471875	11735.826318
754.799620	11681.351610
755.127318	11647.732155
755.454969	11619.542023
755.782572	11562.506408
756.110129	11577.110631
756.437638	11489.510500
756.765100	11480.683440
757.092515	11481.477422
757.419882	11492.746921
757.747203	11503.499702
758.074477	11572.664333
758.401703	11525.388392
758.728882	11685.752537
759.056014	11720.465923
759.383099	11830.138745
759.710138	11941.830550
760.037129	12018.120852
760.364073	12037.214222
760.690970	12023.373734
761.017820	12024.192921
761.344623	12217.685009
761.671379	12562.109242
761.998088	13209.695866
762.324751	14821.395600
762.651366	17704.451649
762.977935	21311.140127
763.304456	23428.308796
763.630931	23831.812832
763.957359	22659.396723
764.283740	20781.997934
764.610074	18928.615202
764.936362	16818.675548
765.262602	15315.214428
765.588796	13851.890975
765.914943	12834.041684
766.241044	11984.829072
766.567097	11350.800632
766.893104	10804.873917
767.219064	10444.630543
767.544978	10060.257685
767.870845	9748.691693
768.196665	9556.719513
768.522438	9368.775215
768.848165	9198.348927
769.173846	9030.435654
769.499479	8907.965863
769.825066	8750.129856
770.150607	8563.450888
770.476101	8503.831682
770.801548	8395.739262
771.126949	8251.668126
771.452303	8166.802821
771.777611	7999.454158
772.102872	7981.860531
772.428087	7862.183538
772.753256	7739.234837
773.078378	7647.027092
773.403453	7499.918661
773.728482	7393.202476
774.053465	7335.587128
774.378401	7243.699497
774.703291	7150.818757
775.028135	7049.151287
775.352932	7013.069229
775.677683	6929.169305
776.002388	6841.359967
776.327046	6839.683783
776.651658	6758.138079
776.976224	6680.325348
777.300743	6666.711713
777.625216	6596.753100
777.949643	6549.580503
778.274024	6557.006123
778.598359	6488.396019
778.922647	6492.159240
779.246889	6454.844619
779.571086	6456.949301
779.895236	6464.619417
780.219339	6457.234126
780.543397	6453.964938
780.867409	6506.246744
781.191374	6506.372773
781.515294	6471.669470
781.839167	6523.026225
782.162995	6489.923488
782.486776	6442.587054
782.810511	6402.552730
783.134201	6329.208983
783.457844	6316.585934
783.781441	6269.057935
784.104993	6224.141255
784.428498	6195.578077
784.751958	6179.857239
785.075372	6154.495194
785.398739	6115.227126
785.722061	6141.100848
786.045337	6143.258462
786.368568	6253.296768
786.691752	6272.758142
787.014891	6532.186002
787.337983	6807.402755
787.661030	7241.279743
787.984031	7658.513361
788.306987	7910.505519
788.629897	7988.146850
788.952760	7896.944815
789.275579	7732.726708
789.598351	7432.369720
789.921078	7167.789802
790.243759	6890.881742
790.566395	6689.265835
790.888984	6504.116857
791.211529	6368.257761
791.534027	6204.989911
791.856480	6064.828190
792.178888	6005.271999
792.501249	5941.241783
792.823566	5836.058108
793.145836	5829.161810
793.468062	5810.078522
793.790241	5769.769456
794.112375	5808.863604
794.434464	5906.359519
794.756507	5937.803716
795.078505	6055.275204
795.400457	6269.725888
795.722364	6503.088462
796.044226	6687.846750
796.366042	6852.705084
796.687812	6796.201311
797.009538	6821.238201
797.331218	6734.621096
797.652852	6670.270767
797.974442	6543.483227
798.295986	6480.743547
798.617484	6359.750814
798.938938	6246.037506
799.260346	6175.078225
799.581709	6041.560745
799.903026	5987.239791
800.224299	5916.683802
800.545526	5800.026461
800.866708	5732.671604
801.187845	5687.054203
801.508936	5606.035299
801.829983	5581.628553
802.150984	5474.572089
802.471940	5446.765085
802.792851	5429.630203
803.113717	5404.709259
803.434538	5381.582965
803.755314	5347.207337
804.076045	5337.369526
804.396731	5300.984998
804.717372	5317.330939
805.037967	5314.805321
805.358518	5342.821533
805.679024	5396.449328
805.999485	5401.876130
806.319901	5423.263225
806.640272	5433.201860
806.960598	5478.645342
807.280879	5472.464887
807.601115	5508.073077
807.921306	5475.469415
808.241453	5468.946162
808.561554	5483.678934
808.881611	5449.492349
809.201623	5451.753306
809.521590	5400.159617
809.841513	5389.379110
810.161390	5403.040637
810.481223	5319.617102
810.801011	5303.077077
811.120755	5281.964724
811.440453	5230.756683
811.760107	5197.603535
812.079716	5175.283827
812.399281	5124.746259
812.718801	5120.121001
813.038276	5087.834931
813.357707	5053.524838
813.677093	5070.747940
813.996434	5010.748127
814.315731	5034.428947
814.634983	5032.367115
814.954191	5036.405079
815.273354	5099.258185
815.592473	5139.305112
815.911547	5214.866967
816.230577	5266.027116
816.549562	5356.248647
816.868502	5408.021297
817.187399	5464.419205
817.506250	5550.683430
817.825058	5578.301391
818.143821	5731.678497
818.462539	5902.929014
818.781213	6138.403831
819.099843	6501.520663
819.418429	7138.062118
819.736970	7753.345027
820.055466	8459.232594
820.373919	9404.096060
820.692327	10910.367623
821.010691	13747.259306
821.329011	20146.255502
821.647286	29664.647122
821.965517	39694.879696
822.283704	44716.068052
822.601847	45926.817095
822.919945	41388.266287
823.237999	36415.684736
823.556010	31359.775433
823.873976	26776.620496
824.191897	22648.182677
824.509775	19624.710328
824.827609	16900.790903
825.145398	15391.295522
825.463144	14671.391026
825.780845	15016.105126
826.098502	16301.188503
826.416116	18718.237770
826.733685	20832.641366
827.051210	21197.482273
827.368692	19699.795794
827.686129	17177.923295
828.003522	14781.194919
828.320872	12629.083492
828.638177	11022.218224
828.955439	9798.526019
829.272656	8751.034743
829.589830	7924.030934
829.906960	7202.717436
830.224046	6671.561303
830.541088	6267.245641
830.858086	6011.371795
831.175041	5813.473739
831.491952	5757.295120
831.808819	5799.895391
832.125642	6053.185645
832.442421	6626.306864
832.759157	7767.702233
833.075849	9526.318835
833.392497	11312.581124
833.709101	12346.065553
834.025662	12030.852286
834.342179	10970.443053
834.658653	9698.481800
834.975083	8628.532184
835.291469	7749.165910
835.607811	7025.198245
835.924110	6508.469893
836.240366	6024.753538
836.556578	5576.791566
836.872746	5225.425663
837.188871	4952.779899
837.504952	4738.195623
837.820990	4571.288061
838.136984	4455.127273
838.452935	4415.140841
838.768842	4455.321358
839.084706	4757.674642
839.400526	5509.212378
839.716303	6396.939406
840.032037	6918.166987
840.347727	6740.574699
840.663373	6142.562782
840.978977	5575.317028
841.294537	5150.672913
841.610054	4825.810877
841.925527	4583.573353
842.240957	4377.647259
842.556344	4198.313252
842.871687	4040.424314
843.186987	3888.287332
843.502244	3772.106380
843.817458	3683.268646
844.132629	3611.207873
844.447756	3561.620563
844.762840	3517.059283
845.077881	3479.651401
845.392879	3444.622944
845.707833	3421.859613
846.022745	3391.428688
846.337613	3380.900238
846.652438	3353.917463
846.967221	3345.037470
847.281960	3329.072136
847.596656	3315.012358
847.911309	3308.148827
848.225919	3292.304480
848.540485	3284.248716
848.855009	3272.346552
849.169490	3260.840118
849.483928	3256.661002
849.798323	3247.400402
850.112675	3239.531161
850.426984	3243.233889
850.741251	3232.488669
851.055474	3231.069584
851.369654	3230.555387
851.683792	3227.747464
851.997887	3230.898185
852.311938	3230.202506
852.625947	3228.967423
852.939914	3222.131619
853.253837	3228.730489
853.567718	3225.468862
853.881555	3221.607339
854.195350	3227.200499
854.509103	3221.950137
854.822812	3220.931824
855.136479	3217.917214
855.450103	3221.682956
855.763685	3210.786502
856.077224	3218.194477
856.390720	3221.405692
856.704173	3235.742734
857.017584	3239.082498
857.330953	3242.548292
857.644278	3251.645054
857.957561	3253.558172
858.270802	3251.655136
858.584000	3248.128849
858.897155	3243.508632
859.210268	3237.413877
859.523339	3220.379818
859.836367	3219.527863
860.149352	3218.721278
860.462295	3210.952860
860.775195	3202.801314
861.088054	3197.898792
861.400869	3197.553473
861.713642	3197.871066
862.026373	3202.415666
862.339062	3208.679300
862.651708	3219.389231
862.964312	3235.074781
863.276873	3241.431676
863.589392	3274.957870
863.901869	3295.500572
864.214303	3321.197853
864.526696	3334.942559
864.839045	3355.732278
865.151353	3368.123434
865.463619	3364.826519
865.775842	3368.410780
866.088023	3375.269270
866.400162	3368.884648
866.712258	3368.251983
867.024313	3368.614947
867.336325	3370.323898
867.648296	3369.310626
867.960224	3366.721993
868.272110	3370.550750
868.583954	3369.492107
868.895755	3379.060217
869.207515	3376.620299
869.519233	3393.656878
869.830909	3400.482601
870.142542	3411.142120
870.454134	3416.687390
870.765684	3429.509564
871.077191	3450.175775
871.388657	3460.273206
871.700081	3481.360352
872.011463	3499.475739
872.322803	3519.592463
872.634101	3537.085267
872.945357	3556.097979
873.256571	3581.906166
873.567744	3598.998198
873.878874	3603.820062
874.189963	3619.384624
874.501010	3622.885705
874.812015	3619.389665
875.122979	3633.537663
875.433900	3632.705873
875.744780	3635.450781
876.055618	3643.599807
876.366415	3645.049138
876.677169	3652.676404
876.987882	3668.729958
877.298554	3688.251827
877.609183	3728.956623
877.919771	3778.364972
878.230317	3848.149665
878.540822	3954.369297
878.851285	4111.910396
879.161707	4339.904140
879.472087	4726.933686
879.782425	5382.550867
880.092722	6599.147648
880.402977	8550.858086
880.713191	10883.026925
881.023363	13173.102130
881.333494	14403.052927
881.643583	14813.029805
881.953631	14386.850659
882.263637	13577.788317
882.573602	12592.882966
882.883526	11658.248002
883.193408	10728.046732
883.503248	9831.243107
883.813048	9016.426288
884.122806	8256.023683
884.432522	7496.561253
884.742197	6840.855852
885.051831	6285.822292
885.361424	5790.982631
885.670975	5406.488786
885.980485	5081.140278
886.289954	4814.208662
886.599382	4594.575671
886.908768	4419.272067
887.218113	4249.579266
887.527417	4115.540027
887.836680	3997.425792
888.145901	3897.679002
888.455082	3815.548523
888.764221	3749.141403
889.073319	3690.913556
889.382376	3655.645644
889.691392	3629.613125
890.000366	3628.781335
890.309300	3620.637351
890.618193	3622.250520
890.927044	3616.138121
891.235855	3625.489461
891.544625	3639.667707
891.853353	3672.594003
892.162041	3731.174731
892.470687	3826.964216
892.779293	3949.978452
893.087858	4127.096872
893.396381	4414.538423
893.704864	4835.152135
894.013306	5399.186675
894.321707	5950.033555
894.630068	6270.335868
894.938387	6297.709333
895.246665	6115.693433
895.554903	5804.145084
895.863100	5473.591585
896.171256	5209.883786
896.479371	4974.875276
896.787446	4757.851082
897.095480	4562.907142
897.403473	4416.456582
897.711425	4273.527268
898.019336	4151.624606
898.327207	4033.316287
898.635038	3931.525308
898.942827	3821.600428
899.250576	3740.967172
899.558284	3654.498781
899.865952	3598.143722
900.173579	3536.966800
900.481165	3492.483658
900.788711	3452.983697
901.096216	3418.103954
901.403681	3392.260479
901.711105	3380.731360
902.018489	3378.089795
902.325832	3412.387285
902.633135	3476.838437
902.940397	3658.057836
903.247619	4082.563319
903.554800	4846.104042
903.861941	5788.499863
904.169041	6448.275996
904.476101	6626.052286
904.783121	6349.696232
905.090100	5954.986489
905.397039	5557.791457
905.703938	5203.201737
906.010796	4890.093151
906.317614	4640.326663
906.624391	4402.674067
906.931129	4209.812124
907.237826	4028.464176
907.544483	3856.699462
907.851099	3685.262423
908.157675	3529.200902
908.464211	3387.516753
908.770707	3286.512194
909.077163	3206.756099
909.383578	3147.814929
909.689954	3102.888166
909.996289	3072.250553
910.302584	3051.458314
910.608839	3037.451468
910.915054	3025.967720
911.221229	3027.149870
911.527363	3027.243132
911.833458	3034.227650
912.139513	3045.033363
912.445527	3057.989129
912.751502	3097.315170
913.057436	3140.285965
913.363331	3201.044472
913.669186	3292.904377
913.975000	3411.341246
914.280775	3608.490691
914.586510	3881.761558
914.892205	4265.106020
915.197859	4760.848048
915.503475	5328.761755
915.809050	5798.967819
916.114585	6065.218880
916.420081	6112.797290
916.725536	6044.633328
917.030952	5814.915509
917.336328	5618.620540
917.641665	5412.515485
917.946961	5196.355850
918.252218	4992.854551
918.557435	4770.522022
918.862612	4575.404163
919.167750	4405.313112
919.472848	4218.944174
919.777906	4051.066190
920.082925	3898.483066
920.387904	3744.808532
920.692843	3630.102117
920.997743	3533.163249
921.302603	3439.780915
921.607423	3374.170298
921.912204	3307.218734
922.216946	3259.637803
922.521647	3210.191646
922.826310	3170.767302
923.130932	3133.470325
923.435516	3090.368460
923.740059	3066.307033
924.044564	3035.981972
924.349028	3009.752848
924.653454	2977.779330
924.957840	2952.944086
925.262186	2933.792742
925.566493	2910.739546
925.870761	2887.018396
926.174989	2873.306458
926.479178	2857.898171
926.783328	2841.857219
927.087438	2832.972186
927.391509	2818.471307
927.695541	2803.463792
927.999533	2795.992802
928.303486	2788.355454
928.607400	2781.542334
928.911275	2776.186108
929.215110	2768.883997
929.518906	2764.616660
929.822663	2765.176228
930.126381	2764.094901
930.430060	2768.674789
930.733699	2769.355345
931.037299	2774.623351
931.340861	2772.790891
931.644383	2777.196860
931.947866	2772.700150
932.251309	2770.207300
932.554714	2771.734769
932.858080	2770.978596
933.161407	2762.557349
933.464694	2763.215219
933.767943	2758.746237
934.071153	2755.545104
934.374323	2750.045205
934.677455	2748.989083
934.980548	2746.390368
935.283602	2740.872826
935.586617	2739.171436
935.889593	2743.731160
936.192530	2745.838362
936.495428	2752.429671
936.798287	2761.221443
937.101108	2772.851385
937.403890	2795.627318
937.706632	2819.600525
938.009336	2853.466997
938.312002	2879.812067
938.614628	2902.956004
938.917216	2923.700352
939.219765	2932.492124
939.522275	2943.602828
939.824747	2944.797581
940.127179	2935.287444
940.429573	2929.275868
940.731929	2929.278389
941.034246	2923.342430
941.336524	2920.625248
941.638763	2913.257602
941.940964	2910.411871
942.243126	2893.342524
942.545250	2883.366080
942.847335	2867.448637
943.149381	2853.671163
943.451389	2839.921416
943.753359	2830.902792
944.055290	2821.619507
944.357182	2811.917807
944.659036	2806.266673
944.960851	2801.507824
945.262628	2797.033800
945.564367	2799.272072
945.866067	2795.849129
946.167729	2795.657565
946.469352	2794.246042
946.770937	2791.612039
947.072484	2785.499640
947.373992	2787.997532
947.675462	2781.761624
947.976893	2777.781633
948.278286	2772.206117
948.579641	2769.604882
948.880958	2766.968358
949.182236	2767.318719
949.483476	2762.917791
949.784678	2763.124479
950.085841	2764.079777
950.386967	2768.815941
950.688054	2771.001282
950.989103	2779.606531
951.290114	2788.942748
951.591087	2799.748461
951.892021	2810.163485
952.192917	2822.594971
952.493776	2832.122751
952.794596	2839.157682
953.095378	2838.265397
953.396122	2836.548884
953.696828	2834.933195
953.997496	2830.958245
954.298126	2821.896771
954.598718	2812.273208
954.899272	2802.682413
955.199788	2788.788993
955.500266	2780.493774
955.800706	2763.361413
956.101108	2747.900194
956.401472	2736.945767
956.701798	2720.869527
957.002087	2709.685727
957.302337	2701.224151
957.602550	2692.369364
957.902724	2680.832683
958.202861	2672.111487
958.502960	2661.736792
958.803022	2658.046668
959.103045	2651.843528
959.403031	2645.549647
959.702979	2639.580921
960.002889	2634.214613
960.302762	2629.939715
960.602596	2626.146246
960.902393	2623.555093
961.202153	2620.301028
961.501875	2616.530245
961.801559	2614.405399
962.101205	2610.284256
962.400814	2609.064297
962.700385	2607.849378
962.999918	2604.973400
963.299414	2603.982813
963.598873	2602.941815
963.898293	2601.114397
964.197677	2600.572473
964.497022	2599.271855
964.796331	2597.283120
965.095601	2596.322780
965.394835	2594.434868
965.694030	2596.383274
965.993189	2596.960486
966.292309	2594.631473
966.591393	2591.425299
966.890439	2591.911771
967.189447	2595.599375
967.488419	2592.597367
967.787353	2594.616350
968.086249	2592.793972
968.385108	2595.811103
968.683930	2594.384457
968.982714	2596.768922
969.281462	2597.522575
969.580172	2599.165991
969.878844	2603.387957
970.177480	2602.790581
970.476078	2605.769902
970.774639	2610.150665
971.073162	2611.862137
971.371649	2611.862137
971.670098	2611.257198
971.968510	2613.805502
972.266885	2614.521346
972.565223	2618.544186
972.863524	2620.694238
973.161788	2620.908487
973.460014	2620.716924
973.758204	2622.211626
974.056356	2624.391925
974.354471	2625.591719
974.652550	2625.339662
974.950591	2626.998201
975.248595	2624.903602
975.546563	2623.287912
975.844493	2622.511574
976.142386	2617.616614
976.440243	2619.111316
976.738062	2615.632920
977.035845	2611.776437
977.333590	2611.955398
977.631299	2607.988010
977.928971	2608.729060
978.226606	2606.974738
978.524204	2605.870726
978.821765	2606.364759
979.119290	2603.950046
979.416777	2602.135231
979.714228	2604.562546
980.011642	2604.139089
980.309020	2610.768207
980.606360	2613.591253
980.903664	2620.971502
981.200931	2634.277627
981.498162	2652.014927
981.795356	2682.012313
982.092513	2716.914742
982.389633	2759.134405
982.686717	2802.354738
982.983764	2833.932526
983.280775	2848.556913
983.577749	2849.797037
983.874686	2841.857219
984.171587	2823.583037
984.468451	2806.367496
984.765279	2792.305198
985.062070	2773.360542
985.358824	2754.057963
985.655543	2735.511558
985.952224	2712.060111
986.248869	2688.913653
986.545478	2658.248314
986.842050	2640.427835
987.138586	2621.904115
987.435086	2609.497836
987.731549	2600.839654
988.027975	2595.075095
988.324366	2590.157449
988.620719	2584.445822
988.917037	2578.530028
989.213318	2575.434759
989.509563	2576.143041
989.805772	2571.510221
990.101944	2571.195149
990.398080	2567.525189
990.694180	2570.600293
990.990244	2570.691033
991.286271	2572.215982
991.582262	2571.520303
991.878217	2573.808987
992.174136	2572.798236
992.470019	2570.892680
992.765865	2576.490881
993.061676	2576.616910
993.357450	2578.330902
993.653188	2584.592015
993.948890	2589.431523
994.244556	2596.955445
994.540186	2605.268308
994.835780	2614.370111
995.131337	2630.615229
995.426859	2645.920172
995.722345	2663.087822
996.017795	2681.460307
996.313208	2698.209541
996.608586	2703.016281
996.903928	2706.653473
997.199234	2703.588452
997.494504	2703.656507
997.789738	2697.110569
998.084936	2687.542459
998.380099	2674.934533
998.675225	2664.872390
998.970316	2652.340082
999.265371	2638.560088
999.560390	2628.923922
999.855373	2615.338012
1000.150320	2606.246292
1000.445232	2595.891762
1000.740108	2590.585947
1001.034948	2584.314752
1001.329752	2579.442477
1001.624521	2576.841241
1001.919254	2565.377657
1002.213951	2567.268090
1002.508613	2563.734241
1002.803239	2562.284909
1003.097829	2559.688715
1003.392384	2562.168963
1003.686903	2559.736606
1003.981386	2559.741647
1004.275834	2554.957592
1004.570246	2554.372818
1004.864623	2557.198385
1005.158964	2551.706048
1005.453270	2554.564382
1005.747540	2548.578012
1006.041775	2551.917777
1006.335974	2553.682180
1006.630138	2547.476520
1006.924266	2549.450132
1007.218359	2551.358208
1007.512416	2549.717313
1007.806438	2552.517674
1008.100425	2548.552806
1008.394376	2548.356201
1008.688292	2551.675801
1008.982172	2548.635985
1009.276017	2546.279246
1009.569827	2548.583053
1009.863602	2549.016592
1010.157341	2547.746222
1010.451045	2547.887374
1010.744714	2549.051881
1011.038347	2546.433001
1011.331945	2547.166489
1011.625508	2548.015923
1011.919036	2547.884853
1012.212528	2544.482075
1012.505986	2544.330840
1012.799408	2545.369318
1013.092795	2545.013916
1013.386147	2544.585418
1013.679464	2542.531148
1013.972745	2546.788403
1014.265992	2541.984183
1014.559204	2545.896118
1014.852380	2545.576005
1015.145521	2542.531148
1015.438628	2545.583567
1015.731699	2544.562733
1016.024736	2546.470810
1016.317737	2546.490974
1016.610703	2546.664894
1016.903635	2542.294214
1017.196531	2542.233720
1017.489393	2544.015768
1017.782219	2543.015099
1018.075011	2545.049204
1018.367768	2548.303269
1018.660490	2547.050542
1018.953177	2547.050542
1019.245829	2547.050542
