Dividing Wavelength (nm)	Counts (n)	Blue Motor Position (mm): 2.400000	Red Motor Position (mm): 0.000000	
326.493990	2162.655000
326.888308	2162.655000
327.282561	2162.655000
327.676750	2066.873077
328.070874	2054.270192
328.464933	2114.764038
328.858929	2031.585000
329.252859	2084.517115
329.646726	2192.901923
330.040528	2094.599423
330.434265	2180.299038
330.827938	2185.340192
331.221547	2180.299038
331.615091	2180.299038
332.008571	2170.216731
332.401986	2213.066538
332.795338	2265.998654
333.188625	2213.066538
333.581847	2172.737308
333.975006	2248.354615
334.368100	2296.245577
334.761129	2366.821731
335.154095	2316.410192
335.546996	2386.986346
335.939833	2364.301154
336.332606	2402.109808
336.725315	2361.780577
337.117960	2386.986346
337.510540	2311.369038
337.903056	2477.727115
338.295508	2444.959615
338.687896	2394.548077
339.080220	2392.027500
339.472480	2414.712692
339.864676	2472.685962
340.256807	2457.562500
340.648875	2523.097500
341.040879	2429.836154
341.432818	2472.685962
341.824694	2460.083077
342.216506	2538.220962
342.608253	2450.000769
342.999937	2485.288846
343.391557	2455.041923
343.783113	2460.083077
344.174605	2497.891731
344.566033	2535.700385
344.957397	2482.768269
345.348697	2482.768269
345.739934	2455.041923
346.131106	2447.480192
346.522215	2422.274423
346.913260	2434.877308
347.304241	2500.412308
347.695159	2472.685962
348.086012	2497.891731
348.476802	2450.000769
348.867528	2513.015192
349.258191	2460.083077
349.648789	2384.465769
350.039324	2513.015192
350.429796	2434.877308
350.820203	2500.412308
351.210548	2424.795000
351.600828	2341.615962
351.991045	2434.877308
352.381198	2447.480192
352.771288	2485.288846
353.161314	2467.644808
353.551276	2495.371154
353.941175	2442.439038
354.331010	2457.562500
354.720782	2442.439038
355.110490	2487.809423
355.500135	2397.068654
355.889717	2399.589231
356.279235	2477.727115
356.668689	2384.465769
357.058080	2376.904038
357.447408	2437.397885
357.836672	2490.330000
358.225873	2462.603654
358.615010	2427.315577
359.004084	2361.780577
359.393095	2462.603654
359.782043	2419.753846
360.170927	2460.083077
360.559748	2482.768269
360.948505	2455.041923
361.337199	2510.494615
361.725830	2465.124231
362.114398	2475.206538
362.502903	2480.247692
362.891344	2447.480192
363.279722	2419.753846
363.668037	2432.356731
364.056289	2437.397885
364.444478	2354.218846
364.832603	2467.644808
365.220665	2495.371154
365.608665	2419.753846
365.996601	2407.150962
366.384474	2482.768269
366.772284	2513.015192
367.160031	2477.727115
367.547715	2505.453462
367.935336	2467.644808
368.322893	2540.741538
368.710388	2424.795000
369.097820	2528.138654
369.485189	2422.274423
369.872495	2407.150962
370.259738	2540.741538
370.646918	2518.056346
371.034035	2437.397885
371.421090	2434.877308
371.808081	2472.685962
372.195010	2344.136538
372.581875	2487.809423
372.968678	2432.356731
373.355418	2492.850577
373.742096	2414.712692
374.128710	2482.768269
374.515262	2437.397885
374.901751	2399.589231
375.288177	2455.041923
375.674540	2467.644808
376.060841	2460.083077
376.447079	2452.521346
376.833254	2480.247692
377.219367	2477.727115
377.605417	2447.480192
377.991404	2515.535769
378.377329	2475.206538
378.763191	2500.412308
379.148991	2462.603654
379.534727	2447.480192
379.920402	2523.097500
380.306013	2472.685962
380.691563	2424.795000
381.077049	2495.371154
381.462474	2548.303269
381.847835	2460.083077
382.233134	2374.383462
382.618371	2447.480192
383.003545	2442.439038
383.388657	2442.439038
383.773706	2490.330000
384.158693	2518.056346
384.543618	2497.891731
384.928480	2470.165385
385.313280	2389.506923
385.698017	2500.412308
386.082692	2513.015192
386.467305	2422.274423
386.851856	2545.782692
387.236344	2429.836154
387.620770	2550.823846
388.005133	2465.124231
388.389435	2555.865000
388.773674	2477.727115
389.157851	2444.959615
389.541965	2480.247692
389.926018	2543.262115
390.310008	2472.685962
390.693936	2507.974038
391.077802	2397.068654
391.461606	2455.041923
391.845348	2470.165385
392.229027	2500.412308
392.612645	2432.356731
392.996200	2492.850577
393.379694	2467.644808
393.763125	2500.412308
394.146494	2470.165385
394.529801	2475.206538
394.913047	2495.371154
395.296230	2381.945192
395.679351	2394.548077
396.062410	2475.206538
396.445408	2497.891731
396.828343	2442.439038
397.211217	2500.412308
397.594028	2447.480192
397.976778	2472.685962
398.359466	2523.097500
398.742092	2450.000769
399.124656	2429.836154
399.507158	2361.780577
399.889598	2500.412308
400.271977	2429.836154
400.654294	2450.000769
401.036549	2480.247692
401.418742	2505.453462
401.800874	2490.330000
402.182944	2434.877308
402.564952	2475.206538
402.946898	2444.959615
403.328783	2492.850577
403.710606	2424.795000
404.092367	2467.644808
404.474067	2407.150962
404.855705	2472.685962
405.237282	2389.506923
405.618797	2523.097500
406.000250	2528.138654
406.381642	2427.315577
406.762972	2485.288846
407.144240	2480.247692
407.525447	2515.535769
407.906593	2477.727115
408.287677	2518.056346
408.668700	2487.809423
409.049661	2495.371154
409.430560	2477.727115
409.811399	2553.344423
410.192176	2518.056346
410.572891	2533.179808
410.953545	2447.480192
411.334138	2452.521346
411.714669	2480.247692
412.095139	2548.303269
412.475547	2485.288846
412.855894	2492.850577
413.236180	2429.836154
413.616405	2480.247692
413.996568	2392.027500
414.376670	2533.179808
414.756711	2450.000769
415.136691	2520.576923
415.516609	2500.412308
415.896466	2444.959615
416.276262	2525.618077
416.655997	2439.918462
417.035670	2394.548077
417.415283	2444.959615
417.794834	2437.397885
418.174324	2472.685962
418.553753	2414.712692
418.933121	2523.097500
419.312428	2422.274423
419.691674	2462.603654
420.070859	2515.535769
420.449983	2427.315577
420.829045	2460.083077
421.208047	2485.288846
421.586988	2460.083077
421.965867	2412.192115
422.344686	2518.056346
422.723444	2485.288846
423.102141	2467.644808
423.480777	2576.029615
423.859352	2505.453462
424.237866	2392.027500
424.616319	2502.932885
424.994712	2457.562500
425.373044	2467.644808
425.751314	2548.303269
426.129524	2450.000769
426.507673	2399.589231
426.885762	2467.644808
427.263789	2462.603654
427.641756	2477.727115
428.019662	2450.000769
428.397508	2490.330000
428.775292	2422.274423
429.153016	2545.782692
429.530679	2447.480192
429.908282	2510.494615
430.285824	2485.288846
430.663305	2515.535769
431.040726	2502.932885
431.418086	2492.850577
431.795385	2485.288846
432.172624	2477.727115
432.549802	2472.685962
432.926920	2470.165385
433.303977	2414.712692
433.680974	2462.603654
434.057910	2482.768269
434.434786	2520.576923
434.811601	2470.165385
435.188355	2528.138654
435.565050	2404.630385
435.941683	2520.576923
436.318257	2540.741538
436.694770	2475.206538
437.071222	2462.603654
437.447614	2442.439038
437.823946	2520.576923
438.200218	2475.206538
438.576429	2538.220962
438.952580	2444.959615
439.328670	2444.959615
439.704700	2480.247692
440.080670	2548.303269
440.456580	2502.932885
440.832429	2487.809423
441.208218	2513.015192
441.583947	2465.124231
441.959616	2507.974038
442.335224	2495.371154
442.710773	2452.521346
443.086261	2424.795000
443.461689	2462.603654
443.837057	2543.262115
444.212365	2518.056346
444.587612	2429.836154
444.962800	2518.056346
445.337927	2465.124231
445.712995	2515.535769
446.088002	2472.685962
446.462949	2429.836154
446.837837	2563.426731
447.212664	2422.274423
447.587431	2477.727115
447.962139	2439.918462
448.336786	2545.782692
448.711374	2500.412308
449.085901	2450.000769
449.460369	2472.685962
449.834776	2480.247692
450.209124	2568.467885
450.583412	2490.330000
450.957640	2470.165385
451.331808	2495.371154
451.705917	2560.906154
452.079965	2487.809423
452.453954	2374.383462
452.827883	2586.111923
453.201752	2432.356731
453.575562	2444.959615
453.949311	2482.768269
454.323001	2492.850577
454.696632	2523.097500
455.070202	2480.247692
455.443713	2598.714808
455.817164	2490.330000
456.190556	2424.795000
456.563888	2500.412308
456.937160	2550.823846
457.310373	2487.809423
457.683526	2470.165385
458.056619	2507.974038
458.429653	2510.494615
458.802628	2475.206538
459.175542	2548.303269
459.548398	2455.041923
459.921194	2407.150962
460.293930	2500.412308
460.666607	2507.974038
461.039224	2523.097500
461.411782	2523.097500
461.784280	2487.809423
462.156719	2490.330000
462.529099	2457.562500
462.901419	2510.494615
463.273680	2394.548077
463.645882	2452.521346
464.018024	2515.535769
464.390106	2502.932885
464.762130	2500.412308
465.134094	2427.315577
465.505999	2485.288846
465.877845	2477.727115
466.249631	2540.741538
466.621358	2450.000769
466.993026	2513.015192
467.364634	2467.644808
467.736184	2402.109808
468.107674	2465.124231
468.479105	2470.165385
468.850477	2485.288846
469.221790	2523.097500
469.593043	2444.959615
469.964238	2548.303269
470.335373	2444.959615
470.706449	2523.097500
471.077467	2510.494615
471.448425	2513.015192
471.819324	2432.356731
472.190164	2412.192115
472.560945	2480.247692
472.931667	2515.535769
473.302330	2515.535769
473.672934	2419.753846
474.043479	2581.070769
474.413965	2490.330000
474.784393	2492.850577
475.154761	2452.521346
475.525070	2500.412308
475.895321	2525.618077
476.265513	2500.412308
476.635645	2470.165385
477.005719	2500.412308
477.375734	2520.576923
477.745691	2502.932885
478.115588	2525.618077
478.485427	2530.659231
478.855207	2520.576923
479.224928	2510.494615
479.594591	2510.494615
479.964194	2507.974038
480.333739	2465.124231
480.703226	2485.288846
481.072653	2490.330000
481.442022	2460.083077
481.811333	2437.397885
482.180584	2462.603654
482.549777	2533.179808
482.918912	2565.947308
483.287988	2465.124231
483.657005	2518.056346
484.025964	2480.247692
484.394864	2485.288846
484.763706	2467.644808
485.132489	2533.179808
485.501213	2437.397885
485.869879	2545.782692
486.238487	2482.768269
486.607036	2467.644808
486.975527	2414.712692
487.343959	2523.097500
487.712333	2497.891731
488.080648	2480.247692
488.448905	2533.179808
488.817104	2442.439038
489.185244	2460.083077
489.553326	2402.109808
489.921350	2535.700385
490.289315	2424.795000
490.657222	2414.712692
491.025070	2545.782692
491.392861	2550.823846
491.760593	2543.262115
492.128267	2492.850577
492.495883	2447.480192
492.863440	2538.220962
493.230939	2465.124231
493.598380	2455.041923
493.965763	2495.371154
494.333088	2457.562500
494.700354	2427.315577
495.067563	2538.220962
495.434713	2366.821731
495.801805	2548.303269
496.168839	2492.850577
496.535815	2487.809423
496.902733	2553.344423
497.269593	2497.891731
497.636395	2568.467885
498.003139	2439.918462
498.369825	2502.932885
498.736453	2470.165385
499.103023	2467.644808
499.469535	2543.262115
499.835989	2460.083077
500.202385	2530.659231
500.568723	2510.494615
500.935003	2482.768269
501.301226	2480.247692
501.667390	2505.453462
502.033497	2576.029615
502.399546	2545.782692
502.765537	2465.124231
503.131470	2465.124231
503.497345	2487.809423
503.863163	2507.974038
504.228923	2472.685962
504.594625	2507.974038
504.960269	2482.768269
505.325856	2482.768269
505.691385	2548.303269
506.056856	2565.947308
506.422270	2573.509038
506.787625	2460.083077
507.152924	2510.494615
507.518164	2477.727115
507.883347	2518.056346
508.248472	2510.494615
508.613540	2515.535769
508.978550	2455.041923
509.343503	2548.303269
509.708398	2523.097500
510.073236	2460.083077
510.438016	2513.015192
510.802738	2467.644808
511.167403	2457.562500
511.532010	2424.795000
511.896561	2465.124231
512.261053	2540.741538
512.625488	2437.397885
512.989866	2502.932885
513.354186	2528.138654
513.718449	2528.138654
514.082655	2570.988462
514.446803	2487.809423
514.810894	2389.506923
515.174927	2553.344423
515.538904	2412.192115
515.902822	2520.576923
516.266684	2427.315577
516.630488	2444.959615
516.994235	2555.865000
517.357925	2500.412308
517.721558	2550.823846
518.085133	2543.262115
518.448651	2412.192115
518.812112	2583.591346
519.175516	2419.753846
519.538863	2530.659231
519.902152	2515.535769
520.265385	2490.330000
520.628560	2495.371154
520.991678	2581.070769
521.354739	2611.317692
521.717743	2437.397885
522.080690	2606.276538
522.443580	2518.056346
522.806413	2530.659231
523.169189	2455.041923
523.531908	2573.509038
523.894569	2487.809423
524.257174	2543.262115
524.619722	2460.083077
524.982213	2472.685962
525.344647	2500.412308
525.707025	2533.179808
526.069345	2470.165385
526.431608	2505.453462
526.793815	2495.371154
527.155964	2475.206538
527.518057	2475.206538
527.880093	2510.494615
528.242072	2447.480192
528.603995	2482.768269
528.965860	2482.768269
529.327669	2487.809423
529.689421	2495.371154
530.051117	2502.932885
530.412755	2460.083077
530.774337	2490.330000
531.135862	2427.315577
531.497331	2523.097500
531.858743	2520.576923
532.220098	2460.083077
532.581396	2374.383462
532.942638	2502.932885
533.303824	2545.782692
533.664953	2475.206538
534.026025	2475.206538
534.387040	2462.603654
534.747999	2520.576923
535.108902	2482.768269
535.469748	2528.138654
535.830537	2482.768269
536.191270	2495.371154
536.551947	2470.165385
536.912567	2586.111923
537.273131	2457.562500
537.633638	2601.235385
537.994089	2518.056346
538.354483	2450.000769
538.714821	2593.673654
539.075103	2523.097500
539.435328	2515.535769
539.795497	2568.467885
540.155609	2490.330000
540.515665	2480.247692
540.875665	2535.700385
541.235609	2523.097500
541.595496	2558.385577
541.955328	2470.165385
542.315102	2570.988462
542.674821	2523.097500
543.034483	2470.165385
543.394090	2543.262115
543.753640	2515.535769
544.113134	2460.083077
544.472571	2500.412308
544.831953	2581.070769
545.191278	2505.453462
545.550548	2487.809423
545.909761	2475.206538
546.268918	2470.165385
546.628019	2495.371154
546.987064	2452.521346
547.346053	2422.274423
547.704986	2533.179808
548.063863	2555.865000
548.422684	2442.439038
548.781449	2515.535769
549.140158	2515.535769
549.498811	2510.494615
549.857408	2492.850577
550.215949	2545.782692
550.574434	2492.850577
550.932864	2518.056346
551.291237	2475.206538
551.649555	2520.576923
552.007817	2568.467885
552.366022	2515.535769
552.724173	2513.015192
553.082267	2573.509038
553.440305	2450.000769
553.798288	2533.179808
554.156215	2502.932885
554.514086	2505.453462
554.871902	2581.070769
555.229661	2485.288846
555.587365	2500.412308
555.945014	2480.247692
556.302606	2518.056346
556.660143	2429.836154
557.017625	2487.809423
557.375050	2434.877308
557.732421	2530.659231
558.089735	2528.138654
558.446994	2495.371154
558.804197	2543.262115
559.161345	2457.562500
559.518437	2465.124231
559.875474	2497.891731
560.232455	2528.138654
560.589381	2475.206538
560.946251	2553.344423
561.303065	2492.850577
561.659825	2598.714808
562.016528	2487.809423
562.373177	2462.603654
562.729770	2394.548077
563.086307	2419.753846
563.442789	2482.768269
563.799216	2568.467885
564.155587	2505.453462
564.511904	2467.644808
564.868164	2419.753846
565.224370	2586.111923
565.580520	2528.138654
565.936615	2538.220962
566.292654	2528.138654
566.648638	2495.371154
567.004567	2467.644808
567.360441	2487.809423
567.716260	2543.262115
568.072023	2518.056346
568.427732	2467.644808
568.783385	2492.850577
569.138982	2513.015192
569.494525	2465.124231
569.850013	2533.179808
570.205445	2497.891731
570.560823	2545.782692
570.916145	2480.247692
571.271412	2548.303269
571.626625	2515.535769
571.981782	2492.850577
572.336884	2543.262115
572.691931	2530.659231
573.046923	2497.891731
573.401860	2518.056346
573.756743	2460.083077
574.111570	2465.124231
574.466342	2455.041923
574.821059	2568.467885
575.175722	2568.467885
575.530330	2470.165385
575.884882	2447.480192
576.239380	2497.891731
576.593823	2477.727115
576.948211	2422.274423
577.302544	2555.865000
577.656823	2407.150962
578.011047	2523.097500
578.365216	2548.303269
578.719330	2535.700385
579.073389	2447.480192
579.427394	2538.220962
579.781344	2434.877308
580.135239	2523.097500
580.489080	2482.768269
580.842866	2523.097500
581.196597	2472.685962
581.550273	2477.727115
581.903895	2565.947308
582.257463	2616.358846
582.610975	2490.330000
582.964434	2515.535769
583.317837	2502.932885
583.671186	2528.138654
584.024481	2457.562500
584.377721	2570.988462
584.730906	2502.932885
585.084037	2505.453462
585.437113	2507.974038
585.790135	2507.974038
586.143103	2586.111923
586.496016	2444.959615
586.848874	2502.932885
587.201679	2487.809423
587.554428	2487.809423
587.907124	2482.768269
588.259765	2543.262115
588.612352	2470.165385
588.964884	2528.138654
589.317362	2422.274423
589.669786	2560.906154
590.022155	2570.988462
590.374470	2601.235385
590.726731	2467.644808
591.078937	2500.412308
591.431090	2470.165385
591.783188	2475.206538
592.135232	2505.453462
592.487222	2502.932885
592.839157	2465.124231
593.191038	2550.823846
593.542866	2523.097500
593.894639	2437.397885
594.246358	2525.618077
594.598022	2412.192115
594.949633	2485.288846
595.301190	2495.371154
595.652692	2397.068654
596.004141	2452.521346
596.355535	2560.906154
596.706876	2492.850577
597.058162	2477.727115
597.409395	2528.138654
597.760573	2419.753846
598.111698	2475.206538
598.462768	2520.576923
598.813785	2518.056346
599.164748	2447.480192
599.515657	2465.124231
599.866511	2422.274423
600.217312	2485.288846
600.568060	2548.303269
600.918753	2533.179808
601.269392	2467.644808
601.619978	2586.111923
601.970510	2482.768269
602.320988	2356.739423
602.671412	2495.371154
603.021783	2427.315577
603.372100	2593.673654
603.722363	2419.753846
604.072572	2492.850577
604.422728	2502.932885
604.772830	2603.755962
605.122878	2581.070769
605.472872	2545.782692
605.822813	2505.453462
606.172701	2460.083077
606.522534	2540.741538
606.872314	2515.535769
607.222041	2502.932885
607.571714	2482.768269
607.921333	2475.206538
608.270899	2525.618077
608.620411	2487.809423
608.969870	2505.453462
609.319276	2525.618077
609.668627	2447.480192
610.017926	2497.891731
610.367171	2487.809423
610.716362	2563.426731
611.065500	2563.426731
611.414585	2432.356731
611.763616	2523.097500
612.112594	2578.550192
612.461518	2414.712692
612.810389	2495.371154
613.159207	2540.741538
613.507971	2450.000769
613.856682	2487.809423
614.205340	2472.685962
614.553945	2568.467885
614.902496	2424.795000
615.250994	2525.618077
615.599439	2548.303269
615.947830	2480.247692
616.296169	2513.015192
616.644454	2457.562500
616.992686	2477.727115
617.340864	2477.727115
617.688990	2545.782692
618.037063	2515.535769
618.385082	2553.344423
618.733048	2543.262115
619.080961	2603.755962
619.428821	2487.809423
619.776628	2513.015192
620.124382	2480.247692
620.472083	2490.330000
620.819731	2560.906154
621.167326	2462.603654
621.514868	2535.700385
621.862357	2606.276538
622.209793	2530.659231
622.557176	2495.371154
622.904506	2540.741538
623.251783	2477.727115
623.599007	2533.179808
623.946179	2550.823846
624.293297	2477.727115
624.640363	2520.576923
624.987376	2502.932885
625.334336	2515.535769
625.681243	2505.453462
626.028097	2533.179808
626.374899	2560.906154
626.721647	2470.165385
627.068343	2523.097500
627.414987	2538.220962
627.761577	2505.453462
628.108115	2470.165385
628.454600	2485.288846
628.801032	2465.124231
629.147412	2482.768269
629.493739	2442.439038
629.840014	2555.865000
630.186236	2457.562500
630.532405	2523.097500
630.878521	2510.494615
631.224585	2500.412308
631.570597	2447.480192
631.916556	2437.397885
632.262462	2444.959615
632.608316	2545.782692
632.954117	2495.371154
633.299866	2502.932885
633.645562	2507.974038
633.991206	2462.603654
634.336797	2442.439038
634.682336	2548.303269
635.027823	2510.494615
635.373257	2553.344423
635.718639	2455.041923
636.063968	2475.206538
636.409245	2518.056346
636.754470	2465.124231
637.099642	2570.988462
637.444762	2528.138654
637.789829	2432.356731
638.134845	2457.562500
638.479808	2442.439038
638.824719	2460.083077
639.169577	2573.509038
639.514383	2450.000769
639.859137	2623.920577
640.203839	2565.947308
640.548489	2525.618077
640.893086	2490.330000
641.237632	2475.206538
641.582125	2560.906154
641.926566	2437.397885
642.270955	2538.220962
642.615292	2545.782692
642.959576	2477.727115
643.303809	2495.371154
643.647990	2513.015192
643.992118	2523.097500
644.336195	2467.644808
644.680219	2583.591346
645.024192	2437.397885
645.368112	2520.576923
645.711981	2490.330000
646.055797	2513.015192
646.399562	2444.959615
646.743274	2583.591346
647.086935	2545.782692
647.430544	2434.877308
647.774101	2520.576923
648.117606	2492.850577
648.461059	2404.630385
648.804460	2497.891731
649.147810	2502.932885
649.491108	2520.576923
649.834354	2515.535769
650.177548	2502.932885
650.520690	2477.727115
650.863781	2515.535769
651.206820	2520.576923
651.549807	2492.850577
651.892742	2485.288846
652.235626	2507.974038
652.578458	2543.262115
652.921238	2480.247692
653.263967	2495.371154
653.606644	2422.274423
653.949269	2502.932885
654.291843	2444.959615
654.634365	2439.918462
654.976836	2528.138654
655.319255	2465.124231
655.661622	2570.988462
656.003938	2528.138654
656.346203	2530.659231
656.688416	2477.727115
657.030577	2513.015192
657.372687	2485.288846
657.714746	2558.385577
658.056753	2490.330000
658.398708	2487.809423
658.740612	2495.371154
659.082465	2553.344423
659.424266	2407.150962
659.766016	2500.412308
660.107715	2518.056346
660.449362	2573.509038
660.790958	2475.206538
661.132503	2548.303269
661.473996	2475.206538
661.815438	2487.809423
662.156829	2475.206538
662.498168	2513.015192
662.839456	2477.727115
663.180693	2528.138654
663.521879	2538.220962
663.863013	2472.685962
664.204097	2500.412308
664.545129	2533.179808
664.886110	2472.685962
665.227040	2538.220962
665.567918	2455.041923
665.908746	2525.618077
666.249522	2455.041923
666.590248	2576.029615
666.930922	2507.974038
667.271545	2533.179808
667.612118	2523.097500
667.952639	2482.768269
668.293109	2513.015192
668.633528	2427.315577
668.973896	2500.412308
669.314213	2444.959615
669.654480	2485.288846
669.994695	2480.247692
670.334859	2497.891731
670.674973	2545.782692
671.015035	2482.768269
671.355047	2492.850577
671.695008	2540.741538
672.034918	2543.262115
672.374777	2477.727115
672.714585	2480.247692
673.054342	2419.753846
673.394049	2510.494615
673.733705	2485.288846
674.073310	2518.056346
674.412864	2495.371154
674.752368	2480.247692
675.091820	2480.247692
675.431223	2422.274423
675.770574	2467.644808
676.109875	2563.426731
676.449125	2545.782692
676.788324	2500.412308
677.127473	2404.630385
677.466571	2477.727115
677.805619	2535.700385
678.144616	2467.644808
678.483562	2404.630385
678.822458	2492.850577
679.161303	2462.603654
679.500098	2528.138654
679.838842	2472.685962
680.177535	2417.233269
680.516179	2545.782692
680.854771	2460.083077
681.193314	2593.673654
681.531805	2520.576923
681.870247	2492.850577
682.208638	2502.932885
682.546978	2490.330000
682.885268	2480.247692
683.223508	2490.330000
683.561697	2394.548077
683.899836	2530.659231
684.237925	2389.506923
684.575963	2550.823846
684.913951	2465.124231
685.251889	2492.850577
685.589776	2455.041923
685.927614	2535.700385
686.265401	2520.576923
686.603137	2533.179808
686.940824	2444.959615
687.278460	2548.303269
687.616046	2533.179808
687.953582	2576.029615
688.291068	2505.453462
688.628504	2583.591346
688.965889	2492.850577
689.303224	2545.782692
689.640510	2427.315577
689.977745	2518.056346
690.314930	2495.371154
690.652065	2545.782692
690.989150	2502.932885
691.326185	2568.467885
691.663170	2507.974038
692.000105	2462.603654
692.336990	2533.179808
692.673825	2485.288846
693.010610	2502.932885
693.347345	2447.480192
693.684030	2444.959615
694.020665	2510.494615
694.357251	2528.138654
694.693786	2450.000769
695.030272	2487.809423
695.366707	2558.385577
695.703093	2404.630385
696.039429	2518.056346
696.375716	2510.494615
696.711952	2528.138654
697.048139	2472.685962
697.384276	2523.097500
697.720363	2518.056346
698.056400	2434.877308
698.392388	2502.932885
698.728326	2555.865000
699.064214	2505.453462
699.400053	2477.727115
699.735842	2523.097500
700.071581	2515.535769
700.407270	2437.397885
700.742910	2452.521346
701.078501	2467.644808
701.414042	2495.371154
701.749533	2528.138654
702.084974	2492.850577
702.420366	2419.753846
702.755709	2507.974038
703.091002	2492.850577
703.426246	2598.714808
703.761440	2429.836154
704.096584	2465.124231
704.431679	2482.768269
704.766725	2465.124231
705.101721	2558.385577
705.436668	2550.823846
705.771565	2487.809423
706.106413	2545.782692
706.441212	2467.644808
706.775961	2553.344423
707.110661	2540.741538
707.445311	2447.480192
707.779913	2507.974038
708.114465	2457.562500
708.448967	2525.618077
708.783421	2545.782692
709.117825	2533.179808
709.452180	2583.591346
709.786485	2513.015192
710.120742	2467.644808
710.454949	2467.644808
710.789107	2470.165385
711.123216	2500.412308
711.457275	2419.753846
711.791286	2563.426731
712.125247	2492.850577
712.459159	2475.206538
712.793023	2515.535769
713.126837	2525.618077
713.460602	2505.453462
713.794318	2470.165385
714.127985	2452.521346
714.461602	2502.932885
714.795171	2568.467885
715.128691	2502.932885
715.462162	2490.330000
715.795584	2525.618077
716.128957	2576.029615
716.462281	2462.603654
716.795556	2480.247692
717.128782	2560.906154
717.461960	2513.015192
717.795088	2432.356731
718.128167	2535.700385
718.461198	2510.494615
718.794180	2510.494615
719.127113	2434.877308
719.459997	2485.288846
719.792833	2462.603654
720.125619	2601.235385
720.458357	2490.330000
720.791046	2518.056346
721.123686	2452.521346
721.456278	2470.165385
721.788821	2419.753846
722.121315	2530.659231
722.453761	2447.480192
722.786158	2485.288846
723.118506	2444.959615
723.450805	2490.330000
723.783056	2525.618077
724.115259	2543.262115
724.447412	2573.509038
724.779518	2518.056346
725.111574	2545.782692
725.443582	2452.521346
725.775542	2515.535769
726.107453	2555.865000
726.439315	2528.138654
726.771129	2482.768269
727.102895	2525.618077
727.434612	2412.192115
727.766281	2523.097500
728.097901	2432.356731
728.429473	2465.124231
728.760996	2548.303269
729.092471	2470.165385
729.423897	2505.453462
729.755276	2419.753846
730.086606	2502.932885
730.417887	2502.932885
730.749120	2520.576923
731.080305	2497.891731
731.411442	2490.330000
731.742530	2525.618077
732.073570	2565.947308
732.404562	2510.494615
732.735506	2518.056346
733.066401	2515.535769
733.397249	2497.891731
733.728048	2513.015192
734.058798	2419.753846
734.389501	2487.809423
734.720156	2573.509038
735.050762	2457.562500
735.381320	2480.247692
735.711831	2581.070769
736.042293	2502.932885
736.372707	2515.535769
736.703073	2467.644808
737.033391	2540.741538
737.363661	2465.124231
737.693883	2520.576923
738.024056	2467.644808
738.354182	2533.179808
738.684260	2545.782692
739.014290	2442.439038
739.344272	2444.959615
739.674207	2487.809423
740.004093	2515.535769
740.333931	2507.974038
740.663722	2500.412308
740.993464	2442.439038
741.323159	2553.344423
741.652806	2477.727115
741.982405	2437.397885
742.311956	2510.494615
742.641460	2540.741538
742.970915	2525.618077
743.300323	2482.768269
743.629683	2462.603654
743.958996	2500.412308
744.288260	2535.700385
744.617477	2477.727115
744.946647	2520.576923
745.275768	2439.918462
745.604842	2470.165385
745.933869	2492.850577
746.262847	2523.097500
746.591778	2520.576923
746.920662	2505.453462
747.249498	2490.330000
747.578286	2455.041923
747.907027	2470.165385
748.235720	2540.741538
748.564365	2482.768269
748.892963	2419.753846
749.221514	2492.850577
749.550017	2384.465769
749.878473	2550.823846
750.206881	2525.618077
750.535242	2535.700385
750.863555	2434.877308
751.191821	2432.356731
751.520039	2439.918462
751.848210	2492.850577
752.176334	2578.550192
752.504411	2533.179808
752.832440	2460.083077
753.160421	2515.535769
753.488356	2515.535769
753.816243	2457.562500
754.144082	2540.741538
754.471875	2444.959615
754.799620	2482.768269
755.127318	2513.015192
755.454969	2437.397885
755.782572	2490.330000
756.110129	2477.727115
756.437638	2444.959615
756.765100	2500.412308
757.092515	2507.974038
757.419882	2480.247692
757.747203	2437.397885
758.074477	2543.262115
758.401703	2429.836154
758.728882	2533.179808
759.056014	2470.165385
759.383099	2523.097500
759.710138	2525.618077
760.037129	2525.618077
760.364073	2384.465769
760.690970	2550.823846
761.017820	2460.083077
761.344623	2513.015192
761.671379	2518.056346
761.998088	2452.521346
762.324751	2535.700385
762.651366	2505.453462
762.977935	2404.630385
763.304456	2412.192115
763.630931	2495.371154
763.957359	2457.562500
764.283740	2447.480192
764.610074	2482.768269
764.936362	2530.659231
765.262602	2452.521346
765.588796	2538.220962
765.914943	2432.356731
766.241044	2505.453462
766.567097	2465.124231
766.893104	2460.083077
767.219064	2502.932885
767.544978	2450.000769
767.870845	2543.262115
768.196665	2462.603654
768.522438	2480.247692
768.848165	2470.165385
769.173846	2475.206538
769.499479	2500.412308
769.825066	2424.795000
770.150607	2470.165385
770.476101	2500.412308
770.801548	2578.550192
771.126949	2515.535769
771.452303	2492.850577
771.777611	2490.330000
772.102872	2439.918462
772.428087	2472.685962
772.753256	2422.274423
773.078378	2485.288846
773.403453	2450.000769
773.728482	2465.124231
774.053465	2434.877308
774.378401	2480.247692
774.703291	2422.274423
775.028135	2565.947308
775.352932	2518.056346
775.677683	2518.056346
776.002388	2576.029615
776.327046	2520.576923
776.651658	2447.480192
776.976224	2553.344423
777.300743	2502.932885
777.625216	2487.809423
777.949643	2414.712692
778.274024	2513.015192
778.598359	2485.288846
778.922647	2550.823846
779.246889	2492.850577
779.571086	2457.562500
779.895236	2485.288846
780.219339	2553.344423
780.543397	2535.700385
780.867409	2510.494615
781.191374	2487.809423
781.515294	2437.397885
781.839167	2480.247692
782.162995	2528.138654
782.486776	2540.741538
782.810511	2533.179808
783.134201	2538.220962
783.457844	2399.589231
783.781441	2507.974038
784.104993	2490.330000
784.428498	2455.041923
784.751958	2518.056346
785.075372	2480.247692
785.398739	2538.220962
785.722061	2455.041923
786.045337	2442.439038
786.368568	2507.974038
786.691752	2485.288846
787.014891	2492.850577
787.337983	2507.974038
787.661030	2465.124231
787.984031	2462.603654
788.306987	2543.262115
788.629897	2505.453462
788.952760	2507.974038
789.275579	2548.303269
789.598351	2450.000769
789.921078	2434.877308
790.243759	2467.644808
790.566395	2548.303269
790.888984	2502.932885
791.211529	2389.506923
791.534027	2543.262115
791.856480	2518.056346
792.178888	2447.480192
792.501249	2485.288846
792.823566	2555.865000
793.145836	2535.700385
793.468062	2528.138654
793.790241	2518.056346
794.112375	2457.562500
794.434464	2528.138654
794.756507	2507.974038
795.078505	2477.727115
795.400457	2472.685962
795.722364	2507.974038
796.044226	2442.439038
796.366042	2523.097500
796.687812	2462.603654
797.009538	2535.700385
797.331218	2558.385577
797.652852	2560.906154
797.974442	2490.330000
798.295986	2550.823846
798.617484	2402.109808
798.938938	2573.509038
799.260346	2429.836154
799.581709	2450.000769
799.903026	2576.029615
800.224299	2434.877308
800.545526	2545.782692
800.866708	2444.959615
801.187845	2515.535769
801.508936	2538.220962
801.829983	2487.809423
802.150984	2497.891731
802.471940	2553.344423
802.792851	2497.891731
803.113717	2482.768269
803.434538	2467.644808
803.755314	2533.179808
804.076045	2460.083077
804.396731	2502.932885
804.717372	2545.782692
805.037967	2523.097500
805.358518	2439.918462
805.679024	2576.029615
805.999485	2485.288846
806.319901	2558.385577
806.640272	2495.371154
806.960598	2460.083077
807.280879	2513.015192
807.601115	2553.344423
807.921306	2548.303269
808.241453	2608.797115
808.561554	2455.041923
808.881611	2475.206538
809.201623	2525.618077
809.521590	2402.109808
809.841513	2518.056346
810.161390	2472.685962
810.481223	2573.509038
810.801011	2432.356731
811.120755	2495.371154
811.440453	2543.262115
811.760107	2510.494615
812.079716	2485.288846
812.399281	2535.700385
812.718801	2558.385577
813.038276	2450.000769
813.357707	2450.000769
813.677093	2568.467885
813.996434	2472.685962
814.315731	2502.932885
814.634983	2480.247692
814.954191	2510.494615
815.273354	2563.426731
815.592473	2520.576923
815.911547	2515.535769
816.230577	2434.877308
816.549562	2500.412308
816.868502	2485.288846
817.187399	2409.671538
817.506250	2528.138654
817.825058	2553.344423
818.143821	2450.000769
818.462539	2538.220962
818.781213	2374.383462
819.099843	2477.727115
819.418429	2490.330000
819.736970	2550.823846
820.055466	2502.932885
820.373919	2482.768269
820.692327	2558.385577
821.010691	2485.288846
821.329011	2586.111923
821.647286	2550.823846
821.965517	2465.124231
822.283704	2477.727115
822.601847	2477.727115
822.919945	2502.932885
823.237999	2591.153077
823.556010	2518.056346
823.873976	2487.809423
824.191897	2513.015192
824.509775	2450.000769
824.827609	2460.083077
825.145398	2558.385577
825.463144	2487.809423
825.780845	2550.823846
826.098502	2490.330000
826.416116	2520.576923
826.733685	2543.262115
827.051210	2523.097500
827.368692	2414.712692
827.686129	2470.165385
828.003522	2460.083077
828.320872	2460.083077
828.638177	2460.083077
828.955439	2487.809423
829.272656	2455.041923
829.589830	2439.918462
829.906960	2450.000769
830.224046	2560.906154
830.541088	2548.303269
830.858086	2523.097500
831.175041	2485.288846
831.491952	2389.506923
831.808819	2490.330000
832.125642	2502.932885
832.442421	2510.494615
832.759157	2487.809423
833.075849	2399.589231
833.392497	2460.083077
833.709101	2535.700385
834.025662	2505.453462
834.342179	2492.850577
834.658653	2485.288846
834.975083	2495.371154
835.291469	2392.027500
835.607811	2497.891731
835.924110	2520.576923
836.240366	2341.615962
836.556578	2457.562500
836.872746	2480.247692
837.188871	2583.591346
837.504952	2500.412308
837.820990	2515.535769
838.136984	2472.685962
838.452935	2530.659231
838.768842	2545.782692
839.084706	2530.659231
839.400526	2538.220962
839.716303	2480.247692
840.032037	2535.700385
840.347727	2497.891731
840.663373	2555.865000
840.978977	2523.097500
841.294537	2515.535769
841.610054	2518.056346
841.925527	2477.727115
842.240957	2538.220962
842.556344	2455.041923
842.871687	2533.179808
843.186987	2467.644808
843.502244	2447.480192
843.817458	2447.480192
844.132629	2548.303269
844.447756	2560.906154
844.762840	2502.932885
845.077881	2507.974038
845.392879	2548.303269
845.707833	2477.727115
846.022745	2384.465769
846.337613	2530.659231
846.652438	2513.015192
846.967221	2513.015192
847.281960	2457.562500
847.596656	2402.109808
847.911309	2470.165385
848.225919	2525.618077
848.540485	2525.618077
848.855009	2543.262115
849.169490	2555.865000
849.483928	2485.288846
849.798323	2482.768269
850.112675	2407.150962
850.426984	2525.618077
850.741251	2543.262115
851.055474	2467.644808
851.369654	2439.918462
851.683792	2502.932885
851.997887	2548.303269
852.311938	2540.741538
852.625947	2452.521346
852.939914	2485.288846
853.253837	2379.424615
853.567718	2452.521346
853.881555	2530.659231
854.195350	2379.424615
854.509103	2497.891731
854.822812	2465.124231
855.136479	2485.288846
855.450103	2550.823846
855.763685	2505.453462
856.077224	2467.644808
856.390720	2467.644808
856.704173	2467.644808
857.017584	2444.959615
857.330953	2538.220962
857.644278	2457.562500
857.957561	2386.986346
858.270802	2392.027500
858.584000	2457.562500
858.897155	2417.233269
859.210268	2447.480192
859.523339	2538.220962
859.836367	2555.865000
860.149352	2528.138654
860.462295	2427.315577
860.775195	2523.097500
861.088054	2397.068654
861.400869	2553.344423
861.713642	2402.109808
862.026373	2452.521346
862.339062	2500.412308
862.651708	2518.056346
862.964312	2455.041923
863.276873	2470.165385
863.589392	2515.535769
863.901869	2535.700385
864.214303	2487.809423
864.526696	2548.303269
864.839045	2485.288846
865.151353	2452.521346
865.463619	2477.727115
865.775842	2548.303269
866.088023	2523.097500
866.400162	2558.385577
866.712258	2485.288846
867.024313	2487.809423
867.336325	2447.480192
867.648296	2450.000769
867.960224	2487.809423
868.272110	2462.603654
868.583954	2487.809423
868.895755	2513.015192
869.207515	2465.124231
869.519233	2492.850577
869.830909	2540.741538
870.142542	2457.562500
870.454134	2525.618077
870.765684	2437.397885
871.077191	2470.165385
871.388657	2414.712692
871.700081	2467.644808
872.011463	2513.015192
872.322803	2447.480192
872.634101	2525.618077
872.945357	2437.397885
873.256571	2447.480192
873.567744	2495.371154
873.878874	2492.850577
874.189963	2507.974038
874.501010	2402.109808
874.812015	2518.056346
875.122979	2523.097500
875.433900	2429.836154
875.744780	2523.097500
876.055618	2520.576923
876.366415	2523.097500
876.677169	2505.453462
876.987882	2455.041923
877.298554	2470.165385
877.609183	2510.494615
877.919771	2439.918462
878.230317	2477.727115
878.540822	2457.562500
878.851285	2475.206538
879.161707	2535.700385
879.472087	2444.959615
879.782425	2523.097500
880.092722	2487.809423
880.402977	2417.233269
880.713191	2502.932885
881.023363	2477.727115
881.333494	2560.906154
881.643583	2492.850577
881.953631	2452.521346
882.263637	2485.288846
882.573602	2563.426731
882.883526	2515.535769
883.193408	2465.124231
883.503248	2540.741538
883.813048	2513.015192
884.122806	2576.029615
884.432522	2513.015192
884.742197	2502.932885
885.051831	2530.659231
885.361424	2450.000769
885.670975	2402.109808
885.980485	2455.041923
886.289954	2424.795000
886.599382	2510.494615
886.908768	2545.782692
887.218113	2505.453462
887.527417	2477.727115
887.836680	2497.891731
888.145901	2560.906154
888.455082	2528.138654
888.764221	2371.862885
889.073319	2462.603654
889.382376	2548.303269
889.691392	2439.918462
890.000366	2497.891731
890.309300	2455.041923
890.618193	2520.576923
890.927044	2487.809423
891.235855	2485.288846
891.544625	2487.809423
891.853353	2513.015192
892.162041	2465.124231
892.470687	2427.315577
892.779293	2472.685962
893.087858	2513.015192
893.396381	2485.288846
893.704864	2467.644808
894.013306	2457.562500
894.321707	2419.753846
894.630068	2505.453462
894.938387	2482.768269
895.246665	2518.056346
895.554903	2492.850577
895.863100	2455.041923
896.171256	2477.727115
896.479371	2505.453462
896.787446	2482.768269
897.095480	2465.124231
897.403473	2497.891731
897.711425	2487.809423
898.019336	2467.644808
898.327207	2500.412308
898.635038	2603.755962
898.942827	2518.056346
899.250576	2507.974038
899.558284	2467.644808
899.865952	2500.412308
900.173579	2535.700385
900.481165	2462.603654
900.788711	2442.439038
901.096216	2402.109808
901.403681	2565.947308
901.711105	2472.685962
902.018489	2530.659231
902.325832	2450.000769
902.633135	2500.412308
902.940397	2558.385577
903.247619	2470.165385
903.554800	2480.247692
903.861941	2434.877308
904.169041	2505.453462
904.476101	2432.356731
904.783121	2555.865000
905.090100	2450.000769
905.397039	2553.344423
905.703938	2376.904038
906.010796	2540.741538
906.317614	2502.932885
906.624391	2419.753846
906.931129	2555.865000
907.237826	2533.179808
907.544483	2555.865000
907.851099	2460.083077
908.157675	2429.836154
908.464211	2497.891731
908.770707	2505.453462
909.077163	2442.439038
909.383578	2515.535769
909.689954	2490.330000
909.996289	2497.891731
910.302584	2437.397885
910.608839	2495.371154
910.915054	2472.685962
911.221229	2565.947308
911.527363	2467.644808
911.833458	2513.015192
912.139513	2578.550192
912.445527	2465.124231
912.751502	2507.974038
913.057436	2538.220962
913.363331	2510.494615
913.669186	2402.109808
913.975000	2518.056346
914.280775	2533.179808
914.586510	2492.850577
914.892205	2455.041923
915.197859	2485.288846
915.503475	2472.685962
915.809050	2475.206538
916.114585	2485.288846
916.420081	2563.426731
916.725536	2412.192115
917.030952	2465.124231
917.336328	2472.685962
917.641665	2502.932885
917.946961	2444.959615
918.252218	2505.453462
918.557435	2558.385577
918.862612	2505.453462
919.167750	2505.453462
919.472848	2523.097500
919.777906	2558.385577
920.082925	2553.344423
920.387904	2533.179808
920.692843	2477.727115
920.997743	2455.041923
921.302603	2507.974038
921.607423	2444.959615
921.912204	2480.247692
922.216946	2467.644808
922.521647	2528.138654
922.826310	2366.821731
923.130932	2477.727115
923.435516	2560.906154
923.740059	2477.727115
924.044564	2487.809423
924.349028	2487.809423
924.653454	2538.220962
924.957840	2470.165385
925.262186	2553.344423
925.566493	2528.138654
925.870761	2538.220962
926.174989	2452.521346
926.479178	2444.959615
926.783328	2520.576923
927.087438	2538.220962
927.391509	2497.891731
927.695541	2570.988462
927.999533	2593.673654
928.303486	2475.206538
928.607400	2442.439038
928.911275	2386.986346
929.215110	2485.288846
929.518906	2429.836154
929.822663	2558.385577
930.126381	2460.083077
930.430060	2507.974038
930.733699	2457.562500
931.037299	2520.576923
931.340861	2487.809423
931.644383	2439.918462
931.947866	2593.673654
932.251309	2528.138654
932.554714	2490.330000
932.858080	2507.974038
933.161407	2485.288846
933.464694	2480.247692
933.767943	2513.015192
934.071153	2475.206538
934.374323	2497.891731
934.677455	2472.685962
934.980548	2525.618077
935.283602	2455.041923
935.586617	2482.768269
935.889593	2518.056346
936.192530	2515.535769
936.495428	2528.138654
936.798287	2492.850577
937.101108	2480.247692
937.403890	2538.220962
937.706632	2427.315577
938.009336	2477.727115
938.312002	2500.412308
938.614628	2444.959615
938.917216	2417.233269
939.219765	2497.891731
939.522275	2513.015192
939.824747	2475.206538
940.127179	2507.974038
940.429573	2402.109808
940.731929	2538.220962
941.034246	2490.330000
941.336524	2497.891731
941.638763	2447.480192
941.940964	2475.206538
942.243126	2507.974038
942.545250	2455.041923
942.847335	2568.467885
943.149381	2533.179808
943.451389	2502.932885
943.753359	2482.768269
944.055290	2518.056346
944.357182	2523.097500
944.659036	2560.906154
944.960851	2419.753846
945.262628	2505.453462
945.564367	2457.562500
945.866067	2480.247692
946.167729	2490.330000
946.469352	2475.206538
946.770937	2507.974038
947.072484	2477.727115
947.373992	2475.206538
947.675462	2439.918462
947.976893	2553.344423
948.278286	2447.480192
948.579641	2502.932885
948.880958	2417.233269
949.182236	2495.371154
949.483476	2505.453462
949.784678	2523.097500
950.085841	2470.165385
950.386967	2392.027500
950.688054	2513.015192
950.989103	2538.220962
951.290114	2485.288846
951.591087	2550.823846
951.892021	2439.918462
952.192917	2419.753846
952.493776	2548.303269
952.794596	2543.262115
953.095378	2525.618077
953.396122	2470.165385
953.696828	2490.330000
953.997496	2588.632500
954.298126	2550.823846
954.598718	2422.274423
954.899272	2505.453462
955.199788	2485.288846
955.500266	2543.262115
955.800706	2535.700385
956.101108	2530.659231
956.401472	2492.850577
956.701798	2543.262115
957.002087	2530.659231
957.302337	2477.727115
957.602550	2450.000769
957.902724	2450.000769
958.202861	2515.535769
958.502960	2419.753846
958.803022	2543.262115
959.103045	2419.753846
959.403031	2485.288846
959.702979	2402.109808
960.002889	2500.412308
960.302762	2545.782692
960.602596	2565.947308
960.902393	2467.644808
961.202153	2475.206538
961.501875	2414.712692
961.801559	2523.097500
962.101205	2538.220962
962.400814	2507.974038
962.700385	2513.015192
962.999918	2518.056346
963.299414	2490.330000
963.598873	2417.233269
963.898293	2533.179808
964.197677	2515.535769
964.497022	2558.385577
964.796331	2434.877308
965.095601	2417.233269
965.394835	2505.453462
965.694030	2533.179808
965.993189	2482.768269
966.292309	2477.727115
966.591393	2487.809423
966.890439	2457.562500
967.189447	2470.165385
967.488419	2429.836154
967.787353	2487.809423
968.086249	2417.233269
968.385108	2543.262115
968.683930	2434.877308
968.982714	2495.371154
969.281462	2518.056346
969.580172	2497.891731
969.878844	2480.247692
970.177480	2482.768269
970.476078	2482.768269
970.774639	2523.097500
971.073162	2477.727115
971.371649	2500.412308
971.670098	2404.630385
971.968510	2525.618077
972.266885	2480.247692
972.565223	2432.356731
972.863524	2444.959615
973.161788	2593.673654
973.460014	2462.603654
973.758204	2581.070769
974.056356	2490.330000
974.354471	2538.220962
974.652550	2480.247692
974.950591	2444.959615
975.248595	2515.535769
975.546563	2535.700385
975.844493	2513.015192
976.142386	2465.124231
976.440243	2442.439038
976.738062	2502.932885
977.035845	2482.768269
977.333590	2465.124231
977.631299	2472.685962
977.928971	2475.206538
978.226606	2540.741538
978.524204	2525.618077
978.821765	2507.974038
979.119290	2480.247692
979.416777	2528.138654
979.714228	2475.206538
980.011642	2447.480192
980.309020	2513.015192
980.606360	2485.288846
980.903664	2523.097500
981.200931	2477.727115
981.498162	2553.344423
981.795356	2414.712692
982.092513	2523.097500
982.389633	2510.494615
982.686717	2487.809423
982.983764	2450.000769
983.280775	2548.303269
983.577749	2591.153077
983.874686	2450.000769
984.171587	2417.233269
984.468451	2540.741538
984.765279	2432.356731
985.062070	2530.659231
985.358824	2505.453462
985.655543	2427.315577
985.952224	2545.782692
986.248869	2444.959615
986.545478	2490.330000
986.842050	2482.768269
987.138586	2558.385577
987.435086	2432.356731
987.731549	2543.262115
988.027975	2470.165385
988.324366	2520.576923
988.620719	2492.850577
988.917037	2444.959615
989.213318	2565.947308
989.509563	2475.206538
989.805772	2540.741538
990.101944	2480.247692
990.398080	2558.385577
990.694180	2538.220962
990.990244	2518.056346
991.286271	2545.782692
991.582262	2540.741538
991.878217	2452.521346
992.174136	2452.521346
992.470019	2593.673654
992.765865	2467.644808
993.061676	2510.494615
993.357450	2450.000769
993.653188	2444.959615
993.948890	2535.700385
994.244556	2447.480192
994.540186	2520.576923
994.835780	2444.959615
995.131337	2427.315577
995.426859	2573.509038
995.722345	2462.603654
996.017795	2540.741538
996.313208	2523.097500
996.608586	2502.932885
996.903928	2485.288846
997.199234	2510.494615
997.494504	2510.494615
997.789738	2465.124231
998.084936	2480.247692
998.380099	2502.932885
998.675225	2490.330000
998.970316	2465.124231
999.265371	2543.262115
999.560390	2475.206538
999.855373	2515.535769
1000.150320	2535.700385
1000.445232	2482.768269
1000.740108	2591.153077
1001.034948	2462.603654
1001.329752	2397.068654
1001.624521	2518.056346
1001.919254	2495.371154
1002.213951	2530.659231
1002.508613	2520.576923
1002.803239	2548.303269
1003.097829	2598.714808
1003.392384	2452.521346
1003.686903	2455.041923
1003.981386	2495.371154
1004.275834	2467.644808
1004.570246	2507.974038
1004.864623	2515.535769
1005.158964	2523.097500
1005.453270	2422.274423
1005.747540	2507.974038
1006.041775	2452.521346
1006.335974	2376.904038
1006.630138	2480.247692
1006.924266	2490.330000
1007.218359	2513.015192
1007.512416	2480.247692
1007.806438	2523.097500
1008.100425	2510.494615
1008.394376	2470.165385
1008.688292	2460.083077
1008.982172	2520.576923
1009.276017	2475.206538
1009.569827	2510.494615
1009.863602	2515.535769
1010.157341	2525.618077
1010.451045	2465.124231
1010.744714	2422.274423
1011.038347	2434.877308
1011.331945	2487.809423
1011.625508	2462.603654
1011.919036	2422.274423
1012.212528	2545.782692
1012.505986	2528.138654
1012.799408	2472.685962
1013.092795	2510.494615
1013.386147	2555.865000
1013.679464	2432.356731
1013.972745	2477.727115
1014.265992	2525.618077
1014.559204	2455.041923
1014.852380	2588.632500
1015.145521	2515.535769
1015.438628	2507.974038
1015.731699	2472.685962
1016.024736	2558.385577
1016.317737	2452.521346
1016.610703	2538.220962
1016.903635	2452.521346
1017.196531	2480.247692
1017.489393	2427.315577
1017.782219	2586.111923
1018.075011	2497.891731
1018.367768	2500.412308
1018.660490	2555.865000
1018.953177	2555.865000
1019.245829	2555.865000
