Dividing Wavelength (nm)	Counts (n)	Blue Motor Position (mm): 24.200000	Red Motor Position (mm): 0.000000	
326.493990	2133.938067
326.888308	2133.938067
327.282561	2133.938067
327.676750	2100.553026
328.070874	2100.011102
328.464933	2101.997316
328.858929	2109.498553
329.252859	2119.318721
329.646726	2127.298868
330.040528	2142.790333
330.434265	2159.348003
330.827938	2177.349963
331.221547	2194.691533
331.615091	2213.946220
332.008571	2235.887842
332.401986	2256.170924
332.795338	2271.571649
333.188625	2292.200051
333.581847	2308.697227
333.975006	2325.486790
334.368100	2347.672908
334.761129	2362.887110
335.154095	2379.757332
335.546996	2402.129972
335.939833	2425.848601
336.332606	2439.220262
336.725315	2451.014041
337.117960	2460.854373
337.510540	2469.552884
337.903056	2481.326499
338.295508	2484.991418
338.687896	2494.161277
339.080220	2503.646208
339.472480	2509.861951
339.864676	2514.691376
340.256807	2522.369053
340.648875	2522.895854
341.040879	2523.755371
341.432818	2526.863242
341.824694	2528.771319
342.216506	2529.340969
342.608253	2529.918181
342.999937	2528.501617
343.391557	2529.093953
343.783113	2528.020187
344.174605	2527.400125
344.566033	2524.395597
344.957397	2524.405679
345.348697	2521.171779
345.739934	2519.926614
346.131106	2520.975174
346.522215	2515.298835
346.913260	2516.967457
347.304241	2512.982425
347.695159	2512.075017
348.086012	2509.136024
348.476802	2508.631909
348.867528	2506.960767
349.258191	2503.338698
349.648789	2506.537310
350.039324	2502.779129
350.429796	2503.459685
350.820203	2499.560353
351.210548	2499.005826
351.600828	2495.605568
351.991045	2495.708911
352.381198	2498.050527
352.771288	2496.013901
353.161314	2493.480721
353.551276	2494.005001
353.941175	2497.813593
354.331010	2496.376864
354.720782	2494.068016
355.110490	2498.526916
355.500135	2497.453150
355.889717	2495.560197
356.279235	2497.354848
356.668689	2494.436020
357.058080	2495.703870
357.447408	2496.507934
357.836672	2491.696153
358.225873	2495.071205
358.615010	2491.678509
359.004084	2499.141937
359.393095	2497.927019
359.782043	2498.741165
360.170927	2496.218068
360.559748	2501.128152
360.948505	2500.616474
361.337199	2502.711074
361.725830	2500.447596
362.114398	2505.234171
362.502903	2499.383912
362.891344	2503.237874
363.279722	2503.409274
363.668037	2504.987155
364.056289	2503.903307
364.444478	2505.624861
364.832603	2505.526558
365.220665	2507.391785
365.608665	2505.370283
365.996601	2506.370952
366.384474	2509.025119
366.772284	2507.275839
367.160031	2508.785664
367.547715	2509.975377
367.935336	2508.526045
368.322893	2508.457989
368.710388	2511.013854
369.097820	2509.536796
369.485189	2508.936899
369.872495	2508.831035
370.259738	2510.565192
370.646918	2510.610562
371.034035	2510.837414
371.421090	2510.764317
371.808081	2511.517970
372.195010	2509.372959
372.581875	2510.988648
372.968678	2513.582322
373.355418	2510.413957
373.742096	2514.623320
374.128710	2510.628206
374.515262	2515.855882
374.901751	2512.969822
375.288177	2514.472086
375.674540	2512.385048
376.060841	2513.355470
376.447079	2513.332785
376.833254	2512.541324
377.219367	2510.862620
377.605417	2513.032836
377.991404	2511.396982
378.377329	2511.528052
378.763191	2511.517970
379.148991	2516.337313
379.534727	2513.655419
379.920402	2517.418640
380.306013	2515.596263
380.691563	2517.610204
381.077049	2517.544669
381.462474	2517.232117
381.847835	2516.944772
382.233134	2517.985770
382.618371	2516.246572
383.003545	2517.186747
383.388657	2519.346882
383.773706	2515.629031
384.158693	2518.557941
384.543618	2520.624814
384.928480	2516.513753
385.313280	2520.123219
385.698017	2520.352592
386.082692	2520.150946
386.467305	2517.219515
386.851856	2519.573733
387.236344	2517.786644
387.620770	2521.035668
388.005133	2520.410565
388.389435	2518.951151
388.773674	2520.914680
389.157851	2518.295801
389.541965	2520.975174
389.926018	2520.821419
390.310008	2522.371574
390.693936	2519.798065
391.077802	2519.858559
391.461606	2523.243693
391.845348	2524.020031
392.229027	2522.575741
392.612645	2523.052130
392.996200	2519.460307
393.379694	2522.651358
393.763125	2524.521626
394.146494	2520.249248
394.529801	2524.854342
394.913047	2523.047088
395.296230	2524.672861
395.679351	2523.873838
396.062410	2520.980215
396.445408	2525.129085
396.828343	2525.991122
397.211217	2518.494927
397.594028	2521.249917
397.976778	2521.300329
398.359466	2523.654548
398.742092	2520.181193
399.124656	2527.284178
399.507158	2525.602953
399.889598	2525.295443
400.271977	2528.383150
400.654294	2528.204189
401.036549	2527.160670
401.418742	2529.088911
401.800874	2526.827954
402.182944	2526.079342
402.564952	2530.238294
402.946898	2528.143695
403.328783	2525.842408
403.710606	2529.577903
404.092367	2528.393232
404.474067	2529.877852
404.855705	2529.547656
405.237282	2530.533202
405.618797	2529.872811
406.000250	2528.841895
406.381642	2529.250228
406.762972	2531.574200
407.144240	2529.343490
407.525447	2533.280631
407.906593	2531.463295
408.287677	2534.366999
408.668700	2530.412214
409.049661	2530.301309
409.430560	2530.553367
409.811399	2534.006557
410.192176	2531.859025
410.572891	2530.591175
410.953545	2529.661082
411.334138	2528.516740
411.714669	2531.521268
412.095139	2531.430527
412.475547	2534.069571
412.855894	2532.602596
413.236180	2536.138965
413.616405	2530.747451
413.996568	2534.924047
414.376670	2535.584438
414.756711	2534.855991
415.136691	2531.952287
415.516609	2533.318439
415.896466	2534.654345
416.276262	2539.193904
416.655997	2532.209386
417.035670	2532.837009
417.415283	2534.825744
417.794834	2529.346010
418.174324	2534.283820
418.553753	2534.545960
418.933121	2536.585107
419.312428	2537.187525
419.691674	2536.572504
420.070859	2534.765251
420.449983	2535.932278
420.829045	2535.471012
421.208047	2536.988399
421.586988	2534.843388
421.965867	2535.589479
422.344686	2535.995292
422.723444	2537.318595
423.102141	2539.072917
423.480777	2540.441590
423.859352	2538.505787
424.237866	2537.575694
424.616319	2538.147865
424.994712	2537.742052
425.373044	2539.796322
425.751314	2538.082330
426.129524	2537.071578
426.507673	2538.825900
426.885762	2538.626774
427.263789	2538.135262
427.641756	2538.336908
428.019662	2539.440921
428.397508	2538.190715
428.775292	2538.926723
429.153016	2540.875129
429.530679	2541.099460
429.908282	2540.902855
430.285824	2541.117104
430.663305	2540.131559
431.040726	2535.937319
431.418086	2538.528472
431.795385	2540.812115
432.172624	2542.684903
432.549802	2542.495860
432.926920	2542.551313
433.303977	2541.575849
433.680974	2541.374203
434.057910	2541.175078
434.434786	2543.907383
434.811601	2544.172044
435.188355	2542.485778
435.565050	2542.374872
435.941683	2543.367980
436.318257	2542.135418
436.694770	2537.530323
437.071222	2540.721374
437.447614	2539.624923
437.823946	2542.087527
438.200218	2544.335881
438.576429	2545.298742
438.952580	2546.846376
439.328670	2544.824873
439.704700	2547.594987
440.080670	2545.253371
440.456580	2544.126673
440.832429	2547.698331
441.208218	2546.972405
441.583947	2549.044319
441.959616	2547.907539
442.335224	2546.377548
442.710773	2546.763197
443.086261	2546.770758
443.461689	2544.522404
443.837057	2546.785882
444.212365	2546.385110
444.587612	2547.529452
444.962800	2547.017775
445.337927	2547.219421
445.712995	2546.841335
446.088002	2549.039278
446.462949	2548.852755
446.837837	2549.596325
447.212664	2549.679504
447.587431	2550.470965
447.962139	2552.862993
448.336786	2554.544218
448.711374	2550.402910
449.085901	2553.745195
449.460369	2550.108002
449.834776	2551.648075
450.209124	2552.187478
450.583412	2553.662016
450.957640	2556.850546
451.331808	2555.338199
451.705917	2554.997922
452.079965	2554.647561
452.453954	2557.026986
452.827883	2559.991184
453.201752	2557.800803
453.575562	2559.638304
453.949311	2560.913716
454.323001	2562.358006
454.696632	2562.801628
455.070202	2567.033676
455.443713	2569.198852
455.817164	2570.635581
456.190556	2569.173646
456.563888	2574.628175
456.937160	2577.443659
457.310373	2581.605132
457.683526	2583.480441
458.056619	2585.587643
458.429653	2590.613673
458.802628	2596.456371
459.175542	2597.898141
459.548398	2609.507918
459.921194	2617.462859
460.293930	2622.720782
460.666607	2642.976138
461.039224	2655.984836
461.411782	2666.712411
461.784280	2673.888494
462.156719	2676.429235
462.529099	2683.713703
462.901419	2683.580112
463.273680	2688.875844
463.645882	2693.861545
464.018024	2705.103318
464.390106	2720.612428
464.762130	2745.084710
465.134094	2779.800616
465.505999	2854.200485
465.877845	2935.645366
466.249631	2978.845534
466.621358	2969.194245
466.993026	2955.910805
467.364634	2959.913481
467.736184	2959.011114
468.107674	2964.894141
468.479105	2995.640138
468.850477	2999.138699
469.221790	3005.982065
469.593043	3003.834534
469.964238	3026.340765
470.335373	3048.428581
470.706449	3078.912438
471.077467	3107.415122
471.448425	3270.630039
471.819324	3413.486257
472.190164	3441.391564
472.560945	3345.680217
472.931667	3302.338897
473.302330	3316.224755
473.672934	3315.811381
474.043479	3392.227711
474.413965	3422.646033
474.784393	3447.398099
475.154761	3508.290196
475.525070	3560.211560
475.895321	3579.819128
476.265513	3645.752379
476.635645	3720.411868
477.005719	3778.470837
477.375734	3843.534489
477.745691	3938.913119
478.115588	4024.988301
478.485427	4129.864465
478.855207	4311.053617
479.224928	4580.571346
479.594591	4791.452893
479.964194	4820.036236
480.333739	4852.206359
480.703226	4926.853244
481.072653	5024.518038
481.442022	5186.036608
481.811333	5315.720290
482.180584	5336.691490
482.549777	5342.496379
482.918912	5371.059557
483.287988	5461.591118
483.657005	5538.945103
484.025964	5526.153175
484.394864	5646.798069
484.763706	5729.238579
485.132489	5716.053441
485.501213	5789.545902
485.869879	5891.306634
486.238487	5932.540752
486.607036	6037.041350
486.975527	6045.359254
487.343959	6197.627306
487.712333	6308.875489
488.080648	6358.515731
488.448905	6472.435726
488.817104	6522.436410
489.185244	6733.980869
489.553326	6902.625110
489.921350	7253.633090
490.289315	7875.789613
490.657222	8131.585321
491.025070	8202.020322
491.392861	8233.882935
491.760593	8142.905232
492.128267	8065.430259
492.495883	7970.281000
492.863440	7874.660394
493.230939	7768.806246
493.598380	7813.301990
493.965763	7829.375709
494.333088	7832.944846
494.700354	7875.930765
495.067563	7977.605797
495.434713	7960.181049
495.801805	8112.255016
496.168839	8135.610682
496.535815	8183.481479
496.902733	8239.098009
497.269593	8279.893546
497.636395	8402.849809
498.003139	8479.994586
498.369825	8443.380686
498.736453	8633.734655
499.103023	8638.380078
499.469535	8728.294098
499.835989	8782.751163
500.202385	8822.195671
500.568723	8774.708002
500.935003	8989.375456
501.301226	8920.006659
501.667390	9162.697887
502.033497	9302.042941
502.399546	9246.554961
502.765537	9225.097289
503.131470	9345.094395
503.497345	9549.651815
503.863163	9272.471533
504.228923	9591.848793
504.594625	9685.168113
504.960269	9526.528042
505.325856	9756.502960
505.691385	9627.945976
506.056856	9801.127254
506.422270	9873.379592
506.787625	9812.384151
507.152924	9959.517788
507.518164	9971.399787
507.883347	9954.862282
508.248472	9913.923072
508.613540	10160.455659
508.978550	10093.869579
509.343503	10101.970713
509.708398	10243.879194
510.073236	10381.616120
510.438016	10422.230176
510.802738	10392.994004
511.167403	10471.071395
511.532010	10419.160113
511.896561	10652.963787
512.261053	10743.404608
512.625488	10653.535958
512.989866	10660.747329
513.354186	10671.381643
513.718449	10606.567528
514.082655	10805.418362
514.446803	10733.445808
514.810894	10867.742147
515.174927	10757.603017
515.538904	10800.727568
515.902822	10956.549633
516.266684	10866.733916
516.630488	10823.047277
516.994235	10895.700386
517.357925	10972.714093
517.721558	11072.009701
518.085133	11099.841911
518.448651	11128.316868
518.812112	11026.311641
519.175516	11043.534743
519.538863	11169.674495
519.902152	11104.469690
520.265385	11261.932651
520.628560	11186.509428
520.991678	11176.661534
521.354739	11249.566701
521.717743	11190.197032
522.080690	11179.988695
522.443580	11313.349900
522.806413	11278.475197
523.169189	11313.266721
523.531908	11382.252391
523.894569	11200.508712
524.257174	11213.754344
524.619722	11329.905049
524.982213	11283.803697
525.344647	11342.097080
525.707025	11294.004472
526.069345	11390.814790
526.431608	11304.885803
526.793815	11423.804101
527.155964	11216.957997
527.518057	11272.756008
527.880093	11214.818027
528.242072	11291.801488
528.603995	11203.200688
528.965860	11127.351487
529.327669	11177.579024
529.689421	11127.422064
530.051117	11102.914494
530.412755	11207.490710
530.774337	11097.129770
531.135862	11089.091650
531.497331	11106.367685
531.858743	10958.036774
532.220098	11125.680345
532.581396	11007.586275
532.942638	10988.303862
533.303824	10951.992430
533.664953	10967.158742
534.026025	10881.312933
534.387040	10980.149795
534.747999	10979.854888
535.108902	11039.978209
535.469748	10800.725047
535.830537	10904.822354
536.191270	10883.228571
536.551947	10907.572303
536.912567	10908.031048
537.273131	10837.064205
537.633638	10812.332304
537.994089	10805.579679
538.354483	10759.891701
538.714821	10899.423278
539.075103	10911.038097
539.435328	10871.911181
539.795497	10706.057219
540.155609	10854.557009
540.515665	10944.380288
540.875665	10685.572491
541.235609	10754.807698
541.595496	10747.520710
541.955328	10904.839998
542.315102	10787.224837
542.674821	10738.597868
543.034483	10737.612322
543.394090	10740.047199
543.753640	10666.577423
544.113134	10894.729964
544.472571	10748.380227
544.831953	10891.264171
545.191278	10703.072856
545.550548	10730.718544
545.909761	10861.251661
546.268918	10840.151912
546.628019	10915.595300
546.987064	10786.962697
547.346053	10714.286903
547.704986	10808.463219
548.063863	10792.676845
548.422684	10787.628130
548.781449	10702.472959
549.140158	10815.059568
549.498811	10682.958652
549.857408	10543.338856
550.215949	10767.342527
550.574434	10616.841399
550.932864	10720.122039
551.291237	10776.250246
551.649555	10726.942720
552.007817	10735.217774
552.366022	10697.393997
552.724173	10692.577174
553.082267	10673.375419
553.440305	10817.098715
553.798288	10615.800401
554.156215	10779.751327
554.514086	10754.341391
554.871902	10590.105640
555.229661	10635.823864
555.587365	10622.021185
555.945014	10514.533703
556.302606	10633.686415
556.660143	10530.345282
557.017625	10678.968579
557.375050	10578.931922
557.732421	10712.502335
558.089735	10621.012954
558.446994	10622.580753
558.804197	10661.949644
559.161345	10655.426391
559.518437	10510.929277
559.875474	10599.436816
560.232455	10630.268513
560.589381	10579.294885
560.946251	10571.564276
561.303065	10685.822028
561.659825	10623.243665
562.016528	10554.767151
562.373177	10432.183934
562.729770	10548.160719
563.086307	10459.706113
563.442789	10549.234485
563.799216	10435.884141
564.155587	10483.674279
564.511904	10435.685015
564.868164	10428.425754
565.224370	10438.109810
565.580520	10363.251196
565.936615	10369.721517
566.292654	10243.057486
566.648638	10374.109842
567.004567	10327.002779
567.360441	10313.651283
567.716260	10220.906656
568.072023	10318.463065
568.427732	10269.266444
568.783385	10174.722125
569.138982	10246.049410
569.494525	10264.343758
569.850013	10138.788780
570.205445	10220.851203
570.560823	10118.699782
570.916145	10036.579386
571.271412	10108.622515
571.626625	10050.951715
571.981782	10026.519763
572.336884	10004.111834
572.691931	10008.038893
573.046923	9956.049474
573.401860	9913.703781
573.756743	9844.546712
574.111570	9892.972036
574.466342	9868.507317
574.821059	9902.721628
575.175722	9790.099730
575.530330	9800.781935
575.884882	9797.235483
576.239380	9722.538186
576.593823	9699.676554
576.948211	9716.347649
577.302544	9599.781049
577.656823	9613.319068
578.011047	9614.324778
578.365216	9591.808464
578.719330	9513.877267
579.073389	9528.388228
579.427394	9468.320360
579.781344	9453.421229
580.135239	9401.618333
580.489080	9402.702181
580.842866	9302.526892
581.196597	9311.127100
581.550273	9349.603707
581.903895	9318.252771
582.257463	9393.718844
582.610975	9270.450030
582.964434	9294.942476
583.317837	9216.159324
583.671186	9196.113175
584.024481	9192.039923
584.377721	9113.786092
584.730906	9089.233152
585.084037	9115.363973
585.437113	9053.879540
585.790135	9077.575484
586.143103	8973.064803
586.496016	8948.083365
586.848874	9006.480091
587.201679	8993.569696
587.554428	8882.626503
587.907124	8926.880272
588.259765	8899.670644
588.612352	8902.428155
588.964884	8778.748487
589.317362	8799.293709
589.669786	8793.892113
590.022155	8843.834824
590.374470	8855.051391
590.726731	8791.580744
591.078937	8649.621852
591.431090	8761.021269
591.783188	8634.702557
592.135232	8629.958831
592.487222	8621.948437
592.839157	8678.679062
593.191038	8606.880429
593.542866	8552.350267
593.894639	8449.520811
594.246358	8511.935337
594.598022	8521.551338
594.949633	8423.584075
595.301190	8401.604644
595.652692	8426.465094
596.004141	8531.726907
596.355535	8309.777506
596.706876	8294.646483
597.058162	8227.165597
597.409395	8307.443452
597.760573	8365.754478
598.111698	8276.331971
598.462768	8260.230526
598.813785	8226.570741
599.164748	8195.280299
599.515657	8184.119185
599.866511	8097.779343
600.217312	8224.508909
600.568060	8078.285201
600.918753	8187.877365
601.269392	8149.408320
601.619978	8067.497132
601.970510	8130.569528
602.320988	8123.322869
602.671412	8178.843617
603.021783	8118.178372
603.372100	8094.000998
603.722363	8100.524251
604.072572	8070.990651
604.422728	8078.149090
604.772830	8016.745315
605.122878	8025.164042
605.472872	8017.090634
605.822813	8043.337402
606.172701	7988.240111
606.522534	8059.698467
606.872314	8060.053868
607.222041	8029.554887
607.571714	8085.279802
607.921333	8043.876805
608.270899	8052.960965
608.620411	8138.088409
608.969870	8046.374697
609.319276	8039.364973
609.668627	8054.155718
610.017926	8095.460412
610.367171	8134.483984
610.716362	8107.904500
611.065500	8107.755786
611.414585	8133.538768
611.763616	8126.841595
612.112594	8101.010722
612.461518	8113.328782
612.810389	8171.939757
613.159207	8112.265098
613.507971	8068.669200
613.856682	8183.544493
614.205340	8136.644118
614.553945	8217.398362
614.902496	8113.800130
615.250994	8170.114859
615.599439	8153.884865
615.947830	8162.081781
616.296169	8137.649829
616.644454	8150.353536
616.992686	8149.206674
617.340864	8209.914769
617.688990	8109.069007
618.037063	8204.656846
618.385082	8142.859861
618.733048	8230.495280
619.080961	8174.813215
619.428821	8193.919188
619.776628	8193.538581
620.124382	8145.430850
620.472083	8129.173128
620.819731	8155.818147
621.167326	8051.115902
621.514868	8062.700474
621.862357	7938.123480
622.209793	7968.017522
622.557176	7905.376145
622.904506	7868.260649
623.251783	7804.699261
623.599007	7762.240143
623.946179	7763.578569
624.293297	7727.481387
624.640363	7640.584498
624.987376	7625.108155
625.334336	7570.570433
625.681243	7517.492124
626.028097	7504.430494
626.374899	7482.574572
626.721647	7477.175496
627.068343	7409.883654
627.414987	7382.633697
627.761577	7335.491346
628.108115	7373.688169
628.454600	7265.131962
628.801032	7325.673699
629.147412	7280.000845
629.493739	7266.785461
629.840014	7198.470264
630.186236	7267.191273
630.532405	7141.411964
630.878521	7194.916251
631.224585	7154.564335
631.570597	7075.448466
631.916556	7108.876357
632.262462	7105.700431
632.608316	7067.087713
632.954117	7044.750360
633.299866	7034.781478
633.645562	7026.503904
633.991206	6946.248734
634.336797	6888.900568
634.682336	6846.673343
635.027823	6815.478683
635.373257	6803.044677
635.718639	6737.940696
636.063968	6752.532316
636.409245	6645.634648
636.754470	6643.295553
637.099642	6602.938596
637.444762	6548.539505
637.789829	6556.978396
638.134845	6499.766341
638.479808	6479.465615
638.824719	6489.500031
639.169577	6416.027735
639.514383	6441.573782
639.859137	6364.406319
640.203839	6376.552979
640.548489	6358.283838
640.893086	6334.461865
641.237632	6310.302136
641.582125	6331.238047
641.926566	6298.704961
642.270955	6309.198123
642.615292	6305.069418
642.959576	6322.847047
643.303809	6310.496220
643.647990	6317.253887
643.992118	6312.598381
644.336195	6259.820021
644.680219	6281.406242
645.024192	6270.164469
645.368112	6366.379931
645.711981	6389.717953
646.055797	6461.665300
646.399562	6421.343631
646.743274	6543.916767
647.086935	6599.649243
647.430544	6595.465085
647.774101	6619.435772
648.117606	6619.529033
648.461059	6616.786645
648.804460	6578.201654
649.147810	6484.537015
649.491108	6455.862932
649.834354	6433.263440
650.177548	6349.792014
650.520690	6263.119456
650.863781	6241.485344
651.206820	6256.646615
651.549807	6182.869328
651.892742	6125.165761
652.235626	6127.623323
652.578458	6118.224092
652.921238	6025.993662
653.263967	6063.451955
653.606644	6004.465414
653.949269	6013.300036
654.291843	5950.260407
654.634365	5995.295555
654.976836	5948.843843
655.319255	5954.195028
655.661622	5925.430204
656.003938	5928.096974
656.346203	5883.291199
656.688416	5919.428710
657.030577	5870.403489
657.372687	5840.711093
657.714746	5828.178785
658.056753	5871.784765
658.398708	5808.485517
658.740612	5803.981246
659.082465	5850.329615
659.424266	5843.307287
659.766016	5842.500703
660.107715	5813.763605
660.449362	5825.449000
660.790958	5820.448175
661.132503	5810.005425
661.473996	5848.867680
661.815438	5834.044167
662.156829	5833.834959
662.498168	5828.672818
662.839456	5802.234486
663.180693	5833.935782
663.521879	5840.718655
663.863013	5829.852448
664.204097	5844.943142
664.545129	5882.691302
664.886110	5881.289861
665.227040	5914.639614
665.567918	5880.929418
665.908746	5910.886475
666.249522	5908.292802
666.590248	5898.180247
666.930922	5926.337612
667.271545	5942.638183
667.612118	5944.994922
667.952639	5916.996354
668.293109	5935.814981
668.633528	5894.109515
668.973896	5897.945833
669.314213	5890.487446
669.654480	5867.761925
669.994695	5860.507704
670.334859	5856.409246
670.674973	5847.103276
671.015035	5849.253328
671.355047	5851.940263
671.695008	5835.294373
672.034918	5805.947296
672.374777	5819.258463
672.714585	5799.950844
673.054342	5804.518129
673.394049	5802.751205
673.733705	5836.239590
674.073310	5816.155633
674.412864	5780.121465
674.752368	5770.926400
675.091820	5781.646414
675.431223	5712.423810
675.770574	5712.426331
676.109875	5668.429660
676.449125	5672.059291
676.788324	5638.079394
677.127473	5581.714252
677.466571	5573.547583
677.805619	5563.392179
678.144616	5548.480446
678.483562	5527.254667
678.822458	5496.649822
679.161303	5492.314430
679.500098	5479.736751
679.838842	5464.923321
680.177535	5472.676615
680.516179	5483.673892
680.854771	5494.451879
681.193314	5576.390794
681.531805	5682.738976
681.870247	5832.594835
682.208638	5934.632830
682.546978	5943.810251
682.885268	5928.512870
683.223508	5843.642524
683.561697	5787.075737
683.899836	5756.574235
684.237925	5710.276278
684.575963	5677.027348
684.913951	5637.000587
685.251889	5700.786306
685.589776	5665.977139
685.927614	5635.657119
686.265401	5710.621597
686.603137	5694.424370
686.940824	5765.134115
687.278460	5792.373989
687.616046	5800.964116
687.953582	5869.017172
688.291068	5848.416497
688.628504	5915.307567
688.965889	5870.408530
689.303224	5822.026056
689.640510	5773.026041
689.977745	5694.784813
690.314930	5598.634885
690.652065	5545.644797
690.989150	5450.213234
691.326185	5374.212798
691.663170	5326.263864
692.000105	5247.271503
692.336990	5172.367519
692.673825	5147.010515
693.010610	5075.877314
693.347345	5012.815000
693.684030	4997.048791
694.020665	4953.699909
694.357251	4866.740005
694.693786	4873.469946
695.030272	4837.934852
695.366707	4808.055933
695.703093	4773.886993
696.039429	4795.508502
696.375716	4777.199031
696.711952	4751.806739
697.048139	4740.721242
697.384276	4720.380186
697.720363	4730.596084
698.056400	4740.912805
698.392388	4689.775341
698.728326	4668.007638
699.064214	4647.752282
699.400053	4642.645593
699.735842	4610.319194
700.071581	4585.473868
700.407270	4563.438984
700.742910	4542.548443
701.078501	4485.122139
701.414042	4486.843693
701.749533	4458.157007
702.084974	4395.528232
702.420366	4448.243578
702.755709	4387.210328
703.091002	4335.513295
703.426246	4384.619175
703.761440	4337.040765
704.096584	4303.582627
704.431679	4322.129032
704.766725	4306.733348
705.101721	4297.545845
705.436668	4326.570288
705.771565	4272.151033
706.106413	4302.345024
706.441212	4330.648582
706.775961	4339.536136
707.110661	4318.799350
707.445311	4349.578115
707.779913	4371.653327
708.114465	4384.757807
708.448967	4411.702774
708.783421	4467.868790
709.117825	4512.389740
709.452180	4513.992827
709.786485	4558.261719
710.120742	4644.906551
710.454949	4624.547851
710.789107	4694.468655
711.123216	4768.986991
711.457275	4756.948716
711.791286	4832.203060
712.125247	4848.722922
712.459159	4750.569136
712.793023	4824.333819
713.126837	4788.103047
713.460602	4779.512920
713.794318	4696.928738
714.127985	4708.089853
714.461602	4626.377790
714.795171	4592.269343
715.128691	4526.436915
715.462162	4472.405828
715.795584	4423.236934
716.128957	4407.959717
716.462281	4352.098692
716.795556	4327.880988
717.128782	4293.560813
717.461960	4223.312334
717.795088	4231.632759
718.128167	4190.575081
718.461198	4133.163901
718.794180	4125.080410
719.127113	4112.422073
719.459997	4088.088423
719.792833	4045.513359
720.125619	4036.285527
720.458357	4002.323273
720.791046	4005.910054
721.123686	3976.441989
721.456278	3936.591668
721.788821	3956.161427
722.121315	3924.931479
722.453761	3900.905340
722.786158	3915.882608
723.118506	3937.713325
723.450805	3890.898650
723.783056	3914.057710
724.115259	3928.361984
724.447412	3930.118827
724.779518	3925.652364
725.111574	3928.281326
725.443582	3958.308959
725.775542	3942.119293
726.107453	3994.703569
726.439315	3995.109382
726.771129	4010.830220
727.102895	4043.688461
727.434612	4093.427005
727.766281	4104.431844
728.097901	4104.804890
728.429473	4105.893779
728.760996	4115.537506
729.092471	4109.949387
729.423897	4097.943879
729.755276	4102.682564
730.086606	4101.381946
730.417887	4139.419973
730.749120	4204.251732
731.080305	4266.020990
731.411442	4292.930669
731.742530	4263.041668
732.073570	4266.373870
732.404562	4320.394875
732.735506	4313.901869
733.066401	4277.542547
733.397249	4209.116445
733.728048	4132.178355
734.058798	4050.894790
734.389501	3979.693533
734.720156	3920.107095
735.050762	3875.334087
735.381320	3865.579454
735.711831	3817.433915
736.042293	3790.725882
736.372707	3810.691371
736.703073	3782.488636
737.033391	3774.226185
737.363661	3793.233856
737.693883	3816.518945
738.024056	3823.765604
738.354182	3822.359122
738.684260	3882.164851
739.014290	3905.270979
739.344272	3896.438878
739.674207	3939.051751
740.004093	3945.191877
740.333931	3940.198614
740.663722	3942.464612
740.993464	3939.394550
741.323159	3916.600972
741.652806	3888.287332
741.982405	3861.922097
742.311956	3832.141481
742.641460	3818.575736
742.970915	3794.678146
743.300323	3754.301024
743.629683	3723.607959
743.958996	3710.601782
744.288260	3684.886857
744.617477	3654.040036
744.946647	3637.346255
745.275768	3613.494036
745.604842	3613.375569
745.933869	3565.537539
746.262847	3555.682083
746.591778	3592.633741
746.920662	3564.778846
747.249498	3533.616953
747.578286	3578.450455
747.907027	3597.231273
748.235720	3594.776232
748.564365	3618.630972
748.892963	3620.153400
749.221514	3601.284361
749.550017	3582.601845
749.878473	3580.068665
750.206881	3546.739077
750.535242	3545.297307
750.863555	3549.186557
751.191821	3542.222203
751.520039	3521.177906
751.848210	3498.959020
752.176334	3535.872869
752.504411	3541.077861
752.832440	3499.339628
753.160421	3481.251968
753.488356	3490.862927
753.816243	3504.259794
754.144082	3459.262454
754.471875	3448.209725
754.799620	3467.555153
755.127318	3456.767083
755.454969	3460.258082
755.782572	3463.134061
756.110129	3439.392747
756.437638	3429.663320
756.765100	3441.550360
757.092515	3450.400106
757.419882	3458.896971
757.747203	3433.827313
758.074477	3433.867642
758.401703	3452.857668
758.728882	3472.208138
759.056014	3477.753407
759.383099	3480.430259
759.710138	3478.156699
760.037129	3493.330572
760.364073	3527.759132
760.690970	3511.299765
761.017820	3485.725992
761.344623	3507.881863
761.671379	3549.582287
761.998088	3603.154629
762.324751	3726.587281
762.651366	3976.255467
762.977935	4443.973720
763.304456	4883.877408
763.630931	4972.609277
763.957359	4614.639463
764.283740	4275.652114
764.610074	4086.142538
764.936362	3894.845873
765.262602	3732.931573
765.588796	3622.810088
765.914943	3535.061244
766.241044	3449.366669
766.567097	3420.385076
766.893104	3375.440669
767.219064	3343.464630
767.544978	3317.777431
767.870845	3261.785335
768.196665	3243.375041
768.522438	3252.199581
768.848165	3244.799167
769.173846	3208.880946
769.499479	3195.461394
769.825066	3177.237623
770.150607	3164.196158
770.476101	3175.526151
770.801548	3172.619926
771.126949	3126.445477
771.452303	3107.503342
771.777611	3117.459621
772.102872	3122.019344
772.428087	3098.157043
772.753256	3086.017944
773.078378	3078.942685
773.403453	3042.719474
773.728482	3031.092052
774.053465	3057.043912
774.378401	3042.474978
774.703291	3011.741583
775.028135	3010.519104
775.352932	3005.926612
775.677683	2995.012514
776.002388	2990.324241
776.327046	2993.560662
776.651658	2980.546923
776.976224	2970.787250
777.300743	2969.138792
777.625216	2959.895837
777.949643	2957.503809
778.274024	2959.462298
778.598359	2948.533076
778.922647	2954.317800
779.246889	2950.108437
779.571086	2939.148968
779.895236	2933.780139
780.219339	2942.334977
780.543397	2956.324179
780.867409	2959.573203
781.191374	2952.901236
781.515294	2948.018878
781.839167	2951.356122
782.162995	2938.765840
782.486776	2950.637758
782.810511	2945.014351
783.134201	2933.049172
783.457844	2943.554937
783.781441	2930.450457
784.104993	2913.234917
784.428498	2911.324319
784.751958	2925.081628
785.075372	2920.269847
785.398739	2904.685120
785.722061	2921.424271
786.045337	2932.902978
786.368568	2917.832449
786.691752	2908.425656
787.014891	2954.645475
787.337983	2983.687562
787.661030	3012.991790
787.984031	3079.230031
788.306987	3125.580920
788.629897	3115.223869
788.952760	3102.038731
789.275579	3086.849735
789.598351	3026.736496
789.921078	2982.770072
790.243759	2976.730770
790.566395	2956.601443
790.888984	2937.258535
791.211529	2917.852614
791.534027	2909.459093
791.856480	2899.228071
792.178888	2882.362891
792.501249	2876.079092
792.823566	2870.727908
793.145836	2869.964173
793.468062	2865.527957
793.790241	2865.464943
794.112375	2869.510469
794.434464	2882.327603
794.756507	2884.137377
795.078505	2892.858573
795.400457	2906.391550
795.722364	2942.271963
796.044226	2965.481435
796.366042	2967.530664
796.687812	2957.453398
797.009538	2976.221613
797.331218	2963.286013
797.652852	2950.085751
797.974442	2933.981785
798.295986	2928.227308
798.617484	2923.171031
798.938938	2910.111922
799.260346	2895.542987
799.581709	2887.111658
799.903026	2884.177706
800.224299	2875.320399
800.545526	2866.011908
800.866708	2851.982377
801.187845	2839.873525
801.508936	2842.618434
801.829983	2847.566326
802.150984	2835.187773
802.471940	2823.522543
802.792851	2825.712924
803.113717	2823.958603
803.434538	2825.975064
803.755314	2821.899291
804.076045	2814.055256
804.396731	2814.425781
804.717372	2819.030875
805.037967	2809.455203
805.358518	2817.019454
805.679024	2832.084943
805.999485	2823.600681
806.319901	2828.886331
806.640272	2817.626913
806.960598	2824.863490
807.280879	2833.761126
807.601115	2843.263701
807.921306	2829.990343
808.241453	2827.918429
808.561554	2833.302381
808.881611	2836.032166
809.201623	2829.193841
809.521590	2827.134530
809.841513	2822.310145
810.161390	2826.446412
810.481223	2820.749908
810.801011	2811.166675
811.120755	2809.412353
811.440453	2810.690286
811.760107	2809.888742
812.079716	2813.359577
812.399281	2800.938174
812.718801	2795.075312
813.038276	2789.295629
813.357707	2796.287709
813.677093	2803.133596
813.996434	2794.515744
814.315731	2793.222688
814.634983	2787.236317
814.954191	2786.845628
815.273354	2800.270221
815.592473	2811.300265
815.911547	2810.672642
816.230577	2817.838642
816.549562	2828.694767
816.868502	2828.909016
817.187399	2835.028977
817.506250	2851.697552
817.825058	2847.261336
818.143821	2861.142153
818.462539	2874.705378
818.781213	2905.894997
819.099843	2938.105449
819.418429	2992.683501
819.736970	3056.393604
820.055466	3126.677371
820.373919	3231.220819
820.692327	3369.161912
821.010691	3535.061244
821.329011	3970.342193
821.647286	4858.505281
821.965517	6225.721656
822.283704	6951.297450
822.601847	6926.563029
822.919945	6301.399458
823.237999	5802.433612
823.556010	5232.916818
823.873976	4684.847613
824.191897	4281.532620
824.509775	3992.603928
824.827609	3722.748443
825.145398	3604.737552
825.463144	3594.791355
825.780845	3685.663194
826.098502	3788.618679
826.416116	4066.471956
826.733685	4378.559708
827.051210	4443.678813
827.368692	4323.883353
827.686129	4064.894075
828.003522	3742.260228
828.320872	3490.845283
828.638177	3294.020993
828.955439	3162.174655
829.272656	3079.751790
829.589830	3012.946419
829.906960	2965.801548
830.224046	2917.996287
830.541088	2888.510578
830.858086	2870.927033
831.175041	2855.430526
831.491952	2858.240969
831.808819	2867.312526
832.125642	2890.920249
832.442421	2935.927671
832.759157	3016.165196
833.075849	3192.028368
833.392497	3473.813745
833.709101	3671.452182
834.025662	3617.756331
834.342179	3460.192547
834.658653	3289.569654
834.975083	3140.454844
835.291469	3044.662839
835.607811	2963.628811
835.924110	2903.891138
836.240366	2854.833149
836.556578	2811.396047
836.872746	2788.680608
837.188871	2765.264448
837.504952	2752.026378
837.820990	2745.956829
838.136984	2727.501165
838.452935	2723.561503
838.768842	2722.505382
839.084706	2736.978534
839.400526	2819.424085
839.716303	2948.654064
840.032037	3023.129550
840.347727	3011.242509
840.663373	2949.153138
840.978977	2874.705378
841.294537	2807.166519
841.610054	2759.638521
841.925527	2737.210427
842.240957	2717.804506
842.556344	2693.140660
842.871687	2679.587518
843.186987	2670.636950
843.502244	2667.924809
843.817458	2660.448778
844.132629	2650.616007
844.447756	2640.001858
844.762840	2635.273255
845.077881	2637.829120
845.392879	2636.616723
845.707833	2631.688995
846.022745	2625.367388
846.337613	2627.071298
846.652438	2624.512913
846.967221	2626.577265
847.281960	2622.693056
847.596656	2623.088787
847.911309	2619.875051
848.225919	2620.306070
848.540485	2617.112499
848.855009	2615.423712
849.169490	2616.336161
849.483928	2616.610904
849.798323	2613.714761
850.112675	2613.860954
850.426984	2612.330964
850.741251	2613.271139
851.055474	2612.711571
851.369654	2617.745163
851.683792	2617.029320
851.997887	2612.630913
852.311938	2609.439862
852.625947	2614.947323
852.939914	2617.694752
853.253837	2617.283898
853.567718	2611.446242
853.881555	2610.944647
854.195350	2616.830194
854.509103	2616.442025
854.822812	2611.789040
855.136479	2612.958588
855.450103	2616.356326
855.763685	2617.644340
856.077224	2614.203753
856.390720	2610.488422
856.704173	2613.843310
857.017584	2616.348764
857.330953	2618.340020
857.644278	2620.754732
857.957561	2618.813888
858.270802	2619.504526
858.584000	2616.991511
858.897155	2619.333127
859.210268	2618.660133
859.523339	2615.612755
859.836367	2611.627723
860.149352	2614.014710
860.462295	2613.876078
860.775195	2611.055552
861.088054	2608.555140
861.400869	2609.512959
861.713642	2606.284100
862.026373	2605.621188
862.339062	2609.901128
862.651708	2616.063939
862.964312	2616.036212
863.276873	2610.979935
863.589392	2617.009155
863.901869	2622.551904
864.214303	2628.369395
864.526696	2627.167080
864.839045	2630.327883
865.151353	2633.614716
865.463619	2631.913326
865.775842	2632.011629
866.088023	2632.689664
866.400162	2634.605302
866.712258	2631.978861
867.024313	2634.050776
867.336325	2626.892337
867.648296	2628.470218
867.960224	2636.039511
868.272110	2633.879376
868.583954	2624.896040
868.895755	2626.688170
869.207515	2634.043214
869.519233	2640.243833
869.830909	2633.992802
870.142542	2632.500621
870.454134	2631.872997
870.765684	2638.703761
871.077191	2639.202835
871.388657	2644.498567
871.700081	2642.409009
872.011463	2642.409009
872.322803	2643.830614
872.634101	2646.121818
872.945357	2655.042140
873.256571	2657.968530
873.567744	2658.878458
873.878874	2653.159269
874.189963	2658.422234
874.501010	2660.867193
874.812015	2665.053872
875.122979	2667.365241
875.433900	2656.158756
875.744780	2656.844353
876.055618	2663.753254
876.366415	2667.282062
876.677169	2664.390960
876.987882	2659.178407
877.298554	2658.349137
877.609183	2668.779284
877.919771	2674.052331
878.230317	2682.970132
878.540822	2693.574200
878.851285	2707.674307
879.161707	2728.022924
879.472087	2767.585900
879.782425	2813.946871
880.092722	2925.515168
880.402977	3110.671707
880.713191	3365.658310
881.023363	3651.378307
881.333494	3834.460412
881.643583	4005.300074
881.953631	4004.748068
882.263637	3829.618383
882.573602	3613.163840
882.883526	3490.598267
883.193408	3376.935371
883.503248	3276.644136
883.813048	3165.857218
884.122806	3051.939744
884.432522	2968.485963
884.742197	2904.937178
885.051831	2869.117259
885.361424	2835.102073
885.670975	2798.311732
885.980485	2769.504059
886.289954	2752.089393
886.599382	2738.359810
886.908768	2725.590568
887.218113	2708.909390
887.527417	2694.746268
887.836680	2687.703776
888.145901	2682.942406
888.455082	2675.446210
888.764221	2663.372647
889.073319	2657.527429
889.382376	2656.491472
889.691392	2657.330824
890.000366	2655.959630
890.309300	2655.077428
890.618193	2658.165135
890.927044	2660.713438
891.235855	2659.115392
891.544625	2658.699497
891.853353	2659.541370
892.162041	2666.972031
892.470687	2687.464321
892.779293	2697.007225
893.087858	2704.750438
893.396381	2729.222719
893.704864	2770.098915
894.013306	2837.985613
894.321707	2929.311156
894.630068	2974.973928
894.938387	2994.652072
895.246665	2989.149653
895.554903	2947.671039
895.863100	2906.071437
896.171256	2847.894001
896.479371	2790.397121
896.787446	2750.443456
897.095480	2730.694736
897.403473	2725.381360
897.711425	2711.803012
898.019336	2692.843232
898.327207	2679.035512
898.635038	2680.696572
898.942827	2678.327230
899.250576	2669.356497
899.558284	2656.667912
899.865952	2650.704227
900.173579	2650.303456
900.481165	2649.217087
900.788711	2638.295427
901.096216	2634.885087
901.403681	2629.997688
901.711105	2633.486166
902.018489	2628.876031
902.325832	2630.035497
902.633135	2633.042545
902.940397	2649.204484
903.247619	2684.111954
903.554800	2749.800709
903.861941	2878.602190
904.169041	2999.501662
904.476101	3058.604150
904.783121	3051.417985
905.090100	2996.545025
905.397039	2922.767739
905.703938	2850.825432
906.010796	2791.443160
906.317614	2739.783936
906.624391	2704.233719
906.931129	2680.389062
907.237826	2655.755463
907.544483	2640.891621
907.851099	2625.294291
908.157675	2617.505709
908.464211	2611.040429
908.770707	2598.598861
909.077163	2594.744899
909.383578	2592.418407
909.689954	2591.266503
909.996289	2591.495875
910.302584	2588.476224
910.608839	2587.155442
910.915054	2587.538570
911.221229	2589.804568
911.527363	2591.309353
911.833458	2590.969075
912.139513	2590.827922
912.445527	2593.875300
912.751502	2598.394694
913.057436	2602.455344
913.363331	2607.809049
913.669186	2619.779269
913.975000	2632.150261
914.280775	2648.959988
914.586510	2667.390447
914.892205	2705.045345
915.197859	2767.671599
915.503475	2846.439628
915.809050	2912.859351
916.114585	2926.747730
916.420081	2936.691406
916.725536	2949.924434
917.030952	2924.948038
917.336328	2879.302910
917.641665	2832.135354
917.946961	2781.267591
918.252218	2746.430698
918.557435	2722.664178
918.862612	2703.893442
919.167750	2687.998683
919.472848	2672.023267
919.777906	2655.122799
920.082925	2642.028402
920.387904	2629.244035
920.692843	2625.768160
920.997743	2624.933849
921.302603	2617.041922
921.607423	2610.304420
921.912204	2604.701178
922.216946	2601.610951
922.521647	2598.893769
922.826310	2599.024839
923.130932	2592.877152
923.435516	2584.415575
923.740059	2586.847932
924.044564	2583.611511
924.349028	2583.921542
924.653454	2573.027608
924.957840	2573.249419
925.262186	2568.404870
925.566493	2568.888821
925.870761	2565.901937
926.174989	2568.873697
926.479178	2564.256001
926.783328	2562.544529
927.087438	2563.068809
927.391509	2562.579817
927.695541	2558.168807
927.999533	2560.349106
928.303486	2557.642007
928.607400	2558.403221
928.911275	2558.123437
929.215110	2560.580999
929.518906	2556.031358
929.822663	2555.751574
930.126381	2556.424568
930.430060	2555.922973
930.733699	2558.526729
931.037299	2558.904816
931.340861	2555.146636
931.644383	2559.638304
931.947866	2558.990515
932.251309	2555.562531
932.554714	2557.964641
932.858080	2560.719631
933.161407	2557.024465
933.464694	2557.392470
933.767943	2553.417520
934.071153	2555.751574
934.374323	2555.713765
934.677455	2555.736451
934.980548	2553.825853
935.283602	2553.019269
935.586617	2553.553631
935.889593	2555.043292
936.192530	2552.394166
936.495428	2556.225443
936.798287	2555.297870
937.101108	2556.411965
937.403890	2561.286761
937.706632	2562.947821
938.009336	2565.428069
938.312002	2569.786146
938.614628	2571.190108
938.917216	2576.778227
939.219765	2575.918710
939.522275	2576.810994
939.824747	2575.364183
940.127179	2573.199007
940.429573	2565.002091
940.731929	2567.618450
941.034246	2562.252142
941.336524	2565.639797
941.638763	2566.184242
941.940964	2567.840261
942.243126	2564.238357
942.545250	2563.913202
942.847335	2562.050496
943.149381	2559.444219
943.451389	2562.506720
943.753359	2558.335165
944.055290	2560.986812
944.357182	2557.929352
944.659036	2557.450443
944.960851	2559.217367
945.262628	2554.881975
945.564367	2558.715773
945.866067	2558.851884
946.167729	2557.049671
946.469352	2557.339538
946.770937	2558.347768
947.072484	2556.094372
947.373992	2559.340876
947.675462	2557.102603
947.976893	2557.127809
948.278286	2552.631100
948.579641	2556.825340
948.880958	2551.665719
949.182236	2554.370298
949.483476	2553.538507
949.784678	2554.513971
950.085841	2555.512119
950.386967	2554.478683
950.688054	2553.102448
950.989103	2554.196378
951.290114	2555.993549
951.591087	2557.029507
951.892021	2558.761143
952.192917	2561.924467
952.493776	2559.376164
952.794596	2557.997408
953.095378	2562.000084
953.396122	2562.211813
953.696828	2559.431616
953.997496	2559.655948
954.298126	2557.084959
954.598718	2557.004301
954.899272	2558.022614
955.199788	2552.729402
955.500266	2553.785524
955.800706	2550.501212
956.101108	2541.754810
956.401472	2547.345450
956.701798	2544.655994
957.002087	2543.667928
957.302337	2546.246478
957.602550	2547.431150
957.902724	2543.935109
958.202861	2545.873433
958.502960	2543.541899
958.803022	2543.047866
959.103045	2542.261446
959.403031	2544.862682
959.702979	2539.788760
960.002889	2542.367311
960.302762	2542.730274
960.602596	2543.862013
960.902393	2544.134235
961.202153	2540.365973
961.501875	2538.709953
961.801559	2541.744728
962.101205	2542.140459
962.400814	2542.077444
962.700385	2540.484440
962.999918	2542.629451
963.299414	2542.034594
963.598873	2538.294058
963.898293	2541.603576
964.197677	2541.197763
964.497022	2540.434028
964.796331	2540.353370
965.095601	2538.989737
965.394835	2540.706250
965.694030	2537.573173
965.993189	2545.581046
966.292309	2539.695499
966.591393	2539.612320
966.890439	2537.852957
967.189447	2540.121477
967.488419	2536.922864
967.787353	2540.000489
968.086249	2537.711805
968.385108	2541.270860
968.683930	2540.292876
968.982714	2543.161292
969.281462	2540.938143
969.580172	2539.259439
969.878844	2539.398071
970.177480	2539.665252
970.476078	2541.096940
970.774639	2540.136600
971.073162	2539.040149
971.371649	2536.708615
971.670098	2536.340611
971.968510	2537.857998
972.266885	2535.586959
972.565223	2541.086858
972.863524	2537.774819
973.161788	2541.535520
973.460014	2540.862526
973.758204	2540.129038
974.056356	2537.815149
974.354471	2540.676003
974.652550	2539.385468
974.950591	2539.866898
975.248595	2539.476209
975.546563	2539.824048
975.844493	2540.106353
976.142386	2542.284132
976.440243	2540.360931
976.738062	2538.778009
977.035845	2537.673996
977.333590	2542.185829
977.631299	2537.676517
977.928971	2539.337577
978.226606	2539.627443
978.524204	2539.650129
978.821765	2540.330684
979.119290	2540.718853
979.416777	2539.710622
979.714228	2540.086188
980.011642	2537.391692
980.309020	2541.659028
980.606360	2540.529810
980.903664	2539.551826
981.200931	2538.586445
981.498162	2540.923020
981.795356	2541.180119
982.092513	2547.365615
982.389633	2547.524411
982.686717	2553.213353
982.983764	2553.730071
983.280775	2553.442726
983.577749	2555.539846
983.874686	2554.171172
984.171587	2550.589432
984.468451	2547.637837
984.765279	2546.163299
985.062070	2546.178423
985.358824	2543.141128
985.655543	2541.233051
985.952224	2538.609130
986.248869	2537.951260
986.545478	2533.961187
986.842050	2537.396733
987.138586	2534.404808
987.435086	2535.949922
987.731549	2531.498583
988.027975	2538.175591
988.324366	2540.262629
988.620719	2537.830272
988.917037	2536.620395
989.213318	2535.307175
989.509563	2537.815149
989.805772	2538.024357
990.101944	2535.960004
990.398080	2537.663914
990.694180	2535.201310
990.990244	2534.921526
991.286271	2536.277597
991.582262	2533.441948
991.878217	2534.293903
992.174136	2535.125693
992.470019	2537.603420
992.765865	2534.281300
993.061676	2536.922864
993.357450	2538.299099
993.653188	2535.718029
993.948890	2536.307844
994.244556	2536.653163
994.540186	2538.790612
994.835780	2539.468647
995.131337	2539.768596
995.426859	2536.247350
995.722345	2539.819007
996.017795	2539.824048
996.313208	2542.326981
996.608586	2540.103833
996.903928	2540.892773
997.199234	2538.357073
997.494504	2537.167360
997.789738	2542.833617
998.084936	2537.086702
998.380099	2536.322967
998.675225	2537.668955
998.970316	2537.109387
999.265371	2536.948070
999.560390	2538.626774
999.855373	2541.401930
1000.150320	2535.251722
1000.445232	2534.107380
1000.740108	2534.074612
1001.034948	2535.123173
1001.329752	2536.290200
1001.624521	2535.433203
1001.919254	2531.675023
1002.213951	2534.432534
1002.508613	2532.882380
1002.803239	2532.806762
1003.097829	2532.285003
1003.392384	2534.062010
1003.686903	2535.370189
1003.981386	2535.047555
1004.275834	2534.102339
1004.570246	2538.407484
1004.864623	2534.029242
1005.158964	2535.037473
1005.453270	2534.422452
1005.747540	2536.491846
1006.041775	2535.100487
1006.335974	2533.394057
1006.630138	2533.414221
1006.924266	2532.980682
1007.218359	2534.911444
1007.512416	2533.716691
1007.806438	2532.716022
1008.100425	2533.000847
1008.394376	2532.978162
1008.688292	2535.909593
1008.982172	2535.241640
1009.276017	2533.928419
1009.569827	2532.574869
1009.863602	2537.782381
1010.157341	2536.091074
1010.451045	2532.605116
1010.744714	2535.377751
1011.038347	2535.052596
1011.331945	2534.132586
1011.625508	2536.701054
1011.919036	2532.617719
1012.212528	2534.437576
1012.505986	2531.453213
1012.799408	2535.105528
1013.092795	2531.982534
1013.386147	2534.498069
1013.679464	2535.478574
1013.972745	2535.337422
1014.265992	2534.099818
1014.559204	2535.327339
1014.852380	2531.377595
1015.145521	2532.426155
1015.438628	2533.111752
1015.731699	2535.007226
1016.024736	2531.831299
1016.317737	2535.407998
1016.610703	2534.268697
1016.903635	2531.163346
1017.196531	2530.447502
1017.489393	2531.974972
1017.782219	2527.916843
1018.075011	2532.027904
1018.367768	2532.534540
1018.660490	2535.511341
1018.953177	2535.511341
1019.245829	2535.511341
