Dividing Wavelength (nm)	Counts (n)	Blue Motor Position (mm): 4.200000	Red Motor Position (mm): 0.000000	
326.493990	2152.572692
326.888308	2152.572692
327.282561	2152.572692
327.676750	2109.722885
328.070874	2024.023269
328.464933	2129.887500
328.858929	2074.434808
329.252859	2056.790769
329.646726	2076.955385
330.040528	2064.352500
330.434265	2112.243462
330.827938	2190.381346
331.221547	2127.366923
331.615091	2142.490385
332.008571	2220.628269
332.401986	2210.545962
332.795338	2283.642692
333.188625	2293.725000
333.581847	2245.834038
333.975006	2293.725000
334.368100	2318.930769
334.761129	2376.904038
335.154095	2386.986346
335.546996	2306.327885
335.939833	2311.369038
336.332606	2349.177692
336.725315	2376.904038
337.117960	2407.150962
337.510540	2392.027500
337.903056	2349.177692
338.295508	2444.959615
338.687896	2346.657115
339.080220	2402.109808
339.472480	2515.535769
339.864676	2460.083077
340.256807	2397.068654
340.648875	2518.056346
341.040879	2434.877308
341.432818	2427.315577
341.824694	2500.412308
342.216506	2392.027500
342.608253	2528.138654
342.999937	2533.179808
343.391557	2437.397885
343.783113	2475.206538
344.174605	2450.000769
344.566033	2442.439038
344.957397	2480.247692
345.348697	2578.550192
345.739934	2482.768269
346.131106	2475.206538
346.522215	2429.836154
346.913260	2485.288846
347.304241	2482.768269
347.695159	2404.630385
348.086012	2457.562500
348.476802	2439.918462
348.867528	2381.945192
349.258191	2495.371154
349.648789	2412.192115
350.039324	2507.974038
350.429796	2429.836154
350.820203	2490.330000
351.210548	2497.891731
351.600828	2344.136538
351.991045	2412.192115
352.381198	2394.548077
352.771288	2505.453462
353.161314	2402.109808
353.551276	2432.356731
353.941175	2439.918462
354.331010	2447.480192
354.720782	2482.768269
355.110490	2460.083077
355.500135	2490.330000
355.889717	2500.412308
356.279235	2472.685962
356.668689	2505.453462
357.058080	2394.548077
357.447408	2399.589231
357.836672	2565.947308
358.225873	2495.371154
358.615010	2412.192115
359.004084	2432.356731
359.393095	2465.124231
359.782043	2507.974038
360.170927	2472.685962
360.559748	2465.124231
360.948505	2444.959615
361.337199	2487.809423
361.725830	2376.904038
362.114398	2419.753846
362.502903	2381.945192
362.891344	2442.439038
363.279722	2417.233269
363.668037	2407.150962
364.056289	2500.412308
364.444478	2414.712692
364.832603	2535.700385
365.220665	2492.850577
365.608665	2502.932885
365.996601	2424.795000
366.384474	2447.480192
366.772284	2507.974038
367.160031	2394.548077
367.547715	2429.836154
367.935336	2497.891731
368.322893	2472.685962
368.710388	2487.809423
369.097820	2407.150962
369.485189	2394.548077
369.872495	2422.274423
370.259738	2465.124231
370.646918	2553.344423
371.034035	2412.192115
371.421090	2513.015192
371.808081	2490.330000
372.195010	2412.192115
372.581875	2515.535769
372.968678	2515.535769
373.355418	2485.288846
373.742096	2424.795000
374.128710	2480.247692
374.515262	2457.562500
374.901751	2462.603654
375.288177	2462.603654
375.674540	2427.315577
376.060841	2540.741538
376.447079	2447.480192
376.833254	2480.247692
377.219367	2480.247692
377.605417	2477.727115
377.991404	2419.753846
378.377329	2462.603654
378.763191	2424.795000
379.148991	2490.330000
379.534727	2447.480192
379.920402	2439.918462
380.306013	2475.206538
380.691563	2467.644808
381.077049	2470.165385
381.462474	2442.439038
381.847835	2520.576923
382.233134	2457.562500
382.618371	2502.932885
383.003545	2424.795000
383.388657	2439.918462
383.773706	2475.206538
384.158693	2417.233269
384.543618	2555.865000
384.928480	2502.932885
385.313280	2450.000769
385.698017	2386.986346
386.082692	2518.056346
386.467305	2528.138654
386.851856	2485.288846
387.236344	2505.453462
387.620770	2366.821731
388.005133	2462.603654
388.389435	2381.945192
388.773674	2533.179808
389.157851	2407.150962
389.541965	2467.644808
389.926018	2409.671538
390.310008	2520.576923
390.693936	2429.836154
391.077802	2477.727115
391.461606	2402.109808
391.845348	2450.000769
392.229027	2530.659231
392.612645	2475.206538
392.996200	2402.109808
393.379694	2450.000769
393.763125	2379.424615
394.146494	2424.795000
394.529801	2442.439038
394.913047	2510.494615
395.296230	2465.124231
395.679351	2505.453462
396.062410	2447.480192
396.445408	2399.589231
396.828343	2540.741538
397.211217	2462.603654
397.594028	2432.356731
397.976778	2381.945192
398.359466	2515.535769
398.742092	2450.000769
399.124656	2450.000769
399.507158	2439.918462
399.889598	2434.877308
400.271977	2538.220962
400.654294	2500.412308
401.036549	2510.494615
401.418742	2515.535769
401.800874	2427.315577
402.182944	2513.015192
402.564952	2490.330000
402.946898	2485.288846
403.328783	2417.233269
403.710606	2497.891731
404.092367	2439.918462
404.474067	2439.918462
404.855705	2371.862885
405.237282	2422.274423
405.618797	2452.521346
406.000250	2414.712692
406.381642	2485.288846
406.762972	2429.836154
407.144240	2434.877308
407.525447	2495.371154
407.906593	2502.932885
408.287677	2563.426731
408.668700	2500.412308
409.049661	2538.220962
409.430560	2422.274423
409.811399	2414.712692
410.192176	2450.000769
410.572891	2485.288846
410.953545	2553.344423
411.334138	2495.371154
411.714669	2482.768269
412.095139	2470.165385
412.475547	2563.426731
412.855894	2399.589231
413.236180	2533.179808
413.616405	2515.535769
413.996568	2515.535769
414.376670	2520.576923
414.756711	2530.659231
415.136691	2535.700385
415.516609	2558.385577
415.896466	2467.644808
416.276262	2394.548077
416.655997	2510.494615
417.035670	2392.027500
417.415283	2482.768269
417.794834	2407.150962
418.174324	2482.768269
418.553753	2460.083077
418.933121	2500.412308
419.312428	2500.412308
419.691674	2402.109808
420.070859	2450.000769
420.449983	2505.453462
420.829045	2429.836154
421.208047	2565.947308
421.586988	2475.206538
421.965867	2520.576923
422.344686	2432.356731
422.723444	2465.124231
423.102141	2462.603654
423.480777	2417.233269
423.859352	2500.412308
424.237866	2480.247692
424.616319	2386.986346
424.994712	2500.412308
425.373044	2452.521346
425.751314	2460.083077
426.129524	2450.000769
426.507673	2528.138654
426.885762	2455.041923
427.263789	2450.000769
427.641756	2535.700385
428.019662	2485.288846
428.397508	2477.727115
428.775292	2482.768269
429.153016	2495.371154
429.530679	2543.262115
429.908282	2477.727115
430.285824	2457.562500
430.663305	2399.589231
431.040726	2558.385577
431.418086	2455.041923
431.795385	2472.685962
432.172624	2351.698269
432.549802	2565.947308
432.926920	2558.385577
433.303977	2467.644808
433.680974	2485.288846
434.057910	2419.753846
434.434786	2497.891731
434.811601	2513.015192
435.188355	2442.439038
435.565050	2417.233269
435.941683	2424.795000
436.318257	2417.233269
436.694770	2470.165385
437.071222	2550.823846
437.447614	2578.550192
437.823946	2583.591346
438.200218	2523.097500
438.576429	2404.630385
438.952580	2485.288846
439.328670	2437.397885
439.704700	2485.288846
440.080670	2424.795000
440.456580	2492.850577
440.832429	2518.056346
441.208218	2513.015192
441.583947	2422.274423
441.959616	2467.644808
442.335224	2490.330000
442.710773	2497.891731
443.086261	2520.576923
443.461689	2535.700385
443.837057	2457.562500
444.212365	2490.330000
444.587612	2502.932885
444.962800	2530.659231
445.337927	2543.262115
445.712995	2477.727115
446.088002	2515.535769
446.462949	2505.453462
446.837837	2525.618077
447.212664	2490.330000
447.587431	2442.439038
447.962139	2457.562500
448.336786	2507.974038
448.711374	2452.521346
449.085901	2525.618077
449.460369	2409.671538
449.834776	2528.138654
450.209124	2427.315577
450.583412	2455.041923
450.957640	2533.179808
451.331808	2480.247692
451.705917	2523.097500
452.079965	2477.727115
452.453954	2447.480192
452.827883	2500.412308
453.201752	2490.330000
453.575562	2565.947308
453.949311	2462.603654
454.323001	2482.768269
454.696632	2490.330000
455.070202	2545.782692
455.443713	2513.015192
455.817164	2520.576923
456.190556	2455.041923
456.563888	2560.906154
456.937160	2487.809423
457.310373	2515.535769
457.683526	2460.083077
458.056619	2452.521346
458.429653	2444.959615
458.802628	2553.344423
459.175542	2472.685962
459.548398	2540.741538
459.921194	2409.671538
460.293930	2513.015192
460.666607	2490.330000
461.039224	2495.371154
461.411782	2480.247692
461.784280	2444.959615
462.156719	2505.453462
462.529099	2485.288846
462.901419	2523.097500
463.273680	2450.000769
463.645882	2507.974038
464.018024	2558.385577
464.390106	2578.550192
464.762130	2525.618077
465.134094	2450.000769
465.505999	2538.220962
465.877845	2427.315577
466.249631	2613.838269
466.621358	2467.644808
466.993026	2485.288846
467.364634	2427.315577
467.736184	2502.932885
468.107674	2525.618077
468.479105	2528.138654
468.850477	2467.644808
469.221790	2371.862885
469.593043	2555.865000
469.964238	2462.603654
470.335373	2497.891731
470.706449	2523.097500
471.077467	2460.083077
471.448425	2573.509038
471.819324	2465.124231
472.190164	2472.685962
472.560945	2480.247692
472.931667	2475.206538
473.302330	2450.000769
473.672934	2487.809423
474.043479	2475.206538
474.413965	2465.124231
474.784393	2497.891731
475.154761	2455.041923
475.525070	2462.603654
475.895321	2533.179808
476.265513	2507.974038
476.635645	2528.138654
477.005719	2482.768269
477.375734	2540.741538
477.745691	2455.041923
478.115588	2523.097500
478.485427	2462.603654
478.855207	2500.412308
479.224928	2475.206538
479.594591	2513.015192
479.964194	2581.070769
480.333739	2515.535769
480.703226	2505.453462
481.072653	2477.727115
481.442022	2505.453462
481.811333	2460.083077
482.180584	2518.056346
482.549777	2412.192115
482.918912	2487.809423
483.287988	2437.397885
483.657005	2591.153077
484.025964	2482.768269
484.394864	2485.288846
484.763706	2583.591346
485.132489	2477.727115
485.501213	2530.659231
485.869879	2465.124231
486.238487	2417.233269
486.607036	2565.947308
486.975527	2472.685962
487.343959	2460.083077
487.712333	2528.138654
488.080648	2507.974038
488.448905	2518.056346
488.817104	2490.330000
489.185244	2429.836154
489.553326	2487.809423
489.921350	2502.932885
490.289315	2548.303269
490.657222	2439.918462
491.025070	2460.083077
491.392861	2417.233269
491.760593	2555.865000
492.128267	2432.356731
492.495883	2455.041923
492.863440	2565.947308
493.230939	2573.509038
493.598380	2452.521346
493.965763	2540.741538
494.333088	2487.809423
494.700354	2412.192115
495.067563	2389.506923
495.434713	2480.247692
495.801805	2434.877308
496.168839	2513.015192
496.535815	2429.836154
496.902733	2530.659231
497.269593	2470.165385
497.636395	2477.727115
498.003139	2465.124231
498.369825	2480.247692
498.736453	2510.494615
499.103023	2535.700385
499.469535	2487.809423
499.835989	2513.015192
500.202385	2424.795000
500.568723	2465.124231
500.935003	2457.562500
501.301226	2518.056346
501.667390	2500.412308
502.033497	2482.768269
502.399546	2482.768269
502.765537	2457.562500
503.131470	2477.727115
503.497345	2520.576923
503.863163	2510.494615
504.228923	2455.041923
504.594625	2528.138654
504.960269	2543.262115
505.325856	2434.877308
505.691385	2450.000769
506.056856	2543.262115
506.422270	2467.644808
506.787625	2520.576923
507.152924	2417.233269
507.518164	2601.235385
507.883347	2535.700385
508.248472	2417.233269
508.613540	2485.288846
508.978550	2462.603654
509.343503	2485.288846
509.708398	2492.850577
510.073236	2482.768269
510.438016	2462.603654
510.802738	2450.000769
511.167403	2573.509038
511.532010	2475.206538
511.896561	2450.000769
512.261053	2505.453462
512.625488	2570.988462
512.989866	2444.959615
513.354186	2447.480192
513.718449	2439.918462
514.082655	2518.056346
514.446803	2455.041923
514.810894	2477.727115
515.174927	2482.768269
515.538904	2520.576923
515.902822	2442.439038
516.266684	2568.467885
516.630488	2492.850577
516.994235	2460.083077
517.357925	2495.371154
517.721558	2490.330000
518.085133	2518.056346
518.448651	2419.753846
518.812112	2444.959615
519.175516	2427.315577
519.538863	2500.412308
519.902152	2548.303269
520.265385	2500.412308
520.628560	2482.768269
520.991678	2502.932885
521.354739	2565.947308
521.717743	2437.397885
522.080690	2424.795000
522.443580	2444.959615
522.806413	2460.083077
523.169189	2432.356731
523.531908	2462.603654
523.894569	2432.356731
524.257174	2543.262115
524.619722	2455.041923
524.982213	2495.371154
525.344647	2535.700385
525.707025	2475.206538
526.069345	2540.741538
526.431608	2573.509038
526.793815	2513.015192
527.155964	2507.974038
527.518057	2467.644808
527.880093	2576.029615
528.242072	2510.494615
528.603995	2434.877308
528.965860	2583.591346
529.327669	2482.768269
529.689421	2573.509038
530.051117	2530.659231
530.412755	2477.727115
530.774337	2550.823846
531.135862	2550.823846
531.497331	2510.494615
531.858743	2525.618077
532.220098	2507.974038
532.581396	2490.330000
532.942638	2500.412308
533.303824	2601.235385
533.664953	2477.727115
534.026025	2513.015192
534.387040	2429.836154
534.747999	2570.988462
535.108902	2520.576923
535.469748	2492.850577
535.830537	2500.412308
536.191270	2480.247692
536.551947	2535.700385
536.912567	2480.247692
537.273131	2495.371154
537.633638	2470.165385
537.994089	2505.453462
538.354483	2543.262115
538.714821	2485.288846
539.075103	2538.220962
539.435328	2500.412308
539.795497	2482.768269
540.155609	2490.330000
540.515665	2518.056346
540.875665	2543.262115
541.235609	2550.823846
541.595496	2439.918462
541.955328	2495.371154
542.315102	2417.233269
542.674821	2510.494615
543.034483	2505.453462
543.394090	2485.288846
543.753640	2558.385577
544.113134	2487.809423
544.472571	2399.589231
544.831953	2477.727115
545.191278	2513.015192
545.550548	2452.521346
545.909761	2462.603654
546.268918	2480.247692
546.628019	2573.509038
546.987064	2576.029615
547.346053	2485.288846
547.704986	2480.247692
548.063863	2510.494615
548.422684	2409.671538
548.781449	2497.891731
549.140158	2477.727115
549.498811	2540.741538
549.857408	2480.247692
550.215949	2429.836154
550.574434	2407.150962
550.932864	2427.315577
551.291237	2495.371154
551.649555	2419.753846
552.007817	2545.782692
552.366022	2492.850577
552.724173	2528.138654
553.082267	2533.179808
553.440305	2545.782692
553.798288	2523.097500
554.156215	2434.877308
554.514086	2528.138654
554.871902	2560.906154
555.229661	2573.509038
555.587365	2495.371154
555.945014	2533.179808
556.302606	2462.603654
556.660143	2480.247692
557.017625	2450.000769
557.375050	2417.233269
557.732421	2480.247692
558.089735	2490.330000
558.446994	2470.165385
558.804197	2500.412308
559.161345	2462.603654
559.518437	2500.412308
559.875474	2424.795000
560.232455	2500.412308
560.589381	2500.412308
560.946251	2480.247692
561.303065	2490.330000
561.659825	2482.768269
562.016528	2470.165385
562.373177	2485.288846
562.729770	2495.371154
563.086307	2520.576923
563.442789	2586.111923
563.799216	2535.700385
564.155587	2477.727115
564.511904	2492.850577
564.868164	2495.371154
565.224370	2442.439038
565.580520	2487.809423
565.936615	2588.632500
566.292654	2419.753846
566.648638	2467.644808
567.004567	2475.206538
567.360441	2558.385577
567.716260	2502.932885
568.072023	2495.371154
568.427732	2477.727115
568.783385	2553.344423
569.138982	2528.138654
569.494525	2576.029615
569.850013	2507.974038
570.205445	2452.521346
570.560823	2591.153077
570.916145	2558.385577
571.271412	2477.727115
571.626625	2507.974038
571.981782	2611.317692
572.336884	2490.330000
572.691931	2457.562500
573.046923	2523.097500
573.401860	2523.097500
573.756743	2465.124231
574.111570	2475.206538
574.466342	2578.550192
574.821059	2515.535769
575.175722	2581.070769
575.530330	2412.192115
575.884882	2528.138654
576.239380	2447.480192
576.593823	2487.809423
576.948211	2434.877308
577.302544	2535.700385
577.656823	2482.768269
578.011047	2502.932885
578.365216	2513.015192
578.719330	2528.138654
579.073389	2452.521346
579.427394	2520.576923
579.781344	2450.000769
580.135239	2439.918462
580.489080	2467.644808
580.842866	2535.700385
581.196597	2485.288846
581.550273	2515.535769
581.903895	2520.576923
582.257463	2442.439038
582.610975	2497.891731
582.964434	2533.179808
583.317837	2462.603654
583.671186	2495.371154
584.024481	2490.330000
584.377721	2543.262115
584.730906	2434.877308
585.084037	2455.041923
585.437113	2523.097500
585.790135	2480.247692
586.143103	2540.741538
586.496016	2452.521346
586.848874	2578.550192
587.201679	2455.041923
587.554428	2480.247692
587.907124	2434.877308
588.259765	2510.494615
588.612352	2563.426731
588.964884	2452.521346
589.317362	2555.865000
589.669786	2472.685962
590.022155	2591.153077
590.374470	2505.453462
590.726731	2475.206538
591.078937	2528.138654
591.431090	2475.206538
591.783188	2535.700385
592.135232	2568.467885
592.487222	2568.467885
592.839157	2452.521346
593.191038	2538.220962
593.542866	2513.015192
593.894639	2492.850577
594.246358	2538.220962
594.598022	2470.165385
594.949633	2573.509038
595.301190	2475.206538
595.652692	2505.453462
596.004141	2502.932885
596.355535	2475.206538
596.706876	2540.741538
597.058162	2452.521346
597.409395	2528.138654
597.760573	2495.371154
598.111698	2507.974038
598.462768	2399.589231
598.813785	2439.918462
599.164748	2497.891731
599.515657	2487.809423
599.866511	2518.056346
600.217312	2424.795000
600.568060	2550.823846
600.918753	2558.385577
601.269392	2482.768269
601.619978	2457.562500
601.970510	2507.974038
602.320988	2485.288846
602.671412	2427.315577
603.021783	2465.124231
603.372100	2462.603654
603.722363	2518.056346
604.072572	2467.644808
604.422728	2533.179808
604.772830	2407.150962
605.122878	2525.618077
605.472872	2452.521346
605.822813	2482.768269
606.172701	2560.906154
606.522534	2472.685962
606.872314	2457.562500
607.222041	2480.247692
607.571714	2450.000769
607.921333	2394.548077
608.270899	2520.576923
608.620411	2518.056346
608.969870	2460.083077
609.319276	2520.576923
609.668627	2548.303269
610.017926	2490.330000
610.367171	2467.644808
610.716362	2455.041923
611.065500	2470.165385
611.414585	2457.562500
611.763616	2545.782692
612.112594	2568.467885
612.461518	2457.562500
612.810389	2465.124231
613.159207	2427.315577
613.507971	2492.850577
613.856682	2472.685962
614.205340	2507.974038
614.553945	2452.521346
614.902496	2477.727115
615.250994	2495.371154
615.599439	2535.700385
615.947830	2397.068654
616.296169	2520.576923
616.644454	2523.097500
616.992686	2447.480192
617.340864	2487.809423
617.688990	2467.644808
618.037063	2550.823846
618.385082	2525.618077
618.733048	2497.891731
619.080961	2538.220962
619.428821	2386.986346
619.776628	2520.576923
620.124382	2467.644808
620.472083	2487.809423
620.819731	2528.138654
621.167326	2533.179808
621.514868	2490.330000
621.862357	2538.220962
622.209793	2477.727115
622.557176	2543.262115
622.904506	2485.288846
623.251783	2500.412308
623.599007	2457.562500
623.946179	2563.426731
624.293297	2581.070769
624.640363	2608.797115
624.987376	2490.330000
625.334336	2513.015192
625.681243	2470.165385
626.028097	2555.865000
626.374899	2558.385577
626.721647	2500.412308
627.068343	2455.041923
627.414987	2520.576923
627.761577	2497.891731
628.108115	2497.891731
628.454600	2490.330000
628.801032	2452.521346
629.147412	2460.083077
629.493739	2457.562500
629.840014	2523.097500
630.186236	2475.206538
630.532405	2505.453462
630.878521	2439.918462
631.224585	2513.015192
631.570597	2480.247692
631.916556	2507.974038
632.262462	2548.303269
632.608316	2374.383462
632.954117	2505.453462
633.299866	2429.836154
633.645562	2492.850577
633.991206	2462.603654
634.336797	2518.056346
634.682336	2558.385577
635.027823	2570.988462
635.373257	2520.576923
635.718639	2545.782692
636.063968	2548.303269
636.409245	2442.439038
636.754470	2550.823846
637.099642	2419.753846
637.444762	2558.385577
637.789829	2603.755962
638.134845	2545.782692
638.479808	2505.453462
638.824719	2439.918462
639.169577	2482.768269
639.514383	2500.412308
639.859137	2472.685962
640.203839	2452.521346
640.548489	2505.453462
640.893086	2530.659231
641.237632	2530.659231
641.582125	2490.330000
641.926566	2520.576923
642.270955	2381.945192
642.615292	2495.371154
642.959576	2399.589231
643.303809	2515.535769
643.647990	2520.576923
643.992118	2555.865000
644.336195	2513.015192
644.680219	2591.153077
645.024192	2432.356731
645.368112	2485.288846
645.711981	2462.603654
646.055797	2515.535769
646.399562	2525.618077
646.743274	2550.823846
647.086935	2543.262115
647.430544	2535.700385
647.774101	2518.056346
648.117606	2432.356731
648.461059	2505.453462
648.804460	2616.358846
649.147810	2442.439038
649.491108	2528.138654
649.834354	2414.712692
650.177548	2513.015192
650.520690	2518.056346
650.863781	2510.494615
651.206820	2412.192115
651.549807	2553.344423
651.892742	2550.823846
652.235626	2487.809423
652.578458	2470.165385
652.921238	2399.589231
653.263967	2444.959615
653.606644	2500.412308
653.949269	2548.303269
654.291843	2495.371154
654.634365	2460.083077
654.976836	2518.056346
655.319255	2470.165385
655.661622	2518.056346
656.003938	2457.562500
656.346203	2535.700385
656.688416	2487.809423
657.030577	2525.618077
657.372687	2487.809423
657.714746	2538.220962
658.056753	2518.056346
658.398708	2603.755962
658.740612	2497.891731
659.082465	2533.179808
659.424266	2457.562500
659.766016	2412.192115
660.107715	2485.288846
660.449362	2558.385577
660.790958	2515.535769
661.132503	2538.220962
661.473996	2429.836154
661.815438	2467.644808
662.156829	2507.974038
662.498168	2437.397885
662.839456	2472.685962
663.180693	2460.083077
663.521879	2538.220962
663.863013	2513.015192
664.204097	2548.303269
664.545129	2455.041923
664.886110	2535.700385
665.227040	2457.562500
665.567918	2525.618077
665.908746	2523.097500
666.249522	2538.220962
666.590248	2492.850577
666.930922	2533.179808
667.271545	2462.603654
667.612118	2570.988462
667.952639	2518.056346
668.293109	2470.165385
668.633528	2444.959615
668.973896	2500.412308
669.314213	2495.371154
669.654480	2548.303269
669.994695	2490.330000
670.334859	2523.097500
670.674973	2389.506923
671.015035	2507.974038
671.355047	2518.056346
671.695008	2510.494615
672.034918	2576.029615
672.374777	2520.576923
672.714585	2457.562500
673.054342	2507.974038
673.394049	2470.165385
673.733705	2518.056346
674.073310	2470.165385
674.412864	2477.727115
674.752368	2462.603654
675.091820	2485.288846
675.431223	2432.356731
675.770574	2424.795000
676.109875	2371.862885
676.449125	2550.823846
676.788324	2533.179808
677.127473	2505.453462
677.466571	2538.220962
677.805619	2530.659231
678.144616	2450.000769
678.483562	2490.330000
678.822458	2533.179808
679.161303	2497.891731
679.500098	2455.041923
679.838842	2510.494615
680.177535	2399.589231
680.516179	2565.947308
680.854771	2507.974038
681.193314	2437.397885
681.531805	2520.576923
681.870247	2500.412308
682.208638	2442.439038
682.546978	2513.015192
682.885268	2533.179808
683.223508	2530.659231
683.561697	2510.494615
683.899836	2475.206538
684.237925	2450.000769
684.575963	2550.823846
684.913951	2581.070769
685.251889	2555.865000
685.589776	2482.768269
685.927614	2510.494615
686.265401	2455.041923
686.603137	2520.576923
686.940824	2482.768269
687.278460	2475.206538
687.616046	2611.317692
687.953582	2467.644808
688.291068	2450.000769
688.628504	2540.741538
688.965889	2492.850577
689.303224	2510.494615
689.640510	2462.603654
689.977745	2525.618077
690.314930	2444.959615
690.652065	2555.865000
690.989150	2535.700385
691.326185	2470.165385
691.663170	2528.138654
692.000105	2538.220962
692.336990	2462.603654
692.673825	2462.603654
693.010610	2525.618077
693.347345	2437.397885
693.684030	2548.303269
694.020665	2465.124231
694.357251	2495.371154
694.693786	2497.891731
695.030272	2528.138654
695.366707	2513.015192
695.703093	2442.439038
696.039429	2538.220962
696.375716	2472.685962
696.711952	2538.220962
697.048139	2545.782692
697.384276	2490.330000
697.720363	2492.850577
698.056400	2601.235385
698.392388	2477.727115
698.728326	2533.179808
699.064214	2495.371154
699.400053	2505.453462
699.735842	2485.288846
700.071581	2452.521346
700.407270	2475.206538
700.742910	2513.015192
701.078501	2442.439038
701.414042	2518.056346
701.749533	2444.959615
702.084974	2497.891731
702.420366	2515.535769
702.755709	2520.576923
703.091002	2452.521346
703.426246	2538.220962
703.761440	2477.727115
704.096584	2482.768269
704.431679	2495.371154
704.766725	2515.535769
705.101721	2502.932885
705.436668	2523.097500
705.771565	2409.671538
706.106413	2558.385577
706.441212	2492.850577
706.775961	2505.453462
707.110661	2429.836154
707.445311	2550.823846
707.779913	2487.809423
708.114465	2429.836154
708.448967	2487.809423
708.783421	2465.124231
709.117825	2439.918462
709.452180	2462.603654
709.786485	2576.029615
710.120742	2442.439038
710.454949	2452.521346
710.789107	2475.206538
711.123216	2500.412308
711.457275	2457.562500
711.791286	2555.865000
712.125247	2535.700385
712.459159	2507.974038
712.793023	2500.412308
713.126837	2533.179808
713.460602	2513.015192
713.794318	2538.220962
714.127985	2462.603654
714.461602	2480.247692
714.795171	2565.947308
715.128691	2455.041923
715.462162	2507.974038
715.795584	2460.083077
716.128957	2485.288846
716.462281	2467.644808
716.795556	2492.850577
717.128782	2528.138654
717.461960	2465.124231
717.795088	2497.891731
718.128167	2487.809423
718.461198	2485.288846
718.794180	2502.932885
719.127113	2467.644808
719.459997	2553.344423
719.792833	2558.385577
720.125619	2543.262115
720.458357	2460.083077
720.791046	2412.192115
721.123686	2520.576923
721.456278	2538.220962
721.788821	2525.618077
722.121315	2505.453462
722.453761	2540.741538
722.786158	2611.317692
723.118506	2472.685962
723.450805	2518.056346
723.783056	2518.056346
724.115259	2434.877308
724.447412	2505.453462
724.779518	2475.206538
725.111574	2513.015192
725.443582	2497.891731
725.775542	2578.550192
726.107453	2533.179808
726.439315	2437.397885
726.771129	2530.659231
727.102895	2452.521346
727.434612	2543.262115
727.766281	2444.959615
728.097901	2502.932885
728.429473	2525.618077
728.760996	2570.988462
729.092471	2530.659231
729.423897	2452.521346
729.755276	2520.576923
730.086606	2502.932885
730.417887	2490.330000
730.749120	2510.494615
731.080305	2500.412308
731.411442	2581.070769
731.742530	2434.877308
732.073570	2545.782692
732.404562	2510.494615
732.735506	2515.535769
733.066401	2465.124231
733.397249	2477.727115
733.728048	2437.397885
734.058798	2520.576923
734.389501	2528.138654
734.720156	2492.850577
735.050762	2482.768269
735.381320	2457.562500
735.711831	2540.741538
736.042293	2513.015192
736.372707	2565.947308
736.703073	2429.836154
737.033391	2518.056346
737.363661	2424.795000
737.693883	2495.371154
738.024056	2407.150962
738.354182	2495.371154
738.684260	2477.727115
739.014290	2402.109808
739.344272	2492.850577
739.674207	2457.562500
740.004093	2487.809423
740.333931	2447.480192
740.663722	2530.659231
740.993464	2545.782692
741.323159	2502.932885
741.652806	2477.727115
741.982405	2513.015192
742.311956	2505.453462
742.641460	2497.891731
742.970915	2495.371154
743.300323	2518.056346
743.629683	2424.795000
743.958996	2518.056346
744.288260	2442.439038
744.617477	2518.056346
744.946647	2482.768269
745.275768	2497.891731
745.604842	2558.385577
745.933869	2515.535769
746.262847	2533.179808
746.591778	2540.741538
746.920662	2366.821731
747.249498	2442.439038
747.578286	2432.356731
747.907027	2460.083077
748.235720	2505.453462
748.564365	2543.262115
748.892963	2540.741538
749.221514	2550.823846
749.550017	2480.247692
749.878473	2487.809423
750.206881	2460.083077
750.535242	2535.700385
750.863555	2555.865000
751.191821	2505.453462
751.520039	2492.850577
751.848210	2505.453462
752.176334	2462.603654
752.504411	2412.192115
752.832440	2518.056346
753.160421	2470.165385
753.488356	2583.591346
753.816243	2490.330000
754.144082	2525.618077
754.471875	2487.809423
754.799620	2475.206538
755.127318	2460.083077
755.454969	2500.412308
755.782572	2497.891731
756.110129	2507.974038
756.437638	2533.179808
756.765100	2505.453462
757.092515	2460.083077
757.419882	2447.480192
757.747203	2533.179808
758.074477	2586.111923
758.401703	2482.768269
758.728882	2470.165385
759.056014	2578.550192
759.383099	2520.576923
759.710138	2497.891731
760.037129	2525.618077
760.364073	2495.371154
760.690970	2497.891731
761.017820	2450.000769
761.344623	2472.685962
761.671379	2543.262115
761.998088	2462.603654
762.324751	2583.591346
762.651366	2460.083077
762.977935	2515.535769
763.304456	2460.083077
763.630931	2444.959615
763.957359	2444.959615
764.283740	2510.494615
764.610074	2452.521346
764.936362	2460.083077
765.262602	2502.932885
765.588796	2442.439038
765.914943	2465.124231
766.241044	2495.371154
766.567097	2515.535769
766.893104	2480.247692
767.219064	2505.453462
767.544978	2422.274423
767.870845	2538.220962
768.196665	2492.850577
768.522438	2530.659231
768.848165	2492.850577
769.173846	2515.535769
769.499479	2497.891731
769.825066	2586.111923
770.150607	2450.000769
770.476101	2535.700385
770.801548	2563.426731
771.126949	2437.397885
771.452303	2497.891731
771.777611	2480.247692
772.102872	2513.015192
772.428087	2414.712692
772.753256	2538.220962
773.078378	2452.521346
773.403453	2570.988462
773.728482	2450.000769
774.053465	2523.097500
774.378401	2507.974038
774.703291	2530.659231
775.028135	2460.083077
775.352932	2429.836154
775.677683	2535.700385
776.002388	2502.932885
776.327046	2490.330000
776.651658	2540.741538
776.976224	2480.247692
777.300743	2513.015192
777.625216	2535.700385
777.949643	2429.836154
778.274024	2550.823846
778.598359	2495.371154
778.922647	2535.700385
779.246889	2412.192115
779.571086	2515.535769
779.895236	2460.083077
780.219339	2507.974038
780.543397	2523.097500
780.867409	2480.247692
781.191374	2447.480192
781.515294	2490.330000
781.839167	2497.891731
782.162995	2576.029615
782.486776	2470.165385
782.810511	2452.521346
783.134201	2515.535769
783.457844	2477.727115
783.781441	2573.509038
784.104993	2495.371154
784.428498	2525.618077
784.751958	2543.262115
785.075372	2578.550192
785.398739	2525.618077
785.722061	2417.233269
786.045337	2533.179808
786.368568	2555.865000
786.691752	2397.068654
787.014891	2553.344423
787.337983	2492.850577
787.661030	2540.741538
787.984031	2457.562500
788.306987	2608.797115
788.629897	2555.865000
788.952760	2530.659231
789.275579	2495.371154
789.598351	2477.727115
789.921078	2593.673654
790.243759	2538.220962
790.566395	2500.412308
790.888984	2548.303269
791.211529	2477.727115
791.534027	2485.288846
791.856480	2447.480192
792.178888	2525.618077
792.501249	2417.233269
792.823566	2593.673654
793.145836	2492.850577
793.468062	2457.562500
793.790241	2397.068654
794.112375	2548.303269
794.434464	2460.083077
794.756507	2540.741538
795.078505	2533.179808
795.400457	2543.262115
795.722364	2492.850577
796.044226	2530.659231
796.366042	2465.124231
796.687812	2475.206538
797.009538	2555.865000
797.331218	2576.029615
797.652852	2520.576923
797.974442	2482.768269
798.295986	2437.397885
798.617484	2492.850577
798.938938	2548.303269
799.260346	2465.124231
799.581709	2495.371154
799.903026	2432.356731
800.224299	2510.494615
800.545526	2397.068654
800.866708	2422.274423
801.187845	2482.768269
801.508936	2460.083077
801.829983	2510.494615
802.150984	2513.015192
802.471940	2515.535769
802.792851	2515.535769
803.113717	2434.877308
803.434538	2490.330000
803.755314	2520.576923
804.076045	2583.591346
804.396731	2528.138654
804.717372	2472.685962
805.037967	2530.659231
805.358518	2555.865000
805.679024	2434.877308
805.999485	2523.097500
806.319901	2485.288846
806.640272	2560.906154
806.960598	2543.262115
807.280879	2523.097500
807.601115	2424.795000
807.921306	2497.891731
808.241453	2525.618077
808.561554	2460.083077
808.881611	2485.288846
809.201623	2528.138654
809.521590	2553.344423
809.841513	2533.179808
810.161390	2460.083077
810.481223	2543.262115
810.801011	2502.932885
811.120755	2490.330000
811.440453	2429.836154
811.760107	2485.288846
812.079716	2505.453462
812.399281	2505.453462
812.718801	2460.083077
813.038276	2535.700385
813.357707	2467.644808
813.677093	2472.685962
813.996434	2487.809423
814.315731	2490.330000
814.634983	2432.356731
814.954191	2492.850577
815.273354	2500.412308
815.592473	2412.192115
815.911547	2485.288846
816.230577	2495.371154
816.549562	2555.865000
816.868502	2530.659231
817.187399	2490.330000
817.506250	2477.727115
817.825058	2518.056346
818.143821	2467.644808
818.462539	2555.865000
818.781213	2530.659231
819.099843	2543.262115
819.418429	2502.932885
819.736970	2513.015192
820.055466	2477.727115
820.373919	2565.947308
820.692327	2485.288846
821.010691	2444.959615
821.329011	2540.741538
821.647286	2518.056346
821.965517	2472.685962
822.283704	2507.974038
822.601847	2427.315577
822.919945	2480.247692
823.237999	2482.768269
823.556010	2520.576923
823.873976	2402.109808
824.191897	2452.521346
824.509775	2535.700385
824.827609	2520.576923
825.145398	2480.247692
825.463144	2495.371154
825.780845	2560.906154
826.098502	2482.768269
826.416116	2570.988462
826.733685	2505.453462
827.051210	2492.850577
827.368692	2520.576923
827.686129	2530.659231
828.003522	2555.865000
828.320872	2422.274423
828.638177	2515.535769
828.955439	2490.330000
829.272656	2510.494615
829.589830	2528.138654
829.906960	2475.206538
830.224046	2482.768269
830.541088	2460.083077
830.858086	2525.618077
831.175041	2457.562500
831.491952	2533.179808
831.808819	2515.535769
832.125642	2505.453462
832.442421	2427.315577
832.759157	2538.220962
833.075849	2495.371154
833.392497	2422.274423
833.709101	2412.192115
834.025662	2548.303269
834.342179	2568.467885
834.658653	2432.356731
834.975083	2490.330000
835.291469	2545.782692
835.607811	2533.179808
835.924110	2412.192115
836.240366	2525.618077
836.556578	2495.371154
836.872746	2452.521346
837.188871	2455.041923
837.504952	2500.412308
837.820990	2467.644808
838.136984	2513.015192
838.452935	2475.206538
838.768842	2528.138654
839.084706	2525.618077
839.400526	2513.015192
839.716303	2434.877308
840.032037	2497.891731
840.347727	2492.850577
840.663373	2412.192115
840.978977	2465.124231
841.294537	2482.768269
841.610054	2457.562500
841.925527	2450.000769
842.240957	2455.041923
842.556344	2528.138654
842.871687	2586.111923
843.186987	2507.974038
843.502244	2530.659231
843.817458	2507.974038
844.132629	2467.644808
844.447756	2543.262115
844.762840	2583.591346
845.077881	2450.000769
845.392879	2482.768269
845.707833	2507.974038
846.022745	2510.494615
846.337613	2500.412308
846.652438	2455.041923
846.967221	2565.947308
847.281960	2477.727115
847.596656	2591.153077
847.911309	2455.041923
848.225919	2507.974038
848.540485	2502.932885
848.855009	2583.591346
849.169490	2470.165385
849.483928	2427.315577
849.798323	2553.344423
850.112675	2495.371154
850.426984	2540.741538
850.741251	2475.206538
851.055474	2518.056346
851.369654	2485.288846
851.683792	2422.274423
851.997887	2540.741538
852.311938	2467.644808
852.625947	2533.179808
852.939914	2447.480192
853.253837	2515.535769
853.567718	2444.959615
853.881555	2553.344423
854.195350	2530.659231
854.509103	2583.591346
854.822812	2467.644808
855.136479	2497.891731
855.450103	2455.041923
855.763685	2570.988462
856.077224	2480.247692
856.390720	2513.015192
856.704173	2518.056346
857.017584	2432.356731
857.330953	2500.412308
857.644278	2500.412308
857.957561	2505.453462
858.270802	2543.262115
858.584000	2560.906154
858.897155	2500.412308
859.210268	2505.453462
859.523339	2578.550192
859.836367	2560.906154
860.149352	2455.041923
860.462295	2480.247692
860.775195	2422.274423
861.088054	2502.932885
861.400869	2560.906154
861.713642	2432.356731
862.026373	2500.412308
862.339062	2460.083077
862.651708	2520.576923
862.964312	2480.247692
863.276873	2550.823846
863.589392	2500.412308
863.901869	2545.782692
864.214303	2525.618077
864.526696	2460.083077
864.839045	2530.659231
865.151353	2485.288846
865.463619	2528.138654
865.775842	2502.932885
866.088023	2510.494615
866.400162	2530.659231
866.712258	2346.657115
867.024313	2477.727115
867.336325	2480.247692
867.648296	2515.535769
867.960224	2490.330000
868.272110	2457.562500
868.583954	2447.480192
868.895755	2475.206538
869.207515	2528.138654
869.519233	2505.453462
869.830909	2487.809423
870.142542	2528.138654
870.454134	2538.220962
870.765684	2563.426731
871.077191	2462.603654
871.388657	2497.891731
871.700081	2472.685962
872.011463	2568.467885
872.322803	2530.659231
872.634101	2525.618077
872.945357	2462.603654
873.256571	2439.918462
873.567744	2563.426731
873.878874	2581.070769
874.189963	2427.315577
874.501010	2505.453462
874.812015	2581.070769
875.122979	2439.918462
875.433900	2475.206538
875.744780	2482.768269
876.055618	2568.467885
876.366415	2505.453462
876.677169	2515.535769
876.987882	2528.138654
877.298554	2596.194231
877.609183	2482.768269
877.919771	2472.685962
878.230317	2457.562500
878.540822	2548.303269
878.851285	2482.768269
879.161707	2601.235385
879.472087	2450.000769
879.782425	2462.603654
880.092722	2518.056346
880.402977	2520.576923
880.713191	2465.124231
881.023363	2520.576923
881.333494	2490.330000
881.643583	2538.220962
881.953631	2399.589231
882.263637	2518.056346
882.573602	2485.288846
882.883526	2490.330000
883.193408	2457.562500
883.503248	2530.659231
883.813048	2437.397885
884.122806	2518.056346
884.432522	2530.659231
884.742197	2472.685962
885.051831	2505.453462
885.361424	2513.015192
885.670975	2507.974038
885.980485	2530.659231
886.289954	2480.247692
886.599382	2487.809423
886.908768	2510.494615
887.218113	2457.562500
887.527417	2550.823846
887.836680	2520.576923
888.145901	2477.727115
888.455082	2434.877308
888.764221	2477.727115
889.073319	2560.906154
889.382376	2495.371154
889.691392	2497.891731
890.000366	2518.056346
890.309300	2442.439038
890.618193	2460.083077
890.927044	2457.562500
891.235855	2538.220962
891.544625	2462.603654
891.853353	2495.371154
892.162041	2535.700385
892.470687	2603.755962
892.779293	2482.768269
893.087858	2465.124231
893.396381	2487.809423
893.704864	2497.891731
894.013306	2591.153077
894.321707	2429.836154
894.630068	2497.891731
894.938387	2477.727115
895.246665	2502.932885
895.554903	2560.906154
895.863100	2510.494615
896.171256	2447.480192
896.479371	2437.397885
896.787446	2520.576923
897.095480	2540.741538
897.403473	2490.330000
897.711425	2437.397885
898.019336	2523.097500
898.327207	2485.288846
898.635038	2515.535769
898.942827	2515.535769
899.250576	2548.303269
899.558284	2591.153077
899.865952	2437.397885
900.173579	2472.685962
900.481165	2513.015192
900.788711	2462.603654
901.096216	2480.247692
901.403681	2437.397885
901.711105	2520.576923
902.018489	2485.288846
902.325832	2520.576923
902.633135	2490.330000
902.940397	2482.768269
903.247619	2490.330000
903.554800	2457.562500
903.861941	2480.247692
904.169041	2450.000769
904.476101	2510.494615
904.783121	2565.947308
905.090100	2432.356731
905.397039	2505.453462
905.703938	2490.330000
906.010796	2485.288846
906.317614	2462.603654
906.624391	2495.371154
906.931129	2482.768269
907.237826	2515.535769
907.544483	2523.097500
907.851099	2525.618077
908.157675	2523.097500
908.464211	2485.288846
908.770707	2472.685962
909.077163	2470.165385
909.383578	2467.644808
909.689954	2530.659231
909.996289	2507.974038
910.302584	2419.753846
910.608839	2424.795000
910.915054	2487.809423
911.221229	2409.671538
911.527363	2462.603654
911.833458	2505.453462
912.139513	2502.932885
912.445527	2573.509038
912.751502	2500.412308
913.057436	2480.247692
913.363331	2482.768269
913.669186	2429.836154
913.975000	2480.247692
914.280775	2490.330000
914.586510	2601.235385
914.892205	2490.330000
915.197859	2470.165385
915.503475	2429.836154
915.809050	2596.194231
916.114585	2505.453462
916.420081	2505.453462
916.725536	2399.589231
917.030952	2520.576923
917.336328	2452.521346
917.641665	2457.562500
917.946961	2457.562500
918.252218	2540.741538
918.557435	2414.712692
918.862612	2495.371154
919.167750	2477.727115
919.472848	2513.015192
919.777906	2505.453462
920.082925	2477.727115
920.387904	2507.974038
920.692843	2437.397885
920.997743	2465.124231
921.302603	2548.303269
921.607423	2467.644808
921.912204	2366.821731
922.216946	2538.220962
922.521647	2452.521346
922.826310	2563.426731
923.130932	2392.027500
923.435516	2452.521346
923.740059	2472.685962
924.044564	2530.659231
924.349028	2560.906154
924.653454	2500.412308
924.957840	2505.453462
925.262186	2515.535769
925.566493	2455.041923
925.870761	2470.165385
926.174989	2540.741538
926.479178	2487.809423
926.783328	2497.891731
927.087438	2492.850577
927.391509	2515.535769
927.695541	2434.877308
927.999533	2477.727115
928.303486	2417.233269
928.607400	2576.029615
928.911275	2507.974038
929.215110	2563.426731
929.518906	2482.768269
929.822663	2523.097500
930.126381	2487.809423
930.430060	2477.727115
930.733699	2424.795000
931.037299	2424.795000
931.340861	2485.288846
931.644383	2442.439038
931.947866	2502.932885
932.251309	2472.685962
932.554714	2523.097500
932.858080	2533.179808
933.161407	2515.535769
933.464694	2510.494615
933.767943	2535.700385
934.071153	2485.288846
934.374323	2505.453462
934.677455	2462.603654
934.980548	2485.288846
935.283602	2507.974038
935.586617	2528.138654
935.889593	2472.685962
936.192530	2470.165385
936.495428	2432.356731
936.798287	2492.850577
937.101108	2482.768269
937.403890	2419.753846
937.706632	2465.124231
938.009336	2485.288846
938.312002	2439.918462
938.614628	2540.741538
938.917216	2480.247692
939.219765	2538.220962
939.522275	2528.138654
939.824747	2490.330000
940.127179	2495.371154
940.429573	2429.836154
940.731929	2437.397885
941.034246	2523.097500
941.336524	2470.165385
941.638763	2467.644808
941.940964	2465.124231
942.243126	2543.262115
942.545250	2480.247692
942.847335	2510.494615
943.149381	2432.356731
943.451389	2518.056346
943.753359	2404.630385
944.055290	2535.700385
944.357182	2419.753846
944.659036	2560.906154
944.960851	2588.632500
945.262628	2533.179808
945.564367	2513.015192
945.866067	2480.247692
946.167729	2520.576923
946.469352	2528.138654
946.770937	2495.371154
947.072484	2510.494615
947.373992	2530.659231
947.675462	2470.165385
947.976893	2528.138654
948.278286	2507.974038
948.579641	2530.659231
948.880958	2444.959615
949.182236	2429.836154
949.483476	2482.768269
949.784678	2467.644808
950.085841	2570.988462
950.386967	2452.521346
950.688054	2520.576923
950.989103	2439.918462
951.290114	2432.356731
951.591087	2414.712692
951.892021	2444.959615
952.192917	2515.535769
952.493776	2520.576923
952.794596	2515.535769
953.095378	2442.439038
953.396122	2482.768269
953.696828	2548.303269
953.997496	2510.494615
954.298126	2543.262115
954.598718	2550.823846
954.899272	2581.070769
955.199788	2497.891731
955.500266	2475.206538
955.800706	2460.083077
956.101108	2535.700385
956.401472	2434.877308
956.701798	2548.303269
957.002087	2477.727115
957.302337	2520.576923
957.602550	2457.562500
957.902724	2497.891731
958.202861	2472.685962
958.502960	2513.015192
958.803022	2480.247692
959.103045	2432.356731
959.403031	2447.480192
959.702979	2460.083077
960.002889	2485.288846
960.302762	2555.865000
960.602596	2535.700385
960.902393	2417.233269
961.202153	2419.753846
961.501875	2507.974038
961.801559	2492.850577
962.101205	2583.591346
962.400814	2487.809423
962.700385	2515.535769
962.999918	2447.480192
963.299414	2490.330000
963.598873	2434.877308
963.898293	2452.521346
964.197677	2497.891731
964.497022	2487.809423
964.796331	2505.453462
965.095601	2513.015192
965.394835	2520.576923
965.694030	2427.315577
965.993189	2442.439038
966.292309	2497.891731
966.591393	2530.659231
966.890439	2545.782692
967.189447	2502.932885
967.488419	2535.700385
967.787353	2543.262115
968.086249	2475.206538
968.385108	2543.262115
968.683930	2475.206538
968.982714	2457.562500
969.281462	2429.836154
969.580172	2533.179808
969.878844	2419.753846
970.177480	2568.467885
970.476078	2502.932885
970.774639	2450.000769
971.073162	2505.453462
971.371649	2540.741538
971.670098	2442.439038
971.968510	2520.576923
972.266885	2444.959615
972.565223	2538.220962
972.863524	2490.330000
973.161788	2439.918462
973.460014	2490.330000
973.758204	2462.603654
974.056356	2462.603654
974.354471	2470.165385
974.652550	2450.000769
974.950591	2500.412308
975.248595	2490.330000
975.546563	2535.700385
975.844493	2444.959615
976.142386	2520.576923
976.440243	2470.165385
976.738062	2419.753846
977.035845	2497.891731
977.333590	2457.562500
977.631299	2515.535769
977.928971	2515.535769
978.226606	2424.795000
978.524204	2432.356731
978.821765	2482.768269
979.119290	2513.015192
979.416777	2477.727115
979.714228	2492.850577
980.011642	2429.836154
980.309020	2555.865000
980.606360	2555.865000
980.903664	2497.891731
981.200931	2555.865000
981.498162	2515.535769
981.795356	2538.220962
982.092513	2472.685962
982.389633	2442.439038
982.686717	2528.138654
982.983764	2482.768269
983.280775	2573.509038
983.577749	2500.412308
983.874686	2500.412308
984.171587	2533.179808
984.468451	2414.712692
984.765279	2505.453462
985.062070	2540.741538
985.358824	2510.494615
985.655543	2470.165385
985.952224	2513.015192
986.248869	2588.632500
986.545478	2414.712692
986.842050	2545.782692
987.138586	2490.330000
987.435086	2490.330000
987.731549	2497.891731
988.027975	2477.727115
988.324366	2487.809423
988.620719	2520.576923
988.917037	2389.506923
989.213318	2588.632500
989.509563	2407.150962
989.805772	2507.974038
990.101944	2540.741538
990.398080	2515.535769
990.694180	2467.644808
990.990244	2513.015192
991.286271	2533.179808
991.582262	2515.535769
991.878217	2412.192115
992.174136	2513.015192
992.470019	2434.877308
992.765865	2480.247692
993.061676	2583.591346
993.357450	2460.083077
993.653188	2581.070769
993.948890	2452.521346
994.244556	2455.041923
994.540186	2450.000769
994.835780	2470.165385
995.131337	2429.836154
995.426859	2500.412308
995.722345	2497.891731
996.017795	2500.412308
996.313208	2500.412308
996.608586	2540.741538
996.903928	2505.453462
997.199234	2507.974038
997.494504	2485.288846
997.789738	2450.000769
998.084936	2434.877308
998.380099	2588.632500
998.675225	2538.220962
998.970316	2477.727115
999.265371	2535.700385
999.560390	2477.727115
999.855373	2533.179808
1000.150320	2447.480192
1000.445232	2568.467885
1000.740108	2482.768269
1001.034948	2437.397885
1001.329752	2485.288846
1001.624521	2553.344423
1001.919254	2497.891731
1002.213951	2520.576923
1002.508613	2538.220962
1002.803239	2477.727115
1003.097829	2500.412308
1003.392384	2502.932885
1003.686903	2359.260000
1003.981386	2492.850577
1004.275834	2452.521346
1004.570246	2475.206538
1004.864623	2535.700385
1005.158964	2510.494615
1005.453270	2515.535769
1005.747540	2515.535769
1006.041775	2477.727115
1006.335974	2402.109808
1006.630138	2505.453462
1006.924266	2437.397885
1007.218359	2528.138654
1007.512416	2538.220962
1007.806438	2465.124231
1008.100425	2518.056346
1008.394376	2528.138654
1008.688292	2523.097500
1008.982172	2492.850577
1009.276017	2518.056346
1009.569827	2427.315577
1009.863602	2412.192115
1010.157341	2520.576923
1010.451045	2475.206538
1010.744714	2437.397885
1011.038347	2502.932885
1011.331945	2550.823846
1011.625508	2434.877308
1011.919036	2528.138654
1012.212528	2467.644808
1012.505986	2439.918462
1012.799408	2490.330000
1013.092795	2457.562500
1013.386147	2558.385577
1013.679464	2482.768269
1013.972745	2424.795000
1014.265992	2505.453462
1014.559204	2568.467885
1014.852380	2437.397885
1015.145521	2419.753846
1015.438628	2492.850577
1015.731699	2518.056346
1016.024736	2533.179808
1016.317737	2447.480192
1016.610703	2470.165385
1016.903635	2596.194231
1017.196531	2513.015192
1017.489393	2455.041923
1017.782219	2472.685962
1018.075011	2525.618077
1018.367768	2452.521346
1018.660490	2500.412308
1018.953177	2500.412308
1019.245829	2500.412308
