Dividing Wavelength (nm)	Counts (n)	Blue Motor Position (mm): 2.000000	Red Motor Position (mm): 0.000000	
326.493990	2064.942315
326.888308	2064.942315
327.282561	2064.942315
327.676750	2040.553213
328.070874	2041.448017
328.464933	2048.339275
328.858929	2054.053423
329.252859	2066.394167
329.646726	2077.275498
330.040528	2096.159660
330.434265	2110.743718
330.827938	2135.578963
331.221547	2155.857004
331.615091	2173.717812
332.008571	2198.061544
332.401986	2217.018803
332.795338	2235.814745
333.188625	2254.928280
333.581847	2275.062648
333.975006	2290.569238
334.368100	2308.949285
334.761129	2327.215906
335.154095	2342.480519
335.546996	2357.883765
335.939833	2373.413039
336.332606	2386.673795
336.725315	2395.629404
337.117960	2408.012999
337.510540	2416.829977
337.903056	2425.190731
338.295508	2429.977306
338.687896	2439.174891
339.080220	2439.583225
339.472480	2444.972218
339.864676	2451.634103
340.256807	2452.813733
340.648875	2456.849177
341.040879	2457.060905
341.432818	2458.021245
341.824694	2458.422017
342.216506	2460.612398
342.608253	2457.973354
342.999937	2459.841102
343.391557	2459.450412
343.783113	2456.708024
344.174605	2453.907663
344.566033	2450.772066
344.957397	2452.297015
345.348697	2449.312652
345.739934	2447.432301
346.131106	2445.443566
346.522215	2445.836776
346.913260	2439.817638
347.304241	2442.154213
347.695159	2440.750252
348.086012	2438.665735
348.476802	2432.782708
348.867528	2433.674993
349.258191	2429.931936
349.648789	2432.036618
350.039324	2427.461770
350.429796	2432.129879
350.820203	2429.536205
351.210548	2428.225505
351.600828	2430.287337
351.991045	2427.393715
352.381198	2428.071750
352.771288	2428.883376
353.161314	2427.131575
353.551276	2427.396235
353.941175	2428.240629
354.331010	2426.324990
354.720782	2428.079312
355.110490	2429.445464
355.500135	2429.142995
355.889717	2430.171391
356.279235	2428.520413
356.668689	2433.654828
357.058080	2429.589137
357.447408	2431.572831
357.836672	2430.831782
358.225873	2433.566608
358.615010	2434.451330
359.004084	2433.601896
359.393095	2432.326484
359.782043	2431.537543
360.170927	2436.074582
360.559748	2434.065682
360.948505	2433.221289
361.337199	2434.380754
361.725830	2436.727411
362.114398	2436.339242
362.502903	2435.731783
362.891344	2435.860333
363.279722	2436.089705
363.668037	2437.095415
364.056289	2438.441403
364.444478	2437.896959
364.832603	2437.213882
365.220665	2438.643050
365.608665	2438.801846
365.996601	2442.476847
366.384474	2438.360745
366.772284	2438.547268
367.160031	2441.098092
367.547715	2441.438369
367.935336	2439.086671
368.322893	2438.869902
368.710388	2436.770261
369.097820	2439.454675
369.485189	2433.964859
369.872495	2442.817125
370.259738	2443.931220
370.646918	2442.255036
371.034035	2442.917948
371.421090	2440.493153
371.808081	2444.266457
372.195010	2444.558844
372.581875	2444.183278
372.968678	2443.953905
373.355418	2444.231169
373.742096	2444.369800
374.128710	2445.143617
374.515262	2445.609924
374.901751	2444.102619
375.288177	2445.395675
375.674540	2444.634461
376.060841	2448.309462
376.447079	2446.663525
376.833254	2449.037909
377.219367	2447.938937
377.605417	2447.767538
377.991404	2450.333485
378.377329	2445.415840
378.763191	2446.270315
379.148991	2449.206788
379.534727	2448.836263
379.920402	2448.735440
380.306013	2447.863320
380.691563	2450.018413
381.077049	2449.698300
381.462474	2449.032868
381.847835	2449.118567
382.233134	2451.059412
382.618371	2451.432457
383.003545	2450.633434
383.388657	2450.545214
383.773706	2449.103444
384.158693	2452.423044
384.543618	2450.038578
384.928480	2448.440532
385.313280	2449.267281
385.698017	2449.519339
386.082692	2451.402210
386.467305	2453.297684
386.851856	2452.821295
387.236344	2451.200564
387.620770	2450.396500
388.005133	2448.722837
388.389435	2450.872889
388.773674	2447.946499
389.157851	2451.434977
389.541965	2453.353137
389.926018	2455.823302
390.310008	2453.164093
390.693936	2451.825667
391.077802	2453.685853
391.461606	2454.126954
391.845348	2453.927828
392.229027	2456.539146
392.612645	2453.519495
392.996200	2455.851028
393.379694	2455.160390
393.763125	2455.394804
394.146494	2456.453446
394.529801	2455.951851
394.913047	2455.241049
395.296230	2457.965792
395.679351	2453.287602
396.062410	2455.160390
396.445408	2457.622994
396.828343	2456.690380
397.211217	2457.058385
397.594028	2456.745833
397.976778	2456.236677
398.359466	2456.229115
398.742092	2454.245421
399.124656	2463.006946
399.507158	2458.137192
399.889598	2457.451595
400.271977	2457.648200
400.654294	2456.206430
401.036549	2459.047120
401.418742	2460.574589
401.800874	2461.572738
402.182944	2460.486369
402.564952	2459.788169
402.946898	2459.604167
403.328783	2459.828499
403.710606	2460.703139
404.092367	2462.454940
404.474067	2463.243880
404.855705	2462.437296
405.237282	2458.621142
405.618797	2462.833026
406.000250	2461.398818
406.381642	2460.133488
406.762972	2459.541153
407.144240	2456.377829
407.525447	2459.745320
407.906593	2456.677777
408.287677	2462.543160
408.668700	2459.891513
409.049661	2465.310753
409.430560	2462.666668
409.811399	2464.148768
410.192176	2459.485700
410.572891	2462.535598
410.953545	2463.667337
411.334138	2462.782615
411.714669	2463.543829
412.095139	2462.364199
412.475547	2463.972327
412.855894	2463.407718
413.236180	2463.813531
413.616405	2464.945270
413.996568	2463.316977
414.376670	2468.043059
414.756711	2465.088943
415.136691	2462.003757
415.516609	2463.138016
415.896466	2464.267235
416.276262	2464.559622
416.655997	2465.542647
417.035670	2465.709005
417.415283	2467.828810
417.794834	2463.669858
418.174324	2466.911320
418.553753	2464.824282
418.933121	2466.021556
419.312428	2464.022739
419.691674	2465.104066
420.070859	2464.660445
420.449983	2467.470888
420.829045	2468.184211
421.208047	2466.550877
421.586988	2467.869139
421.965867	2468.920220
422.344686	2468.718573
422.723444	2469.021043
423.102141	2465.671196
423.480777	2469.326033
423.859352	2468.602627
424.237866	2467.372585
424.616319	2468.869808
424.994712	2468.582462
425.373044	2467.417956
425.751314	2465.242698
426.129524	2465.348562
426.507673	2467.319653
426.885762	2464.060547
427.263789	2472.668317
427.641756	2468.249746
428.019662	2469.517596
428.397508	2466.631536
428.775292	2468.647997
429.153016	2469.782257
429.530679	2470.649335
429.908282	2469.131948
430.285824	2468.174129
430.663305	2469.283183
431.040726	2469.109263
431.418086	2467.934674
431.795385	2469.336115
432.172624	2470.004068
432.549802	2469.981383
432.926920	2469.492391
433.303977	2471.823924
433.680974	2471.062710
434.057910	2470.621609
434.434786	2472.718729
434.811601	2470.561115
435.188355	2470.823255
435.565050	2469.000878
435.941683	2476.066055
436.318257	2469.542802
436.694770	2469.870477
437.071222	2471.435755
437.447614	2472.441466
437.823946	2471.158492
438.200218	2472.020529
438.576429	2471.345015
438.952580	2471.652525
439.328670	2471.927268
439.704700	2472.068420
440.080670	2469.583131
440.456580	2473.515231
440.832429	2472.141517
441.208218	2474.374748
441.583947	2474.677217
441.959616	2472.048256
442.335224	2475.030098
442.710773	2473.041363
443.086261	2472.738894
443.461689	2474.122690
443.837057	2474.967084
444.212365	2473.174953
444.587612	2471.985241
444.962800	2467.727987
445.337927	2472.486836
445.712995	2466.016515
446.088002	2474.180664
446.462949	2472.524645
446.837837	2477.170068
447.212664	2473.507670
447.587431	2475.264512
447.962139	2473.197639
448.336786	2476.156796
448.711374	2472.963225
449.085901	2476.292907
449.460369	2475.677886
449.834776	2474.750314
450.209124	2474.871302
450.583412	2475.191415
450.957640	2477.013792
451.331808	2475.498925
451.705917	2473.119501
452.079965	2475.231744
452.453954	2478.198463
452.827883	2474.984728
453.201752	2475.998000
453.575562	2476.585294
453.949311	2472.685962
454.323001	2477.439770
454.696632	2473.096816
455.070202	2477.270891
455.443713	2474.644450
455.817164	2476.842393
456.190556	2478.881540
456.563888	2475.471199
456.937160	2476.897846
457.310373	2476.008082
457.683526	2475.871971
458.056619	2475.592187
458.429653	2475.922382
458.802628	2476.953298
459.175542	2475.856847
459.548398	2479.005048
459.921194	2476.088740
460.293930	2477.170068
460.666607	2476.560088
461.039224	2475.377938
461.411782	2475.181333
461.784280	2476.925572
462.156719	2478.226190
462.529099	2478.548823
462.901419	2476.053452
463.273680	2474.790643
463.645882	2474.639409
464.018024	2475.408185
464.390106	2471.569346
464.762130	2478.468165
465.134094	2477.485140
465.505999	2477.585963
465.877845	2475.511528
466.249631	2479.884729
466.621358	2477.868268
466.993026	2477.129739
467.364634	2482.261633
467.736184	2481.565954
468.107674	2478.460603
468.479105	2480.023361
468.850477	2479.975470
469.221790	2480.156952
469.593043	2477.739718
469.964238	2477.598566
470.335373	2479.345326
470.706449	2479.158803
471.077467	2477.631333
471.448425	2477.361632
471.819324	2480.189719
472.190164	2481.886067
472.560945	2480.983701
472.931667	2475.980356
473.302330	2477.767445
473.672934	2480.477065
474.043479	2477.860706
474.413965	2480.872795
474.784393	2480.035964
475.154761	2480.303145
475.525070	2478.460603
475.895321	2480.078814
476.265513	2480.585450
476.635645	2478.286683
477.005719	2479.705768
477.375734	2480.119143
477.745691	2481.623927
478.115588	2482.256592
478.485427	2479.345326
478.855207	2482.523773
479.224928	2478.011941
479.594591	2481.762559
479.964194	2480.255254
480.333739	2478.211066
480.703226	2480.174596
481.072653	2479.950264
481.442022	2477.913638
481.811333	2480.593011
482.180584	2475.236785
482.549777	2480.882878
482.918912	2476.096302
483.287988	2481.611324
483.657005	2479.166365
484.025964	2478.601756
484.394864	2481.376911
484.763706	2482.075111
485.132489	2482.259113
485.501213	2480.325830
485.869879	2479.920017
486.238487	2480.383803
486.607036	2481.898670
486.975527	2481.938999
487.343959	2478.851293
487.712333	2482.478403
488.080648	2480.434215
488.448905	2480.532517
488.817104	2481.674339
489.185244	2482.024699
489.553326	2480.832466
489.921350	2481.336582
490.289315	2481.931438
490.657222	2482.652323
491.025070	2480.736684
491.392861	2479.998155
491.760593	2482.397744
492.128267	2481.336582
492.495883	2482.322127
492.863440	2480.731643
493.230939	2478.304328
493.598380	2481.273567
493.965763	2482.054946
494.333088	2479.461272
494.700354	2483.211891
495.067563	2483.466469
495.434713	2481.316417
495.801805	2480.691314
496.168839	2483.597539
496.535815	2483.234576
496.902733	2481.238279
497.269593	2482.009576
497.636395	2479.967908
498.003139	2480.923207
498.369825	2483.658033
498.736453	2482.506129
499.103023	2481.689462
499.469535	2481.384472
499.835989	2480.235089
500.202385	2478.780717
500.568723	2479.814153
500.935003	2479.100830
501.301226	2477.921200
501.667390	2482.859010
502.033497	2483.360605
502.399546	2483.390852
502.765537	2479.700727
503.131470	2483.690800
503.497345	2482.133084
503.863163	2483.897488
504.228923	2481.104688
504.594625	2483.562251
504.960269	2478.838690
505.325856	2483.080821
505.691385	2480.630820
506.056856	2482.795996
506.422270	2482.077631
506.787625	2485.165338
507.152924	2482.092755
507.518164	2485.379587
507.883347	2482.327168
508.248472	2483.635348
508.613540	2483.552169
508.978550	2482.622076
509.343503	2480.799699
509.708398	2484.946048
510.073236	2482.440594
510.438016	2481.714668
510.802738	2485.195585
511.167403	2483.295070
511.532010	2483.718527
511.896561	2484.459576
512.261053	2483.216932
512.625488	2483.078300
512.989866	2480.547641
513.354186	2484.820019
513.718449	2485.397231
514.082655	2480.489668
514.446803	2483.479072
514.810894	2482.065028
515.174927	2484.389000
515.538904	2485.525780
515.902822	2483.574854
516.266684	2482.274236
516.630488	2485.619042
516.994235	2483.642909
517.357925	2482.831284
517.721558	2485.089721
518.085133	2484.704072
518.448651	2482.916983
518.812112	2481.384473
519.175516	2482.916983
519.538863	2477.785089
519.902152	2483.055615
520.265385	2482.574185
520.628560	2485.238435
520.991678	2484.310862
521.354739	2481.578557
521.717743	2483.368167
522.080690	2483.385811
522.443580	2484.573002
522.806413	2482.314565
523.169189	2483.209370
523.531908	2484.179792
523.894569	2486.153404
524.257174	2484.499906
524.619722	2486.062663
524.982213	2486.627272
525.344647	2486.319762
525.707025	2486.806233
526.069345	2484.086531
526.431608	2481.724750
526.793815	2486.443270
527.155964	2482.296921
527.518057	2483.589977
527.880093	2484.409165
528.242072	2482.178454
528.603995	2485.054433
528.965860	2485.838332
529.327669	2484.429329
529.689421	2484.880513
530.051117	2485.916470
530.412755	2484.946048
530.774337	2484.739360
531.135862	2485.556027
531.497331	2486.896974
531.858743	2484.106696
532.220098	2483.519401
532.581396	2483.491675
532.942638	2486.392859
533.303824	2483.796665
533.664953	2486.123157
534.026025	2482.753146
534.387040	2484.121819
534.747999	2484.825060
535.108902	2485.309011
535.469748	2484.971253
535.830537	2484.837663
536.191270	2485.361943
536.551947	2484.545276
536.912567	2478.657208
537.273131	2482.175934
537.633638	2484.852786
537.994089	2483.874802
538.354483	2486.143322
538.714821	2484.900677
539.075103	2486.460914
539.435328	2483.831953
539.795497	2486.072746
540.155609	2484.446973
540.515665	2488.800010
540.875665	2486.269351
541.235609	2485.939155
541.595496	2487.043168
541.955328	2485.243476
542.315102	2484.389000
542.674821	2486.682725
543.034483	2485.545945
543.394090	2486.954947
543.753640	2486.924701
544.113134	2487.161635
544.472571	2486.123157
544.831953	2487.290184
545.191278	2487.169197
545.550548	2487.093579
545.909761	2485.772797
546.268918	2484.114257
546.628019	2486.748260
546.987064	2483.922693
547.346053	2484.610811
547.704986	2485.518219
548.063863	2487.358240
548.422684	2485.750112
548.781449	2484.814978
549.140158	2484.744402
549.498811	2487.151553
549.857408	2485.538383
550.215949	2485.588795
550.574434	2482.584267
550.932864	2487.305308
551.291237	2484.986377
551.649555	2487.743888
552.007817	2487.464104
552.366022	2488.056440
552.724173	2486.264309
553.082267	2489.233549
553.440305	2487.075935
553.798288	2485.671974
554.156215	2486.972592
554.514086	2483.199288
554.871902	2482.415388
555.229661	2483.330358
555.587365	2483.957982
555.945014	2487.191882
556.302606	2486.110554
556.660143	2484.232724
557.017625	2485.568630
557.375050	2484.547797
557.732421	2485.634165
558.089735	2486.269351
558.446994	2485.787920
558.804197	2485.961840
559.161345	2484.378918
559.518437	2483.325317
559.875474	2486.959989
560.232455	2486.932262
560.589381	2484.963692
560.946251	2484.875472
561.303065	2485.356902
561.659825	2483.738691
562.016528	2485.215749
562.373177	2485.636686
562.729770	2485.828250
563.086307	2485.729947
563.442789	2487.937973
563.799216	2486.365133
564.155587	2485.029227
564.511904	2486.188692
564.868164	2482.783393
565.224370	2485.803044
565.580520	2486.791110
565.936615	2487.103662
566.292654	2486.806233
566.648638	2483.635348
567.004567	2487.547283
567.360441	2485.261120
567.716260	2486.523929
568.072023	2485.608959
568.427732	2485.677015
568.783385	2488.638693
569.138982	2489.309166
569.494525	2485.576192
569.850013	2485.861017
570.205445	2488.084166
570.560823	2487.262458
570.916145	2485.303970
571.271412	2488.200112
571.626625	2483.637868
571.981782	2484.305821
572.336884	2483.015286
572.691931	2481.283649
573.046923	2483.239617
573.401860	2482.730461
573.756743	2486.987715
574.111570	2484.295739
574.466342	2486.145842
574.821059	2488.515185
575.175722	2485.119967
575.530330	2486.246665
575.884882	2486.728096
576.239380	2485.684577
576.593823	2486.284474
576.948211	2487.784217
577.302544	2489.483086
577.656823	2486.806233
578.011047	2484.845225
578.365216	2486.334886
578.719330	2487.580051
579.073389	2486.604587
579.427394	2488.268168
579.781344	2486.130719
580.135239	2488.482417
580.489080	2488.852942
580.842866	2486.365132
581.196597	2487.484269
581.550273	2483.426140
581.903895	2487.544763
582.257463	2487.509474
582.610975	2487.814464
582.964434	2484.373877
583.317837	2486.382777
583.671186	2487.751450
584.024481	2484.305821
584.377721	2486.027375
584.730906	2484.353712
585.084037	2486.642396
585.437113	2484.872951
585.790135	2489.301605
586.143103	2486.965030
586.496016	2486.712972
586.848874	2483.534525
587.201679	2488.205154
587.554428	2485.886223
587.907124	2487.680874
588.259765	2486.337406
588.612352	2484.867910
588.964884	2486.745740
589.317362	2486.808754
589.669786	2488.157263
590.022155	2484.673825
590.374470	2484.706593
590.726731	2480.610655
591.078937	2482.075111
591.431090	2486.208857
591.783188	2485.709783
592.135232	2485.573671
592.487222	2487.547283
592.839157	2485.901346
593.191038	2484.951089
593.542866	2486.244145
593.894639	2487.068373
594.246358	2486.937303
594.598022	2486.660040
594.949633	2486.448312
595.301190	2485.354381
595.652692	2487.312869
596.004141	2483.970584
596.355535	2485.485451
596.706876	2487.454022
597.058162	2487.635503
597.409395	2487.504433
597.760573	2489.730103
598.111698	2484.089052
598.462768	2486.261789
598.813785	2485.356902
599.164748	2483.690800
599.515657	2485.457725
599.866511	2488.000987
600.217312	2485.528301
600.568060	2486.564258
600.918753	2487.499392
601.269392	2488.321100
601.619978	2486.531491
601.970510	2483.826912
602.320988	2486.249186
602.671412	2487.396048
603.021783	2484.204998
603.372100	2485.271202
603.722363	2485.614001
604.072572	2487.350678
604.422728	2488.459732
604.772830	2485.011583
605.122878	2487.993425
605.472872	2484.550317
605.822813	2486.990236
606.172701	2486.229021
606.522534	2484.741881
606.872314	2486.997797
607.222041	2486.995277
607.571714	2484.751963
607.921333	2483.431181
608.270899	2485.800523
608.620411	2482.301962
608.969870	2486.065184
609.319276	2485.114926
609.668627	2486.339927
610.017926	2482.440594
610.367171	2486.360091
610.716362	2487.547283
611.065500	2484.658702
611.414585	2486.586943
611.763616	2485.787920
612.112594	2486.072746
612.461518	2487.252376
612.810389	2485.205667
613.159207	2484.520070
613.507971	2485.785400
613.856682	2485.354381
614.205340	2487.164155
614.553945	2488.270689
614.902496	2484.411685
615.250994	2485.954278
615.599439	2484.343630
615.947830	2487.406131
616.296169	2484.194916
616.644454	2486.037458
616.992686	2484.935965
617.340864	2485.021665
617.688990	2486.271871
618.037063	2486.564258
618.385082	2486.304639
618.733048	2488.071563
619.080961	2484.724237
619.428821	2485.818167
619.776628	2489.122644
620.124382	2485.041830
620.472083	2485.140132
620.819731	2486.196254
621.167326	2485.303970
621.514868	2487.207005
621.862357	2487.822026
622.209793	2486.276912
622.557176	2486.710452
622.904506	2485.309011
623.251783	2485.339258
623.599007	2482.924545
623.946179	2485.702221
624.293297	2485.480410
624.640363	2484.295739
624.987376	2484.391521
625.334336	2483.532004
625.681243	2483.050574
626.028097	2480.275419
626.374899	2485.031747
626.721647	2484.210039
627.068343	2489.495689
627.414987	2484.217601
627.761577	2485.571151
628.108115	2487.080976
628.454600	2484.746922
628.801032	2487.149032
629.147412	2484.966212
629.493739	2485.432519
629.840014	2484.235245
630.186236	2486.153404
630.532405	2485.064515
630.878521	2487.834629
631.224585	2484.930924
631.570597	2483.600060
631.916556	2487.683394
632.262462	2482.702734
632.608316	2489.392345
632.954117	2486.576861
633.299866	2487.239773
633.645562	2488.058960
633.991206	2486.551655
634.336797	2484.814978
634.682336	2486.912098
635.027823	2484.681387
635.373257	2484.094093
635.718639	2486.478558
636.063968	2490.541728
636.409245	2486.811275
636.754470	2486.894454
637.099642	2485.329175
637.444762	2484.593167
637.789829	2485.150214
638.134845	2483.448825
638.479808	2486.614670
638.824719	2486.874289
639.169577	2484.555358
639.514383	2485.848414
639.859137	2485.480410
640.203839	2486.246665
640.548489	2486.591984
640.893086	2484.325986
641.237632	2485.377066
641.582125	2486.796151
641.926566	2486.251707
642.270955	2485.876141
642.615292	2480.640902
642.959576	2484.073928
643.303809	2482.667446
643.647990	2483.481593
643.992118	2485.636686
644.336195	2484.026037
644.680219	2487.511995
645.024192	2484.845225
645.368112	2486.861686
645.711981	2487.179279
646.055797	2485.238435
646.399562	2485.722385
646.743274	2485.392190
647.086935	2484.663743
647.430544	2484.842704
647.774101	2485.412354
648.117606	2487.020483
648.461059	2485.470328
648.804460	2485.160297
649.147810	2488.588281
649.491108	2483.882364
649.834354	2485.798003
650.177548	2487.068373
650.520690	2486.191213
650.863781	2486.612149
651.206820	2485.578713
651.549807	2485.177941
651.892742	2485.220791
652.235626	2485.644247
652.578458	2485.283805
652.921238	2484.777169
653.263967	2486.508805
653.606644	2484.895636
653.949269	2486.987715
654.291843	2483.597539
654.634365	2485.621562
654.976836	2483.753815
655.319255	2483.983187
655.661622	2484.479741
656.003938	2485.679536
656.346203	2484.845225
656.688416	2484.184833
657.030577	2487.108703
657.372687	2483.905049
657.714746	2484.373877
658.056753	2485.324134
658.398708	2486.712972
658.740612	2486.450832
659.082465	2485.067035
659.424266	2484.598208
659.766016	2483.539566
660.107715	2483.292549
660.449362	2482.793475
660.790958	2486.854124
661.132503	2483.685759
661.473996	2486.314721
661.815438	2485.760194
662.156829	2485.621562
662.498168	2486.254227
662.839456	2484.797334
663.180693	2485.523260
663.521879	2485.072077
663.863013	2485.067035
664.204097	2484.847745
664.545129	2485.427478
664.886110	2487.277581
665.227040	2483.763897
665.567918	2487.683394
665.908746	2486.236583
666.249522	2485.182982
666.590248	2486.271871
666.930922	2486.082828
667.271545	2485.417396
667.612118	2485.767756
667.952639	2482.163331
668.293109	2486.234062
668.633528	2486.125678
668.973896	2484.434371
669.314213	2483.605101
669.654480	2483.605101
669.994695	2485.319093
670.334859	2485.324134
670.674973	2486.314721
671.015035	2483.128712
671.355047	2483.214411
671.695008	2486.438229
672.034918	2486.062663
672.374777	2483.824391
672.714585	2484.008393
673.054342	2485.669453
673.394049	2485.956799
673.733705	2486.934783
674.073310	2484.119298
674.412864	2486.733137
674.752368	2484.086531
675.091820	2483.630307
675.431223	2483.995790
675.770574	2485.883702
676.109875	2482.370018
676.449125	2483.960502
676.788324	2481.051756
677.127473	2484.421768
677.466571	2479.312558
677.805619	2486.876810
678.144616	2484.847745
678.483562	2485.114926
678.822458	2485.931593
679.161303	2485.059474
679.500098	2487.300267
679.838842	2485.616521
680.177535	2483.136273
680.516179	2483.342961
680.854771	2486.508805
681.193314	2484.903198
681.531805	2484.202478
681.870247	2483.917652
682.208638	2484.537714
682.546978	2484.285657
682.885268	2483.287508
683.223508	2485.281284
683.561697	2484.784731
683.899836	2485.354381
684.237925	2486.264309
684.575963	2486.443270
684.913951	2483.267343
685.251889	2487.907726
685.589776	2486.022334
685.927614	2485.949237
686.265401	2483.723568
686.603137	2482.601911
686.940824	2484.192395
687.278460	2486.158445
687.616046	2484.701552
687.953582	2484.053763
688.291068	2484.320945
688.628504	2481.434884
688.965889	2484.086531
689.303224	2485.823208
689.640510	2484.399082
689.977745	2486.899495
690.314930	2484.527632
690.652065	2483.355564
690.989150	2485.077118
691.326185	2484.688949
691.663170	2485.702221
692.000105	2485.450163
692.336990	2483.322796
692.673825	2484.472179
693.010610	2483.915132
693.347345	2482.642240
693.684030	2480.620738
694.020665	2481.596201
694.357251	2477.326344
694.693786	2483.781541
695.030272	2488.285812
695.366707	2484.071407
695.703093	2484.630976
696.039429	2484.275574
696.375716	2485.689618
696.711952	2483.862200
697.048139	2482.531335
697.384276	2485.561068
697.720363	2484.446973
698.056400	2485.172900
698.392388	2481.364308
698.728326	2485.994608
699.064214	2484.111737
699.400053	2483.111068
699.735842	2486.045019
700.071581	2485.097282
700.407270	2483.995790
700.742910	2486.750781
701.078501	2485.747591
701.414042	2484.830101
701.749533	2484.903198
702.084974	2482.072590
702.420366	2486.614670
702.755709	2483.625265
703.091002	2485.644247
703.426246	2484.288177
703.761440	2482.995121
704.096584	2486.435709
704.431679	2482.974957
704.766725	2486.339927
705.101721	2484.320945
705.436668	2483.216932
705.771565	2486.360091
706.106413	2484.426809
706.441212	2483.708444
706.775961	2486.506285
707.110661	2484.956130
707.445311	2485.487972
707.779913	2483.315234
708.114465	2485.707262
708.448967	2484.104175
708.783421	2485.830770
709.117825	2482.856489
709.452180	2486.070225
709.786485	2485.167858
710.120742	2479.796509
710.454949	2479.836838
710.789107	2481.918835
711.123216	2477.026395
711.457275	2482.032261
711.791286	2485.104844
712.125247	2483.048053
712.459159	2479.746098
712.793023	2484.275574
713.126837	2484.401603
713.460602	2483.595018
713.794318	2485.982005
714.127985	2484.482262
714.461602	2486.982674
714.795171	2485.823208
715.128691	2481.497898
715.462162	2485.792962
715.795584	2483.698362
716.128957	2484.144504
716.462281	2483.461428
716.795556	2483.569813
717.128782	2486.274392
717.461960	2486.241624
717.795088	2483.794144
718.128167	2484.525111
718.461198	2482.932107
718.794180	2484.777169
719.127113	2481.815491
719.459997	2486.168528
719.792833	2484.706593
720.125619	2485.084679
720.458357	2482.957313
720.791046	2485.936634
721.123686	2481.308855
721.456278	2483.620224
721.788821	2485.021665
722.121315	2485.331696
722.453761	2483.932776
722.786158	2482.778352
723.118506	2484.787251
723.450805	2485.011583
723.783056	2483.552169
724.115259	2486.284474
724.447412	2482.448156
724.779518	2483.234576
725.111574	2486.072746
725.443582	2486.710452
725.775542	2486.571820
726.107453	2485.792962
726.439315	2481.329020
726.771129	2490.088025
727.102895	2478.614358
727.434612	2480.189719
727.766281	2480.620738
728.097901	2485.021665
728.429473	2482.052425
728.760996	2483.557210
729.092471	2483.567292
729.423897	2484.013434
729.755276	2480.696355
730.086606	2481.558392
730.417887	2483.786582
730.749120	2483.826912
731.080305	2482.916983
731.411442	2482.511170
731.742530	2482.533856
732.073570	2483.670636
732.404562	2485.782879
732.735506	2484.993939
733.066401	2481.709627
733.397249	2483.411016
733.728048	2482.584267
734.058798	2484.973774
734.389501	2483.423619
734.720156	2484.567961
735.050762	2482.304483
735.381320	2485.122488
735.711831	2484.867910
736.042293	2482.654843
736.372707	2483.254741
736.703073	2483.584936
737.033391	2481.349184
737.363661	2482.100316
737.693883	2483.519401
738.024056	2485.621562
738.354182	2480.885398
738.684260	2482.445635
739.014290	2484.096613
739.344272	2485.225832
739.674207	2483.489154
740.004093	2484.542755
740.333931	2483.221973
740.663722	2483.940338
740.993464	2482.919504
741.323159	2483.466469
741.652806	2484.585605
741.982405	2483.713486
742.311956	2482.846407
742.641460	2485.213229
742.970915	2481.510501
743.300323	2481.812971
743.629683	2478.909266
743.958996	2481.641571
744.288260	2476.764255
744.617477	2486.171048
744.946647	2483.927735
745.275768	2482.518732
745.604842	2483.872282
745.933869	2483.060656
746.262847	2484.303301
746.591778	2484.502426
746.920662	2481.850779
747.249498	2482.327168
747.578286	2484.923363
747.907027	2480.945892
748.235720	2484.391521
748.564365	2485.245996
748.892963	2483.836994
749.221514	2482.332209
749.550017	2483.932776
749.878473	2482.312045
750.206881	2479.920017
750.535242	2484.804895
750.863555	2482.619555
751.191821	2483.100985
751.520039	2482.715337
751.848210	2481.339102
752.176334	2481.802888
752.504411	2483.960502
752.832440	2484.552838
753.160421	2481.477734
753.488356	2487.033085
753.816243	2481.689462
754.144082	2484.472179
754.471875	2483.428660
754.799620	2482.962354
755.127318	2481.076962
755.454969	2482.054946
755.782572	2483.191726
756.110129	2481.762559
756.437638	2482.664926
756.765100	2481.253402
757.092515	2484.560399
757.419882	2481.006386
757.747203	2485.384628
758.074477	2481.855820
758.401703	2483.937817
758.728882	2482.377580
759.056014	2481.502940
759.383099	2482.594349
759.710138	2480.308186
760.037129	2477.144862
760.364073	2478.929431
760.690970	2478.541262
761.017820	2480.635861
761.344623	2482.415388
761.671379	2481.598722
761.998088	2485.533342
762.324751	2482.155769
762.651366	2484.247848
762.977935	2483.738691
763.304456	2482.838845
763.630931	2483.045533
763.957359	2482.962354
764.283740	2482.611993
764.610074	2481.921355
764.936362	2482.604432
765.262602	2480.451859
765.588796	2484.852786
765.914943	2483.980667
766.241044	2482.334730
766.567097	2482.664926
766.893104	2482.266674
767.219064	2482.947230
767.544978	2481.089565
767.870845	2479.741056
768.196665	2482.191057
768.522438	2480.880357
768.848165	2481.757518
769.173846	2483.164000
769.499479	2481.258444
769.825066	2481.182826
770.150607	2480.454380
770.476101	2482.024699
770.801548	2481.056798
771.126949	2482.632158
771.452303	2485.888743
771.777611	2479.466313
772.102872	2482.546458
772.428087	2481.213073
772.753256	2484.293218
773.078378	2484.164669
773.403453	2482.871613
773.728482	2482.057467
774.053465	2481.911273
774.378401	2482.836325
774.703291	2481.686942
775.028135	2483.307673
775.352932	2481.064359
775.677683	2484.121819
776.002388	2482.228866
776.327046	2477.021354
776.651658	2482.128043
776.976224	2476.144193
777.300743	2482.332209
777.625216	2480.464462
777.949643	2481.840697
778.274024	2483.932776
778.598359	2484.394041
778.922647	2482.765749
779.246889	2484.230204
779.571086	2483.164000
779.895236	2481.797847
780.219339	2481.447487
780.543397	2483.836994
780.867409	2482.453197
781.191374	2479.138638
781.515294	2483.660553
781.839167	2483.224494
782.162995	2482.309524
782.486776	2483.784062
782.810511	2483.615183
783.134201	2482.692652
783.457844	2482.511170
783.781441	2482.155769
784.104993	2483.080821
784.428498	2483.315234
784.751958	2479.914976
785.075372	2480.469503
785.398739	2480.708958
785.722061	2480.119143
786.045337	2483.179123
786.368568	2482.380100
786.691752	2482.112919
787.014891	2481.754997
787.337983	2479.320120
787.661030	2482.770790
787.984031	2479.920017
788.306987	2479.521766
788.629897	2480.656026
788.952760	2481.654174
789.275579	2483.610142
789.598351	2481.676859
789.921078	2480.401448
790.243759	2482.425471
790.566395	2480.724081
790.888984	2480.446818
791.211529	2483.716006
791.534027	2482.387662
791.856480	2480.890439
792.178888	2480.414050
792.501249	2476.623103
792.823566	2478.415233
793.145836	2477.487661
793.468062	2480.376242
793.790241	2481.132415
794.112375	2484.157107
794.434464	2479.118474
794.756507	2482.962354
795.078505	2483.111068
795.400457	2480.650985
795.722364	2484.429329
796.044226	2482.254072
796.366042	2483.070738
796.687812	2482.191057
797.009538	2481.082003
797.331218	2481.775162
797.652852	2482.576705
797.974442	2482.168372
798.295986	2479.884729
798.617484	2482.370018
798.938938	2481.825573
799.260346	2482.929586
799.581709	2480.300624
799.903026	2483.887405
800.224299	2479.131077
800.545526	2482.201139
800.866708	2481.931438
801.187845	2482.062508
801.508936	2479.932620
801.829983	2482.732981
802.150984	2482.513691
802.471940	2481.442446
802.792851	2483.100985
803.113717	2482.304483
803.434538	2483.408496
803.755314	2481.523104
804.076045	2483.940337
804.396731	2481.724750
804.717372	2480.497229
805.037967	2482.745584
805.358518	2480.222487
805.679024	2481.618886
805.999485	2483.826912
806.319901	2479.204173
806.640272	2479.897332
806.960598	2481.276088
807.280879	2482.120481
807.601115	2482.143166
807.921306	2481.860862
808.241453	2478.949595
808.561554	2475.922382
808.881611	2478.856334
809.201623	2475.627475
809.521590	2481.051756
809.841513	2481.155100
810.161390	2482.100316
810.481223	2480.192240
810.801011	2480.313227
811.120755	2479.796509
811.440453	2479.052939
811.760107	2477.583442
812.079716	2479.436067
812.399281	2480.000676
812.718801	2481.359267
813.038276	2481.223156
813.357707	2481.573516
813.677093	2482.251551
813.996434	2482.793475
814.315731	2480.466982
814.634983	2481.334061
814.954191	2480.081334
815.273354	2484.033599
815.592473	2480.565285
815.911547	2480.656026
816.230577	2483.801706
816.549562	2481.863382
816.868502	2482.823722
817.187399	2482.556541
817.506250	2482.075111
817.825058	2480.156952
818.143821	2480.857672
818.462539	2480.333392
818.781213	2480.477065
819.099843	2483.058136
819.418429	2482.410347
819.736970	2481.074442
820.055466	2480.603094
820.373919	2482.213742
820.692327	2481.114771
821.010691	2481.737353
821.329011	2482.145687
821.647286	2481.563433
821.965517	2481.966726
822.283704	2480.855151
822.601847	2483.048053
822.919945	2480.141828
823.237999	2481.104688
823.556010	2480.608135
823.873976	2477.878350
824.191897	2478.327013
824.509775	2477.374235
824.827609	2477.848103
825.145398	2476.844913
825.463144	2482.009576
825.780845	2478.495891
826.098502	2483.143835
826.416116	2482.349853
826.733685	2479.796509
827.051210	2480.973618
827.368692	2482.672487
827.686129	2480.116622
828.003522	2484.225163
828.320872	2479.786427
828.638177	2479.052939
828.955439	2480.179637
829.272656	2478.881540
829.589830	2479.645274
829.906960	2480.056128
830.224046	2481.132415
830.541088	2482.556541
830.858086	2480.136787
831.175041	2480.409009
831.491952	2481.404637
831.808819	2479.541931
832.125642	2480.126705
832.442421	2479.312558
832.759157	2481.500419
833.075849	2481.434884
833.392497	2481.903711
833.709101	2483.862200
834.025662	2480.643423
834.342179	2479.743577
834.658653	2481.429843
834.975083	2477.243165
835.291469	2483.940338
835.607811	2481.230717
835.924110	2481.223156
836.240366	2482.377580
836.556578	2482.659884
836.872746	2483.259782
837.188871	2480.270378
837.504952	2479.695686
837.820990	2482.395224
838.136984	2480.900522
838.452935	2479.877168
838.768842	2481.381952
839.084706	2481.392034
839.400526	2481.689462
839.716303	2481.954123
840.032037	2476.035808
840.347727	2477.550675
840.663373	2476.862558
840.978977	2478.382465
841.294537	2480.376242
841.610054	2480.416571
841.925527	2478.223669
842.240957	2481.006386
842.556344	2479.322641
842.871687	2480.093937
843.186987	2478.639564
843.502244	2480.507312
843.817458	2479.864565
844.132629	2481.366828
844.447756	2478.664770
844.762840	2481.208032
845.077881	2478.967239
845.392879	2480.721561
845.707833	2483.035450
846.022745	2479.998155
846.337613	2479.312558
846.652438	2479.080665
846.967221	2480.845069
847.281960	2478.674852
847.596656	2477.807774
847.911309	2479.282311
848.225919	2480.023361
848.540485	2481.744915
848.855009	2479.362970
849.169490	2481.608804
849.483928	2477.706951
849.798323	2479.728453
850.112675	2480.230048
850.426984	2479.284832
850.741251	2480.209884
851.055474	2481.548310
851.369654	2477.961529
851.683792	2479.272229
851.997887	2481.170223
852.311938	2479.567137
852.625947	2481.626448
852.939914	2480.265336
853.253837	2483.098465
853.567718	2478.022023
853.881555	2480.202322
854.195350	2479.710809
854.509103	2476.580253
854.822812	2480.328351
855.136479	2481.686942
855.450103	2477.485140
855.763685	2478.337095
856.077224	2476.459265
856.390720	2476.759214
856.704173	2474.372228
857.017584	2480.502271
857.330953	2481.558392
857.644278	2482.145687
857.957561	2481.308855
858.270802	2481.444966
858.584000	2479.935141
858.897155	2479.456231
859.210268	2480.351036
859.523339	2480.575367
859.836367	2479.488999
860.149352	2479.806591
860.462295	2479.577219
860.775195	2481.616366
861.088054	2477.822897
861.400869	2482.773310
861.713642	2478.881540
862.026373	2481.941520
862.339062	2478.687455
862.651708	2478.614358
862.964312	2478.831128
863.276873	2481.316417
863.589392	2479.569657
863.901869	2479.471355
864.214303	2481.366828
864.526696	2480.116622
864.839045	2480.378762
865.151353	2481.591160
865.463619	2479.131077
865.775842	2481.747436
866.088023	2480.025882
866.400162	2479.733495
866.712258	2479.977991
867.024313	2480.948413
867.336325	2479.879688
867.648296	2479.758700
867.960224	2479.468834
868.272110	2480.610655
868.583954	2479.524287
868.895755	2480.282980
869.207515	2478.440439
869.519233	2480.867754
869.830909	2478.463124
870.142542	2481.308855
870.454134	2478.440439
870.765684	2479.531848
871.077191	2481.250882
871.388657	2478.722743
871.700081	2477.152424
872.011463	2475.718216
872.322803	2475.572022
872.634101	2481.984370
872.945357	2478.117805
873.256571	2479.756180
873.567744	2481.694503
873.878874	2479.602425
874.189963	2481.593680
874.501010	2481.560913
874.812015	2476.847434
875.122979	2479.950264
875.433900	2477.855665
875.744780	2479.821715
876.055618	2478.682414
876.366415	2479.952785
876.677169	2479.052939
876.987882	2478.039667
877.298554	2478.843731
877.609183	2476.799543
877.919771	2481.318937
878.230317	2477.389358
878.540822	2483.705924
878.851285	2479.756180
879.161707	2479.042857
879.472087	2481.586119
879.782425	2475.942547
880.092722	2480.247692
880.402977	2476.968422
880.713191	2480.335913
881.023363	2478.536221
881.333494	2482.100316
881.643583	2477.180150
881.953631	2479.869606
882.263637	2480.141828
882.573602	2477.711992
882.883526	2479.796509
883.193408	2477.727115
883.503248	2478.652167
883.813048	2477.522949
884.122806	2476.779378
884.432522	2479.597383
884.742197	2480.235089
885.051831	2479.488999
885.361424	2477.177630
885.670975	2475.932465
885.980485	2478.543782
886.289954	2479.146200
886.599382	2477.255767
886.908768	2477.636375
887.218113	2475.251909
887.527417	2477.603607
887.836680	2475.002372
888.145901	2477.893473
888.455082	2480.192240
888.764221	2481.495378
889.073319	2480.366159
889.382376	2476.030767
889.691392	2479.589822
890.000366	2478.695017
890.309300	2478.006899
890.618193	2478.377424
890.927044	2480.252733
891.235855	2478.107722
891.544625	2478.221148
891.853353	2479.247023
892.162041	2476.250057
892.470687	2478.269039
892.779293	2477.936323
893.087858	2478.193422
893.396381	2480.366159
893.704864	2477.883391
894.013306	2476.670994
894.321707	2476.043370
894.630068	2477.679224
894.938387	2481.089565
895.246665	2478.460603
895.554903	2478.906745
895.863100	2477.270891
896.171256	2479.257106
896.479371	2477.530510
896.787446	2479.882209
897.095480	2478.866416
897.403473	2477.623772
897.711425	2480.993783
898.019336	2478.528659
898.327207	2479.904894
898.635038	2479.423464
898.942827	2476.469347
899.250576	2478.127887
899.558284	2478.241313
899.865952	2479.206694
900.173579	2478.105202
900.481165	2481.238279
900.788711	2477.071765
901.096216	2475.476240
901.403681	2477.729636
901.711105	2480.240131
902.018489	2476.993627
902.325832	2474.745273
902.633135	2473.061528
902.940397	2479.294914
903.247619	2473.719398
903.554800	2476.366004
903.861941	2475.874491
904.169041	2480.603094
904.476101	2478.808443
904.783121	2477.646457
905.090100	2479.065542
905.397039	2480.169554
905.703938	2478.369862
906.010796	2478.314410
906.317614	2480.325830
906.624391	2478.735346
906.931129	2476.212249
907.237826	2478.505974
907.544483	2476.600418
907.851099	2480.325830
908.157675	2478.175778
908.464211	2473.732001
908.770707	2479.168885
909.077163	2476.270222
909.383578	2478.110243
909.689954	2476.519759
909.996289	2478.586632
910.302584	2477.890953
910.608839	2479.368011
910.915054	2477.477578
911.221229	2477.351549
911.527363	2478.737867
911.833458	2478.357260
912.139513	2479.768783
912.445527	2478.521097
912.751502	2478.639564
913.057436	2477.273412
913.363331	2475.365335
913.669186	2480.313227
913.975000	2477.792650
914.280775	2478.208546
914.586510	2479.471355
914.892205	2475.017495
915.197859	2477.096971
915.503475	2478.117805
915.809050	2477.969091
916.114585	2478.052270
916.420081	2475.849286
916.725536	2479.120994
917.030952	2476.842393
917.336328	2474.924234
917.641665	2476.250057
917.946961	2473.119501
918.252218	2477.086889
918.557435	2473.979018
918.862612	2477.684266
919.167750	2478.795840
919.472848	2480.635861
919.777906	2477.742239
920.082925	2477.606128
920.387904	2475.640078
920.692843	2475.927423
920.997743	2478.780717
921.302603	2480.212404
921.607423	2478.838690
921.912204	2478.959678
922.216946	2478.939513
922.521647	2480.416571
922.826310	2476.005561
923.130932	2479.052939
923.435516	2480.053608
923.740059	2477.480099
924.044564	2478.697537
924.349028	2478.747949
924.653454	2476.953298
924.957840	2479.678042
925.262186	2477.795171
925.566493	2476.963381
925.870761	2478.836169
926.174989	2477.951447
926.479178	2476.096302
926.783328	2478.266519
927.087438	2476.103864
927.391509	2477.127218
927.695541	2474.823411
927.999533	2479.884729
928.303486	2476.217290
928.607400	2477.890953
928.911275	2477.432208
929.215110	2478.327013
929.518906	2476.789461
929.822663	2479.413381
930.126381	2477.394399
930.430060	2474.483133
930.733699	2477.482619
931.037299	2477.117136
931.340861	2477.326344
931.644383	2477.437249
931.947866	2475.569502
932.251309	2479.662918
932.554714	2475.408185
932.858080	2478.372383
933.161407	2472.675879
933.464694	2476.073617
933.767943	2475.526652
934.071153	2475.198977
934.374323	2478.957157
934.677455	2476.512197
934.980548	2478.137969
935.283602	2477.623772
935.586617	2476.040849
935.889593	2476.645788
936.192530	2477.023874
936.495428	2478.367342
936.798287	2477.752321
937.101108	2478.117805
937.403890	2475.332567
937.706632	2476.915490
938.009336	2478.256437
938.312002	2479.234420
938.614628	2477.308700
938.917216	2479.776344
939.219765	2476.746611
939.522275	2478.049749
939.824747	2476.577732
940.127179	2478.679893
940.429573	2477.432208
940.731929	2476.681076
941.034246	2476.648308
941.336524	2475.753504
941.638763	2478.180819
941.940964	2474.609162
942.243126	2476.706282
942.545250	2480.303145
942.847335	2477.570840
943.149381	2475.637557
943.451389	2478.586632
943.753359	2478.069914
944.055290	2478.790799
944.357182	2477.883391
944.659036	2476.091261
944.960851	2479.037815
945.262628	2475.987917
945.564367	2479.282311
945.866067	2476.993628
946.167729	2477.565798
946.469352	2475.219141
946.770937	2479.524287
947.072484	2476.706282
947.373992	2476.227372
947.675462	2475.761065
947.976893	2477.056642
948.278286	2474.271404
948.579641	2475.662763
948.880958	2471.087916
949.182236	2478.790799
949.483476	2474.846096
949.784678	2477.238123
950.085841	2478.132928
950.386967	2477.278453
950.688054	2475.204018
950.989103	2476.761734
951.290114	2478.011941
951.591087	2478.553865
951.892021	2477.157465
952.192917	2475.599748
952.493776	2477.195274
952.794596	2474.636888
953.095378	2475.438432
953.396122	2478.342136
953.696828	2478.586632
953.997496	2477.964050
954.298126	2477.165027
954.598718	2476.101343
954.899272	2476.199646
955.199788	2478.687455
955.500266	2476.900366
955.800706	2477.099492
956.101108	2475.403143
956.401472	2477.550675
956.701798	2475.718216
957.002087	2477.270891
957.302337	2477.694348
957.602550	2476.991107
957.902724	2475.456076
958.202861	2476.035808
958.502960	2474.210911
958.803022	2477.044039
959.103045	2475.385499
959.403031	2477.051601
959.702979	2478.921869
960.002889	2478.047229
960.302762	2475.501446
960.602596	2477.016313
960.902393	2475.526652
961.202153	2477.359111
961.501875	2476.118987
961.801559	2479.572178
962.101205	2478.480768
962.400814	2477.759883
962.700385	2477.311220
962.999918	2474.208390
963.299414	2470.472895
963.598873	2475.834162
963.898293	2470.293934
964.197677	2477.482619
964.497022	2477.515387
964.796331	2478.826087
965.095601	2475.088071
965.394835	2475.806436
965.694030	2478.155613
965.993189	2477.154944
966.292309	2477.386838
966.591393	2476.285345
966.890439	2475.834162
967.189447	2474.762917
967.488419	2476.134111
967.787353	2476.963381
968.086249	2473.900880
968.385108	2477.926241
968.683930	2474.916672
968.982714	2475.687969
969.281462	2475.128401
969.580172	2476.882722
969.878844	2473.575725
970.177480	2476.129070
970.476078	2477.361632
970.774639	2478.939513
971.073162	2476.781899
971.371649	2477.306179
971.670098	2478.568988
971.968510	2474.727629
972.266885	2476.260140
972.565223	2475.952629
972.863524	2477.442290
973.161788	2476.376086
973.460014	2475.196456
973.758204	2475.178812
974.056356	2476.557568
974.354471	2473.462299
974.652550	2474.031950
974.950591	2475.566981
975.248595	2473.865592
975.546563	2477.578401
975.844493	2476.860037
976.142386	2478.246354
976.440243	2477.424646
976.738062	2477.381796
977.035845	2475.231744
977.333590	2476.209728
977.631299	2478.001858
977.928971	2473.134624
978.226606	2471.337453
978.524204	2474.226034
978.821765	2470.258646
979.119290	2474.157978
979.416777	2478.783237
979.714228	2476.849955
980.011642	2478.987404
980.309020	2478.442959
980.606360	2474.294090
980.903664	2477.449852
981.200931	2477.144862
981.498162	2475.234265
981.795356	2475.423308
982.092513	2476.585294
982.389633	2476.222331
982.686717	2478.755511
982.983764	2477.245685
983.280775	2475.486322
983.577749	2476.108905
983.874686	2475.509008
984.171587	2475.347691
984.468451	2472.620427
984.765279	2478.984883
985.062070	2476.426498
985.358824	2475.219141
985.655543	2473.928606
985.952224	2478.518577
986.248869	2472.622947
986.545478	2475.645119
986.842050	2476.600418
987.138586	2476.103864
987.435086	2478.105202
987.731549	2478.843731
988.027975	2475.632516
988.324366	2474.924234
988.620719	2476.547485
988.917037	2474.984728
989.213318	2476.582773
989.509563	2475.584625
989.805772	2476.860037
990.101944	2476.618062
990.398080	2475.793833
990.694180	2475.813997
990.990244	2477.016313
991.286271	2473.091774
991.582262	2477.293576
991.878217	2475.592187
992.174136	2476.653350
992.470019	2477.258288
992.765865	2473.971456
993.061676	2472.456589
993.357450	2471.604634
993.653188	2471.836527
993.948890	2478.180819
994.244556	2477.596045
994.540186	2476.257619
994.835780	2475.594707
995.131337	2476.111426
995.426859	2475.138483
995.722345	2475.932465
996.017795	2477.303658
996.313208	2476.965901
996.608586	2477.001189
996.903928	2476.575212
997.199234	2476.933134
997.494504	2476.184522
997.789738	2475.267032
998.084936	2478.198463
998.380099	2475.834162
998.675225	2476.620582
998.970316	2475.962712
999.265371	2476.429018
999.560390	2474.704944
999.855373	2474.629326
1000.150320	2477.830459
1000.445232	2474.679738
1000.740108	2476.343319
1001.034948	2475.640078
1001.329752	2474.147896
1001.624521	2475.748463
1001.919254	2475.141003
1002.213951	2475.302320
1002.508613	2473.762248
1002.803239	2476.020685
1003.097829	2473.976497
1003.392384	2477.885912
1003.686903	2473.122021
1003.981386	2476.809625
1004.275834	2476.297948
1004.570246	2473.593369
1004.864623	2476.701241
1005.158964	2473.943729
1005.453270	2476.580253
1005.747540	2475.050263
1006.041775	2477.066724
1006.335974	2475.451034
1006.630138	2474.329378
1006.924266	2478.276601
1007.218359	2473.946250
1007.512416	2473.222844
1007.806438	2473.243009
1008.100425	2473.648822
1008.394376	2471.839048
1008.688292	2473.270735
1008.982172	2474.868781
1009.276017	2476.282825
1009.569827	2475.312403
1009.863602	2475.403143
1010.157341	2477.051601
1010.451045	2475.125880
1010.744714	2476.688638
1011.038347	2475.798874
1011.331945	2475.042701
1011.625508	2473.542958
1011.919036	2476.676035
1012.212528	2475.884574
1012.505986	2473.016157
1012.799408	2475.014975
1013.092795	2474.379789
1013.386147	2474.556230
1013.679464	2476.721405
1013.972745	2473.893318
1014.265992	2473.651343
1014.559204	2473.719398
1014.852380	2474.800726
1015.145521	2478.707620
1015.438628	2474.949440
1015.731699	2473.873153
1016.024736	2471.491208
1016.317737	2474.384830
1016.610703	2473.333750
1016.903635	2475.549337
1017.196531	2475.952629
1017.489393	2476.257619
1017.782219	2474.543627
1018.075011	2476.174440
1018.367768	2475.992958
1018.660490	2474.445324
1018.953177	2474.445324
1019.245829	2474.445324
