Dividing Wavelength (nm)	Counts (n)	Blue Motor Position (mm): 0.000000	Red Motor Position (mm): 0.000000	
326.493990	2170.216731
326.888308	2170.216731
327.282561	2170.216731
327.676750	2069.393654
328.070874	2109.722885
328.464933	2066.873077
328.858929	2180.299038
329.252859	2129.887500
329.646726	2132.408077
330.040528	2092.078846
330.434265	2132.408077
330.827938	2107.202308
331.221547	2238.272308
331.615091	2165.175577
332.008571	2155.093269
332.401986	2260.957500
332.795338	2192.901923
333.188625	2263.478077
333.581847	2326.492500
333.975006	2276.080962
334.368100	2344.136538
334.761129	2321.451346
335.154095	2341.615962
335.546996	2326.492500
335.939833	2427.315577
336.332606	2346.657115
336.725315	2349.177692
337.117960	2369.342308
337.510540	2507.974038
337.903056	2457.562500
338.295508	2361.780577
338.687896	2389.506923
339.080220	2409.671538
339.472480	2492.850577
339.864676	2523.097500
340.256807	2505.453462
340.648875	2460.083077
341.040879	2434.877308
341.432818	2485.288846
341.824694	2495.371154
342.216506	2553.344423
342.608253	2444.959615
342.999937	2528.138654
343.391557	2533.179808
343.783113	2492.850577
344.174605	2455.041923
344.566033	2492.850577
344.957397	2452.521346
345.348697	2480.247692
345.739934	2399.589231
346.131106	2467.644808
346.522215	2450.000769
346.913260	2404.630385
347.304241	2500.412308
347.695159	2409.671538
348.086012	2427.315577
348.476802	2444.959615
348.867528	2422.274423
349.258191	2455.041923
349.648789	2450.000769
350.039324	2467.644808
350.429796	2402.109808
350.820203	2470.165385
351.210548	2427.315577
351.600828	2404.630385
351.991045	2407.150962
352.381198	2500.412308
352.771288	2434.877308
353.161314	2457.562500
353.551276	2497.891731
353.941175	2452.521346
354.331010	2434.877308
354.720782	2492.850577
355.110490	2437.397885
355.500135	2422.274423
355.889717	2419.753846
356.279235	2477.727115
356.668689	2444.959615
357.058080	2502.932885
357.447408	2505.453462
357.836672	2465.124231
358.225873	2533.179808
358.615010	2432.356731
359.004084	2419.753846
359.393095	2467.644808
359.782043	2457.562500
360.170927	2460.083077
360.559748	2490.330000
360.948505	2480.247692
361.337199	2447.480192
361.725830	2447.480192
362.114398	2429.836154
362.502903	2389.506923
362.891344	2495.371154
363.279722	2412.192115
363.668037	2472.685962
364.056289	2460.083077
364.444478	2485.288846
364.832603	2467.644808
365.220665	2429.836154
365.608665	2505.453462
365.996601	2424.795000
366.384474	2407.150962
366.772284	2356.739423
367.160031	2520.576923
367.547715	2402.109808
367.935336	2452.521346
368.322893	2513.015192
368.710388	2417.233269
369.097820	2540.741538
369.485189	2460.083077
369.872495	2460.083077
370.259738	2419.753846
370.646918	2437.397885
371.034035	2450.000769
371.421090	2364.301154
371.808081	2455.041923
372.195010	2414.712692
372.581875	2502.932885
372.968678	2419.753846
373.355418	2492.850577
373.742096	2528.138654
374.128710	2356.739423
374.515262	2485.288846
374.901751	2439.918462
375.288177	2535.700385
375.674540	2392.027500
376.060841	2472.685962
376.447079	2523.097500
376.833254	2515.535769
377.219367	2462.603654
377.605417	2404.630385
377.991404	2444.959615
378.377329	2500.412308
378.763191	2427.315577
379.148991	2419.753846
379.534727	2467.644808
379.920402	2462.603654
380.306013	2485.288846
380.691563	2502.932885
381.077049	2460.083077
381.462474	2492.850577
381.847835	2500.412308
382.233134	2442.439038
382.618371	2530.659231
383.003545	2399.589231
383.388657	2419.753846
383.773706	2545.782692
384.158693	2419.753846
384.543618	2465.124231
384.928480	2450.000769
385.313280	2550.823846
385.698017	2487.809423
386.082692	2560.906154
386.467305	2417.233269
386.851856	2495.371154
387.236344	2515.535769
387.620770	2392.027500
388.005133	2480.247692
388.389435	2513.015192
388.773674	2513.015192
389.157851	2462.603654
389.541965	2505.453462
389.926018	2581.070769
390.310008	2444.959615
390.693936	2455.041923
391.077802	2505.453462
391.461606	2507.974038
391.845348	2444.959615
392.229027	2422.274423
392.612645	2427.315577
392.996200	2513.015192
393.379694	2442.439038
393.763125	2386.986346
394.146494	2535.700385
394.529801	2447.480192
394.913047	2439.918462
395.296230	2545.782692
395.679351	2422.274423
396.062410	2462.603654
396.445408	2381.945192
396.828343	2470.165385
397.211217	2447.480192
397.594028	2555.865000
397.976778	2510.494615
398.359466	2495.371154
398.742092	2490.330000
399.124656	2497.891731
399.507158	2452.521346
399.889598	2434.877308
400.271977	2467.644808
400.654294	2530.659231
401.036549	2417.233269
401.418742	2500.412308
401.800874	2427.315577
402.182944	2487.809423
402.564952	2550.823846
402.946898	2442.439038
403.328783	2419.753846
403.710606	2477.727115
404.092367	2482.768269
404.474067	2475.206538
404.855705	2460.083077
405.237282	2384.465769
405.618797	2392.027500
406.000250	2470.165385
406.381642	2528.138654
406.762972	2505.453462
407.144240	2502.932885
407.525447	2520.576923
407.906593	2450.000769
408.287677	2472.685962
408.668700	2497.891731
409.049661	2565.947308
409.430560	2475.206538
409.811399	2480.247692
410.192176	2429.836154
410.572891	2548.303269
410.953545	2528.138654
411.334138	2583.591346
411.714669	2439.918462
412.095139	2510.494615
412.475547	2497.891731
412.855894	2492.850577
413.236180	2409.671538
413.616405	2470.165385
413.996568	2429.836154
414.376670	2507.974038
414.756711	2505.453462
415.136691	2490.330000
415.516609	2455.041923
415.896466	2460.083077
416.276262	2482.768269
416.655997	2477.727115
417.035670	2389.506923
417.415283	2452.521346
417.794834	2470.165385
418.174324	2470.165385
418.553753	2432.356731
418.933121	2444.959615
419.312428	2510.494615
419.691674	2465.124231
420.070859	2480.247692
420.449983	2500.412308
420.829045	2492.850577
421.208047	2505.453462
421.586988	2457.562500
421.965867	2490.330000
422.344686	2535.700385
422.723444	2450.000769
423.102141	2452.521346
423.480777	2477.727115
423.859352	2475.206538
424.237866	2422.274423
424.616319	2465.124231
424.994712	2434.877308
425.373044	2528.138654
425.751314	2528.138654
426.129524	2490.330000
426.507673	2447.480192
426.885762	2558.385577
427.263789	2492.850577
427.641756	2538.220962
428.019662	2399.589231
428.397508	2573.509038
428.775292	2407.150962
429.153016	2500.412308
429.530679	2482.768269
429.908282	2490.330000
430.285824	2475.206538
430.663305	2457.562500
431.040726	2530.659231
431.418086	2545.782692
431.795385	2545.782692
432.172624	2492.850577
432.549802	2548.303269
432.926920	2444.959615
433.303977	2518.056346
433.680974	2402.109808
434.057910	2444.959615
434.434786	2472.685962
434.811601	2538.220962
435.188355	2568.467885
435.565050	2576.029615
435.941683	2497.891731
436.318257	2419.753846
436.694770	2497.891731
437.071222	2487.809423
437.447614	2487.809423
437.823946	2437.397885
438.200218	2429.836154
438.576429	2492.850577
438.952580	2492.850577
439.328670	2457.562500
439.704700	2528.138654
440.080670	2505.453462
440.456580	2465.124231
440.832429	2545.782692
441.208218	2477.727115
441.583947	2432.356731
441.959616	2392.027500
442.335224	2356.739423
442.710773	2533.179808
443.086261	2492.850577
443.461689	2434.877308
443.837057	2510.494615
444.212365	2518.056346
444.587612	2520.576923
444.962800	2505.453462
445.337927	2497.891731
445.712995	2520.576923
446.088002	2447.480192
446.462949	2530.659231
446.837837	2452.521346
447.212664	2472.685962
447.587431	2490.330000
447.962139	2533.179808
448.336786	2460.083077
448.711374	2434.877308
449.085901	2505.453462
449.460369	2434.877308
449.834776	2480.247692
450.209124	2460.083077
450.583412	2497.891731
450.957640	2477.727115
451.331808	2528.138654
451.705917	2495.371154
452.079965	2485.288846
452.453954	2452.521346
452.827883	2553.344423
453.201752	2492.850577
453.575562	2538.220962
453.949311	2477.727115
454.323001	2505.453462
454.696632	2409.671538
455.070202	2485.288846
455.443713	2513.015192
455.817164	2437.397885
456.190556	2507.974038
456.563888	2515.535769
456.937160	2462.603654
457.310373	2550.823846
457.683526	2462.603654
458.056619	2482.768269
458.429653	2472.685962
458.802628	2455.041923
459.175542	2540.741538
459.548398	2409.671538
459.921194	2525.618077
460.293930	2444.959615
460.666607	2432.356731
461.039224	2460.083077
461.411782	2520.576923
461.784280	2482.768269
462.156719	2513.015192
462.529099	2409.671538
462.901419	2419.753846
463.273680	2455.041923
463.645882	2520.576923
464.018024	2450.000769
464.390106	2465.124231
464.762130	2470.165385
465.134094	2563.426731
465.505999	2520.576923
465.877845	2429.836154
466.249631	2507.974038
466.621358	2545.782692
466.993026	2530.659231
467.364634	2475.206538
467.736184	2535.700385
468.107674	2477.727115
468.479105	2462.603654
468.850477	2545.782692
469.221790	2432.356731
469.593043	2513.015192
469.964238	2558.385577
470.335373	2576.029615
470.706449	2376.904038
471.077467	2505.453462
471.448425	2530.659231
471.819324	2497.891731
472.190164	2467.644808
472.560945	2427.315577
472.931667	2487.809423
473.302330	2444.959615
473.672934	2412.192115
474.043479	2558.385577
474.413965	2502.932885
474.784393	2553.344423
475.154761	2628.961731
475.525070	2444.959615
475.895321	2497.891731
476.265513	2460.083077
476.635645	2480.247692
477.005719	2437.397885
477.375734	2513.015192
477.745691	2437.397885
478.115588	2555.865000
478.485427	2490.330000
478.855207	2482.768269
479.224928	2444.959615
479.594591	2583.591346
479.964194	2497.891731
480.333739	2495.371154
480.703226	2520.576923
481.072653	2447.480192
481.442022	2505.453462
481.811333	2553.344423
482.180584	2477.727115
482.549777	2500.412308
482.918912	2588.632500
483.287988	2467.644808
483.657005	2490.330000
484.025964	2442.439038
484.394864	2510.494615
484.763706	2533.179808
485.132489	2417.233269
485.501213	2515.535769
485.869879	2460.083077
486.238487	2424.795000
486.607036	2455.041923
486.975527	2523.097500
487.343959	2447.480192
487.712333	2434.877308
488.080648	2543.262115
488.448905	2497.891731
488.817104	2535.700385
489.185244	2578.550192
489.553326	2437.397885
489.921350	2444.959615
490.289315	2507.974038
490.657222	2482.768269
491.025070	2513.015192
491.392861	2518.056346
491.760593	2578.550192
492.128267	2462.603654
492.495883	2530.659231
492.863440	2515.535769
493.230939	2472.685962
493.598380	2502.932885
493.965763	2455.041923
494.333088	2515.535769
494.700354	2457.562500
495.067563	2505.453462
495.434713	2465.124231
495.801805	2487.809423
496.168839	2457.562500
496.535815	2477.727115
496.902733	2548.303269
497.269593	2502.932885
497.636395	2528.138654
498.003139	2386.986346
498.369825	2507.974038
498.736453	2543.262115
499.103023	2550.823846
499.469535	2528.138654
499.835989	2482.768269
500.202385	2507.974038
500.568723	2581.070769
500.935003	2515.535769
501.301226	2518.056346
501.667390	2495.371154
502.033497	2538.220962
502.399546	2570.988462
502.765537	2513.015192
503.131470	2477.727115
503.497345	2457.562500
503.863163	2497.891731
504.228923	2455.041923
504.594625	2475.206538
504.960269	2528.138654
505.325856	2462.603654
505.691385	2467.644808
506.056856	2528.138654
506.422270	2472.685962
506.787625	2412.192115
507.152924	2530.659231
507.518164	2477.727115
507.883347	2507.974038
508.248472	2530.659231
508.613540	2439.918462
508.978550	2460.083077
509.343503	2477.727115
509.708398	2432.356731
510.073236	2555.865000
510.438016	2460.083077
510.802738	2550.823846
511.167403	2477.727115
511.532010	2510.494615
511.896561	2583.591346
512.261053	2535.700385
512.625488	2485.288846
512.989866	2437.397885
513.354186	2439.918462
513.718449	2505.453462
514.082655	2497.891731
514.446803	2497.891731
514.810894	2381.945192
515.174927	2510.494615
515.538904	2513.015192
515.902822	2523.097500
516.266684	2457.562500
516.630488	2540.741538
516.994235	2460.083077
517.357925	2530.659231
517.721558	2424.795000
518.085133	2472.685962
518.448651	2450.000769
518.812112	2505.453462
519.175516	2576.029615
519.538863	2497.891731
519.902152	2565.947308
520.265385	2505.453462
520.628560	2583.591346
520.991678	2472.685962
521.354739	2563.426731
521.717743	2497.891731
522.080690	2528.138654
522.443580	2560.906154
522.806413	2500.412308
523.169189	2611.317692
523.531908	2462.603654
523.894569	2518.056346
524.257174	2530.659231
524.619722	2444.959615
524.982213	2545.782692
525.344647	2490.330000
525.707025	2553.344423
526.069345	2495.371154
526.431608	2507.974038
526.793815	2457.562500
527.155964	2560.906154
527.518057	2480.247692
527.880093	2558.385577
528.242072	2548.303269
528.603995	2533.179808
528.965860	2560.906154
529.327669	2470.165385
529.689421	2442.439038
530.051117	2533.179808
530.412755	2495.371154
530.774337	2530.659231
531.135862	2500.412308
531.497331	2525.618077
531.858743	2500.412308
532.220098	2427.315577
532.581396	2520.576923
532.942638	2424.795000
533.303824	2507.974038
533.664953	2450.000769
534.026025	2447.480192
534.387040	2570.988462
534.747999	2513.015192
535.108902	2523.097500
535.469748	2439.918462
535.830537	2538.220962
536.191270	2540.741538
536.551947	2465.124231
536.912567	2550.823846
537.273131	2500.412308
537.633638	2457.562500
537.994089	2545.782692
538.354483	2492.850577
538.714821	2434.877308
539.075103	2495.371154
539.435328	2427.315577
539.795497	2568.467885
540.155609	2460.083077
540.515665	2573.509038
540.875665	2462.603654
541.235609	2518.056346
541.595496	2467.644808
541.955328	2525.618077
542.315102	2480.247692
542.674821	2394.548077
543.034483	2593.673654
543.394090	2487.809423
543.753640	2543.262115
544.113134	2525.618077
544.472571	2533.179808
544.831953	2450.000769
545.191278	2538.220962
545.550548	2465.124231
545.909761	2533.179808
546.268918	2465.124231
546.628019	2505.453462
546.987064	2487.809423
547.346053	2462.603654
547.704986	2525.618077
548.063863	2513.015192
548.422684	2533.179808
548.781449	2563.426731
549.140158	2540.741538
549.498811	2472.685962
549.857408	2480.247692
550.215949	2480.247692
550.574434	2465.124231
550.932864	2540.741538
551.291237	2520.576923
551.649555	2520.576923
552.007817	2570.988462
552.366022	2553.344423
552.724173	2545.782692
553.082267	2495.371154
553.440305	2591.153077
553.798288	2525.618077
554.156215	2465.124231
554.514086	2507.974038
554.871902	2492.850577
555.229661	2399.589231
555.587365	2578.550192
555.945014	2452.521346
556.302606	2497.891731
556.660143	2510.494615
557.017625	2485.288846
557.375050	2528.138654
557.732421	2535.700385
558.089735	2568.467885
558.446994	2510.494615
558.804197	2528.138654
559.161345	2457.562500
559.518437	2523.097500
559.875474	2507.974038
560.232455	2485.288846
560.589381	2502.932885
560.946251	2502.932885
561.303065	2505.453462
561.659825	2507.974038
562.016528	2477.727115
562.373177	2480.247692
562.729770	2560.906154
563.086307	2442.439038
563.442789	2558.385577
563.799216	2558.385577
564.155587	2510.494615
564.511904	2439.918462
564.868164	2520.576923
565.224370	2538.220962
565.580520	2513.015192
565.936615	2535.700385
566.292654	2399.589231
566.648638	2545.782692
567.004567	2588.632500
567.360441	2434.877308
567.716260	2518.056346
568.072023	2515.535769
568.427732	2497.891731
568.783385	2543.262115
569.138982	2518.056346
569.494525	2492.850577
569.850013	2422.274423
570.205445	2432.356731
570.560823	2540.741538
570.916145	2553.344423
571.271412	2450.000769
571.626625	2480.247692
571.981782	2505.453462
572.336884	2429.836154
572.691931	2490.330000
573.046923	2480.247692
573.401860	2525.618077
573.756743	2492.850577
574.111570	2540.741538
574.466342	2520.576923
574.821059	2424.795000
575.175722	2472.685962
575.530330	2525.618077
575.884882	2455.041923
576.239380	2555.865000
576.593823	2482.768269
576.948211	2495.371154
577.302544	2402.109808
577.656823	2497.891731
578.011047	2452.521346
578.365216	2535.700385
578.719330	2487.809423
579.073389	2475.206538
579.427394	2467.644808
579.781344	2500.412308
580.135239	2538.220962
580.489080	2518.056346
580.842866	2472.685962
581.196597	2482.768269
581.550273	2535.700385
581.903895	2457.562500
582.257463	2523.097500
582.610975	2550.823846
582.964434	2465.124231
583.317837	2412.192115
583.671186	2528.138654
584.024481	2429.836154
584.377721	2520.576923
584.730906	2437.397885
585.084037	2480.247692
585.437113	2452.521346
585.790135	2520.576923
586.143103	2510.494615
586.496016	2548.303269
586.848874	2419.753846
587.201679	2555.865000
587.554428	2520.576923
587.907124	2434.877308
588.259765	2518.056346
588.612352	2455.041923
588.964884	2492.850577
589.317362	2525.618077
589.669786	2533.179808
590.022155	2518.056346
590.374470	2523.097500
590.726731	2525.618077
591.078937	2447.480192
591.431090	2570.988462
591.783188	2513.015192
592.135232	2525.618077
592.487222	2467.644808
592.839157	2477.727115
593.191038	2535.700385
593.542866	2530.659231
593.894639	2538.220962
594.246358	2513.015192
594.598022	2507.974038
594.949633	2492.850577
595.301190	2581.070769
595.652692	2502.932885
596.004141	2475.206538
596.355535	2462.603654
596.706876	2540.741538
597.058162	2475.206538
597.409395	2450.000769
597.760573	2462.603654
598.111698	2530.659231
598.462768	2540.741538
598.813785	2497.891731
599.164748	2444.959615
599.515657	2480.247692
599.866511	2555.865000
600.217312	2480.247692
600.568060	2533.179808
600.918753	2528.138654
601.269392	2450.000769
601.619978	2447.480192
601.970510	2560.906154
602.320988	2389.506923
602.671412	2513.015192
603.021783	2455.041923
603.372100	2543.262115
603.722363	2550.823846
604.072572	2545.782692
604.422728	2444.959615
604.772830	2528.138654
605.122878	2505.453462
605.472872	2455.041923
605.822813	2492.850577
606.172701	2427.315577
606.522534	2452.521346
606.872314	2452.521346
607.222041	2568.467885
607.571714	2515.535769
607.921333	2492.850577
608.270899	2475.206538
608.620411	2525.618077
608.969870	2507.974038
609.319276	2482.768269
609.668627	2540.741538
610.017926	2548.303269
610.367171	2492.850577
610.716362	2482.768269
611.065500	2475.206538
611.414585	2465.124231
611.763616	2437.397885
612.112594	2530.659231
612.461518	2460.083077
612.810389	2558.385577
613.159207	2497.891731
613.507971	2432.356731
613.856682	2525.618077
614.205340	2520.576923
614.553945	2417.233269
614.902496	2518.056346
615.250994	2581.070769
615.599439	2427.315577
615.947830	2576.029615
616.296169	2538.220962
616.644454	2482.768269
616.992686	2530.659231
617.340864	2492.850577
617.688990	2397.068654
618.037063	2507.974038
618.385082	2555.865000
618.733048	2495.371154
619.080961	2450.000769
619.428821	2513.015192
619.776628	2533.179808
620.124382	2482.768269
620.472083	2497.891731
620.819731	2480.247692
621.167326	2485.288846
621.514868	2465.124231
621.862357	2480.247692
622.209793	2452.521346
622.557176	2475.206538
622.904506	2487.809423
623.251783	2437.397885
623.599007	2414.712692
623.946179	2419.753846
624.293297	2462.603654
624.640363	2472.685962
624.987376	2553.344423
625.334336	2492.850577
625.681243	2540.741538
626.028097	2450.000769
626.374899	2444.959615
626.721647	2540.741538
627.068343	2510.494615
627.414987	2439.918462
627.761577	2485.288846
628.108115	2523.097500
628.454600	2525.618077
628.801032	2450.000769
629.147412	2485.288846
629.493739	2538.220962
629.840014	2409.671538
630.186236	2497.891731
630.532405	2480.247692
630.878521	2513.015192
631.224585	2507.974038
631.570597	2490.330000
631.916556	2492.850577
632.262462	2560.906154
632.608316	2475.206538
632.954117	2437.397885
633.299866	2555.865000
633.645562	2515.535769
633.991206	2560.906154
634.336797	2427.315577
634.682336	2497.891731
635.027823	2402.109808
635.373257	2392.027500
635.718639	2475.206538
636.063968	2553.344423
636.409245	2432.356731
636.754470	2490.330000
637.099642	2525.618077
637.444762	2568.467885
637.789829	2515.535769
638.134845	2470.165385
638.479808	2515.535769
638.824719	2558.385577
639.169577	2477.727115
639.514383	2538.220962
639.859137	2510.494615
640.203839	2533.179808
640.548489	2462.603654
640.893086	2412.192115
641.237632	2477.727115
641.582125	2540.741538
641.926566	2565.947308
642.270955	2495.371154
642.615292	2414.712692
642.959576	2442.439038
643.303809	2485.288846
643.647990	2467.644808
643.992118	2518.056346
644.336195	2523.097500
644.680219	2560.906154
645.024192	2482.768269
645.368112	2553.344423
645.711981	2492.850577
646.055797	2555.865000
646.399562	2525.618077
646.743274	2510.494615
647.086935	2465.124231
647.430544	2480.247692
647.774101	2412.192115
648.117606	2523.097500
648.461059	2444.959615
648.804460	2533.179808
649.147810	2444.959615
649.491108	2530.659231
649.834354	2525.618077
650.177548	2563.426731
650.520690	2439.918462
650.863781	2477.727115
651.206820	2485.288846
651.549807	2502.932885
651.892742	2601.235385
652.235626	2490.330000
652.578458	2543.262115
652.921238	2548.303269
653.263967	2444.959615
653.606644	2540.741538
653.949269	2450.000769
654.291843	2505.453462
654.634365	2487.809423
654.976836	2533.179808
655.319255	2535.700385
655.661622	2540.741538
656.003938	2482.768269
656.346203	2356.739423
656.688416	2520.576923
657.030577	2553.344423
657.372687	2530.659231
657.714746	2581.070769
658.056753	2457.562500
658.398708	2424.795000
658.740612	2389.506923
659.082465	2465.124231
659.424266	2530.659231
659.766016	2523.097500
660.107715	2477.727115
660.449362	2550.823846
660.790958	2432.356731
661.132503	2485.288846
661.473996	2480.247692
661.815438	2457.562500
662.156829	2399.589231
662.498168	2515.535769
662.839456	2538.220962
663.180693	2570.988462
663.521879	2467.644808
663.863013	2505.453462
664.204097	2528.138654
664.545129	2457.562500
664.886110	2409.671538
665.227040	2457.562500
665.567918	2482.768269
665.908746	2492.850577
666.249522	2507.974038
666.590248	2545.782692
666.930922	2492.850577
667.271545	2434.877308
667.612118	2475.206538
667.952639	2528.138654
668.293109	2548.303269
668.633528	2465.124231
668.973896	2437.397885
669.314213	2543.262115
669.654480	2543.262115
669.994695	2523.097500
670.334859	2528.138654
670.674973	2528.138654
671.015035	2475.206538
671.355047	2455.041923
671.695008	2490.330000
672.034918	2437.397885
672.374777	2513.015192
672.714585	2528.138654
673.054342	2523.097500
673.394049	2455.041923
673.733705	2528.138654
674.073310	2530.659231
674.412864	2507.974038
674.752368	2485.288846
675.091820	2497.891731
675.431223	2482.768269
675.770574	2535.700385
676.109875	2467.644808
676.449125	2528.138654
676.788324	2513.015192
677.127473	2560.906154
677.466571	2573.509038
677.805619	2543.262115
678.144616	2482.768269
678.483562	2530.659231
678.822458	2555.865000
679.161303	2359.260000
679.500098	2565.947308
679.838842	2520.576923
680.177535	2460.083077
680.516179	2533.179808
680.854771	2570.988462
681.193314	2457.562500
681.531805	2475.206538
681.870247	2465.124231
682.208638	2495.371154
682.546978	2530.659231
682.885268	2422.274423
683.223508	2518.056346
683.561697	2578.550192
683.899836	2533.179808
684.237925	2490.330000
684.575963	2450.000769
684.913951	2502.932885
685.251889	2467.644808
685.589776	2505.453462
685.927614	2424.795000
686.265401	2490.330000
686.603137	2455.041923
686.940824	2513.015192
687.278460	2553.344423
687.616046	2417.233269
687.953582	2500.412308
688.291068	2497.891731
688.628504	2490.330000
688.965889	2500.412308
689.303224	2502.932885
689.640510	2465.124231
689.977745	2442.439038
690.314930	2439.918462
690.652065	2475.206538
690.989150	2520.576923
691.326185	2497.891731
691.663170	2480.247692
692.000105	2450.000769
692.336990	2507.974038
692.673825	2530.659231
693.010610	2442.439038
693.347345	2460.083077
693.684030	2560.906154
694.020665	2407.150962
694.357251	2439.918462
694.693786	2525.618077
695.030272	2485.288846
695.366707	2525.618077
695.703093	2472.685962
696.039429	2550.823846
696.375716	2548.303269
696.711952	2442.439038
697.048139	2513.015192
697.384276	2495.371154
697.720363	2485.288846
698.056400	2467.644808
698.392388	2535.700385
698.728326	2500.412308
699.064214	2523.097500
699.400053	2568.467885
699.735842	2487.809423
700.071581	2457.562500
700.407270	2465.124231
700.742910	2530.659231
701.078501	2457.562500
701.414042	2482.768269
701.749533	2497.891731
702.084974	2543.262115
702.420366	2485.288846
702.755709	2603.755962
703.091002	2500.412308
703.426246	2492.850577
703.761440	2505.453462
704.096584	2518.056346
704.431679	2505.453462
704.766725	2465.124231
705.101721	2429.836154
705.436668	2472.685962
705.771565	2538.220962
706.106413	2422.274423
706.441212	2502.932885
706.775961	2404.630385
707.110661	2560.906154
707.445311	2492.850577
707.779913	2475.206538
708.114465	2439.918462
708.448967	2487.809423
708.783421	2490.330000
709.117825	2450.000769
709.452180	2472.685962
709.786485	2470.165385
710.120742	2482.768269
710.454949	2505.453462
710.789107	2520.576923
711.123216	2419.753846
711.457275	2581.070769
711.791286	2399.589231
712.125247	2538.220962
712.459159	2520.576923
712.793023	2419.753846
713.126837	2444.959615
713.460602	2555.865000
713.794318	2558.385577
714.127985	2434.877308
714.461602	2525.618077
714.795171	2538.220962
715.128691	2477.727115
715.462162	2477.727115
715.795584	2502.932885
716.128957	2573.509038
716.462281	2528.138654
716.795556	2492.850577
717.128782	2487.809423
717.461960	2455.041923
717.795088	2560.906154
718.128167	2487.809423
718.461198	2586.111923
718.794180	2462.603654
719.127113	2538.220962
719.459997	2470.165385
719.792833	2457.562500
720.125619	2417.233269
720.458357	2475.206538
720.791046	2442.439038
721.123686	2470.165385
721.456278	2578.550192
721.788821	2487.809423
722.121315	2518.056346
722.453761	2525.618077
722.786158	2515.535769
723.118506	2563.426731
723.450805	2513.015192
723.783056	2457.562500
724.115259	2477.727115
724.447412	2462.603654
724.779518	2475.206538
725.111574	2565.947308
725.443582	2558.385577
725.775542	2588.632500
726.107453	2414.712692
726.439315	2487.809423
726.771129	2563.426731
727.102895	2482.768269
727.434612	2467.644808
727.766281	2523.097500
728.097901	2492.850577
728.429473	2490.330000
728.760996	2505.453462
729.092471	2482.768269
729.423897	2439.918462
729.755276	2414.712692
730.086606	2545.782692
730.417887	2452.521346
730.749120	2429.836154
731.080305	2525.618077
731.411442	2492.850577
731.742530	2558.385577
732.073570	2465.124231
732.404562	2354.218846
732.735506	2502.932885
733.066401	2424.795000
733.397249	2467.644808
733.728048	2538.220962
734.058798	2563.426731
734.389501	2550.823846
734.720156	2518.056346
735.050762	2427.315577
735.381320	2507.974038
735.711831	2470.165385
736.042293	2490.330000
736.372707	2467.644808
736.703073	2518.056346
737.033391	2477.727115
737.363661	2560.906154
737.693883	2515.535769
738.024056	2533.179808
738.354182	2538.220962
738.684260	2467.644808
739.014290	2439.918462
739.344272	2548.303269
739.674207	2591.153077
740.004093	2432.356731
740.333931	2437.397885
740.663722	2444.959615
740.993464	2472.685962
741.323159	2480.247692
741.652806	2530.659231
741.982405	2417.233269
742.311956	2492.850577
742.641460	2460.083077
742.970915	2460.083077
743.300323	2450.000769
743.629683	2558.385577
743.958996	2500.412308
744.288260	2520.576923
744.617477	2510.494615
744.946647	2495.371154
745.275768	2462.603654
745.604842	2510.494615
745.933869	2465.124231
746.262847	2485.288846
746.591778	2528.138654
746.920662	2581.070769
747.249498	2455.041923
747.578286	2528.138654
747.907027	2563.426731
748.235720	2487.809423
748.564365	2480.247692
748.892963	2492.850577
749.221514	2452.521346
749.550017	2364.301154
749.878473	2467.644808
750.206881	2480.247692
750.535242	2384.465769
750.863555	2570.988462
751.191821	2528.138654
751.520039	2427.315577
751.848210	2409.671538
752.176334	2502.932885
752.504411	2505.453462
752.832440	2518.056346
753.160421	2457.562500
753.488356	2520.576923
753.816243	2450.000769
754.144082	2492.850577
754.471875	2427.315577
754.799620	2487.809423
755.127318	2505.453462
755.454969	2505.453462
755.782572	2510.494615
756.110129	2447.480192
756.437638	2502.932885
756.765100	2533.179808
757.092515	2533.179808
757.419882	2434.877308
757.747203	2528.138654
758.074477	2490.330000
758.401703	2460.083077
758.728882	2555.865000
759.056014	2518.056346
759.383099	2583.591346
759.710138	2444.959615
760.037129	2460.083077
760.364073	2462.603654
760.690970	2553.344423
761.017820	2460.083077
761.344623	2513.015192
761.671379	2500.412308
761.998088	2520.576923
762.324751	2500.412308
762.651366	2424.795000
762.977935	2480.247692
763.304456	2545.782692
763.630931	2570.988462
763.957359	2455.041923
764.283740	2502.932885
764.610074	2601.235385
764.936362	2472.685962
765.262602	2495.371154
765.588796	2402.109808
765.914943	2505.453462
766.241044	2399.589231
766.567097	2515.535769
766.893104	2427.315577
767.219064	2490.330000
767.544978	2548.303269
767.870845	2560.906154
768.196665	2497.891731
768.522438	2507.974038
768.848165	2485.288846
769.173846	2507.974038
769.499479	2444.959615
769.825066	2472.685962
770.150607	2457.562500
770.476101	2513.015192
770.801548	2442.439038
771.126949	2462.603654
771.452303	2560.906154
771.777611	2407.150962
772.102872	2480.247692
772.428087	2379.424615
772.753256	2455.041923
773.078378	2540.741538
773.403453	2513.015192
773.728482	2439.918462
774.053465	2485.288846
774.378401	2538.220962
774.703291	2444.959615
775.028135	2520.576923
775.352932	2450.000769
775.677683	2497.891731
776.002388	2543.262115
776.327046	2497.891731
776.651658	2495.371154
776.976224	2520.576923
777.300743	2477.727115
777.625216	2510.494615
777.949643	2487.809423
778.274024	2492.850577
778.598359	2485.288846
778.922647	2472.685962
779.246889	2495.371154
779.571086	2548.303269
779.895236	2394.548077
780.219339	2477.727115
780.543397	2485.288846
780.867409	2412.192115
781.191374	2513.015192
781.515294	2462.603654
781.839167	2502.932885
782.162995	2533.179808
782.486776	2429.836154
782.810511	2525.618077
783.134201	2444.959615
783.457844	2500.412308
783.781441	2444.959615
784.104993	2485.288846
784.428498	2477.727115
784.751958	2502.932885
785.075372	2450.000769
785.398739	2553.344423
785.722061	2502.932885
786.045337	2462.603654
786.368568	2480.247692
786.691752	2535.700385
787.014891	2490.330000
787.337983	2424.795000
787.661030	2525.618077
787.984031	2520.576923
788.306987	2412.192115
788.629897	2570.988462
788.952760	2376.904038
789.275579	2477.727115
789.598351	2465.124231
789.921078	2429.836154
790.243759	2500.412308
790.566395	2528.138654
790.888984	2497.891731
791.211529	2467.644808
791.534027	2530.659231
791.856480	2369.342308
792.178888	2523.097500
792.501249	2462.603654
792.823566	2467.644808
793.145836	2495.371154
793.468062	2495.371154
793.790241	2550.823846
794.112375	2485.288846
794.434464	2452.521346
794.756507	2538.220962
795.078505	2518.056346
795.400457	2550.823846
795.722364	2432.356731
796.044226	2470.165385
796.366042	2523.097500
796.687812	2502.932885
797.009538	2419.753846
797.331218	2500.412308
797.652852	2495.371154
797.974442	2540.741538
798.295986	2480.247692
798.617484	2480.247692
798.938938	2540.741538
799.260346	2502.932885
799.581709	2545.782692
799.903026	2439.918462
800.224299	2429.836154
800.545526	2530.659231
800.866708	2450.000769
801.187845	2507.974038
801.508936	2470.165385
801.829983	2520.576923
802.150984	2444.959615
802.471940	2495.371154
802.792851	2472.685962
803.113717	2510.494615
803.434538	2495.371154
803.755314	2467.644808
804.076045	2457.562500
804.396731	2444.959615
804.717372	2581.070769
805.037967	2558.385577
805.358518	2497.891731
805.679024	2533.179808
805.999485	2558.385577
806.319901	2505.453462
806.640272	2412.192115
806.960598	2497.891731
807.280879	2555.865000
807.601115	2593.673654
807.921306	2447.480192
808.241453	2389.506923
808.561554	2497.891731
808.881611	2487.809423
809.201623	2475.206538
809.521590	2381.945192
809.841513	2545.782692
810.161390	2492.850577
810.481223	2507.974038
810.801011	2513.015192
811.120755	2510.494615
811.440453	2528.138654
811.760107	2429.836154
812.079716	2397.068654
812.399281	2505.453462
812.718801	2555.865000
813.038276	2467.644808
813.357707	2424.795000
813.677093	2507.974038
813.996434	2518.056346
814.315731	2437.397885
814.634983	2497.891731
814.954191	2538.220962
815.273354	2543.262115
815.592473	2482.768269
815.911547	2467.644808
816.230577	2462.603654
816.549562	2523.097500
816.868502	2535.700385
817.187399	2450.000769
817.506250	2492.850577
817.825058	2530.659231
818.143821	2455.041923
818.462539	2528.138654
818.781213	2455.041923
819.099843	2450.000769
819.418429	2545.782692
819.736970	2432.356731
820.055466	2528.138654
820.373919	2497.891731
820.692327	2586.111923
821.010691	2548.303269
821.329011	2525.618077
821.647286	2447.480192
821.965517	2487.809423
822.283704	2452.521346
822.601847	2563.426731
822.919945	2397.068654
823.237999	2558.385577
823.556010	2417.233269
823.873976	2576.029615
824.191897	2444.959615
824.509775	2497.891731
824.827609	2492.850577
825.145398	2513.015192
825.463144	2543.262115
825.780845	2452.521346
826.098502	2492.850577
826.416116	2455.041923
826.733685	2530.659231
827.051210	2480.247692
827.368692	2495.371154
827.686129	2530.659231
828.003522	2538.220962
828.320872	2505.453462
828.638177	2505.453462
828.955439	2427.315577
829.272656	2399.589231
829.589830	2432.356731
829.906960	2528.138654
830.224046	2472.685962
830.541088	2492.850577
830.858086	2444.959615
831.175041	2495.371154
831.491952	2507.974038
831.808819	2429.836154
832.125642	2530.659231
832.442421	2442.439038
832.759157	2467.644808
833.075849	2538.220962
833.392497	2510.494615
833.709101	2434.877308
834.025662	2424.795000
834.342179	2467.644808
834.658653	2548.303269
834.975083	2470.165385
835.291469	2507.974038
835.607811	2492.850577
835.924110	2407.150962
836.240366	2482.768269
836.556578	2470.165385
836.872746	2518.056346
837.188871	2465.124231
837.504952	2437.397885
837.820990	2525.618077
838.136984	2510.494615
838.452935	2502.932885
838.768842	2543.262115
839.084706	2513.015192
839.400526	2502.932885
839.716303	2500.412308
840.032037	2450.000769
840.347727	2485.288846
840.663373	2525.618077
840.978977	2444.959615
841.294537	2409.671538
841.610054	2515.535769
841.925527	2472.685962
842.240957	2427.315577
842.556344	2482.768269
842.871687	2480.247692
843.186987	2452.521346
843.502244	2465.124231
843.817458	2538.220962
844.132629	2439.918462
844.447756	2460.083077
844.762840	2465.124231
845.077881	2502.932885
845.392879	2432.356731
845.707833	2490.330000
846.022745	2535.700385
846.337613	2538.220962
846.652438	2485.288846
846.967221	2465.124231
847.281960	2591.153077
847.596656	2412.192115
847.911309	2442.439038
848.225919	2452.521346
848.540485	2467.644808
848.855009	2470.165385
849.169490	2480.247692
849.483928	2460.083077
849.798323	2444.959615
850.112675	2513.015192
850.426984	2550.823846
850.741251	2490.330000
851.055474	2475.206538
851.369654	2462.603654
851.683792	2465.124231
851.997887	2555.865000
852.311938	2525.618077
852.625947	2543.262115
852.939914	2500.412308
853.253837	2422.274423
853.567718	2482.768269
853.881555	2538.220962
854.195350	2560.906154
854.509103	2450.000769
854.822812	2460.083077
855.136479	2455.041923
855.450103	2523.097500
855.763685	2444.959615
856.077224	2475.206538
856.390720	2520.576923
856.704173	2523.097500
857.017584	2495.371154
857.330953	2497.891731
857.644278	2502.932885
857.957561	2591.153077
858.270802	2394.548077
858.584000	2482.768269
858.897155	2558.385577
859.210268	2591.153077
859.523339	2470.165385
859.836367	2513.015192
860.149352	2460.083077
860.462295	2477.727115
860.775195	2500.412308
861.088054	2424.795000
861.400869	2495.371154
861.713642	2470.165385
862.026373	2502.932885
862.339062	2475.206538
862.651708	2583.591346
862.964312	2518.056346
863.276873	2525.618077
863.589392	2470.165385
863.901869	2507.974038
864.214303	2450.000769
864.526696	2497.891731
864.839045	2513.015192
865.151353	2475.206538
865.463619	2497.891731
865.775842	2429.836154
866.088023	2492.850577
866.400162	2505.453462
866.712258	2432.356731
867.024313	2487.809423
867.336325	2439.918462
867.648296	2535.700385
867.960224	2543.262115
868.272110	2455.041923
868.583954	2477.727115
868.895755	2450.000769
869.207515	2507.974038
869.519233	2515.535769
869.830909	2502.932885
870.142542	2497.891731
870.454134	2515.535769
870.765684	2518.056346
871.077191	2492.850577
871.388657	2520.576923
871.700081	2502.932885
872.011463	2462.603654
872.322803	2437.397885
872.634101	2565.947308
872.945357	2510.494615
873.256571	2475.206538
873.567744	2384.465769
873.878874	2513.015192
874.189963	2412.192115
874.501010	2520.576923
874.812015	2462.603654
875.122979	2513.015192
875.433900	2434.877308
875.744780	2525.618077
876.055618	2455.041923
876.366415	2414.712692
876.677169	2495.371154
876.987882	2477.727115
877.298554	2528.138654
877.609183	2533.179808
877.919771	2543.262115
878.230317	2442.439038
878.540822	2492.850577
878.851285	2497.891731
879.161707	2510.494615
879.472087	2520.576923
879.782425	2465.124231
880.092722	2576.029615
880.402977	2477.727115
880.713191	2414.712692
881.023363	2520.576923
881.333494	2533.179808
881.643583	2588.632500
881.953631	2497.891731
882.263637	2482.768269
882.573602	2520.576923
882.883526	2450.000769
883.193408	2548.303269
883.503248	2386.986346
883.813048	2555.865000
884.122806	2576.029615
884.432522	2470.165385
884.742197	2482.768269
885.051831	2513.015192
885.361424	2477.727115
885.670975	2513.015192
885.980485	2515.535769
886.289954	2404.630385
886.599382	2576.029615
886.908768	2502.932885
887.218113	2530.659231
887.527417	2487.809423
887.836680	2482.768269
888.145901	2422.274423
888.455082	2505.453462
888.764221	2480.247692
889.073319	2477.727115
889.382376	2621.400000
889.691392	2429.836154
890.000366	2492.850577
890.309300	2439.918462
890.618193	2533.179808
890.927044	2525.618077
891.235855	2460.083077
891.544625	2490.330000
891.853353	2500.412308
892.162041	2530.659231
892.470687	2477.727115
892.779293	2510.494615
893.087858	2505.453462
893.396381	2510.494615
893.704864	2450.000769
894.013306	2462.603654
894.321707	2444.959615
894.630068	2568.467885
894.938387	2525.618077
895.246665	2434.877308
895.554903	2515.535769
895.863100	2462.603654
896.171256	2513.015192
896.479371	2528.138654
896.787446	2452.521346
897.095480	2568.467885
897.403473	2485.288846
897.711425	2490.330000
898.019336	2518.056346
898.327207	2565.947308
898.635038	2422.274423
898.942827	2518.056346
899.250576	2480.247692
899.558284	2528.138654
899.865952	2452.521346
900.173579	2510.494615
900.481165	2457.562500
900.788711	2429.836154
901.096216	2543.262115
901.403681	2460.083077
901.711105	2409.671538
902.018489	2477.727115
902.325832	2485.288846
902.633135	2490.330000
902.940397	2450.000769
903.247619	2475.206538
903.554800	2548.303269
903.861941	2502.932885
904.169041	2565.947308
904.476101	2525.618077
904.783121	2487.809423
905.090100	2538.220962
905.397039	2434.877308
905.703938	2497.891731
906.010796	2402.109808
906.317614	2533.179808
906.624391	2513.015192
906.931129	2518.056346
907.237826	2447.480192
907.544483	2434.877308
907.851099	2525.618077
908.157675	2480.247692
908.464211	2497.891731
908.770707	2502.932885
909.077163	2502.932885
909.383578	2427.315577
909.689954	2429.836154
909.996289	2477.727115
910.302584	2560.906154
910.608839	2495.371154
910.915054	2427.315577
911.221229	2555.865000
911.527363	2533.179808
911.833458	2515.535769
912.139513	2558.385577
912.445527	2427.315577
912.751502	2553.344423
913.057436	2460.083077
913.363331	2513.015192
913.669186	2422.274423
913.975000	2492.850577
914.280775	2520.576923
914.586510	2404.630385
914.892205	2520.576923
915.197859	2555.865000
915.503475	2480.247692
915.809050	2576.029615
916.114585	2548.303269
916.420081	2404.630385
916.725536	2472.685962
917.030952	2419.753846
917.336328	2502.932885
917.641665	2427.315577
917.946961	2543.262115
918.252218	2450.000769
918.557435	2525.618077
918.862612	2485.288846
919.167750	2502.932885
919.472848	2470.165385
919.777906	2480.247692
920.082925	2452.521346
920.387904	2528.138654
920.692843	2515.535769
920.997743	2485.288846
921.302603	2409.671538
921.607423	2424.795000
921.912204	2513.015192
922.216946	2513.015192
922.521647	2502.932885
922.826310	2384.465769
923.130932	2502.932885
923.435516	2470.165385
923.740059	2439.918462
924.044564	2520.576923
924.349028	2502.932885
924.653454	2505.453462
924.957840	2505.453462
925.262186	2455.041923
925.566493	2439.918462
925.870761	2444.959615
926.174989	2402.109808
926.479178	2482.768269
926.783328	2376.904038
927.087438	2419.753846
927.391509	2492.850577
927.695541	2510.494615
927.999533	2480.247692
928.303486	2447.480192
928.607400	2490.330000
928.911275	2455.041923
929.215110	2480.247692
929.518906	2450.000769
929.822663	2437.397885
930.126381	2515.535769
930.430060	2442.439038
930.733699	2565.947308
931.037299	2414.712692
931.340861	2523.097500
931.644383	2502.932885
931.947866	2490.330000
932.251309	2402.109808
932.554714	2477.727115
932.858080	2480.247692
933.161407	2515.535769
933.464694	2555.865000
933.767943	2434.877308
934.071153	2507.974038
934.374323	2490.330000
934.677455	2467.644808
934.980548	2472.685962
935.283602	2608.797115
935.586617	2513.015192
935.889593	2450.000769
936.192530	2467.644808
936.495428	2505.453462
936.798287	2543.262115
937.101108	2525.618077
937.403890	2565.947308
937.706632	2457.562500
938.009336	2487.809423
938.312002	2429.836154
938.614628	2502.932885
938.917216	2518.056346
939.219765	2422.274423
939.522275	2528.138654
939.824747	2470.165385
940.127179	2535.700385
940.429573	2462.603654
940.731929	2434.877308
941.034246	2452.521346
941.336524	2475.206538
941.638763	2432.356731
941.940964	2409.671538
942.243126	2462.603654
942.545250	2515.535769
942.847335	2427.315577
943.149381	2470.165385
943.451389	2515.535769
943.753359	2444.959615
944.055290	2477.727115
944.357182	2502.932885
944.659036	2525.618077
944.960851	2492.850577
945.262628	2371.862885
945.564367	2497.891731
945.866067	2455.041923
946.167729	2462.603654
946.469352	2581.070769
946.770937	2470.165385
947.072484	2513.015192
947.373992	2523.097500
947.675462	2470.165385
947.976893	2480.247692
948.278286	2560.906154
948.579641	2424.795000
948.880958	2530.659231
949.182236	2399.589231
949.483476	2439.918462
949.784678	2586.111923
950.085841	2417.233269
950.386967	2475.206538
950.688054	2490.330000
950.989103	2560.906154
951.290114	2518.056346
951.591087	2502.932885
951.892021	2447.480192
952.192917	2485.288846
952.493776	2480.247692
952.794596	2538.220962
953.095378	2490.330000
953.396122	2472.685962
953.696828	2437.397885
953.997496	2515.535769
954.298126	2417.233269
954.598718	2535.700385
954.899272	2495.371154
955.199788	2482.768269
955.500266	2447.480192
955.800706	2477.727115
956.101108	2452.521346
956.401472	2513.015192
956.701798	2480.247692
957.002087	2513.015192
957.302337	2432.356731
957.602550	2490.330000
957.902724	2475.206538
958.202861	2465.124231
958.502960	2460.083077
958.803022	2515.535769
959.103045	2535.700385
959.403031	2457.562500
959.702979	2482.768269
960.002889	2565.947308
960.302762	2598.714808
960.602596	2502.932885
960.902393	2502.932885
961.202153	2515.535769
961.501875	2407.150962
961.801559	2482.768269
962.101205	2515.535769
962.400814	2475.206538
962.700385	2538.220962
962.999918	2593.673654
963.299414	2470.165385
963.598873	2538.220962
963.898293	2538.220962
964.197677	2518.056346
964.497022	2409.671538
964.796331	2460.083077
965.095601	2497.891731
965.394835	2477.727115
965.694030	2467.644808
965.993189	2460.083077
966.292309	2570.988462
966.591393	2518.056346
966.890439	2558.385577
967.189447	2477.727115
967.488419	2460.083077
967.787353	2434.877308
968.086249	2452.521346
968.385108	2427.315577
968.683930	2477.727115
968.982714	2455.041923
969.281462	2492.850577
969.580172	2490.330000
969.878844	2533.179808
970.177480	2548.303269
970.476078	2543.262115
970.774639	2419.753846
971.073162	2530.659231
971.371649	2550.823846
971.670098	2528.138654
971.968510	2520.576923
972.266885	2490.330000
972.565223	2470.165385
972.863524	2520.576923
973.161788	2447.480192
973.460014	2520.576923
973.758204	2510.494615
974.056356	2500.412308
974.354471	2434.877308
974.652550	2442.439038
974.950591	2429.836154
975.248595	2495.371154
975.546563	2379.424615
975.844493	2482.768269
976.142386	2520.576923
976.440243	2490.330000
976.738062	2502.932885
977.035845	2414.712692
977.333590	2475.206538
977.631299	2439.918462
977.928971	2404.630385
978.226606	2439.918462
978.524204	2477.727115
978.821765	2528.138654
979.119290	2500.412308
979.416777	2487.809423
979.714228	2530.659231
980.011642	2518.056346
980.309020	2497.891731
980.606360	2450.000769
980.903664	2402.109808
981.200931	2515.535769
981.498162	2568.467885
981.795356	2487.809423
982.092513	2495.371154
982.389633	2475.206538
982.686717	2452.521346
982.983764	2437.397885
983.280775	2457.562500
983.577749	2533.179808
983.874686	2523.097500
984.171587	2525.618077
984.468451	2487.809423
984.765279	2543.262115
985.062070	2581.070769
985.358824	2455.041923
985.655543	2528.138654
985.952224	2528.138654
986.248869	2470.165385
986.545478	2540.741538
986.842050	2437.397885
987.138586	2487.809423
987.435086	2502.932885
987.731549	2545.782692
988.027975	2500.412308
988.324366	2502.932885
988.620719	2417.233269
988.917037	2485.288846
989.213318	2422.274423
989.509563	2515.535769
989.805772	2515.535769
990.101944	2497.891731
990.398080	2442.439038
990.694180	2505.453462
990.990244	2462.603654
991.286271	2467.644808
991.582262	2533.179808
991.878217	2495.371154
992.174136	2513.015192
992.470019	2480.247692
992.765865	2523.097500
993.061676	2490.330000
993.357450	2578.550192
993.653188	2439.918462
993.948890	2545.782692
994.244556	2555.865000
994.540186	2429.836154
994.835780	2518.056346
995.131337	2455.041923
995.426859	2533.179808
995.722345	2467.644808
996.017795	2485.288846
996.313208	2356.739423
996.608586	2523.097500
996.903928	2480.247692
997.199234	2507.974038
997.494504	2482.768269
997.789738	2523.097500
998.084936	2520.576923
998.380099	2480.247692
998.675225	2462.603654
998.970316	2535.700385
999.265371	2439.918462
999.560390	2374.383462
999.855373	2490.330000
1000.150320	2394.548077
1000.445232	2422.274423
1000.740108	2455.041923
1001.034948	2427.315577
1001.329752	2515.535769
1001.624521	2497.891731
1001.919254	2515.535769
1002.213951	2437.397885
1002.508613	2538.220962
1002.803239	2513.015192
1003.097829	2452.521346
1003.392384	2533.179808
1003.686903	2528.138654
1003.981386	2497.891731
1004.275834	2495.371154
1004.570246	2540.741538
1004.864623	2485.288846
1005.158964	2538.220962
1005.453270	2452.521346
1005.747540	2477.727115
1006.041775	2510.494615
1006.335974	2543.262115
1006.630138	2543.262115
1006.924266	2480.247692
1007.218359	2573.509038
1007.512416	2465.124231
1007.806438	2490.330000
1008.100425	2525.618077
1008.394376	2525.618077
1008.688292	2565.947308
1008.982172	2427.315577
1009.276017	2520.576923
1009.569827	2492.850577
1009.863602	2533.179808
1010.157341	2513.015192
1010.451045	2422.274423
1010.744714	2500.412308
1011.038347	2510.494615
1011.331945	2424.795000
1011.625508	2555.865000
1011.919036	2485.288846
1012.212528	2424.795000
1012.505986	2510.494615
1012.799408	2518.056346
1013.092795	2482.768269
1013.386147	2467.644808
1013.679464	2548.303269
1013.972745	2470.165385
1014.265992	2407.150962
1014.559204	2530.659231
1014.852380	2518.056346
1015.145521	2523.097500
1015.438628	2414.712692
1015.731699	2482.768269
1016.024736	2490.330000
1016.317737	2502.932885
1016.610703	2545.782692
1016.903635	2407.150962
1017.196531	2485.288846
1017.489393	2465.124231
1017.782219	2399.589231
1018.075011	2523.097500
1018.367768	2523.097500
1018.660490	2497.891731
1018.953177	2497.891731
1019.245829	2497.891731
