Dividing Wavelength (nm)	Counts (n)	Blue Motor Position (mm): 9.400000	Red Motor Position (mm): 0.000000	
326.493990	2062.885524
326.888308	2062.885524
327.282561	2062.885524
327.676750	2037.578932
328.070874	2037.629343
328.464933	2044.936496
328.858929	2053.997970
329.252859	2065.030535
329.646726	2076.854562
330.040528	2092.895513
330.434265	2109.987545
330.827938	2133.050824
331.221547	2153.205357
331.615091	2173.052380
332.008571	2194.197500
332.401986	2213.190047
332.795338	2232.535475
333.188625	2254.363671
333.581847	2271.385127
333.975006	2291.590071
334.368100	2307.923410
334.761129	2324.506285
335.154095	2340.196877
335.546996	2369.647298
335.939833	2424.187541
336.332606	2435.315888
336.725315	2446.353494
337.117960	2458.205247
337.510540	2467.871660
337.903056	2475.002372
338.295508	2482.659884
338.687896	2489.588950
339.080220	2493.833602
339.472480	2499.653614
339.864676	2503.147134
340.256807	2504.903976
340.648875	2505.713081
341.040879	2509.289780
341.432818	2509.680469
341.824694	2509.783813
342.216506	2512.087620
342.608253	2514.146931
342.999937	2510.446724
343.391557	2506.887670
343.783113	2506.063441
344.174605	2504.258708
344.566033	2501.130672
344.957397	2500.515651
345.348697	2499.247801
345.739934	2496.878459
346.131106	2495.154384
346.522215	2494.161277
346.913260	2493.944507
347.304241	2492.366626
347.695159	2490.367809
348.086012	2486.080307
348.476802	2484.651140
348.867528	2486.125678
349.258191	2477.167547
349.648789	2479.105871
350.039324	2475.672845
350.429796	2482.649802
350.820203	2480.499750
351.210548	2481.518063
351.600828	2479.499081
351.991045	2475.617393
352.381198	2478.168216
352.771288	2477.023874
353.161314	2477.228041
353.551276	2475.758545
353.941175	2475.478761
354.331010	2473.747124
354.720782	2478.500932
355.110490	2479.572178
355.500135	2474.863740
355.889717	2477.470017
356.279235	2478.480768
356.668689	2478.115284
357.058080	2478.626961
357.447408	2476.267701
357.836672	2478.493371
358.225873	2478.291725
358.615010	2481.450007
359.004084	2480.396406
359.393095	2479.433546
359.782043	2482.589308
360.170927	2483.857158
360.559748	2481.298773
360.948505	2483.698362
361.337199	2484.104175
361.725830	2484.232724
362.114398	2484.013434
362.502903	2483.204329
362.891344	2482.942189
363.279722	2483.655512
363.668037	2487.017962
364.056289	2487.464104
364.444478	2486.521408
364.832603	2489.646924
365.220665	2486.972592
365.608665	2487.010400
365.996601	2487.068373
366.384474	2490.188848
366.772284	2488.260606
367.160031	2488.963847
367.547715	2490.629949
367.935336	2487.524598
368.322893	2487.663230
368.710388	2485.674494
369.097820	2489.236070
369.485189	2486.644917
369.872495	2492.180103
370.259738	2492.623725
370.646918	2489.127685
371.034035	2492.434682
371.421090	2491.575165
371.808081	2490.385453
372.195010	2493.473159
372.581875	2491.434013
372.968678	2491.557521
373.355418	2493.679847
373.742096	2494.365444
374.128710	2493.077429
374.515262	2495.751761
374.901751	2492.331338
375.288177	2493.450474
375.674540	2491.615494
376.060841	2493.437871
376.447079	2494.579693
376.833254	2496.414673
377.219367	2494.070536
377.605417	2495.822337
377.991404	2494.438540
378.377329	2495.988695
378.763191	2495.996257
379.148991	2495.852584
379.534727	2496.185300
379.920402	2495.507265
380.306013	2497.758140
380.691563	2496.031545
381.077049	2497.422903
381.462474	2494.183962
381.847835	2497.619508
382.233134	2497.001967
382.618371	2500.157729
383.003545	2499.872904
383.388657	2498.050527
383.773706	2499.973727
384.158693	2497.601864
384.543618	2497.576659
384.928480	2500.220744
385.313280	2498.310147
385.698017	2499.774602
386.082692	2497.692605
386.467305	2500.437513
386.851856	2501.433141
387.236344	2499.855260
387.620770	2497.496000
388.005133	2499.308295
388.389435	2497.266628
388.773674	2498.874756
389.157851	2501.619664
389.541965	2499.802328
389.926018	2502.312823
390.310008	2503.966321
390.693936	2502.733759
391.077802	2502.872391
391.461606	2504.838441
391.845348	2502.534633
392.229027	2502.849706
392.612645	2502.769047
392.996200	2502.625374
393.379694	2502.343070
393.763125	2502.890035
394.146494	2502.065806
394.529801	2502.567401
394.913047	2502.983296
395.296230	2503.426918
395.679351	2502.459016
396.062410	2504.009171
396.445408	2505.904645
396.828343	2506.559995
397.211217	2507.033863
397.594028	2505.718122
397.976778	2506.219717
398.359466	2504.914058
398.742092	2502.905158
399.124656	2504.553616
399.507158	2504.173008
399.889598	2505.277021
400.271977	2506.973369
400.654294	2505.521517
401.036549	2508.848679
401.418742	2506.149141
401.800874	2506.701147
402.182944	2508.074862
402.564952	2508.089985
402.946898	2506.817094
403.328783	2509.922444
403.710606	2508.347084
404.092367	2507.104439
404.474067	2507.603514
404.855705	2508.198370
405.237282	2508.999913
405.618797	2509.269615
406.000250	2511.684328
406.381642	2509.423370
406.762972	2507.946312
407.144240	2503.754593
407.525447	2509.655263
407.906593	2504.626712
408.287677	2510.592918
408.668700	2509.163751
409.049661	2513.758763
409.430560	2511.490243
409.811399	2511.465038
410.192176	2508.997393
410.572891	2509.040243
410.953545	2510.968484
411.334138	2512.455624
411.714669	2511.122239
412.095139	2510.015706
412.475547	2512.168278
412.855894	2512.092661
413.236180	2509.877074
413.616405	2514.204905
413.996568	2510.769358
414.376670	2512.937054
414.756711	2513.559637
415.136691	2514.711541
415.516609	2512.601818
415.896466	2511.034019
416.276262	2514.252796
416.655997	2515.064421
417.035670	2513.375635
417.415283	2511.091992
417.794834	2511.281035
418.174324	2512.523680
418.553753	2510.673576
418.933121	2517.184227
419.312428	2509.574605
419.691674	2512.082579
420.070859	2513.620131
420.449983	2513.312620
420.829045	2513.685666
421.208047	2515.649195
421.586988	2513.814215
421.965867	2514.991325
422.344686	2515.644154
422.723444	2515.041736
423.102141	2515.233300
423.480777	2515.334123
423.859352	2514.943434
424.237866	2517.098527
424.616319	2514.527538
424.994712	2513.894874
425.373044	2512.362363
425.751314	2512.868999
426.129524	2507.104439
426.507673	2511.291118
426.885762	2508.321878
427.263789	2513.322703
427.641756	2516.175996
428.019662	2512.538803
428.397508	2512.984945
428.775292	2514.590553
429.153016	2514.759432
429.530679	2513.733557
429.908282	2515.281191
430.285824	2517.038033
430.663305	2514.658608
431.040726	2515.775224
431.418086	2515.253465
431.795385	2515.800430
432.172624	2514.167096
432.549802	2515.853362
432.926920	2516.075173
433.303977	2516.438136
433.680974	2514.293125
434.057910	2517.234638
434.434786	2517.300173
434.811601	2516.284381
435.188355	2511.946468
435.565050	2515.492919
435.941683	2515.364370
436.318257	2517.705986
436.694770	2513.897394
437.071222	2515.634072
437.447614	2518.588188
437.823946	2512.558968
438.200218	2516.170955
438.576429	2517.365708
438.952580	2516.324710
439.328670	2516.710358
439.704700	2516.115502
440.080670	2515.941582
440.456580	2514.855213
440.832429	2517.320338
441.208218	2512.281704
441.583947	2514.212466
441.959616	2515.397138
442.335224	2517.043074
442.710773	2514.235152
443.086261	2516.443177
443.461689	2518.449556
443.837057	2516.561644
444.212365	2516.712879
444.587612	2514.096520
444.962800	2512.503515
445.337927	2516.042405
445.712995	2511.790192
446.088002	2516.778414
446.462949	2514.348578
446.837837	2517.141377
447.212664	2516.750687
447.587431	2519.049453
447.962139	2517.804288
448.336786	2518.696573
448.711374	2515.540810
449.085901	2517.406037
449.460369	2516.856552
449.834776	2518.850328
450.209124	2517.337982
450.583412	2517.090965
450.957640	2515.230779
451.331808	2519.334279
451.705917	2517.587519
452.079965	2515.891171
452.453954	2516.082734
452.827883	2515.654236
453.201752	2519.840915
453.575562	2518.515091
453.949311	2517.837056
454.323001	2517.864782
454.696632	2516.917045
455.070202	2520.166069
455.443713	2517.771521
455.817164	2518.920904
456.190556	2518.250431
456.563888	2521.323014
456.937160	2517.960564
457.310373	2518.172293
457.683526	2518.605832
458.056619	2516.990142
458.429653	2517.751356
458.802628	2519.167921
459.175542	2516.196160
459.548398	2520.405524
459.921194	2519.001562
460.293930	2518.000893
460.666607	2520.551717
461.039224	2518.930986
461.411782	2518.885616
461.784280	2518.441994
462.156719	2520.113137
462.529099	2519.160359
462.901419	2517.970647
463.273680	2516.417971
463.645882	2513.022754
464.018024	2517.474093
464.390106	2513.529390
464.762130	2519.843435
465.134094	2518.562982
465.505999	2520.680267
465.877845	2518.368898
466.249631	2521.920391
466.621358	2518.003414
466.993026	2524.380474
467.364634	2522.938704
467.736184	2522.550535
468.107674	2519.392252
468.479105	2520.849145
468.850477	2520.128260
469.221790	2522.326203
469.593043	2519.979546
469.964238	2518.638599
470.335373	2518.739422
470.706449	2520.438291
471.077467	2518.966274
471.448425	2523.410052
471.819324	2522.490041
472.190164	2521.386028
472.560945	2520.249248
472.931667	2519.397293
473.302330	2519.432581
473.672934	2520.856707
474.043479	2518.507529
474.413965	2520.249248
474.784393	2519.593898
475.154761	2523.074815
475.525070	2519.891326
475.895321	2520.027437
476.265513	2520.584485
476.635645	2520.786131
477.005719	2521.290246
477.375734	2522.416944
477.745691	2522.167407
478.115588	2522.555576
478.485427	2522.555576
478.855207	2521.806965
479.224928	2523.596574
479.594591	2523.725124
479.964194	2520.763446
480.333739	2524.206554
480.703226	2522.109434
481.072653	2525.449198
481.442022	2526.921215
481.811333	2520.115657
482.180584	2521.239835
482.549777	2520.435771
482.918912	2518.356295
483.287988	2524.977850
483.657005	2520.652540
484.025964	2523.364681
484.394864	2524.181348
484.763706	2522.469876
485.132489	2521.557428
485.501213	2524.511544
485.869879	2522.396780
486.238487	2523.455422
486.607036	2519.596419
486.975527	2523.135309
487.343959	2525.076153
487.712333	2523.037006
488.080648	2525.199661
488.448905	2524.433406
488.817104	2523.059691
489.185244	2524.138498
489.553326	2528.489014
489.921350	2524.718231
490.289315	2528.073119
490.657222	2527.843746
491.025070	2527.276617
491.392861	2526.149919
491.760593	2524.337624
492.128267	2523.936852
492.495883	2523.405010
492.863440	2523.972140
493.230939	2524.955165
493.598380	2525.867614
493.965763	2524.188910
494.333088	2526.170083
494.700354	2523.546163
495.067563	2526.220495
495.434713	2525.842408
495.801805	2525.358457
496.168839	2525.091276
496.535815	2523.669671
496.902733	2523.820906
497.269593	2527.606812
497.636395	2525.529857
498.003139	2524.735875
498.369825	2528.131092
498.736453	2525.855011
499.103023	2526.432223
499.469535	2524.400638
499.835989	2527.097656
500.202385	2523.140350
500.568723	2520.392921
500.935003	2522.641276
501.301226	2518.318486
501.667390	2524.884589
502.033497	2524.897192
502.399546	2526.021369
502.765537	2524.229239
503.131470	2527.175793
503.497345	2524.569517
503.863163	2524.914836
504.228923	2525.139167
504.594625	2526.283509
504.960269	2523.586492
505.325856	2526.217974
505.691385	2525.557583
506.056856	2526.432223
506.422270	2526.732172
506.787625	2528.327697
507.152924	2526.613705
507.518164	2526.933818
507.883347	2524.385515
508.248472	2526.142357
508.613540	2524.584640
508.978550	2526.737213
509.343503	2524.869466
509.708398	2526.540608
510.073236	2526.210413
510.438016	2528.562111
510.802738	2525.728982
511.167403	2527.301822
511.532010	2526.016328
511.896561	2527.246370
512.261053	2528.289888
512.625488	2527.165711
512.989866	2528.715866
513.354186	2527.286699
513.718449	2526.212933
514.082655	2526.734692
514.446803	2528.597399
514.810894	2528.453726
515.174927	2527.921884
515.538904	2530.659231
515.902822	2530.155115
516.266684	2530.626463
516.630488	2529.076308
516.994235	2529.860208
517.357925	2532.779036
517.721558	2531.591844
518.085133	2532.602596
518.448651	2530.565969
518.812112	2528.113448
519.175516	2531.014632
519.538863	2525.658406
519.902152	2535.871784
520.265385	2532.443799
520.628560	2533.346166
520.991678	2535.007226
521.354739	2533.991433
521.717743	2535.705426
522.080690	2534.898841
522.443580	2538.094933
522.806413	2537.169881
523.169189	2536.096115
523.531908	2537.605941
523.894569	2536.403626
524.257174	2541.953936
524.619722	2542.606765
524.982213	2542.936961
525.344647	2542.294214
525.707025	2540.489481
526.069345	2544.512322
526.431608	2543.877136
526.793815	2545.828063
527.155964	2545.258412
527.518057	2546.259081
527.880093	2546.115408
528.242072	2547.428629
528.603995	2545.969215
528.965860	2549.072045
529.327669	2549.634134
529.689421	2552.270657
530.051117	2550.932231
530.412755	2552.240410
530.774337	2553.649413
531.135862	2553.351985
531.497331	2555.406255
531.858743	2553.727551
532.220098	2555.980947
532.581396	2559.615618
532.942638	2560.210475
533.303824	2561.004456
533.664953	2561.082594
534.026025	2560.681823
534.387040	2561.969837
534.747999	2565.019735
535.108902	2564.455126
535.469748	2564.175342
535.830537	2567.333625
536.191270	2563.661144
536.551947	2563.363716
536.912567	2562.194169
537.273131	2568.848492
537.633638	2565.049982
537.994089	2568.679613
538.354483	2569.904613
538.714821	2573.803946
539.075103	2571.936198
539.435328	2572.843606
539.795497	2575.366704
540.155609	2575.835531
540.515665	2580.748135
540.875665	2582.512539
541.235609	2579.329051
541.595496	2580.349884
541.955328	2582.535224
542.315102	2584.022365
542.674821	2584.776017
543.034483	2585.449011
543.394090	2583.840883
543.753640	2583.611511
544.113134	2585.998497
544.472571	2588.012438
544.831953	2590.464959
545.191278	2589.524784
545.550548	2588.105699
545.909761	2594.286154
546.268918	2593.328335
546.628019	2595.072574
546.987064	2592.035279
547.346053	2593.088880
547.704986	2599.682709
548.063863	2594.492841
548.422684	2595.115424
548.781449	2597.860332
549.140158	2599.818820
549.498811	2598.014087
549.857408	2598.954262
550.215949	2600.393512
550.574434	2601.729418
550.932864	2599.889397
551.291237	2602.944336
551.649555	2600.963162
552.007817	2605.555653
552.366022	2604.736466
552.724173	2604.292844
553.082267	2604.761672
553.440305	2606.304265
553.798288	2604.340735
554.156215	2607.635129
554.514086	2608.066148
554.871902	2603.708071
555.229661	2603.849223
555.587365	2602.503235
555.945014	2608.981117
556.302606	2607.869543
556.660143	2610.165789
557.017625	2610.503546
557.375050	2610.566560
557.732421	2611.463886
558.089735	2608.857609
558.446994	2608.615634
558.804197	2612.419184
559.161345	2611.549585
559.518437	2611.025305
559.875474	2612.603187
560.232455	2615.106119
560.589381	2614.047477
560.946251	2615.368259
561.303065	2616.439505
561.659825	2617.747684
562.016528	2613.687035
562.373177	2612.706530
562.729770	2615.978239
563.086307	2616.656274
563.442789	2617.525873
563.799216	2617.427571
564.155587	2614.274329
564.511904	2616.610904
564.868164	2619.307921
565.224370	2616.106788
565.580520	2616.799947
565.936615	2617.102416
566.292654	2616.958743
566.648638	2618.599639
567.004567	2615.643002
567.360441	2616.988990
567.716260	2618.060236
568.072023	2619.023096
568.427732	2617.994701
568.783385	2619.880092
569.138982	2616.195009
569.494525	2620.437140
569.850013	2620.827829
570.205445	2620.631224
570.560823	2619.660802
570.916145	2618.375308
571.271412	2618.939917
571.626625	2619.784310
571.981782	2618.352622
572.336884	2616.618466
572.691931	2616.908332
573.046923	2615.993362
573.401860	2614.602004
573.756743	2617.687190
574.111570	2619.565020
574.466342	2619.514608
574.821059	2618.786162
575.175722	2615.683332
575.530330	2618.355143
575.884882	2620.701800
576.239380	2618.604680
576.593823	2618.445884
576.948211	2621.546193
577.302544	2616.492437
577.656823	2613.687035
578.011047	2616.691562
578.365216	2615.285080
578.719330	2616.769700
579.073389	2614.329782
579.427394	2614.007148
579.781344	2617.172992
580.135239	2616.759618
580.489080	2617.445215
580.842866	2614.604525
581.196597	2618.269443
581.550273	2617.782972
581.903895	2617.737602
582.257463	2618.050153
582.610975	2617.402365
582.964434	2618.093003
583.317837	2616.862962
583.671186	2613.359360
584.024481	2618.377828
584.377721	2615.920266
584.730906	2617.082252
585.084037	2620.245576
585.437113	2615.456480
585.790135	2618.143415
586.143103	2618.095524
586.496016	2617.999742
586.848874	2618.483692
587.201679	2621.019393
587.554428	2617.694752
587.907124	2619.943107
588.259765	2616.686521
588.612352	2620.011162
588.964884	2619.990997
589.317362	2621.984774
589.669786	2622.849332
590.022155	2619.244907
590.374470	2620.752212
590.726731	2621.301698
591.078937	2620.147273
591.431090	2623.945783
591.783188	2621.221039
592.135232	2623.744137
592.487222	2625.420320
592.839157	2626.393263
593.191038	2627.504837
593.542866	2625.097686
593.894639	2626.458798
594.246358	2626.932666
594.598022	2628.273613
594.949633	2628.044241
595.301190	2628.364354
595.652692	2632.926598
596.004141	2633.728142
596.355535	2629.629684
596.706876	2630.718573
597.058162	2631.411732
597.409395	2634.012967
597.760573	2636.004223
598.111698	2637.413225
598.462768	2636.231075
598.813785	2638.615540
599.164748	2638.285345
599.515657	2644.075110
599.866511	2642.086375
600.217312	2643.502939
600.568060	2641.196611
600.918753	2651.389824
601.269392	2648.541572
601.619978	2649.690955
601.970510	2655.642037
602.320988	2655.468118
602.671412	2659.770742
603.021783	2659.571617
603.372100	2661.688902
603.722363	2661.888027
604.072572	2666.367092
604.422728	2668.822134
604.772830	2667.952535
605.122878	2672.605520
605.472872	2674.067455
605.822813	2677.460151
606.172701	2680.709175
606.522534	2684.762263
606.872314	2687.544980
607.222041	2688.013807
607.571714	2695.346165
607.921333	2690.564631
608.270899	2698.131403
608.620411	2702.101311
608.969870	2709.688248
609.319276	2712.539020
609.668627	2715.389793
610.017926	2724.521843
610.367171	2726.374467
610.716362	2735.735890
611.065500	2737.517938
611.414585	2743.360635
611.763616	2751.043353
612.112594	2755.282964
612.461518	2761.191196
612.810389	2767.086826
613.159207	2774.608227
613.507971	2782.056532
613.856682	2789.575413
614.205340	2794.551032
614.553945	2810.738177
614.902496	2810.100471
615.250994	2819.847542
615.599439	2827.623522
615.947830	2839.661797
616.296169	2845.509535
616.644454	2856.683253
616.992686	2863.052751
617.340864	2880.404402
617.688990	2889.465876
618.037063	2905.653021
618.385082	2916.483940
618.733048	2932.696291
619.080961	2942.932354
619.428821	2955.242852
619.776628	2964.934470
620.124382	2974.260605
620.472083	2983.695124
620.819731	2997.270951
621.167326	2997.006291
621.514868	3010.687982
621.862357	3009.820904
622.209793	3021.166021
622.557176	3022.723737
622.904506	3029.209182
623.251783	3033.985675
623.599007	3041.030687
623.946179	3047.788354
624.293297	3058.712534
624.640363	3061.870817
624.987376	3069.528330
625.334336	3074.554360
625.681243	3082.839497
626.028097	3091.149839
626.374899	3109.421501
626.721647	3120.050774
627.068343	3134.476036
627.414987	3146.582367
627.761577	3155.043943
628.108115	3174.923733
628.454600	3179.599404
628.801032	3200.069009
629.147412	3215.134497
629.493739	3228.543966
629.840014	3239.009402
630.186236	3265.228443
630.532405	3275.136831
630.878521	3299.697332
631.224585	3315.821463
631.570597	3329.246056
631.916556	3353.158769
632.262462	3371.937067
632.608316	3389.840725
632.954117	3408.432500
633.299866	3427.281374
633.645562	3441.227727
633.991206	3445.792491
634.336797	3450.783234
634.682336	3462.640027
635.027823	3472.661841
635.373257	3485.037874
635.718639	3490.900736
636.063968	3502.041686
636.409245	3502.460102
636.754470	3519.226979
637.099642	3529.815923
637.444762	3534.778939
637.789829	3552.465827
638.134845	3563.105183
638.479808	3577.346442
638.824719	3595.275306
639.169577	3597.354782
639.514383	3624.312352
639.859137	3634.276192
640.203839	3657.306704
640.548489	3667.804907
640.893086	3688.156045
641.237632	3702.084753
641.582125	3724.036457
641.926566	3737.960124
642.270955	3763.869134
642.615292	3781.999644
642.959576	3799.235349
643.303809	3819.929286
643.647990	3850.942464
643.992118	3871.354096
644.336195	3895.561717
644.680219	3923.456942
645.024192	3955.309472
645.368112	4007.845857
645.711981	4039.509344
646.055797	4110.264459
646.399562	4137.022904
646.743274	4218.225810
647.086935	4276.241929
647.430544	4311.005726
647.774101	4346.253474
648.117606	4393.534456
648.461059	4429.510650
648.804460	4433.329324
649.147810	4426.488478
649.491108	4424.366153
649.834354	4445.047486
650.177548	4418.853651
650.520690	4415.289555
650.863781	4436.737144
651.206820	4450.118887
651.549807	4452.110143
651.892742	4445.092857
652.235626	4468.592195
652.578458	4485.033918
652.921238	4468.380467
653.263967	4515.774875
653.606644	4527.475393
653.949269	4548.933064
654.291843	4546.730080
654.634365	4605.126806
654.976836	4601.749233
655.319255	4638.831961
655.661622	4658.706710
656.003938	4675.360161
656.346203	4688.983880
656.688416	4735.755705
657.030577	4743.466150
657.372687	4757.586422
657.714746	4798.525632
658.056753	4844.465667
658.398708	4822.657636
658.740612	4857.560064
659.082465	4902.900202
659.424266	4924.539355
659.766016	4954.756031
660.107715	4974.111541
660.449362	5014.483622
660.790958	5044.831368
661.132503	5072.066202
661.473996	5110.973827
661.815438	5154.022760
662.156829	5196.257547
662.498168	5208.469742
662.839456	5235.545780
663.180693	5275.988436
663.521879	5317.373789
663.863013	5346.932594
664.204097	5381.154467
664.545129	5453.832782
664.886110	5489.546837
665.227040	5529.634092
665.567918	5564.057611
665.908746	5615.921002
666.249522	5657.286190
666.590248	5698.870668
666.930922	5748.760447
667.271545	5779.841681
667.612118	5831.339588
667.952639	5839.526422
668.293109	5875.323655
668.633528	5896.783847
668.973896	5921.160347
669.314213	5953.033042
669.654480	5964.095854
669.994695	5998.030381
670.334859	6021.444020
670.674973	6032.637902
671.015035	6089.446665
671.355047	6123.098887
671.695008	6153.396222
672.034918	6175.136198
672.374777	6226.167798
672.714585	6247.146560
673.054342	6307.728627
673.394049	6327.069013
673.733705	6391.023612
674.073310	6387.179732
674.412864	6435.859634
674.752368	6428.373520
675.091820	6491.017419
675.431223	6472.796168
675.770574	6474.643751
676.109875	6480.952755
676.449125	6484.297561
676.788324	6501.913873
677.127473	6467.233255
677.466571	6476.529142
677.805619	6474.699204
678.144616	6497.959087
678.483562	6522.259970
678.822458	6512.878382
679.161303	6536.483585
679.500098	6553.051337
679.838842	6581.541418
680.177535	6630.095292
680.516179	6698.811260
680.854771	6764.666373
681.193314	6937.754390
681.531805	7155.668347
681.870247	7337.734660
682.208638	7512.135898
682.546978	7598.425328
682.885268	7659.771129
683.223508	7623.225284
683.561697	7617.488451
683.899836	7633.539485
684.237925	7600.802232
684.575963	7612.558203
684.913951	7590.742610
685.251889	7669.533324
685.589776	7714.341620
685.927614	7770.401771
686.265401	7853.696756
686.603137	7925.167715
686.940824	8075.177330
687.278460	8193.899023
687.616046	8282.391438
687.953582	8466.325498
688.291068	8496.390939
688.628504	8611.251109
688.965889	8656.440012
689.303224	8645.462900
689.640510	8624.529508
689.977745	8526.801700
690.314930	8409.907424
690.652065	8345.995676
690.989150	8236.668172
691.326185	8085.398269
691.663170	7981.462280
692.000105	7851.385387
692.336990	7746.365549
692.673825	7684.195520
693.010610	7608.242975
693.347345	7522.356837
693.684030	7412.845332
694.020665	7399.813949
694.357251	7281.737523
694.693786	7312.158366
695.030272	7288.769932
695.366707	7212.227573
695.703093	7172.596542
696.039429	7220.595888
696.375716	7194.712084
696.711952	7223.832309
697.048139	7226.141158
697.384276	7221.967082
697.720363	7276.716534
698.056400	7287.391177
698.392388	7271.178826
698.728326	7301.884494
699.064214	7290.105838
699.400053	7318.895868
699.735842	7251.120075
700.071581	7219.910292
700.407270	7192.438524
700.742910	7173.491347
701.078501	7136.695965
701.414042	7109.647654
701.749533	7050.386370
702.084974	6996.582135
702.420366	7079.138591
702.755709	6994.855540
703.091002	6940.587519
703.426246	6986.966134
703.761440	6992.042576
704.096584	6951.703263
704.431679	6960.860519
704.766725	6966.196580
705.101721	6978.628066
705.436668	7030.816611
705.771565	6985.421020
706.106413	7086.725527
706.441212	7139.723178
706.775961	7194.520520
707.110661	7238.376038
707.445311	7369.403188
707.779913	7363.074020
708.114465	7473.001420
708.448967	7596.287879
708.783421	7806.423336
709.117825	7946.718647
709.452180	8043.649953
709.786485	8200.485291
710.120742	8461.402811
710.454949	8529.256742
710.789107	8699.705715
711.123216	8938.046428
711.457275	9039.978558
711.791286	9239.499866
712.125247	9318.209922
712.459159	9279.302296
712.793023	9529.111634
713.126837	9254.567875
713.460602	9355.554789
713.794318	9289.351836
714.127985	9236.349145
714.461602	8988.667174
714.795171	9009.363631
715.128691	8734.361127
715.462162	8591.063808
715.795584	8479.157755
716.128957	8416.478568
716.462281	8324.462387
716.795556	8257.536029
717.128782	8125.961913
717.461960	7955.850697
717.795088	7967.314281
718.128167	7881.223977
718.461198	7749.647341
718.794180	7730.077581
719.127113	7643.863768
719.459997	7596.252591
719.792833	7487.156980
720.125619	7522.029162
720.458357	7428.581293
720.791046	7405.127325
721.123686	7369.357818
721.456278	7309.542007
721.788821	7328.111097
722.121315	7254.338852
722.453761	7312.596946
722.786158	7289.309336
723.118506	7335.496387
723.450805	7314.610887
723.783056	7397.646253
724.115259	7380.176134
724.447412	7400.605410
724.779518	7493.360120
725.111574	7530.911675
725.443582	7651.332238
725.775542	7657.648803
726.107453	7868.374075
726.439315	7857.346551
726.771129	8024.995164
727.102895	8195.910444
727.434612	8316.149525
727.766281	8397.405363
728.097901	8530.796814
728.429473	8578.597035
728.760996	8615.823436
729.092471	8684.751132
729.423897	8666.590375
729.755276	8646.511460
730.086606	8708.689051
730.417887	8952.449004
730.749120	9194.502527
731.080305	9303.729207
731.411442	9480.232606
731.742530	9554.652640
732.073570	9643.250919
732.404562	9793.212643
732.735506	9756.755018
733.066401	9700.704949
733.397249	9540.945743
733.728048	9320.566661
734.058798	9001.033124
734.389501	8731.235612
734.720156	8545.574957
735.050762	8338.754058
735.381320	8195.789456
735.711831	8108.343081
736.042293	7971.460630
736.372707	7998.367789
736.703073	7938.229344
737.033391	8028.695371
737.363661	8045.109367
737.693883	8111.211497
738.024056	8206.058286
738.354182	8311.267167
738.684260	8473.594842
739.014290	8594.446423
739.344272	8707.630409
739.674207	8867.198052
740.004093	8954.866238
740.333931	8999.442640
740.663722	9054.388697
740.993464	9091.163914
741.323159	9047.333602
741.652806	8950.397255
741.982405	8905.798167
742.311956	8776.903424
742.641460	8748.030216
742.970915	8631.461095
743.300323	8494.424889
743.629683	8425.330835
743.958996	8303.949932
744.288260	8190.012294
744.617477	8074.184222
744.946647	8067.766833
745.275768	7950.181920
745.604842	7870.516566
745.933869	7808.470044
746.262847	7805.241185
746.591778	7780.292515
746.920662	7746.599963
747.249498	7761.015143
747.578286	7852.015531
747.907027	7939.517359
748.235720	8074.148934
748.564365	8121.041747
748.892963	8102.931402
749.221514	8164.967841
749.550017	8119.728527
749.878473	8115.879606
750.206881	8031.906586
750.535242	8006.196701
750.863555	7987.521747
751.191821	7950.804502
751.520039	7980.471693
751.848210	7959.044268
752.176334	7994.201275
752.504411	7966.195145
752.832440	7890.978609
753.160421	7962.245401
753.488356	7918.732682
753.816243	7884.835963
754.144082	7815.381466
754.471875	7801.498128
754.799620	7801.782954
755.127318	7798.995196
755.454969	7807.308058
755.782572	7808.883419
756.110129	7823.608629
756.437638	7799.726163
756.765100	7805.740259
757.092515	7828.279258
757.419882	7855.720779
757.747203	7878.602577
758.074477	7925.071933
758.401703	7921.659072
758.728882	8026.968775
759.056014	8062.619815
759.383099	8161.857449
759.710138	8231.780774
760.037129	8304.711147
760.364073	8342.171961
760.690970	8372.464254
761.017820	8396.134992
761.344623	8529.173563
761.671379	8744.488805
761.998088	9131.309143
762.324751	10043.634481
762.651366	11746.233781
762.977935	14026.750957
763.304456	15565.774897
763.630931	16162.040054
763.957359	15616.559481
764.283740	14506.063865
764.610074	13376.018654
764.936362	12015.204544
765.262602	11072.851573
765.588796	10094.638355
765.914943	9439.762223
766.241044	8869.335501
766.567097	8468.062175
766.893104	8102.258408
767.219064	7867.869960
767.544978	7617.105324
767.870845	7417.029489
768.196665	7306.081255
768.522438	7192.607402
768.848165	7092.986641
769.173846	6991.830847
769.499479	6931.523524
769.825066	6847.132088
770.150607	6729.947946
770.476101	6700.237906
770.801548	6636.641230
771.126949	6565.709675
771.452303	6512.974164
771.777611	6405.317803
772.102872	6412.614873
772.428087	6338.106620
772.753256	6257.879177
773.078378	6220.151181
773.403453	6119.620491
773.728482	6066.078396
774.053465	6027.193456
774.378401	5976.761753
774.703291	5915.249594
775.028135	5851.922619
775.352932	5840.370815
775.677683	5781.606085
776.002388	5727.237241
776.327046	5740.346761
776.651658	5691.818094
776.976224	5635.135360
777.300743	5645.653727
777.625216	5602.312407
777.949643	5576.854580
778.274024	5595.058187
778.598359	5548.026742
778.922647	5561.955450
779.246889	5536.663981
779.571086	5542.471390
779.895236	5549.589500
780.219339	5561.685748
780.543397	5562.114246
780.867409	5613.702894
781.191374	5622.764368
781.515294	5611.946052
781.839167	5674.733623
782.162995	5667.744063
782.486776	5638.528056
782.810511	5619.260766
783.134201	5577.691412
783.457844	5580.650569
783.781441	5553.360283
784.104993	5518.929202
784.428498	5507.551318
784.751958	5509.154405
785.075372	5498.003372
785.398739	5468.338702
785.722061	5503.389845
786.045337	5508.768756
786.368568	5614.980827
786.691752	5629.970698
787.014891	5833.668601
787.337983	6039.698038
787.661030	6391.131996
787.984031	6773.289267
788.306987	7026.783688
788.629897	7171.101840
788.952760	7162.993144
789.275579	7047.676750
789.598351	6820.741648
789.921078	6615.843950
790.243759	6373.518205
790.566395	6200.594025
790.888984	6045.853287
791.211529	5923.761582
791.534027	5793.830883
791.856480	5668.263302
792.178888	5630.797447
792.501249	5575.760650
792.823566	5478.864632
793.145836	5481.657431
793.468062	5466.319720
793.790241	5441.897851
794.112375	5485.463502
794.434464	5594.047435
794.756507	5614.335559
795.078505	5715.312391
795.400457	5899.851389
795.722364	6121.526048
796.044226	6294.301513
796.366042	6479.236242
796.687812	6450.574762
797.009538	6519.142016
797.331218	6465.355425
797.652852	6414.802734
797.974442	6328.193191
798.295986	6283.899092
798.617484	6168.000445
798.938938	6084.655048
799.260346	6021.484349
799.581709	5899.863992
799.903026	5854.324729
800.224299	5785.775119
800.545526	5681.055230
800.866708	5624.455675
801.187845	5580.617802
801.508936	5509.734137
801.829983	5487.991641
802.150984	5393.225510
802.471940	5363.190316
802.792851	5357.561867
803.113717	5342.067881
803.434538	5318.019057
803.755314	5279.970948
804.076045	5288.452689
804.396731	5253.333491
804.717372	5270.319659
805.037967	5273.288898
805.358518	5303.732427
805.679024	5357.705540
805.999485	5361.514132
806.319901	5390.024378
806.640272	5409.266462
806.960598	5463.622703
807.280879	5468.724351
807.601115	5522.349625
807.921306	5488.578935
808.241453	5504.231718
808.561554	5525.994379
808.881611	5508.529302
809.201623	5514.712277
809.521590	5485.372761
809.841513	5479.230115
810.161390	5510.394528
810.481223	5427.903608
810.801011	5428.387558
811.120755	5411.736627
811.440453	5361.688052
811.760107	5348.616340
812.079716	5334.549000
812.399281	5293.516528
812.718801	5288.979490
813.038276	5264.406385
813.357707	5224.029264
813.677093	5262.203401
813.996434	5197.525397
814.315731	5231.243155
814.634983	5231.734667
814.954191	5244.229167
815.273354	5320.698430
815.592473	5364.286767
815.911547	5454.667093
816.230577	5513.676320
816.549562	5619.364110
816.868502	5695.369587
817.187399	5767.395072
817.506250	5883.802876
817.825058	5908.577627
818.143821	6104.930569
818.462539	6298.452903
818.781213	6557.543005
819.099843	6936.947806
819.418429	7639.853530
819.736970	8308.653329
820.055466	9139.546388
820.373919	10207.398884
820.692327	11849.617764
821.010691	14601.727321
821.329011	20311.146603
821.647286	28185.675928
821.965517	37053.299957
822.283704	42283.020683
822.601847	45255.673160
822.919945	42513.441743
823.237999	38806.875404
823.556010	34336.523847
823.873976	29884.345648
824.191897	25547.299842
824.509775	22374.904247
824.827609	19435.611606
825.145398	17741.282319
825.463144	16866.879061
825.780845	17099.450173
826.098502	18313.453281
826.416116	20813.285856
826.733685	23260.251850
827.051210	24071.814605
827.368692	22929.229524
827.686129	20306.526386
828.003522	17504.564858
828.320872	14982.102543
828.638177	13049.553531
828.955439	11553.439893
829.272656	10291.813005
829.589830	9284.933265
829.906960	8398.126248
830.224046	7730.405256
830.541088	7209.515432
830.858086	6890.085239
831.175041	6625.144878
831.491952	6550.681995
831.808819	6597.151351
832.125642	6899.739049
832.442421	7553.049902
832.759157	8834.521292
833.075849	10849.299085
833.392497	13079.818098
833.709101	14564.233739
834.025662	14489.100383
834.342179	13381.379922
834.658653	11852.037517
834.975083	10492.282049
835.291469	9367.527530
835.607811	8421.615504
835.924110	7756.871314
836.240366	7128.725901
836.556578	6545.688732
836.872746	6084.909627
837.188871	5729.914093
837.504952	5421.171147
837.820990	5193.673956
838.136984	5032.203278
838.452935	4962.093430
838.768842	4992.000076
839.084706	5303.190503
839.400526	6170.508419
839.716303	7295.683875
840.032037	8101.620702
840.347727	8070.846978
840.663373	7374.464507
840.978977	6618.175483
841.294537	6029.845103
841.610054	5591.138690
841.925527	5270.511223
842.240957	5000.350747
842.556344	4755.302779
842.871687	4545.245460
843.186987	4340.569573
843.502244	4174.607226
843.817458	4052.873443
844.132629	3950.391827
844.447756	3883.178122
844.762840	3825.282991
845.077881	3767.455915
845.392879	3720.437073
845.707833	3682.963656
846.022745	3650.748163
846.337613	3631.490955
846.652438	3596.613732
846.967221	3585.167792
847.281960	3564.342786
847.596656	3546.272770
847.911309	3533.228784
848.225919	3513.931247
848.540485	3500.660410
848.855009	3492.629852
849.169490	3478.411277
849.483928	3470.705874
849.798323	3463.444092
850.112675	3450.750466
850.426984	3459.295222
850.741251	3442.228396
851.055474	3443.196297
851.369654	3445.981535
851.683792	3439.980041
851.997887	3448.887760
852.311938	3450.137966
852.625947	3454.059984
852.939914	3445.588325
853.253837	3453.558389
853.567718	3451.506639
853.881555	3445.432049
854.195350	3455.297587
854.509103	3453.240796
854.822812	3454.243986
855.136479	3445.275773
855.450103	3456.991415
855.763685	3446.306689
856.077224	3447.191412
856.390720	3461.009214
856.704173	3476.346925
857.017584	3489.663133
857.330953	3495.861231
857.644278	3514.316896
857.957561	3521.752597
858.270802	3520.499871
858.584000	3524.321065
858.897155	3517.142462
859.210268	3506.286338
859.523339	3489.632886
859.836367	3491.727485
860.149352	3482.355980
860.462295	3482.668532
860.775195	3468.933908
861.088054	3468.797797
861.400869	3465.500882
861.713642	3470.390802
862.026373	3474.953046
862.339062	3483.235662
862.651708	3496.970285
862.964312	3521.871065
863.276873	3532.810368
863.589392	3573.794949
863.901869	3613.756176
864.214303	3648.673728
864.526696	3672.425124
864.839045	3711.405846
865.151353	3731.666244
865.463619	3738.920464
865.775842	3745.443717
866.088023	3762.608846
866.400162	3755.039553
866.712258	3759.720265
867.024313	3761.648506
867.336325	3764.368209
867.648296	3775.252060
867.960224	3770.412552
868.272110	3782.284469
868.583954	3781.248512
868.895755	3796.392138
869.207515	3793.160759
869.519233	3824.015141
869.830909	3837.190197
870.142542	3851.688555
870.454134	3868.200854
870.765684	3890.994432
871.077191	3918.829163
871.388657	3937.060495
871.700081	3966.362202
872.011463	4004.531298
872.322803	4024.436294
872.634101	4050.259605
872.945357	4080.138524
873.256571	4123.111840
873.567744	4145.890293
873.878874	4157.603414
874.189963	4192.437788
874.501010	4201.680743
874.812015	4202.610836
875.122979	4237.210795
875.433900	4237.505703
875.744780	4251.676386
876.055618	4272.985344
876.366415	4275.505921
876.677169	4297.124909
876.987882	4334.479859
877.298554	4375.504769
877.609183	4441.639666
877.919771	4533.834808
878.230317	4651.712109
878.540822	4823.086134
878.851285	5080.542902
879.161707	5450.220796
879.472087	6051.564914
879.782425	7004.653022
880.092722	8638.753124
880.402977	10914.929867
880.713191	13320.293740
881.023363	15568.817234
881.333494	16940.691636
881.643583	17883.417652
881.953631	18126.459241
882.263637	17771.279705
882.573602	16891.535345
882.883526	15892.043416
883.193408	14762.681281
883.503248	13606.565743
883.813048	12479.051192
884.122806	11459.059411
884.432522	10399.149253
884.742197	9498.963013
885.051831	8709.871202
885.361424	7969.910476
885.670975	7351.877617
885.980485	6832.532907
886.289954	6407.271250
886.599382	6042.652154
886.908768	5755.422332
887.218113	5473.273992
887.527417	5246.275876
887.836680	5038.431623
888.145901	4865.071383
888.455082	4740.950614
888.764221	4619.030308
889.073319	4515.414432
889.382376	4458.779589
889.691392	4412.174122
890.000366	4390.192171
890.309300	4376.560891
890.618193	4376.956621
890.927044	4370.445971
891.235855	4389.098240
891.544625	4411.216303
891.853353	4461.884940
892.162041	4554.881626
892.470687	4707.018607
892.779293	4903.674019
893.087858	5202.745512
893.396381	5655.153782
893.704864	6274.630931
894.013306	7141.265771
894.321707	8049.043988
894.630068	8677.305348
894.938387	8856.251186
895.246665	8686.492851
895.554903	8241.936178
895.863100	7704.080351
896.171256	7268.086078
896.479371	6870.530604
896.787446	6489.583210
897.095480	6153.703733
897.403473	5902.878602
897.711425	5646.379653
898.019336	5438.290905
898.327207	5227.081682
898.635038	5047.684661
898.942827	4847.946584
899.250576	4696.054098
899.558284	4544.592631
899.865952	4445.087815
900.173579	4332.881813
900.481165	4243.885283
900.788711	4170.299560
901.096216	4112.817804
901.403681	4061.098086
901.711105	4038.735527
902.018489	4029.384187
902.325832	4089.898198
902.633135	4189.818908
902.940397	4463.833346
903.247619	5089.059931
903.554800	6180.618453
903.861941	7618.090869
904.169041	8775.844782
904.476101	9264.027600
904.783121	9030.740644
905.090100	8498.341866
905.397039	7873.286680
905.703938	7278.922038
906.010796	6744.869762
906.317614	6314.519061
906.624391	5897.035905
906.931129	5558.449327
907.237826	5241.365792
907.544483	4946.990133
907.851099	4648.374865
908.157675	4372.782546
908.464211	4117.175881
908.770707	3934.739044
909.077163	3774.881535
909.383578	3658.007424
909.689954	3566.144998
909.996289	3508.481760
910.302584	3455.975622
910.608839	3428.728186
910.915054	3407.580545
911.221229	3392.351219
911.527363	3401.571490
911.833458	3415.752256
912.139513	3437.232612
912.445527	3463.991057
912.751502	3530.090666
913.057436	3612.856330
913.363331	3729.682550
913.669186	3893.746902
913.975000	4106.012246
914.280775	4448.278866
914.586510	4912.740534
914.892205	5537.901584
915.197859	6337.506722
915.503475	7262.049297
915.809050	8064.464878
916.114585	8571.862053
916.420081	8789.675188
916.725536	8782.521790
917.030952	8457.233777
917.336328	8143.731981
917.641665	7837.736463
917.946961	7454.843184
918.252218	7128.146168
918.557435	6730.353759
918.862612	6397.325054
919.167750	6103.027533
919.472848	5766.772490
919.777906	5470.468590
920.082925	5185.696330
920.387904	4896.208070
920.692843	4687.143858
920.997743	4489.878467
921.302603	4303.627997
921.607423	4171.665713
921.912204	4037.263510
922.216946	3939.954118
922.521647	3843.771423
922.826310	3756.919904
923.130932	3679.775127
923.435516	3603.754527
923.740059	3542.779250
924.044564	3479.842965
924.349028	3431.248763
924.653454	3378.699775
924.957840	3320.769355
925.262186	3280.931637
925.566493	3233.799369
925.870761	3186.523428
926.174989	3154.431443
926.479178	3126.649644
926.783328	3091.661516
927.087438	3069.505645
927.391509	3038.394164
927.695541	3011.910462
927.999533	2993.308604
928.303486	2972.748258
928.607400	2964.541260
928.911275	2950.058025
929.215110	2935.456323
929.518906	2930.019438
929.822663	2928.713780
930.126381	2927.118254
930.430060	2930.349634
930.733699	2934.364913
931.037299	2940.008485
931.340861	2937.954215
931.644383	2947.416460
931.947866	2945.878908
932.251309	2942.201387
932.554714	2941.074689
932.858080	2935.738628
933.161407	2930.997422
933.464694	2922.107348
933.767943	2916.304979
934.071153	2916.856986
934.374323	2907.666962
934.677455	2904.244019
934.980548	2897.020045
935.283602	2893.902092
935.586617	2890.443860
935.889593	2897.929974
936.192530	2899.898544
936.495428	2913.731470
936.798287	2933.815427
937.101108	2959.018676
937.403890	3003.030470
937.706632	3052.590053
938.009336	3121.177472
938.312002	3177.373734
938.614628	3233.489338
938.917216	3276.535751
939.219765	3300.846715
939.522275	3328.399142
939.824747	3336.303671
940.127179	3336.626305
940.429573	3329.636745
940.731929	3328.815037
941.034246	3319.320024
941.336524	3303.642035
941.638763	3292.720375
941.940964	3283.361473
942.243126	3247.977614
942.545250	3232.728124
942.847335	3198.095397
943.149381	3165.958041
943.451389	3143.161944
943.753359	3115.460803
944.055290	3094.522371
944.357182	3074.055286
944.659036	3059.829150
944.960851	3052.317831
945.262628	3038.855429
945.564367	3041.509597
945.866067	3036.624719
946.167729	3029.617515
946.469352	3029.592309
946.770937	3030.179604
947.072484	3014.703261
947.373992	3015.091430
947.675462	3014.166378
947.976893	2997.659120
948.278286	2992.842298
948.579641	2981.978611
948.880958	2978.520380
949.182236	2984.698314
949.483476	2978.606079
949.784678	2978.565750
950.085841	2979.518528
950.386967	2988.587564
950.688054	3005.639267
950.989103	3018.968078
951.290114	3040.065306
951.591087	3059.990467
951.892021	3085.995259
952.192917	3104.806325
952.493776	3128.066208
952.794596	3135.509472
953.095378	3137.044503
953.396122	3133.901344
953.696828	3124.076135
953.997496	3118.188067
954.298126	3100.271807
954.598718	3084.122470
954.899272	3057.169941
955.199788	3034.522558
955.500266	3010.115811
955.800706	2980.453662
956.101108	2948.540638
956.401472	2923.838984
956.701798	2893.302194
957.002087	2860.607791
957.302337	2835.313802
957.602550	2814.362766
957.902724	2786.500309
958.202861	2767.958945
958.502960	2750.327510
958.803022	2734.021897
959.103045	2714.878116
959.403031	2698.564942
959.702979	2690.161338
960.002889	2680.988959
960.302762	2668.842299
960.602596	2659.226298
960.902393	2648.839000
961.202153	2644.430511
961.501875	2635.757206
961.801559	2629.473408
962.101205	2627.477111
962.400814	2620.084259
962.700385	2615.940430
962.999918	2608.386261
963.299414	2605.031373
963.598873	2601.426948
963.898293	2596.741196
964.197677	2598.397215
964.497022	2597.870414
964.796331	2594.026535
965.095601	2591.019486
965.394835	2590.180134
965.694030	2588.125864
965.993189	2586.162335
966.292309	2584.198805
966.591393	2585.938003
966.890439	2585.073445
967.189447	2586.679053
967.488419	2584.647468
967.787353	2587.904053
968.086249	2588.640062
968.385108	2587.178127
968.683930	2593.466967
968.982714	2595.438058
969.281462	2600.708584
969.580172	2606.115222
969.878844	2611.176540
970.177480	2617.931686
970.476078	2622.655247
970.774639	2630.816875
971.073162	2636.697381
971.371649	2643.679379
971.670098	2645.005203
971.968510	2652.587098
972.266885	2651.604073
972.565223	2660.012718
972.863524	2661.217554
973.161788	2665.505055
973.460014	2665.439520
973.758204	2668.670900
974.056356	2670.102587
974.354471	2671.168791
974.652550	2672.476971
974.950591	2671.554440
975.248595	2671.400684
975.546563	2666.999757
975.844493	2665.368944
976.142386	2660.504230
976.440243	2656.985505
976.738062	2653.524753
977.035845	2644.811118
977.333590	2641.761220
977.631299	2637.877011
977.928971	2632.215796
978.226606	2624.417131
978.524204	2625.443005
978.821765	2619.010493
979.119290	2622.796400
979.416777	2624.853190
979.714228	2627.003242
980.011642	2627.270424
980.309020	2633.818882
980.606360	2647.109885
980.903664	2668.537309
981.200931	2700.183152
981.498162	2740.517424
981.795356	2802.936991
982.092513	2875.229658
982.389633	2960.583954
982.686717	3035.457692
982.983764	3097.242073
983.280775	3134.838999
983.577749	3140.144813
983.874686	3130.768267
984.171587	3105.345728
984.468451	3071.965728
984.765279	3035.674461
985.062070	2995.143584
985.358824	2961.987916
985.655543	2916.168868
985.952224	2870.916951
986.248869	2818.602377
986.545478	2770.434152
986.842050	2727.745661
987.138586	2687.905422
987.435086	2658.044147
987.731549	2631.504993
988.027975	2611.630244
988.324366	2593.973602
988.620719	2582.862899
988.917037	2576.992476
989.213318	2565.954869
989.509563	2558.017573
989.805772	2557.606719
990.101944	2552.323589
990.398080	2549.646737
990.694180	2550.191181
990.990244	2548.875440
991.286271	2547.877292
991.582262	2549.898794
991.878217	2552.326110
992.174136	2555.522202
992.470019	2555.549928
992.765865	2560.270968
993.061676	2564.152657
993.357450	2572.881415
993.653188	2573.428380
993.948890	2597.260435
994.244556	2612.643516
994.540186	2630.869807
994.835780	2655.677326
995.131337	2691.134281
995.426859	2724.153839
995.722345	2763.343769
996.017795	2804.860191
996.313208	2836.558967
996.608586	2861.565610
996.903928	2868.867722
997.199234	2868.477032
997.494504	2866.102649
997.789738	2855.859024
998.084936	2836.163236
998.380099	2809.145172
998.675225	2782.522839
998.970316	2761.009715
999.265371	2731.498800
999.560390	2700.717515
999.855373	2675.547033
1000.150320	2650.961326
1000.445232	2627.018366
1000.740108	2610.927003
1001.034948	2596.680702
1001.329752	2580.899370
1001.624521	2572.828483
1001.919254	2561.271637
1002.213951	2553.079763
1002.508613	2550.468445
1002.803239	2542.241282
1003.097829	2535.614685
1003.392384	2532.660569
1003.686903	2530.848274
1003.981386	2527.180835
1004.275834	2527.077491
1004.570246	2520.975174
1004.864623	2521.078518
1005.158964	2517.035513
1005.453270	2514.709020
1005.747540	2513.451252
1006.041775	2511.233144
1006.335974	2513.383197
1006.630138	2511.190295
1006.924266	2512.221211
1007.218359	2508.364728
1007.512416	2507.613596
1007.806438	2503.883142
1008.100425	2506.751559
1008.394376	2505.110663
1008.688292	2508.657115
1008.982172	2507.507732
1009.276017	2506.607886
1009.569827	2507.694254
1009.863602	2506.383554
1010.157341	2507.394306
1010.451045	2503.890704
1010.744714	2506.055879
1011.038347	2505.098060
1011.331945	2503.757113
1011.625508	2499.761999
1011.919036	2501.380209
1012.212528	2502.857267
1012.505986	2497.911895
1012.799408	2500.240908
1013.092795	2497.697646
1013.386147	2498.824344
1013.679464	2497.001967
1013.972745	2500.117400
1014.265992	2496.999447
1014.559204	2500.482884
1014.852380	2498.020280
1015.145521	2497.876607
1015.438628	2499.439365
1015.731699	2499.404077
1016.024736	2501.042452
1016.317737	2501.929695
1016.610703	2500.750065
1016.903635	2502.925323
1017.196531	2503.623523
1017.489393	2506.393637
1017.782219	2506.711229
1018.075011	2506.106291
1018.367768	2508.349604
1018.660490	2508.934378
1018.953177	2508.934378
1019.245829	2508.934378
