Dividing Wavelength (nm)	Counts (n)	Blue Motor Position (mm): 13.400000	Red Motor Position (mm): 0.000000	
326.493990	2136.546864
326.888308	2136.546864
327.282561	2136.546864
327.676750	2104.328850
328.070874	2104.883377
328.464933	2108.157606
328.858929	2115.552979
329.252859	2123.762498
329.646726	2132.834054
330.040528	2147.191261
330.434265	2165.644404
330.827938	2180.392300
331.221547	2199.997347
331.615091	2218.092569
332.008571	2237.916906
332.401986	2259.394742
332.795338	2276.736312
333.188625	2295.141564
333.581847	2312.402475
333.975006	2332.897286
334.368100	2349.376818
334.761129	2369.110415
335.154095	2386.550286
335.546996	2404.506876
335.939833	2420.870462
336.332606	2437.831424
336.725315	2450.640996
337.117960	2460.163735
337.510540	2467.238995
337.903056	2477.812815
338.295508	2485.803044
338.687896	2493.697491
339.080220	2503.079078
339.472480	2511.180212
339.864676	2513.998217
340.256807	2517.789165
340.648875	2520.944927
341.040879	2523.594054
341.432818	2525.618077
341.824694	2526.124713
342.216506	2526.243180
342.608253	2526.240659
342.999937	2528.468849
343.391557	2528.340300
343.783113	2526.832995
344.174605	2526.399456
344.566033	2523.760412
344.957397	2523.140350
345.348697	2520.745802
345.739934	2517.277488
346.131106	2518.633558
346.522215	2516.080214
346.913260	2513.216838
347.304241	2512.024606
347.695159	2510.605521
348.086012	2506.537310
348.476802	2506.920437
348.867528	2504.919099
349.258191	2503.124448
349.648789	2501.745693
350.039324	2500.694612
350.429796	2504.876249
350.820203	2498.403408
351.210548	2499.209992
351.600828	2495.930722
351.991045	2495.592965
352.381198	2494.501555
352.771288	2495.514827
353.161314	2491.789414
353.551276	2494.204127
353.941175	2495.983654
354.331010	2493.339569
354.720782	2492.800165
355.110490	2497.289313
355.500135	2492.923674
355.889717	2494.952738
356.279235	2493.732779
356.668689	2495.819817
357.058080	2496.296206
357.447408	2493.334528
357.836672	2490.536687
358.225873	2497.455671
358.615010	2490.874445
359.004084	2498.952894
359.393095	2495.386277
359.782043	2496.976761
360.170927	2500.455158
360.559748	2500.258553
360.948505	2499.656135
361.337199	2505.440859
361.725830	2499.255363
362.114398	2500.860970
362.502903	2502.595127
362.891344	2502.587566
363.279722	2503.605879
363.668037	2504.520848
364.056289	2501.105466
364.444478	2502.459016
364.832603	2504.074706
365.220665	2505.758451
365.608665	2505.541682
365.996601	2506.103770
366.384474	2505.907165
366.772284	2506.325581
367.160031	2506.925478
367.547715	2506.499501
367.935336	2508.495798
368.322893	2506.020591
368.710388	2508.084944
369.097820	2512.059894
369.485189	2507.336332
369.872495	2508.044615
370.259738	2508.755417
370.646918	2509.803977
371.034035	2507.482526
371.421090	2509.819101
371.808081	2511.696931
372.195010	2509.214162
372.581875	2510.650891
372.968678	2511.459996
373.355418	2511.117198
373.742096	2513.549555
374.128710	2510.058556
374.515262	2511.888494
374.901751	2513.874709
375.288177	2509.922444
375.674540	2512.858917
376.060841	2512.901766
376.447079	2514.338495
376.833254	2510.582836
377.219367	2510.734070
377.605417	2512.495953
377.991404	2508.508401
378.377329	2511.467558
378.763191	2509.534276
379.148991	2512.821108
379.534727	2513.224400
379.920402	2513.725995
380.306013	2513.239524
380.691563	2514.721623
381.077049	2514.204905
381.462474	2514.956037
381.847835	2513.980573
382.233134	2516.347395
382.618371	2514.376304
383.003545	2518.005935
383.388657	2515.099709
383.773706	2519.089783
384.158693	2514.948475
384.543618	2516.100378
384.928480	2517.794206
385.313280	2519.440143
385.698017	2516.387724
386.082692	2517.816891
386.467305	2517.403517
386.851856	2515.639113
387.236344	2515.724812
387.620770	2519.314114
388.005133	2517.549710
388.389435	2520.599608
388.773674	2519.477952
389.157851	2519.372087
389.541965	2520.662623
389.926018	2519.697242
390.310008	2520.687828
390.693936	2522.336286
391.077802	2519.392252
391.461606	2520.186234
391.845348	2520.599608
392.229027	2523.001718
392.612645	2520.423168
392.996200	2520.962571
393.379694	2520.486182
393.763125	2519.709845
394.146494	2522.220339
394.529801	2521.275123
394.913047	2521.025586
395.296230	2524.264527
395.679351	2524.534229
396.062410	2522.074146
396.445408	2521.978364
396.828343	2523.626821
397.211217	2519.399814
397.594028	2521.839732
397.976778	2518.900739
398.359466	2521.784279
398.742092	2521.141532
399.124656	2520.697911
399.507158	2525.449198
399.889598	2524.763601
400.271977	2526.371729
400.654294	2526.293592
401.036549	2525.406348
401.418742	2525.315608
401.800874	2524.423323
402.182944	2524.072963
402.564952	2524.753519
402.946898	2526.563293
403.328783	2524.206554
403.710606	2525.066071
404.092367	2524.884589
404.474067	2527.422810
404.855705	2526.961544
405.237282	2525.744106
405.618797	2528.670496
406.000250	2528.615043
406.381642	2526.754857
406.762972	2528.340300
407.144240	2525.857532
407.525447	2530.122348
407.906593	2527.513551
408.287677	2529.124199
408.668700	2527.687471
409.049661	2530.591175
409.430560	2528.166380
409.811399	2530.470187
410.192176	2526.263345
410.572891	2526.780063
410.953545	2528.705784
411.334138	2527.526154
411.714669	2529.532533
412.095139	2528.688140
412.475547	2531.304498
412.855894	2527.251411
413.236180	2530.639066
413.616405	2530.278624
413.996568	2531.428007
414.376670	2530.059333
414.756711	2531.876669
415.136691	2529.809796
415.516609	2529.706453
415.896466	2529.802235
416.276262	2533.275590
416.655997	2526.303674
417.035670	2526.984230
417.415283	2529.320804
417.794834	2525.975999
418.174324	2531.375075
418.553753	2533.363810
418.933121	2532.166536
419.312428	2531.334745
419.691674	2533.288192
420.070859	2530.497914
420.449983	2532.960518
420.829045	2531.095291
421.208047	2534.442617
421.586988	2535.271887
421.965867	2534.871115
422.344686	2531.972451
422.723444	2534.581248
423.102141	2533.946063
423.480777	2535.075282
423.859352	2532.952956
424.237866	2532.814324
424.616319	2535.198790
424.994712	2534.651825
425.373044	2533.371372
425.751314	2534.835827
426.129524	2535.110570
426.507673	2534.162833
426.885762	2533.613347
427.263789	2536.234747
427.641756	2535.534027
428.019662	2535.362627
428.397508	2534.414890
428.775292	2534.976979
429.153016	2535.468492
429.530679	2533.328522
429.908282	2533.273069
430.285824	2536.310364
430.663305	2536.007895
431.040726	2538.815818
431.418086	2535.939839
431.795385	2535.244160
432.172624	2534.656866
432.549802	2539.075437
432.926920	2535.612164
433.303977	2539.052752
433.680974	2534.437576
434.057910	2537.484953
434.434786	2537.464788
434.811601	2537.384130
435.188355	2537.164840
435.565050	2537.434542
435.941683	2537.056455
436.318257	2536.123842
436.694770	2536.073430
437.071222	2535.118131
437.447614	2533.562935
437.823946	2536.383461
438.200218	2533.205013
438.576429	2537.918492
438.952580	2538.117618
439.328670	2538.631816
439.704700	2536.791794
440.080670	2540.703730
440.456580	2536.063348
440.832429	2538.740200
441.208218	2538.135262
441.583947	2540.055942
441.959616	2538.825900
442.335224	2536.171732
442.710773	2540.237423
443.086261	2537.457227
443.461689	2541.333874
443.837057	2537.898328
444.212365	2540.852444
444.587612	2536.232226
444.962800	2539.304810
445.337927	2539.816487
445.712995	2542.037115
446.088002	2539.357742
446.462949	2541.525438
446.837837	2539.718184
447.212664	2540.383617
447.587431	2542.780685
447.962139	2539.675334
448.336786	2541.774975
448.711374	2542.407640
449.085901	2540.970911
449.460369	2541.918648
449.834776	2541.265818
450.209124	2540.580222
450.583412	2541.878319
450.957640	2540.580222
451.331808	2541.404450
451.705917	2540.434028
452.079965	2540.126518
452.453954	2540.839841
452.827883	2540.701209
453.201752	2541.648946
453.575562	2538.798174
453.949311	2543.123484
454.323001	2542.321940
454.696632	2543.519214
455.070202	2544.915614
455.443713	2542.110212
455.817164	2538.765406
456.190556	2540.587783
456.563888	2539.198945
456.937160	2538.276414
457.310373	2542.122815
457.683526	2542.684903
458.056619	2544.968546
458.429653	2542.639533
458.802628	2542.510983
459.175542	2543.609955
459.548398	2544.388813
459.921194	2543.889739
460.293930	2542.768082
460.666607	2543.287321
461.039224	2546.306972
461.411782	2543.191539
461.784280	2542.586601
462.156719	2540.194573
462.529099	2544.000644
462.901419	2544.126673
463.273680	2542.931920
463.645882	2542.616848
464.018024	2541.906045
464.390106	2543.526776
464.762130	2545.094575
465.134094	2541.795140
465.505999	2546.047353
465.877845	2543.209183
466.249631	2547.675646
466.621358	2543.713299
466.993026	2548.366284
467.364634	2548.371325
467.736184	2545.545758
468.107674	2544.222455
468.479105	2544.920655
468.850477	2545.926365
469.221790	2546.652291
469.593043	2547.264792
469.964238	2546.196067
470.335373	2545.800336
470.706449	2547.554658
471.077467	2548.295708
471.448425	2546.150697
471.819324	2546.722867
472.190164	2546.974925
472.560945	2546.780841
472.931667	2543.567105
473.302330	2548.580533
473.672934	2547.884853
474.043479	2544.139276
474.413965	2544.776982
474.784393	2543.655325
475.154761	2544.567774
475.525070	2542.470654
475.895321	2544.257743
476.265513	2544.068700
476.635645	2546.047353
477.005719	2544.615665
477.375734	2547.335368
477.745691	2547.723537
478.115588	2549.011551
478.485427	2547.189174
478.855207	2548.220090
479.224928	2550.075235
479.594591	2547.206818
479.964194	2544.910573
480.333739	2549.019113
480.703226	2548.429298
481.072653	2547.763866
481.442022	2547.710934
481.811333	2546.952240
482.180584	2547.448794
482.549777	2547.605069
482.918912	2550.128167
483.287988	2551.519525
483.657005	2547.821839
484.025964	2549.732436
484.394864	2547.320244
484.763706	2551.038095
485.132489	2548.409133
485.501213	2550.581871
485.869879	2552.258054
486.238487	2546.639688
486.607036	2549.271171
486.975527	2548.053732
487.343959	2545.021478
487.712333	2549.147663
488.080648	2547.710934
488.448905	2551.350647
488.817104	2549.056922
489.185244	2548.217570
489.553326	2549.182951
489.921350	2551.494320
490.289315	2551.501881
490.657222	2550.637323
491.025070	2551.101110
491.392861	2551.491799
491.760593	2551.574978
492.128267	2553.533466
492.495883	2550.092879
492.863440	2550.339895
493.230939	2550.221428
493.598380	2551.660678
493.965763	2547.320244
494.333088	2546.836293
494.700354	2544.950902
495.067563	2548.716644
495.434713	2543.332692
495.801805	2552.701676
496.168839	2548.978784
496.535815	2552.812581
496.902733	2550.566747
497.269593	2551.738816
497.636395	2548.560368
498.003139	2552.757129
498.369825	2550.508774
498.736453	2548.779658
499.103023	2553.651933
499.469535	2550.133208
499.835989	2550.097920
500.202385	2552.323589
500.568723	2549.455173
500.935003	2553.238559
501.301226	2552.482386
501.667390	2554.040102
502.033497	2551.196892
502.399546	2550.055070
502.765537	2550.208825
503.131470	2552.295863
503.497345	2552.169834
503.863163	2554.234187
504.228923	2553.304094
504.594625	2551.683363
504.960269	2553.810730
505.325856	2551.683363
505.691385	2550.297046
506.056856	2552.016079
506.422270	2553.702345
506.787625	2552.258054
507.152924	2551.058260
507.518164	2553.982129
507.883347	2553.694783
508.248472	2553.145298
508.613540	2550.947354
508.978550	2550.375183
509.343503	2555.060936
509.708398	2552.454659
510.073236	2553.793086
510.438016	2555.897768
510.802738	2554.524053
511.167403	2557.231153
511.532010	2555.620504
511.896561	2551.406099
512.261053	2557.372305
512.625488	2554.561862
512.989866	2550.980122
513.354186	2556.139743
513.718449	2551.327962
514.082655	2557.377346
514.446803	2556.195196
514.810894	2557.941955
515.174927	2557.236194
515.538904	2556.059084
515.902822	2555.169321
516.266684	2559.978582
516.630488	2555.890206
516.994235	2557.672254
517.357925	2556.162428
517.721558	2556.868190
518.085133	2560.331462
518.448651	2559.338355
518.812112	2561.609395
519.175516	2560.497820
519.538863	2558.919939
519.902152	2560.132337
520.265385	2563.890517
520.628560	2560.790207
520.991678	2560.359189
521.354739	2561.987481
521.717743	2561.609395
522.080690	2562.191648
522.443580	2565.518810
522.806413	2562.317677
523.169189	2561.601833
523.531908	2562.070660
523.894569	2565.453275
524.257174	2566.209448
524.619722	2565.128120
524.982213	2566.358162
525.344647	2563.925805
525.707025	2565.201217
526.069345	2565.652400
526.431608	2564.772719
526.793815	2567.205076
527.155964	2567.822617
527.518057	2568.130127
527.880093	2570.136507
528.242072	2564.147616
528.603995	2566.985785
528.965860	2568.553584
529.327669	2566.973182
529.689421	2568.349417
530.051117	2569.685323
530.412755	2566.600137
530.774337	2568.722463
531.135862	2572.137845
531.497331	2565.841443
531.858743	2564.434962
532.220098	2567.268090
532.581396	2568.006619
532.942638	2568.576269
533.303824	2572.848647
533.664953	2572.553740
534.026025	2570.746486
534.387040	2569.521486
534.747999	2570.491908
535.108902	2573.093143
535.469748	2571.507700
535.830537	2570.965776
536.191270	2570.907803
536.551947	2572.626837
536.912567	2573.156158
537.273131	2570.305385
537.633638	2572.553740
537.994089	2572.281518
538.354483	2574.779409
538.714821	2573.695561
539.075103	2572.422670
539.435328	2574.242526
539.795497	2576.984914
540.155609	2578.242682
540.515665	2575.477609
540.875665	2576.163206
541.235609	2576.085068
541.595496	2577.703278
541.955328	2578.164544
542.315102	2576.730336
542.674821	2576.856365
543.034483	2578.184709
543.394090	2574.517269
543.753640	2578.454410
544.113134	2576.863926
544.472571	2580.506160
544.831953	2577.544482
545.191278	2580.241499
545.550548	2576.838721
545.909761	2577.826787
546.268918	2579.102199
546.628019	2582.731829
546.987064	2578.237641
547.346053	2580.816191
547.704986	2579.813001
548.063863	2579.671849
548.422684	2583.344330
548.781449	2580.405337
549.140158	2582.522622
549.498811	2584.339958
549.857408	2581.781572
550.215949	2578.948443
550.574434	2579.467682
550.932864	2581.877354
551.291237	2579.351736
551.649555	2584.443301
552.007817	2585.123857
552.366022	2583.621593
552.724173	2583.361974
553.082267	2584.473548
553.440305	2585.212077
553.798288	2584.997828
554.156215	2588.672829
554.514086	2588.153590
554.871902	2587.525967
555.229661	2590.391863
555.587365	2588.324990
555.945014	2587.863724
556.302606	2590.621235
556.660143	2590.691811
557.017625	2591.392532
557.375050	2590.838005
557.732421	2594.817996
558.089735	2593.769436
558.446994	2591.644589
558.804197	2594.777667
559.161345	2596.037955
559.518437	2595.705239
559.875474	2596.748758
560.232455	2598.190528
560.589381	2600.930395
560.946251	2603.700509
561.303065	2600.390991
561.659825	2604.862495
562.016528	2605.031373
562.373177	2602.851074
562.729770	2606.904162
563.086307	2604.179418
563.442789	2608.030860
563.799216	2610.813577
564.155587	2611.179061
564.511904	2611.829369
564.868164	2614.453290
565.224370	2616.051336
565.580520	2618.014865
565.936615	2615.932869
566.292654	2618.692900
566.648638	2622.448560
567.004567	2621.465535
567.360441	2625.037192
567.716260	2626.027779
568.072023	2628.205558
568.427732	2629.886782
568.783385	2626.451236
569.138982	2634.196969
569.494525	2635.374078
569.850013	2633.897020
570.205445	2639.926240
570.560823	2644.685090
570.916145	2645.390851
571.271412	2650.757159
571.626625	2653.998621
571.981782	2653.565082
572.336884	2657.083807
572.691931	2661.709066
573.046923	2661.918274
573.401860	2665.242915
573.756743	2667.408091
574.111570	2673.641477
574.466342	2676.517456
574.821059	2678.039884
575.175722	2682.420647
575.530330	2684.041378
575.884882	2689.475742
576.239380	2691.608150
576.593823	2694.421113
576.948211	2697.513861
577.302544	2698.643080
577.656823	2707.301262
578.011047	2709.315202
578.365216	2715.921635
578.719330	2718.774928
579.073389	2723.158211
579.427394	2725.426730
579.781344	2729.873028
580.135239	2735.627505
580.489080	2737.394429
580.842866	2743.526993
581.196597	2752.916142
581.550273	2756.994436
581.903895	2763.618512
582.257463	2771.074378
582.610975	2778.925975
582.964434	2783.435287
583.317837	2787.503499
583.671186	2791.082718
584.024481	2800.474387
584.377721	2804.650983
584.730906	2807.587456
585.084037	2818.194043
585.437113	2821.221256
585.790135	2833.844305
586.143103	2834.698781
586.496016	2842.343691
586.848874	2849.345853
587.201679	2859.738192
587.554428	2860.746423
587.907124	2874.418032
588.259765	2880.621172
588.612352	2895.500138
588.964884	2896.120199
589.317362	2911.089906
589.669786	2918.341606
590.022155	2926.525919
590.374470	2939.590069
590.726731	2943.973352
591.078937	2945.399999
591.431090	2966.041003
591.783188	2965.962865
592.135232	2977.423929
592.487222	2983.153200
592.839157	2999.592403
593.191038	3002.133144
593.542866	3011.915503
593.894639	3016.641585
594.246358	3029.224305
594.598022	3040.617313
594.949633	3044.206614
595.301190	3053.499981
595.652692	3065.180335
596.004141	3090.476845
596.355535	3081.243972
596.706876	3089.400558
597.058162	3099.437496
597.409395	3115.599435
597.760573	3135.610295
598.111698	3135.101139
598.462768	3149.297028
598.813785	3154.844818
599.164748	3170.159843
599.515657	3175.962211
599.866511	3188.945703
600.217312	3208.011347
600.568060	3208.084443
600.918753	3233.141499
601.269392	3241.282962
601.619978	3249.321082
601.970510	3270.176335
602.320988	3281.592028
602.671412	3311.569250
603.021783	3312.373314
603.372100	3326.196158
603.722363	3341.077644
604.072572	3351.911083
604.422728	3368.148640
604.772830	3372.463868
605.122878	3392.061353
605.472872	3400.412024
605.822813	3422.346085
606.172701	3432.009977
606.522534	3460.351344
606.872314	3476.619147
607.222041	3491.208246
607.571714	3513.928727
607.921333	3524.489944
608.270899	3542.323026
608.620411	3574.092377
608.969870	3575.760999
609.319276	3592.890840
609.668627	3614.928244
610.017926	3641.442193
610.367171	3674.880166
610.716362	3682.701516
611.065500	3696.536963
611.414585	3726.695666
611.763616	3734.617839
612.112594	3755.034512
612.461518	3775.894807
612.810389	3804.843633
613.159207	3817.741425
613.507971	3824.637723
613.856682	3872.939539
614.205340	3878.396588
614.553945	3918.715737
614.902496	3915.277670
615.250994	3951.896611
615.599439	3968.713900
615.947830	3991.986387
616.296169	4006.882997
616.644454	4029.895864
616.992686	4049.115263
617.340864	4090.324175
617.688990	4086.873505
618.037063	4129.345227
618.385082	4132.057367
618.733048	4185.115512
619.080961	4179.950849
619.428821	4206.764747
619.776628	4237.089808
620.124382	4244.386878
620.472083	4257.851800
620.819731	4286.135193
621.167326	4275.180766
621.514868	4295.158859
621.862357	4280.050521
622.209793	4299.378305
622.557176	4303.449036
622.904506	4309.006908
623.251783	4299.211947
623.599007	4306.937515
623.946179	4324.591636
624.293297	4337.653265
624.640363	4324.057273
624.987376	4337.781815
625.334336	4336.216536
625.681243	4346.714739
626.028097	4357.661605
626.374899	4363.526987
626.721647	4381.440727
627.068343	4378.753793
627.414987	4385.582035
627.761577	4384.815780
628.108115	4415.360131
628.454600	4397.670722
628.801032	4438.446095
629.147412	4437.195889
629.493739	4453.481337
629.840014	4445.773412
630.186236	4490.213704
630.532405	4456.637099
630.878521	4496.124457
631.224585	4494.420547
631.570597	4475.856498
631.916556	4514.562477
632.262462	4522.479609
632.608316	4529.267523
632.954117	4537.572824
633.299866	4542.661869
633.645562	4560.779776
633.991206	4540.620201
634.336797	4530.956309
634.682336	4529.658212
635.027823	4529.864900
635.373257	4540.206827
635.718639	4526.383983
636.063968	4551.012540
636.409245	4517.330071
636.754470	4533.688615
637.099642	4524.944733
637.444762	4517.229248
637.789829	4537.093914
638.134845	4520.664794
638.479808	4533.973440
638.824719	4547.188825
639.169577	4523.707130
639.514383	4552.693765
639.859137	4530.469838
640.203839	4543.415521
640.548489	4554.180905
640.893086	4552.981111
641.237632	4553.981780
641.582125	4579.230399
641.926566	4578.824586
642.270955	4601.310653
642.615292	4609.442034
642.959576	4633.783245
643.303809	4637.395232
643.647990	4659.699817
643.992118	4664.826670
644.336195	4644.178104
644.680219	4675.377805
645.024192	4681.028939
645.368112	4750.760699
645.711981	4770.948000
646.055797	4827.401361
646.399562	4818.589424
646.743274	4903.966406
647.086935	4942.324546
647.430544	4954.261998
647.774101	4986.056555
648.117606	4994.140045
648.461059	5006.790821
648.804460	5002.347044
649.147810	4953.594045
649.491108	4957.095126
649.834354	4952.769816
650.177548	4916.904527
650.520690	4877.759968
650.863781	4877.018918
651.206820	4906.875152
651.549807	4867.501220
651.892742	4843.260831
652.235626	4854.495043
652.578458	4858.336402
652.921238	4812.580369
653.263967	4849.806770
653.606644	4821.714940
653.949269	4837.370243
654.291843	4806.374709
654.634365	4848.354917
654.976836	4829.420343
655.319255	4834.920242
655.661622	4835.063915
656.003938	4846.580431
656.346203	4827.517308
656.688416	4859.344633
657.030577	4833.065098
657.372687	4826.050332
657.714746	4828.689376
658.056753	4869.212691
658.398708	4836.238504
658.740612	4834.635417
659.082465	4887.232296
659.424266	4884.104260
659.766016	4891.701279
660.107715	4889.838572
660.449362	4910.582920
660.790958	4916.944857
661.132503	4922.215383
661.473996	4947.834527
661.815438	4949.866112
662.156829	4959.076300
662.498168	4960.394562
662.839456	4944.698929
663.180693	4985.471781
663.521879	4991.100230
663.863013	4993.971167
664.204097	5023.875291
664.545129	5057.018357
664.886110	5066.480603
665.227040	5099.953865
665.567918	5071.710800
665.908746	5106.124237
666.249522	5120.877174
666.590248	5115.069764
666.930922	5145.364578
667.271545	5165.332589
667.612118	5173.221995
667.952639	5160.929141
668.293109	5190.631619
668.633528	5162.199512
668.973896	5166.504657
669.314213	5172.165873
669.654480	5170.066232
669.994695	5169.085728
670.334859	5173.988250
670.674973	5175.263662
671.015035	5182.497718
671.355047	5194.001631
671.695008	5187.634653
672.034918	5171.996994
672.374777	5187.838820
672.714585	5181.678530
673.054342	5189.129356
673.394049	5192.272515
673.733705	5220.686979
674.073310	5223.764603
674.412864	5193.729408
674.752368	5194.089851
675.091820	5205.578641
675.431223	5155.393954
675.770574	5166.973484
676.109875	5130.571313
676.449125	5147.335670
676.788324	5124.902535
677.127473	5082.488787
677.466571	5084.391823
677.805619	5083.396195
678.144616	5076.078960
678.483562	5066.987239
678.822458	5049.602820
679.161303	5050.797573
679.500098	5047.999733
679.838842	5035.963978
680.177535	5045.486718
680.516179	5066.266354
680.854771	5076.358744
681.193314	5149.337008
681.531805	5244.244291
681.870247	5374.565679
682.208638	5459.972908
682.546978	5478.168952
682.885268	5469.790555
683.223508	5402.095420
683.561697	5362.194688
683.899836	5339.678374
684.237925	5306.119413
684.575963	5278.869456
684.913951	5243.747737
685.251889	5306.063960
685.589776	5278.579589
685.927614	5256.821969
686.265401	5319.256660
686.603137	5311.415145
686.940824	5381.429210
687.278460	5398.992590
687.616046	5407.794445
687.953582	5465.873578
688.291068	5455.138441
688.628504	5512.993243
688.965889	5482.532071
689.303224	5437.799392
689.640510	5408.996760
689.977745	5341.747768
690.314930	5265.467548
690.652065	5220.689499
690.989150	5143.577489
691.326185	5084.759827
691.663170	5041.226943
692.000105	4976.833764
692.336990	4913.206841
692.673825	4896.215632
693.010610	4837.801262
693.347345	4780.090132
693.684030	4771.391622
694.020665	4738.712342
694.357251	4659.094878
694.693786	4672.126261
695.030272	4645.259432
695.366707	4616.532417
695.703093	4585.078137
696.039429	4610.130151
696.375716	4597.489458
696.711952	4573.307043
697.048139	4564.490065
697.384276	4547.080440
697.720363	4559.915218
698.056400	4571.212443
698.392388	4527.709806
698.728326	4508.019059
699.064214	4489.704548
699.400053	4490.420391
699.735842	4460.042398
700.071581	4438.677988
700.407270	4420.918003
700.742910	4405.146753
701.078501	4354.357128
701.414042	4360.683777
701.749533	4335.909026
702.084974	4272.382926
702.420366	4329.781503
702.755709	4276.788894
703.091002	4226.455494
703.426246	4274.568266
703.761440	4232.550249
704.096584	4199.724775
704.431679	4223.440884
704.766725	4210.026373
705.101721	4200.785938
705.436668	4228.179568
705.771565	4178.075540
706.106413	4203.830795
706.441212	4240.202720
706.775961	4245.488370
707.110661	4227.375504
707.445311	4254.078496
707.779913	4281.270480
708.114465	4293.089465
708.448967	4314.640398
708.783421	4374.136096
709.117825	4412.978186
709.452180	4418.989762
709.786485	4461.753870
710.120742	4543.327301
710.454949	4527.190567
710.789107	4588.148200
711.123216	4657.635464
711.457275	4646.000481
711.791286	4717.037901
712.125247	4729.892843
712.459159	4640.208196
712.793023	4713.867015
713.126837	4684.482129
713.460602	4672.373278
713.794318	4598.580868
714.127985	4604.758802
714.461602	4530.492523
714.795171	4505.231301
715.128691	4446.761478
715.462162	4390.993714
715.795584	4346.878577
716.128957	4332.642358
716.462281	4281.915748
716.795556	4260.427829
717.128782	4224.933065
717.461960	4159.778672
717.795088	4169.692101
718.128167	4134.837564
718.461198	4076.967638
718.794180	4070.172163
719.127113	4052.132394
719.459997	4033.238149
719.792833	3995.280781
720.125619	3984.754852
720.458357	3954.880974
720.791046	3955.982466
721.123686	3931.953807
721.456278	3893.940986
721.788821	3910.158378
722.121315	3883.707444
722.453761	3858.093341
722.786158	3870.285372
723.118506	3896.534660
723.450805	3849.351980
723.783056	3869.874517
724.115259	3884.350191
724.447412	3891.725399
724.779518	3885.338257
725.111574	3889.981160
725.443582	3917.672218
725.775542	3902.427768
726.107453	3953.078762
726.439315	3955.213690
726.771129	3963.418168
727.102895	4001.683047
727.434612	4048.003689
727.766281	4061.745874
728.097901	4058.993404
728.429473	4066.396338
728.760996	4075.447730
729.092471	4070.328438
729.423897	4053.614493
729.755276	4056.767735
730.086606	4061.317376
730.417887	4096.126543
730.749120	4158.024351
731.080305	4221.631109
731.411442	4250.252260
731.742530	4221.449628
732.073570	4225.638827
732.404562	4279.405253
732.735506	4272.256897
733.066401	4232.482193
733.397249	4170.251669
733.728048	4096.794496
734.058798	4018.250799
734.389501	3950.714461
734.720156	3890.961664
735.050762	3846.319726
735.381320	3843.791587
735.711831	3789.725212
736.042293	3765.429372
736.372707	3786.655150
736.703073	3755.606683
737.033391	3747.586208
737.363661	3769.081688
737.693883	3790.554482
738.024056	3801.362716
738.354182	3795.938435
738.684260	3857.407744
739.014290	3876.155795
739.344272	3871.943911
739.674207	3913.503183
740.004093	3918.632557
740.333931	3912.094181
740.663722	3912.124428
740.993464	3915.509563
741.323159	3888.219276
741.652806	3859.618290
741.982405	3835.221626
742.311956	3805.004950
742.641460	3791.673618
742.970915	3772.003036
743.300323	3731.562900
743.629683	3698.008980
743.958996	3689.418854
744.288260	3665.904392
744.617477	3633.925832
744.946647	3618.865385
745.275768	3597.616922
745.604842	3595.212291
745.933869	3546.963408
746.262847	3537.259187
746.591778	3575.317378
746.920662	3544.715053
747.249498	3517.061804
747.578286	3565.242632
747.907027	3580.295517
748.235720	3578.415167
748.564365	3601.637242
748.892963	3604.185545
749.221514	3584.716609
749.550017	3566.142478
749.878473	3560.486303
750.206881	3530.115872
750.535242	3529.556304
750.863555	3531.519833
751.191821	3523.756456
751.520039	3503.523785
751.848210	3483.643995
752.176334	3516.817308
752.504411	3524.245448
752.832440	3483.838079
753.160421	3464.477528
753.488356	3477.881956
753.816243	3491.349399
754.144082	3445.855506
754.471875	3432.655244
754.799620	3451.292390
755.127318	3444.398612
755.454969	3442.621606
755.782572	3452.280456
756.110129	3427.031837
756.437638	3418.789551
756.765100	3430.853032
757.092515	3440.206893
757.419882	3449.671659
757.747203	3419.276022
758.074477	3422.691404
758.401703	3437.051131
758.728882	3458.982670
759.056014	3466.504072
759.383099	3470.337869
759.710138	3467.091366
760.037129	3483.182729
760.364073	3511.151051
760.690970	3497.749143
761.017820	3474.287613
761.344623	3493.534739
761.671379	3536.810524
761.998088	3585.974377
762.324751	3713.374417
762.651366	3957.709062
762.977935	4419.982869
763.304456	4854.817677
763.630931	4936.804482
763.957359	4581.181325
764.283740	4245.838730
764.610074	4060.599012
764.936362	3870.953324
765.262602	3715.045559
765.588796	3609.322481
765.914943	3520.739326
766.241044	3436.826799
766.567097	3410.118766
766.893104	3361.489276
767.219064	3332.699246
767.544978	3304.466264
767.870845	3248.955598
768.196665	3233.398597
768.522438	3242.966708
768.848165	3236.871952
769.173846	3200.694112
769.499479	3185.051412
769.825066	3167.601457
770.150607	3153.957575
770.476101	3170.669000
770.801548	3167.369564
771.126949	3119.523973
771.452303	3103.019236
771.777611	3110.596090
772.102872	3114.722274
772.428087	3088.896443
772.753256	3079.693817
773.078378	3075.638208
773.403453	3041.754093
773.728482	3027.311187
774.053465	3048.179043
774.378401	3033.637835
774.703291	3002.349914
775.028135	3007.466685
775.352932	3003.156498
775.677683	2987.234014
776.002388	2984.978098
776.327046	2985.953561
776.651658	2977.751604
776.976224	2966.633339
777.300743	2966.713997
777.625216	2959.096814
777.949643	2954.055660
778.274024	2955.918366
778.598359	2946.688014
778.922647	2947.366049
779.246889	2948.981739
779.571086	2932.366096
779.895236	2927.095569
780.219339	2937.566046
780.543397	2952.878551
780.867409	2955.628500
781.191374	2945.894032
781.515294	2943.872529
781.839167	2942.453444
782.162995	2932.973555
782.486776	2946.239351
782.810511	2941.525872
783.134201	2929.459870
783.457844	2937.392126
783.781441	2923.536515
784.104993	2910.232910
784.428498	2908.143351
784.751958	2921.820002
785.075372	2912.909762
785.398739	2898.303019
785.722061	2914.379259
786.045337	2929.676640
786.368568	2915.173240
786.691752	2903.366858
787.014891	2951.283025
787.337983	2979.924341
787.661030	3008.777385
787.984031	3072.265677
788.306987	3116.451390
788.629897	3107.899072
788.952760	3091.359047
789.275579	3080.250864
789.598351	3019.557893
789.921078	2978.671614
790.243759	2971.180460
790.566395	2953.440639
790.888984	2930.853749
791.211529	2912.975297
791.534027	2900.826117
791.856480	2895.641290
792.178888	2876.759648
792.501249	2873.140100
792.823566	2868.048534
793.145836	2865.911085
793.468062	2862.399921
793.790241	2861.749613
794.112375	2867.418390
794.434464	2877.029350
794.756507	2883.565206
795.078505	2886.806668
795.400457	2901.564646
795.722364	2935.269800
796.044226	2958.111268
796.366042	2960.856177
796.687812	2951.227573
797.009538	2970.845223
797.331218	2959.399283
797.652852	2944.288424
797.974442	2928.383584
798.295986	2923.289498
798.617484	2920.698345
798.938938	2904.178484
799.260346	2889.483520
799.581709	2886.710886
799.903026	2878.521531
800.224299	2873.750079
800.545526	2864.199613
800.866708	2846.878209
801.187845	2837.630212
801.508936	2836.964780
801.829983	2845.905266
802.150984	2834.534943
802.471940	2820.465083
802.792851	2818.718323
803.113717	2821.677481
803.434538	2829.138388
803.755314	2818.985504
804.076045	2815.045843
804.396731	2811.718681
804.717372	2812.023671
805.037967	2806.773309
805.358518	2814.829073
805.679024	2826.789211
805.999485	2820.008859
806.319901	2825.954900
806.640272	2818.408292
806.960598	2818.657829
807.280879	2831.732062
807.601115	2838.157012
807.921306	2827.109324
808.241453	2821.896771
808.561554	2831.321208
808.881611	2829.261897
809.201623	2824.457677
809.521590	2823.862821
809.841513	2818.831749
810.161390	2823.643531
810.481223	2817.115236
810.801011	2809.913948
811.120755	2802.127886
811.440453	2806.508649
811.760107	2808.063845
812.079716	2806.914462
812.399281	2798.485652
812.718801	2790.288736
813.038276	2784.952675
813.357707	2789.835032
813.677093	2797.832823
813.996434	2791.846453
814.315731	2788.252110
814.634983	2781.726336
814.954191	2784.710699
815.273354	2798.248718
815.592473	2805.795325
815.911547	2808.320943
816.230577	2816.810247
816.549562	2826.012873
816.868502	2821.266627
817.187399	2832.485714
817.506250	2851.193436
817.825058	2840.821262
818.143821	2855.753160
818.462539	2869.092053
818.781213	2896.016856
819.099843	2929.250663
819.418429	2989.623521
819.736970	3045.824825
820.055466	3115.249075
820.373919	3222.481979
820.692327	3357.985674
821.010691	3520.814943
821.329011	3952.617496
821.647286	4830.050488
821.965517	6166.891391
822.283704	6874.334154
822.601847	6844.805596
822.919945	6231.745835
823.237999	5744.208285
823.556010	5182.888407
823.873976	4647.661542
824.191897	4248.223196
824.509775	3964.045792
824.827609	3706.478118
825.145398	3585.024119
825.463144	3575.002306
825.780845	3667.671316
826.098502	3772.444137
826.416116	4045.790622
826.733685	4349.946119
827.051210	4404.320004
827.368692	4290.982263
827.686129	4036.096483
828.003522	3717.765262
828.320872	3467.018270
828.638177	3281.224024
828.955439	3148.971873
829.272656	3066.523802
829.589830	3004.903258
829.906960	2958.622945
830.224046	2915.314393
830.541088	2883.005638
830.858086	2865.192721
831.175041	2849.912983
831.491952	2851.243848
831.808819	2861.812627
832.125642	2885.299363
832.442421	2926.735127
832.759157	3007.259998
833.075849	3182.112419
833.392497	3454.122998
833.709101	3652.230262
834.025662	3598.786469
834.342179	3443.657563
834.658653	3272.114659
834.975083	3126.669809
835.291469	3034.998947
835.607811	2954.504323
835.924110	2898.240005
836.240366	2851.362315
836.556578	2807.983186
836.872746	2782.359001
837.188871	2762.446443
837.504952	2748.832807
837.820990	2738.649677
838.136984	2726.066957
838.452935	2718.701831
838.768842	2719.105123
839.084706	2736.587845
839.400526	2813.553661
839.716303	2943.121397
840.032037	3017.911956
840.347727	3003.567353
840.663373	2942.808846
840.978977	2871.640356
841.294537	2801.228040
841.610054	2756.732296
841.925527	2733.386712
842.240957	2714.583208
842.556344	2692.558407
842.871687	2676.711540
843.186987	2666.919099
843.502244	2665.666372
843.817458	2658.104641
844.132629	2646.202477
844.447756	2638.577732
844.762840	2632.306536
845.077881	2638.174439
845.392879	2632.152781
845.707833	2630.050620
846.022745	2620.149794
846.337613	2626.579786
846.652438	2623.252624
846.967221	2623.565176
847.281960	2624.402007
847.596656	2622.322531
847.911309	2621.941924
848.225919	2618.080400
848.540485	2613.129987
848.855009	2615.048146
849.169490	2611.864657
849.483928	2613.676952
849.798323	2616.442025
850.112675	2610.637137
850.426984	2617.082252
850.741251	2612.230141
851.055474	2610.468258
851.369654	2616.215173
851.683792	2616.739453
851.997887	2612.348608
852.311938	2612.610748
852.625947	2616.729371
852.939914	2613.810543
853.253837	2617.626696
853.567718	2610.397682
853.881555	2613.644185
854.195350	2615.355657
854.509103	2615.126284
854.822812	2612.184771
855.136479	2608.262753
855.450103	2612.232662
855.763685	2613.674432
856.077224	2610.541355
856.390720	2608.865171
856.704173	2612.010851
857.017584	2616.810029
857.330953	2619.391100
857.644278	2619.290277
857.957561	2618.307252
858.270802	2617.210801
858.584000	2617.636779
858.897155	2620.502675
859.210268	2618.859258
859.523339	2616.202570
859.836367	2609.790223
860.149352	2610.072527
860.462295	2612.814915
860.775195	2606.790736
861.088054	2608.567743
861.400869	2607.647732
861.713642	2605.482557
862.026373	2607.592280
862.339062	2610.495984
862.651708	2614.410440
862.964312	2615.395986
863.276873	2612.910697
863.589392	2615.446397
863.901869	2620.197685
864.214303	2625.372429
864.526696	2628.079529
864.839045	2627.076339
865.151353	2630.748820
865.463619	2633.871815
865.775842	2631.837709
866.088023	2630.206896
866.400162	2631.409211
866.712258	2634.189407
867.024313	2629.228912
867.336325	2624.964096
867.648296	2628.966772
867.960224	2632.024232
868.272110	2631.492390
868.583954	2627.240177
868.895755	2627.396453
869.207515	2632.198152
869.519233	2639.850623
869.830909	2634.401136
870.142542	2631.230250
870.454134	2631.293264
870.765684	2635.139665
871.077191	2637.839203
871.388657	2643.717188
871.700081	2641.783906
872.011463	2639.626292
872.322803	2640.868936
872.634101	2645.035450
872.945357	2651.558703
873.256571	2656.433499
873.567744	2652.798827
873.878874	2653.381080
874.189963	2652.929897
874.501010	2659.546411
874.812015	2662.412307
875.122979	2662.571103
875.433900	2651.473003
875.744780	2653.527273
876.055618	2660.423572
876.366415	2662.059426
876.677169	2661.333500
876.987882	2657.237563
877.298554	2655.500885
877.609183	2665.563028
877.919771	2672.819769
878.230317	2677.636592
878.540822	2690.161338
878.851285	2701.960159
879.161707	2724.678119
879.472087	2761.544077
879.782425	2804.121662
880.092722	2913.537386
880.402977	3098.615788
880.713191	3343.008406
881.023363	3622.956282
881.333494	3801.501348
881.643583	3969.870845
881.953631	3964.925473
882.263637	3793.692601
882.573602	3581.127307
882.883526	3459.058288
883.193408	3351.686752
883.503248	3253.593460
883.813048	3145.911893
884.122806	3036.251673
884.432522	2954.005248
884.742197	2891.752040
885.051831	2858.687112
885.361424	2824.601350
885.670975	2791.944755
885.980485	2765.367792
886.289954	2746.445821
886.599382	2732.701115
886.908768	2722.099569
887.218113	2704.639532
887.527417	2691.635876
887.836680	2682.450894
888.145901	2678.060049
888.455082	2669.684172
888.764221	2661.121772
889.073319	2652.201450
889.382376	2653.587767
889.691392	2653.474341
890.000366	2653.403765
890.309300	2650.643733
890.618193	2654.575833
890.927044	2657.630773
891.235855	2656.700680
891.544625	2654.616163
891.853353	2655.619352
892.162041	2664.882472
892.470687	2680.656243
892.779293	2692.704601
893.087858	2701.748431
893.396381	2723.206102
893.704864	2761.508789
894.013306	2828.505723
894.321707	2916.050401
894.630068	2964.480766
894.938387	2981.824856
895.246665	2975.256233
895.554903	2931.430962
895.863100	2889.521329
896.171256	2837.166426
896.479371	2783.064763
896.787446	2741.608834
897.095480	2726.311453
897.403473	2720.652757
897.711425	2705.529296
898.019336	2687.975998
898.327207	2675.662980
898.635038	2674.926972
898.942827	2671.836744
899.250576	2663.818789
899.558284	2653.585247
899.865952	2647.654329
900.173579	2647.041829
900.481165	2644.153248
900.788711	2635.210241
901.096216	2628.901237
901.403681	2625.997532
901.711105	2628.964251
902.018489	2627.220012
902.325832	2629.198665
902.633135	2628.608850
902.940397	2644.117960
903.247619	2680.694052
903.554800	2744.706623
903.861941	2867.483925
904.169041	2983.367449
904.476101	3041.141593
904.783121	3033.194214
905.090100	2980.468786
905.397039	2910.830286
905.703938	2840.627178
906.010796	2782.119546
906.317614	2733.573235
906.624391	2698.201979
906.931129	2673.550737
907.237826	2650.830256
907.544483	2636.883904
907.851099	2622.743467
908.157675	2610.932044
908.464211	2607.430963
908.770707	2597.119282
909.077163	2592.695670
909.383578	2592.340269
909.689954	2589.570155
909.996289	2588.002356
910.302584	2588.566965
910.608839	2585.075966
910.915054	2584.128229
911.221229	2587.130236
911.527363	2588.181317
911.833458	2587.175607
912.139513	2588.302304
912.445527	2587.457911
912.751502	2592.846905
913.057436	2597.802359
913.363331	2608.618154
913.669186	2617.687190
913.975000	2628.107255
914.280775	2645.070738
914.586510	2661.031031
914.892205	2694.751309
915.197859	2760.094745
915.503475	2838.492249
915.809050	2899.134809
916.114585	2910.915986
916.420081	2921.814961
916.725536	2932.973555
917.030952	2908.153434
917.336328	2864.744058
917.641665	2818.783858
917.946961	2772.614451
918.252218	2738.057341
918.557435	2718.101934
918.862612	2695.537729
919.167750	2681.402334
919.472848	2664.572442
919.777906	2649.209525
920.082925	2637.861888
920.387904	2628.439971
920.692843	2625.319497
920.997743	2618.012345
921.302603	2612.658639
921.607423	2608.892897
921.912204	2601.190014
922.216946	2598.999633
922.521647	2597.020980
922.826310	2595.639704
923.130932	2587.621749
923.435516	2582.918352
923.740059	2585.017993
924.044564	2583.248548
924.349028	2580.140676
924.653454	2571.590879
924.957840	2571.530386
925.262186	2570.010478
925.566493	2567.028635
925.870761	2563.056206
926.174989	2562.506720
926.479178	2561.813562
926.783328	2561.571586
927.087438	2562.688202
927.391509	2562.105948
927.695541	2559.350958
927.999533	2558.468756
928.303486	2558.191492
928.607400	2557.427758
928.911275	2556.422047
929.215110	2558.088149
929.518906	2555.905329
929.822663	2558.078067
930.126381	2554.299722
930.430060	2558.138560
930.733699	2556.653941
931.037299	2557.553787
931.340861	2559.910526
931.644383	2559.053530
931.947866	2558.211657
932.251309	2558.844322
932.554714	2556.752243
932.858080	2556.033879
933.161407	2556.351471
933.464694	2555.610422
933.767943	2553.480534
934.071153	2555.013045
934.374323	2552.847869
934.677455	2554.266954
934.980548	2554.874413
935.283602	2554.148487
935.586617	2552.739485
935.889593	2552.152190
936.192530	2554.241748
936.495428	2553.629248
936.798287	2553.846018
937.101108	2556.217881
937.403890	2559.592933
937.706632	2561.463201
938.009336	2564.891186
938.312002	2566.108625
938.614628	2571.479974
938.917216	2574.918041
939.219765	2573.990469
939.522275	2575.585994
939.824747	2575.850654
940.127179	2569.246743
940.429573	2569.342525
940.731929	2564.069478
941.034246	2563.315825
941.336524	2566.577452
941.638763	2563.787173
941.940964	2565.533933
942.243126	2562.408418
942.545250	2566.093501
942.847335	2560.223078
943.149381	2562.395815
943.451389	2560.235680
943.753359	2560.336503
944.055290	2556.117058
944.357182	2561.163253
944.659036	2558.151163
944.960851	2558.625032
945.262628	2557.538663
945.564367	2558.128478
945.866067	2556.497665
946.167729	2556.185113
946.469352	2556.464897
946.770937	2559.187120
947.072484	2556.573282
947.373992	2556.601008
947.675462	2554.960113
947.976893	2555.363405
948.278286	2554.352654
948.579641	2554.690411
948.880958	2554.100596
949.182236	2553.835936
949.483476	2555.731409
949.784678	2557.087480
950.085841	2554.292160
950.386967	2553.684701
950.688054	2554.708055
950.989103	2553.984650
951.290114	2555.363405
951.591087	2558.493962
951.892021	2557.347099
952.192917	2560.399518
952.493776	2561.274158
952.794596	2559.093859
953.095378	2561.042265
953.396122	2561.846329
953.696828	2560.850701
953.997496	2559.081256
954.298126	2555.847356
954.598718	2554.665205
954.899272	2556.535473
955.199788	2554.844166
955.500266	2553.135215
955.800706	2551.128836
956.101108	2544.272867
956.401472	2547.836962
956.701798	2545.618855
957.002087	2546.145655
957.302337	2546.745553
957.602550	2546.246478
957.902724	2544.981149
958.202861	2545.470141
958.502960	2545.228165
958.803022	2546.034750
959.103045	2545.633978
959.403031	2543.138607
959.702979	2542.160623
960.002889	2543.304965
960.302762	2542.679862
960.602596	2543.907383
960.902393	2542.929399
961.202153	2542.611807
961.501875	2543.735984
961.801559	2541.245654
962.101205	2540.224820
962.400814	2542.669780
962.700385	2543.872095
962.999918	2541.139790
963.299414	2543.110881
963.598873	2543.713299
963.898293	2541.485109
964.197677	2542.100129
964.497022	2539.844213
964.796331	2541.901004
965.095601	2538.886394
965.394835	2539.698020
965.694030	2539.514018
965.993189	2539.655170
966.292309	2539.942516
966.591393	2540.444110
966.890439	2539.153575
967.189447	2542.337064
967.488419	2540.532331
967.787353	2539.514018
968.086249	2543.136087
968.385108	2541.744728
968.683930	2539.594676
968.982714	2543.819163
969.281462	2541.533000
969.580172	2540.038298
969.878844	2540.350849
970.177480	2540.088709
970.476078	2541.394368
970.774639	2541.953936
971.073162	2541.439738
971.371649	2537.643749
971.670098	2539.009902
971.968510	2539.098122
972.266885	2536.514531
972.565223	2544.287990
972.863524	2541.772454
973.161788	2543.244471
973.460014	2542.205994
973.758204	2543.257074
974.056356	2542.886549
974.354471	2543.622558
974.652550	2542.654656
974.950591	2543.436035
975.248595	2540.302958
975.546563	2543.990562
975.844493	2541.593493
976.142386	2542.047197
976.440243	2541.664070
976.738062	2541.621220
977.035845	2543.040305
977.333590	2543.045346
977.631299	2539.461085
977.928971	2538.397402
978.226606	2539.904707
978.524204	2541.323792
978.821765	2541.361600
979.119290	2540.590304
979.416777	2537.558050
979.714228	2542.284132
980.011642	2538.664583
980.309020	2542.478216
980.606360	2543.877136
980.903664	2540.459234
981.200931	2541.742208
981.498162	2542.637012
981.795356	2544.252702
982.092513	2549.059442
982.389633	2551.658157
982.686717	2551.665719
982.983764	2554.103117
983.280775	2556.069167
983.577749	2553.954403
983.874686	2554.065308
984.171587	2549.374514
984.468451	2550.612118
984.765279	2546.448125
985.062070	2545.568443
985.358824	2542.858823
985.655543	2544.290511
985.952224	2544.819832
986.248869	2540.897814
986.545478	2536.512010
986.842050	2538.946888
987.138586	2536.411187
987.435086	2535.977648
987.731549	2536.093595
988.027975	2539.597197
988.324366	2539.302289
988.620719	2538.687268
988.917037	2539.065355
989.213318	2536.479243
989.509563	2537.789943
989.805772	2538.331867
990.101944	2539.173740
990.398080	2537.134593
990.694180	2536.985879
990.990244	2536.960673
991.286271	2539.314892
991.582262	2538.720036
991.878217	2540.227341
992.174136	2540.055942
992.470019	2538.944367
992.765865	2537.510159
993.061676	2538.720036
993.357450	2535.987730
993.653188	2537.706764
993.948890	2541.805222
994.244556	2537.661393
994.540186	2542.072403
994.835780	2537.598379
995.131337	2537.926054
995.426859	2540.673483
995.722345	2539.763555
996.017795	2542.289173
996.313208	2543.718340
996.608586	2540.607948
996.903928	2540.625592
997.199234	2543.120963
997.494504	2541.795140
997.789738	2542.064841
998.084936	2542.188350
998.380099	2542.188350
998.675225	2541.291024
998.970316	2541.459903
999.265371	2540.015612
999.560390	2541.170037
999.855373	2538.168029
1000.150320	2538.246167
1000.445232	2537.671476
1000.740108	2536.804397
1001.034948	2539.627443
1001.329752	2537.341280
1001.624521	2538.853626
1001.919254	2534.608975
1002.213951	2536.312885
1002.508613	2533.187369
1002.803239	2536.259953
1003.097829	2530.616381
1003.392384	2538.377237
1003.686903	2536.625436
1003.981386	2538.944367
1004.275834	2538.848585
1004.570246	2536.940508
1004.864623	2539.839172
1005.158964	2537.119469
1005.453270	2535.602082
1005.747540	2536.930426
1006.041775	2538.876312
1006.335974	2538.553678
1006.630138	2536.360776
1006.924266	2537.162319
1007.218359	2537.195087
1007.512416	2538.261291
1007.806438	2537.845396
1008.100425	2539.065355
1008.394376	2535.657535
1008.688292	2537.474871
1008.982172	2535.715508
1009.276017	2538.530992
1009.569827	2538.054603
1009.863602	2539.075437
1010.157341	2536.751465
1010.451045	2538.105015
1010.744714	2537.512679
1011.038347	2538.112577
1011.331945	2537.109387
1011.625508	2538.730118
1011.919036	2534.195600
1012.212528	2534.727442
1012.505986	2536.489325
1012.799408	2535.990251
1013.092795	2539.093081
1013.386147	2537.293389
1013.679464	2534.281300
1013.972745	2539.319933
1014.265992	2535.062679
1014.559204	2536.965714
1014.852380	2534.251053
1015.145521	2536.549819
1015.438628	2535.657535
1015.731699	2539.395550
1016.024736	2536.527134
1016.317737	2539.100643
1016.610703	2537.994110
1016.903635	2533.870446
1017.196531	2535.770961
1017.489393	2534.606454
1017.782219	2532.249715
1018.075011	2534.740045
1018.367768	2533.492359
1018.660490	2538.369676
1018.953177	2538.369676
1019.245829	2538.369676
