Dividing Wavelength (nm)	Counts (n)	Blue Motor Position (mm): 24.600000	Red Motor Position (mm): 0.000000	
326.493990	2131.450258
326.888308	2131.450258
327.282561	2131.450258
327.676750	2099.834661
328.070874	2098.181163
328.464933	2099.123859
328.858929	2106.080651
329.252859	2117.027517
329.646726	2126.353651
330.040528	2141.630868
330.434265	2158.538898
330.827938	2177.478513
331.221547	2193.816893
331.615091	2214.162989
332.008571	2232.560680
332.401986	2251.792682
332.795338	2270.916299
333.188625	2291.627880
333.581847	2309.148410
333.975006	2328.975268
334.368100	2344.910356
334.761129	2363.827285
335.154095	2380.173227
335.546996	2397.721483
335.939833	2422.697880
336.332606	2439.411826
336.725315	2450.630913
337.117960	2461.630711
337.510540	2465.875363
337.903056	2482.841366
338.295508	2485.760194
338.687896	2496.152533
339.080220	2506.111332
339.472480	2511.187774
339.864676	2513.902435
340.256807	2518.711696
340.648875	2525.434075
341.040879	2525.121523
341.432818	2527.019518
341.824694	2530.109745
342.216506	2528.433561
342.608253	2527.528674
342.999937	2527.364837
343.391557	2528.463808
343.783113	2525.678571
344.174605	2525.865093
344.566033	2525.371060
344.957397	2523.435257
345.348697	2521.159176
345.739934	2519.301511
346.131106	2519.233456
346.522215	2518.018538
346.913260	2514.635923
347.304241	2511.523011
347.695159	2512.495953
348.086012	2509.708195
348.476802	2508.064779
348.867528	2507.064110
349.258191	2503.900786
349.648789	2502.859788
350.039324	2500.014057
350.429796	2502.093533
350.820203	2496.293685
351.210548	2499.938439
351.600828	2497.188490
351.991045	2496.737307
352.381198	2497.901813
352.771288	2494.748571
353.161314	2496.694457
353.551276	2495.224960
353.941175	2496.986844
354.331010	2494.861997
354.720782	2491.239928
355.110490	2494.478870
355.500135	2492.863180
355.889717	2497.914416
356.279235	2494.456184
356.668689	2496.240753
357.058080	2495.497183
357.447408	2490.640031
357.836672	2491.998622
358.225873	2497.712770
358.615010	2492.812768
359.004084	2498.252173
359.393095	2497.243943
359.782043	2499.489777
360.170927	2500.034221
360.559748	2500.412308
360.948505	2499.177225
361.337199	2500.679489
361.725830	2500.535816
362.114398	2503.568070
362.502903	2500.170332
362.891344	2502.093532
363.279722	2501.407936
363.668037	2503.379027
364.056289	2503.076558
364.444478	2505.050169
364.832603	2504.241064
365.220665	2504.949346
365.608665	2506.071003
365.996601	2506.144100
366.384474	2506.408760
366.772284	2509.181395
367.160031	2507.323730
367.547715	2507.048987
367.935336	2509.451097
368.322893	2506.378513
368.710388	2507.583349
369.097820	2510.814729
369.485189	2510.247599
369.872495	2508.720129
370.259738	2509.625016
370.646918	2509.854389
371.034035	2508.145438
371.421090	2511.603669
371.808081	2510.361025
372.195010	2511.999400
372.581875	2509.577125
372.968678	2512.624503
373.355418	2513.282373
373.742096	2514.328413
374.128710	2511.717095
374.515262	2514.893022
374.901751	2511.091992
375.288177	2513.519308
375.674540	2511.124760
376.060841	2514.093999
376.447079	2512.085099
376.833254	2512.881602
377.219367	2507.656446
377.605417	2511.777589
377.991404	2508.773061
378.377329	2512.553927
378.763191	2512.611900
379.148991	2516.624658
379.534727	2514.668691
379.920402	2514.535100
380.306013	2515.311438
380.691563	2516.375121
381.077049	2516.251613
381.462474	2514.724143
381.847835	2515.225738
382.233134	2515.981911
382.618371	2516.589370
383.003545	2516.017199
383.388657	2519.714886
383.773706	2518.068949
384.158693	2518.638599
384.543618	2519.908970
384.928480	2516.859072
385.313280	2519.601460
385.698017	2519.064577
386.082692	2520.823940
386.467305	2519.553569
386.851856	2517.050636
387.236344	2519.314114
387.620770	2522.323683
388.005133	2521.743950
388.389435	2520.211439
388.773674	2520.019876
389.157851	2518.225225
389.541965	2519.692201
389.926018	2523.573889
390.310008	2521.156656
390.693936	2522.066584
391.077802	2521.373425
391.461606	2520.430730
391.845348	2521.360822
392.229027	2524.088087
392.612645	2521.428878
392.996200	2523.301667
393.379694	2523.278982
393.763125	2524.781245
394.146494	2523.044568
394.529801	2523.498272
394.913047	2524.632531
395.296230	2527.107738
395.679351	2525.055988
396.062410	2523.508354
396.445408	2524.004908
396.828343	2525.718900
397.211217	2519.251100
397.594028	2524.327542
397.976778	2520.823940
398.359466	2526.706966
398.742092	2520.609691
399.124656	2527.271575
399.507158	2525.676050
399.889598	2526.767460
400.271977	2523.621780
400.654294	2527.057326
401.036549	2527.372398
401.418742	2525.330731
401.800874	2527.944569
402.182944	2530.119827
402.564952	2527.579086
402.946898	2530.843233
403.328783	2525.519774
403.710606	2529.545136
404.092367	2526.797707
404.474067	2528.854498
404.855705	2528.378109
405.237282	2531.417924
405.618797	2530.596216
406.000250	2528.990609
406.381642	2531.042358
406.762972	2529.323325
407.144240	2531.498583
407.525447	2531.284334
407.906593	2531.115455
408.287677	2529.895496
408.668700	2529.923222
409.049661	2530.951618
409.430560	2530.749972
409.811399	2532.932791
410.192176	2529.610671
410.572891	2530.059333
410.953545	2531.722914
411.334138	2532.655528
411.714669	2534.286341
412.095139	2530.704601
412.475547	2534.820703
412.855894	2531.191072
413.236180	2531.987575
413.616405	2531.906916
413.996568	2533.510003
414.376670	2534.805580
414.756711	2531.710311
415.136691	2534.709798
415.516609	2531.407842
415.896466	2534.006557
416.276262	2537.351363
416.655997	2528.521782
417.035670	2533.139478
417.415283	2535.113090
417.794834	2528.947759
418.174324	2533.542771
418.553753	2533.946063
418.933121	2533.265507
419.312428	2536.098636
419.691674	2534.974458
420.070859	2536.811959
420.449983	2536.471681
420.829045	2535.612164
421.208047	2539.133410
421.586988	2537.326157
421.965867	2537.323636
422.344686	2537.716846
422.723444	2536.133924
423.102141	2533.578059
423.480777	2541.966539
423.859352	2537.313554
424.237866	2537.058976
424.616319	2538.634336
424.994712	2537.094264
425.373044	2538.709953
425.751314	2536.935467
426.129524	2539.448483
426.507673	2537.202648
426.885762	2539.665252
427.263789	2539.755993
427.641756	2539.582073
428.019662	2540.781868
428.397508	2537.442103
428.775292	2540.796991
429.153016	2539.272042
429.530679	2542.649615
429.908282	2541.394368
430.285824	2540.945705
430.663305	2539.864378
431.040726	2542.155582
431.418086	2540.035777
431.795385	2542.495860
432.172624	2540.262629
432.549802	2542.725232
432.926920	2541.467465
433.303977	2545.376879
433.680974	2543.763710
434.057910	2539.022505
434.434786	2542.889070
434.811601	2545.752445
435.188355	2542.775644
435.565050	2544.567774
435.941683	2541.926210
436.318257	2543.748587
436.694770	2539.405633
437.071222	2541.467465
437.447614	2540.179450
437.823946	2539.909748
438.200218	2542.397557
438.576429	2539.965201
438.952580	2544.434184
439.328670	2545.092054
439.704700	2546.405275
440.080670	2546.029709
440.456580	2546.354863
440.832429	2546.007024
441.208218	2542.919317
441.583947	2546.536345
441.959616	2545.722198
442.335224	2545.434853
442.710773	2547.675646
443.086261	2549.545914
443.461689	2549.591284
443.837057	2545.545758
444.212365	2548.792261
444.587612	2550.123126
444.962800	2550.329813
445.337927	2546.886705
445.712995	2546.498536
446.088002	2549.230842
446.462949	2546.838814
446.837837	2551.194371
447.212664	2550.412992
447.587431	2550.206305
447.962139	2552.595812
448.336786	2556.517829
448.711374	2553.599001
449.085901	2555.849877
449.460369	2552.663867
449.834776	2554.967675
450.209124	2555.928014
450.583412	2558.249466
450.957640	2559.489590
451.331808	2559.537481
451.705917	2560.802810
452.079965	2564.079560
452.453954	2564.286248
452.827883	2565.531412
453.201752	2570.222206
453.575562	2569.587021
453.949311	2572.914182
454.323001	2576.765624
454.696632	2580.483475
455.070202	2585.680904
455.443713	2588.745926
455.817164	2593.562748
456.190556	2595.730445
456.563888	2602.682196
456.937160	2607.370469
457.310373	2614.823815
457.683526	2618.639968
458.056619	2623.529887
458.429653	2629.120527
458.802628	2631.381485
459.175542	2643.162661
459.548398	2659.692605
459.921194	2675.126097
460.293930	2682.425688
460.666607	2712.750749
461.039224	2739.483988
461.411782	2752.119640
461.784280	2762.378388
462.156719	2768.967176
462.529099	2780.282046
462.901419	2774.033536
463.273680	2779.442694
463.645882	2790.921401
464.018024	2806.680048
464.390106	2828.326762
464.762130	2864.310519
465.134094	2925.966351
465.505999	3035.402239
465.877845	3159.681805
466.249631	3224.329562
466.621358	3211.512428
466.993026	3189.152390
467.364634	3190.795806
467.736184	3191.219263
468.107674	3196.915767
468.479105	3240.975452
468.850477	3238.245667
469.221790	3249.000969
469.593043	3244.451327
469.964238	3266.554266
470.335373	3300.335038
470.706449	3346.532172
471.077467	3382.296638
471.448425	3613.126032
471.819324	3825.209894
472.190164	3863.983929
472.560945	3716.852813
472.931667	3645.323881
473.302330	3661.392559
473.672934	3649.855878
474.043479	3756.869492
474.413965	3791.933238
474.784393	3827.402796
475.154761	3907.584869
475.525070	3977.369562
475.895321	3992.863548
476.265513	4083.571550
476.635645	4179.131662
477.005719	4248.439966
477.375734	4326.267819
477.745691	4454.769351
478.115588	4557.311462
478.485427	4693.853634
478.855207	4920.839148
479.224928	5258.414974
479.594591	5532.704155
479.964194	5552.679727
480.333739	5597.394762
480.703226	5676.223284
481.072653	5787.080778
481.442022	5981.548329
481.811333	6129.957377
482.180584	6147.288864
482.549777	6134.927955
482.918912	6154.142313
483.287988	6255.345997
483.657005	6345.847311
484.025964	6305.848276
484.394864	6447.741633
484.763706	6532.826228
485.132489	6497.457493
485.501213	6570.418112
485.869879	6687.123344
486.238487	6715.235339
486.607036	6835.325706
486.975527	6831.610375
487.343959	6998.452403
487.712333	7118.610826
488.080648	7161.440469
488.448905	7280.043695
488.817104	7328.665624
489.185244	7567.021460
489.553326	7755.414421
489.921350	8143.484964
490.289315	8848.729784
490.657222	9138.182756
491.025070	9192.642341
491.392861	9210.485505
491.760593	9086.707534
492.128267	8973.331984
492.495883	8853.360084
492.863440	8715.053508
493.230939	8579.191891
493.598380	8605.642825
493.965763	8601.879604
494.333088	8591.169673
494.700354	8617.897870
495.067563	8723.028613
495.434713	8671.636570
495.801805	8829.482659
496.168839	8843.512190
496.535815	8867.855922
496.902733	8917.775948
497.269593	8938.863095
497.636395	9066.938649
498.003139	9128.967527
498.369825	9075.402747
498.736453	9262.459801
499.103023	9256.256661
499.469535	9347.793933
499.835989	9389.058298
500.202385	9405.910875
500.568723	9334.775153
500.935003	9566.506913
501.301226	9463.190986
501.667390	9711.132576
502.033497	9852.587353
502.399546	9779.490622
502.765537	9744.479808
503.131470	9855.002065
503.497345	10052.756448
503.863163	9739.572245
504.228923	10063.534435
504.594625	10155.487602
504.960269	9968.818716
505.325856	10195.731133
505.691385	10045.913082
506.056856	10222.897911
506.422270	10277.118042
506.787625	10203.290343
507.152924	10338.181538
507.518164	10349.723260
507.883347	10312.264966
508.248472	10260.298232
508.613540	10504.900058
508.978550	10418.451831
509.343503	10423.576164
509.708398	10550.434280
510.073236	10679.417242
510.438016	10709.031500
510.802738	10673.851808
511.167403	10745.637839
511.532010	10674.008084
511.896561	10903.564586
512.261053	10991.802422
512.625488	10880.304702
512.989866	10879.672037
513.354186	10883.132789
513.718449	10811.218209
514.082655	11000.286684
514.446803	10918.148644
514.810894	11045.745289
515.174927	10926.239696
515.538904	10960.973246
515.902822	11117.664910
516.266684	11008.092911
516.630488	10960.975767
516.994235	11035.811695
517.357925	11102.017169
517.721558	11197.332785
518.085133	11214.691998
518.448651	11229.518032
518.812112	11125.413164
519.175516	11138.162242
519.538863	11270.081676
519.902152	11183.363748
520.265385	11348.519510
520.628560	11257.816549
520.991678	11249.861608
521.354739	11319.111939
521.717743	11252.735066
522.080690	11239.499517
522.443580	11370.110772
522.806413	11328.548979
523.169189	11363.504339
523.531908	11425.684452
523.894569	11248.334139
524.257174	11248.210630
524.619722	11367.748991
524.982213	11318.696043
525.344647	11375.250228
525.707025	11328.508649
526.069345	11426.758217
526.431608	11341.345948
526.793815	11455.752414
527.155964	11243.678633
527.518057	11301.190637
527.880093	11247.744324
528.242072	11319.220323
528.603995	11225.338915
528.965860	11146.530557
529.327669	11206.699249
529.689421	11153.351238
530.051117	11131.313834
530.412755	11228.799667
530.774337	11116.142482
531.135862	11098.692528
531.497331	11123.512649
531.858743	10976.971348
532.220098	11143.286575
532.581396	11013.678509
532.942638	10999.543114
533.303824	10968.232508
533.664953	10979.073509
534.026025	10895.763400
534.387040	10990.746301
534.747999	10990.159006
535.108902	11053.980014
535.469748	10810.605709
535.830537	10922.557133
536.191270	10896.312886
536.551947	10915.789384
536.912567	10917.417677
537.273131	10844.436892
537.633638	10822.202883
537.994089	10818.787502
538.354483	10771.861921
538.714821	10909.308981
539.075103	10922.985631
539.435328	10883.576411
539.795497	10709.991840
540.155609	10870.860100
540.515665	10949.822214
540.875665	10693.968533
541.235609	10757.524880
541.595496	10759.926989
541.955328	10914.151009
542.315102	10796.976950
542.674821	10743.787735
543.034483	10741.867056
543.394090	10749.907696
543.753640	10681.947901
544.113134	10899.120809
544.472571	10754.505228
544.831953	10899.511498
545.191278	10705.684174
545.550548	10732.382125
545.909761	10872.402693
546.268918	10846.402943
546.628019	10926.469068
546.987064	10791.535024
547.346053	10712.837571
547.704986	10814.106790
548.063863	10800.057095
548.422684	10792.127360
548.781449	10709.520492
549.140158	10811.777777
549.498811	10685.320433
549.857408	10547.374299
550.215949	10776.519947
550.574434	10629.199788
550.932864	10715.600124
551.291237	10781.661924
551.649555	10730.766435
552.007817	10746.348642
552.366022	10711.589886
552.724173	10697.386435
553.082267	10681.169043
553.440305	10820.451083
553.798288	10625.650816
554.156215	10774.437951
554.514086	10759.831208
554.871902	10601.291960
555.229661	10635.629780
555.587365	10612.596748
555.945014	10506.614050
556.302606	10631.281784
556.660143	10535.267968
557.017625	10680.914465
557.375050	10581.165153
557.732421	10715.090967
558.089735	10629.262802
558.446994	10627.954623
558.804197	10661.836218
559.161345	10668.155304
559.518437	10517.568477
559.875474	10602.547208
560.232455	10636.073401
560.589381	10584.061296
560.946251	10580.189690
561.303065	10687.727584
561.659825	10620.939857
562.016528	10554.671369
562.373177	10433.650910
562.729770	10546.703826
563.086307	10463.388676
563.442789	10552.841431
563.799216	10438.601323
564.155587	10484.785854
564.511904	10438.931518
564.868164	10427.120095
565.224370	10441.305902
565.580520	10364.637513
565.936615	10368.977947
566.292654	10240.683102
566.648638	10377.421880
567.004567	10336.371764
567.360441	10314.735132
567.716260	10226.696421
568.072023	10319.478857
568.427732	10273.942115
568.783385	10180.569863
569.138982	10252.081151
569.494525	10266.821485
569.850013	10148.966870
570.205445	10226.330937
570.560823	10122.909145
570.916145	10037.474191
571.271412	10109.345921
571.626625	10051.954905
571.981782	10031.984374
572.336884	10001.689560
572.691931	10010.468729
573.046923	9963.160021
573.401860	9917.998844
573.756743	9845.229789
574.111570	9894.328107
574.466342	9874.375220
574.821059	9903.694570
575.175722	9793.855390
575.530330	9803.572214
575.884882	9799.171287
576.239380	9728.993384
576.593823	9698.781749
576.948211	9718.026354
577.302544	9597.487324
577.656823	9616.187484
578.011047	9614.312175
578.365216	9587.460469
578.719330	9517.393472
579.073389	9524.125933
579.427394	9467.866656
579.781344	9450.605745
580.135239	9398.341582
580.489080	9405.868025
580.842866	9306.017891
581.196597	9313.786309
581.550273	9359.441519
581.903895	9332.017642
582.257463	9392.045181
582.610975	9266.283516
582.964434	9289.366960
583.317837	9222.246517
583.671186	9195.407414
584.024481	9193.514461
584.377721	9110.716029
584.730906	9087.216691
585.084037	9122.202298
585.437113	9058.303153
585.790135	9074.608765
586.143103	8968.096746
586.496016	8945.731667
586.848874	9006.782560
587.201679	8998.981375
587.554428	8881.356132
587.907124	8927.502854
588.259765	8899.716014
588.612352	8903.824555
588.964884	8776.905945
589.317362	8797.773801
589.669786	8791.966392
590.022155	8839.007919
590.374470	8858.766722
590.726731	8789.551679
591.078937	8650.839290
591.431090	8755.372656
591.783188	8629.492524
592.135232	8628.907750
592.487222	8626.203171
592.839157	8676.168568
593.191038	8612.947457
593.542866	8554.429743
593.894639	8459.557749
594.246358	8500.839758
594.598022	8522.864559
594.949633	8421.703724
595.301190	8401.985251
595.652692	8422.490144
596.004141	8533.403091
596.355535	8311.914955
596.706876	8292.977861
597.058162	8228.095690
597.409395	8308.134090
597.760573	8366.747586
598.111698	8276.394985
598.462768	8262.839323
598.813785	8226.721976
599.164748	8194.788787
599.515657	8179.763628
599.866511	8094.769774
600.217312	8222.762150
600.568060	8081.488854
600.918753	8183.955347
601.269392	8155.374526
601.619978	8068.102070
601.970510	8124.890668
602.320988	8126.100545
602.671412	8177.800098
603.021783	8120.862786
603.372100	8089.201820
603.722363	8091.341789
604.072572	8068.129797
604.422728	8081.357784
604.772830	8008.462700
605.122878	8014.194492
605.472872	8011.686517
605.822813	8041.875467
606.172701	7980.181827
606.522534	8060.948673
606.872314	8056.192344
607.222041	8029.693519
607.571714	8083.253258
607.921333	8041.371352
608.270899	8049.001138
608.620411	8141.677711
608.969870	8051.804020
609.319276	8040.602576
609.668627	8053.155049
610.017926	8086.862724
610.367171	8138.698389
610.716362	8112.411292
611.065500	8103.445600
611.414585	8130.461143
611.763616	8115.231818
612.112594	8102.596165
612.461518	8112.081096
612.810389	8177.089296
613.159207	8114.808361
613.507971	8062.846667
613.856682	8186.521295
614.205340	8139.078996
614.553945	8218.401552
614.902496	8111.697969
615.250994	8166.807863
615.599439	8152.881675
615.947830	8162.122110
616.296169	8136.147565
616.644454	8151.659195
616.992686	8149.564596
617.340864	8201.589303
617.688990	8111.405582
618.037063	8202.441258
618.385082	8149.375552
618.733048	8230.714570
619.080961	8169.436824
619.428821	8187.587499
619.776628	8190.082870
620.124382	8148.178278
620.472083	8126.740772
620.819731	8150.424113
621.167326	8046.369656
621.514868	8054.553969
621.862357	7945.854089
622.209793	7969.484498
622.557176	7901.733911
622.904506	7871.169395
623.251783	7801.170453
623.599007	7751.860407
623.946179	7761.194103
624.293297	7720.050726
624.640363	7639.727502
624.987376	7617.538863
625.334336	7566.837458
625.681243	7520.473966
626.028097	7501.436049
626.374899	7475.572409
626.721647	7476.414282
627.068343	7408.741832
627.414987	7380.224025
627.761577	7338.090061
628.108115	7376.296966
628.454600	7268.174298
628.801032	7316.224056
629.147412	7277.255937
629.493739	7267.624813
629.840014	7203.771037
630.186236	7259.858915
630.532405	7142.669732
630.878521	7191.221085
631.224585	7146.092676
631.570597	7072.937972
631.916556	7108.951975
632.262462	7105.493743
632.608316	7065.850109
632.954117	7040.614093
633.299866	7034.819287
633.645562	7018.783377
633.991206	6942.379649
634.336797	6884.653396
634.682336	6840.152611
635.027823	6810.210677
635.373257	6804.105840
635.718639	6732.481126
636.063968	6749.510144
636.409245	6641.798330
636.754470	6641.475696
637.099642	6597.569767
637.444762	6547.405245
637.789829	6552.869856
638.134845	6498.662328
638.479808	6481.257745
638.824719	6486.515668
639.169577	6416.408342
639.514383	6433.563388
639.859137	6361.837851
640.203839	6372.169696
640.548489	6353.361151
640.893086	6332.342060
641.237632	6304.580426
641.582125	6325.990206
641.926566	6296.990969
642.270955	6307.837011
642.615292	6304.250230
642.959576	6320.780174
643.303809	6308.618390
643.647990	6318.471325
643.992118	6305.124871
644.336195	6255.091419
644.680219	6277.527074
645.024192	6268.092554
645.368112	6369.545776
645.711981	6386.859618
646.055797	6461.536751
646.399562	6416.791469
646.743274	6539.568771
647.086935	6598.023471
647.430544	6590.179435
647.774101	6613.582992
648.117606	6622.561287
648.461059	6612.083249
648.804460	6574.629996
649.147810	6478.737168
649.491108	6448.666685
649.834354	6427.279590
650.177548	6344.042578
650.520690	6261.783550
650.863781	6241.729840
651.206820	6255.502273
651.549807	6178.536456
651.892742	6120.066633
652.235626	6130.879908
652.578458	6111.995746
652.921238	6022.232961
653.263967	6056.679165
653.606644	6003.575650
653.949269	6004.422564
654.291843	5942.847391
654.634365	5996.616338
654.976836	5950.393998
655.319255	5950.618329
655.661622	5928.374238
656.003938	5920.048772
656.346203	5879.553183
656.688416	5912.552577
657.030577	5863.681111
657.372687	5837.648592
657.714746	5823.505635
658.056753	5866.751173
658.398708	5806.718593
658.740612	5801.130474
659.082465	5845.593451
659.424266	5837.651113
659.766016	5838.336710
660.107715	5813.007432
660.449362	5827.473023
660.790958	5819.150078
661.132503	5807.832688
661.473996	5849.225602
661.815438	5832.425957
662.156829	5827.697354
662.498168	5824.723074
662.839456	5799.582839
663.180693	5836.809240
663.521879	5833.988714
663.863013	5822.260470
664.204097	5840.320404
664.545129	5879.953955
664.886110	5879.747268
665.227040	5915.219347
665.567918	5877.415734
665.908746	5909.490076
666.249522	5912.892854
666.590248	5892.579525
666.930922	5927.434063
667.271545	5937.055105
667.612118	5943.051557
667.952639	5908.938069
668.293109	5933.609476
668.633528	5891.861161
668.973896	5894.006172
669.314213	5884.218771
669.654480	5866.922573
669.994695	5858.987796
670.334859	5846.286609
670.674973	5844.625549
671.015035	5845.923646
671.355047	5849.349110
671.695008	5835.667419
672.034918	5803.361184
672.374777	5815.598585
672.714585	5804.225742
673.054342	5803.605680
673.394049	5802.846987
673.733705	5829.088713
674.073310	5814.119007
674.412864	5778.031907
674.752368	5769.968581
675.091820	5772.605105
675.431223	5708.521957
675.770574	5712.123861
676.109875	5666.773641
676.449125	5665.858672
676.788324	5635.407582
677.127473	5575.652265
677.466571	5570.205298
677.805619	5559.709616
678.144616	5545.612029
678.483562	5527.047980
678.822458	5494.708978
679.161303	5486.595241
679.500098	5479.411597
679.838842	5460.950892
680.177535	5463.985666
680.516179	5484.944263
680.854771	5494.633361
681.193314	5574.301236
681.531805	5682.577659
681.870247	5829.063507
682.208638	5933.314569
682.546978	5943.676660
682.885268	5919.617754
683.223508	5837.986349
683.561697	5784.529954
683.899836	5752.571559
684.237925	5708.789138
684.575963	5673.559034
684.913951	5635.997397
685.251889	5695.954360
685.589776	5669.342109
685.927614	5640.415968
686.265401	5711.082863
686.603137	5690.424215
686.940824	5764.486326
687.278460	5792.651253
687.616046	5800.013858
687.953582	5863.091296
688.291068	5848.759295
688.628504	5907.587040
688.965889	5871.542790
689.303224	5816.513555
689.640510	5772.526967
689.977745	5694.797416
690.314930	5594.410398
690.652065	5542.738572
690.989150	5453.593327
691.326185	5373.565010
691.663170	5323.133307
692.000105	5245.013067
692.336990	5170.356099
692.673825	5144.053878
693.010610	5075.940328
693.347345	5007.269731
693.684030	4992.824304
694.020665	4953.720074
694.357251	4863.178430
694.693786	4873.598495
695.030272	4840.566335
695.366707	4808.635666
695.703093	4772.288947
696.039429	4794.822905
696.375716	4774.801962
696.711952	4751.370679
697.048139	4736.222012
697.384276	4720.291966
697.720363	4731.939552
698.056400	4738.460284
698.392388	4688.459600
698.728326	4668.781456
699.064214	4647.452334
699.400053	4640.682064
699.735842	4607.473463
700.071581	4586.257767
700.407270	4555.284918
700.742910	4537.789593
701.078501	4485.976614
701.414042	4487.173888
701.749533	4452.417653
702.084974	4387.081779
702.420366	4445.002116
702.755709	4389.279722
703.091002	4334.900795
703.426246	4381.488618
703.761440	4338.142257
704.096584	4303.292761
704.431679	4323.059125
704.766725	4306.420797
705.101721	4298.317142
705.436668	4324.906708
705.771565	4270.852936
706.106413	4299.864776
706.441212	4329.151359
706.775961	4339.654603
707.110661	4318.315399
707.445311	4347.869163
707.779913	4370.060323
708.114465	4386.706213
708.448967	4403.364706
708.783421	4469.723934
709.117825	4507.335983
709.452180	4513.211448
709.786485	4555.834404
710.120742	4641.503772
710.454949	4629.175630
710.789107	4691.368345
711.123216	4761.793265
711.457275	4756.812605
711.791286	4832.800437
712.125247	4845.483980
712.459159	4749.744907
712.793023	4826.705682
713.126837	4787.349394
713.460602	4778.897900
713.794318	4699.948389
714.127985	4709.486252
714.461602	4621.447542
714.795171	4591.568623
715.128691	4526.847769
715.462162	4473.104028
715.795584	4421.326337
716.128957	4405.308070
716.462281	4352.658260
716.795556	4326.923169
717.128782	4286.384731
717.461960	4221.787385
717.795088	4231.491606
718.128167	4188.540976
718.461198	4128.571409
718.794180	4124.747694
719.127113	4109.132720
719.459997	4084.400819
719.792833	4043.897669
720.125619	4034.465670
720.458357	3995.008559
720.791046	4007.329139
721.123686	3979.086074
721.456278	3941.131227
721.788821	3954.704534
722.121315	3926.101027
722.453761	3901.870721
722.786158	3910.591917
723.118506	3935.948921
723.450805	3889.938310
723.783056	3912.734407
724.115259	3924.475255
724.447412	3931.830298
724.779518	3923.013320
725.111574	3931.018672
725.443582	3956.126139
725.775542	3942.474695
726.107453	3996.422602
726.439315	3997.519053
726.771129	4002.812265
727.102895	4044.210220
727.434612	4094.573868
727.766281	4101.545784
728.097901	4102.122996
728.429473	4108.719346
728.760996	4116.497846
729.092471	4112.724542
729.423897	4093.152262
729.755276	4102.717852
730.086606	4099.776339
730.417887	4139.793018
730.749120	4203.379612
731.080305	4267.775311
731.411442	4295.920073
731.742530	4264.836318
732.073570	4269.711114
732.404562	4320.606603
732.735506	4310.657886
733.066401	4277.643370
733.397249	4214.419739
733.728048	4134.865290
734.058798	4051.469482
734.389501	3984.384327
734.720156	3920.341509
735.050762	3877.385837
735.381320	3870.602964
735.711831	3819.042043
736.042293	3791.376190
736.372707	3810.577945
736.703073	3783.154068
737.033391	3774.606792
737.363661	3791.348464
737.693883	3817.252433
738.024056	3823.387517
738.354182	3820.849296
738.684260	3886.490161
739.014290	3901.348962
739.344272	3904.313160
739.674207	3943.820683
740.004093	3949.131538
740.333931	3942.905713
740.663722	3940.609468
740.993464	3940.833799
741.323159	3917.876384
741.652806	3884.635016
741.982405	3859.252806
742.311956	3826.525636
742.641460	3821.343329
742.970915	3795.709062
743.300323	3757.880244
743.629683	3724.384297
743.958996	3710.183367
744.288260	3687.606559
744.617477	3653.619100
744.946647	3638.619147
745.275768	3618.547793
745.604842	3613.680558
745.933869	3564.133578
746.262847	3554.930952
746.591778	3592.666509
746.920662	3562.515367
747.249498	3536.613919
747.578286	3582.397678
747.907027	3596.787652
748.235720	3593.505861
748.564365	3620.198770
748.892963	3619.490488
749.221514	3601.536419
749.550017	3580.474478
749.878473	3575.418201
750.206881	3546.703788
750.535242	3546.839900
750.863555	3549.362997
751.191821	3539.981410
751.520039	3523.393493
751.848210	3501.144361
752.176334	3535.159546
752.504411	3539.626008
752.832440	3499.601767
753.160421	3480.163078
753.488356	3495.377281
753.816243	3503.110411
754.144082	3459.693473
754.471875	3448.146710
754.799620	3465.289154
755.127318	3458.904532
755.454969	3457.765232
755.782572	3462.942497
756.110129	3441.542799
756.437638	3429.033175
756.765100	3444.131431
757.092515	3454.942186
757.419882	3459.370839
757.747203	3434.744803
758.074477	3435.649690
758.401703	3452.033440
758.728882	3471.711584
759.056014	3482.792040
759.383099	3482.492091
759.710138	3477.639981
760.037129	3496.322497
760.364073	3526.839122
760.690970	3513.802698
761.017820	3490.983915
761.344623	3512.209693
761.671379	3552.470868
761.998088	3602.179166
762.324751	3730.799165
762.651366	3976.527689
762.977935	4445.831386
763.304456	4888.250609
763.630931	4978.963652
763.957359	4620.840083
764.283740	4280.821817
764.610074	4089.893157
764.936362	3895.244124
765.262602	3733.211357
765.588796	3623.311683
765.914943	3538.542160
766.241044	3448.686114
766.567097	3420.160745
766.893104	3376.993344
767.219064	3343.262984
767.544978	3319.040240
767.870845	3261.256014
768.196665	3244.678179
768.522438	3252.270157
768.848165	3246.838314
769.173846	3211.177191
769.499479	3196.141950
769.825066	3179.027233
770.150607	3162.058709
770.476101	3174.744772
770.801548	3169.557425
771.126949	3127.511682
771.452303	3110.472582
771.777611	3116.514404
772.102872	3119.206381
772.428087	3095.187803
772.753256	3085.566761
773.078378	3077.684917
773.403453	3047.919424
773.728482	3034.036086
774.053465	3057.288408
774.378401	3040.493804
774.703291	3010.057838
775.028135	3012.384331
775.352932	3008.858043
775.677683	2996.204747
776.002388	2995.302381
776.327046	2992.960765
776.651658	2982.442397
776.976224	2972.539051
777.300743	2973.043166
777.625216	2962.708801
777.949643	2959.916001
778.274024	2957.791155
778.598359	2948.775051
778.922647	2953.914508
779.246889	2954.980712
779.571086	2937.097218
779.895236	2932.998760
780.219339	2945.553754
780.543397	2955.530198
780.867409	2959.651341
781.191374	2951.030968
781.515294	2949.846297
781.839167	2948.588529
782.162995	2941.772889
782.486776	2950.030299
782.810511	2946.781275
783.134201	2933.268462
783.457844	2940.250460
783.781441	2931.546908
784.104993	2908.919689
784.428498	2911.024371
784.751958	2928.101279
785.075372	2919.594332
785.398739	2904.644791
785.722061	2919.967378
786.045337	2934.085129
786.368568	2917.802202
786.691752	2909.761562
787.014891	2959.953810
787.337983	2986.626555
787.661030	3009.460461
787.984031	3082.206832
788.306987	3125.280971
788.629897	3117.220166
788.952760	3102.076540
789.275579	3090.789396
789.598351	3026.156763
789.921078	2982.918786
790.243759	2975.430152
790.566395	2959.232925
790.888984	2933.023966
791.211529	2914.316244
791.534027	2908.118146
791.856480	2898.575241
792.178888	2882.897253
792.501249	2875.118753
792.823566	2873.268649
793.145836	2868.807228
793.468062	2864.933101
793.790241	2862.147864
794.112375	2872.023484
794.434464	2885.286760
794.756507	2887.189795
795.078505	2892.170455
795.400457	2907.639236
795.722364	2944.709361
796.044226	2968.455716
796.366042	2969.889924
796.687812	2954.917697
797.009538	2978.101964
797.331218	2967.417238
797.652852	2949.480813
797.974442	2935.889862
798.295986	2929.691763
798.617484	2924.844694
798.938938	2907.553536
799.260346	2893.327400
799.581709	2886.988149
799.903026	2882.849362
800.224299	2877.092364
800.545526	2869.129862
800.866708	2854.593695
801.187845	2840.281859
801.508936	2842.658763
801.829983	2852.121009
802.150984	2838.101560
802.471940	2823.888027
802.792851	2824.150167
803.113717	2823.008345
803.434538	2831.951352
803.755314	2824.140084
804.076045	2816.202787
804.396731	2813.636840
804.717372	2816.560709
805.037967	2812.840338
805.358518	2817.735298
805.679024	2828.465394
805.999485	2826.927842
806.319901	2828.175528
806.640272	2820.800320
806.960598	2828.059581
807.280879	2837.506704
807.601115	2842.638598
807.921306	2830.204592
808.241453	2824.487924
808.561554	2833.057885
808.881611	2834.134172
809.201623	2829.032524
809.521590	2829.385405
809.841513	2824.898778
810.161390	2826.055723
810.481223	2823.139415
810.801011	2812.258085
811.120755	2806.763227
811.440453	2813.760348
811.760107	2812.714309
812.079716	2810.443269
812.399281	2799.433389
812.718801	2792.267389
813.038276	2789.015845
813.357707	2795.350055
813.677093	2800.393729
813.996434	2796.098666
814.315731	2790.439971
814.634983	2789.487193
814.954191	2786.671708
815.273354	2803.801549
815.592473	2810.632312
815.911547	2812.467292
816.230577	2818.909887
816.549562	2828.296516
816.868502	2824.230825
817.187399	2838.182218
817.506250	2853.701410
817.825058	2850.291070
818.143821	2859.024869
818.462539	2873.571118
818.781213	2903.434914
819.099843	2938.055038
819.418429	2995.942607
819.736970	3057.873182
820.055466	3127.247021
820.373919	3233.748958
820.692327	3370.959083
821.010691	3537.155843
821.329011	3980.742093
821.647286	4873.270820
821.965517	6239.390745
822.283704	6968.959132
822.601847	6944.655730
822.919945	6320.024001
823.237999	5820.460778
823.556010	5242.779835
823.873976	4694.617369
824.191897	4288.156696
824.509775	3995.101820
824.827609	3731.928384
825.145398	3609.877008
825.463144	3598.080708
825.780845	3690.477496
826.098502	3794.284936
826.416116	4077.650714
826.733685	4389.698137
827.051210	4450.998568
827.368692	4330.709076
827.686129	4074.411773
828.003522	3747.757607
828.320872	3490.883092
828.638177	3298.696663
828.955439	3163.198010
829.272656	3082.259764
829.589830	3013.954650
829.906960	2967.152578
830.224046	2920.726071
830.541088	2887.590567
830.858086	2873.687065
831.175041	2853.464476
831.491952	2854.248376
831.808819	2869.959132
832.125642	2891.502503
832.442421	2939.401026
832.759157	3016.714682
833.075849	3195.569779
833.392497	3475.966318
833.709101	3674.202131
834.025662	3622.061477
834.342179	3464.359061
834.658653	3290.217443
834.975083	3140.653970
835.291469	3046.233158
835.607811	2965.209213
835.924110	2906.494894
836.240366	2854.631503
836.556578	2811.544761
836.872746	2792.582461
837.188871	2766.464243
837.504952	2748.006058
837.820990	2743.287538
838.136984	2731.022411
838.452935	2723.533777
838.768842	2720.955227
839.084706	2739.506673
839.400526	2818.254537
839.716303	2949.057356
840.032037	3027.283461
840.347727	3012.391892
840.663373	2952.820577
840.978977	2878.030019
841.294537	2806.387661
841.610054	2760.767739
841.925527	2737.596076
842.240957	2718.071687
842.556344	2696.392205
842.871687	2677.077024
843.186987	2668.668379
843.502244	2664.542195
843.817458	2662.296361
844.132629	2648.876809
844.447756	2639.522948
844.762840	2635.376599
845.077881	2638.018164
845.392879	2634.696043
845.707833	2630.035497
846.022745	2620.522839
846.337613	2626.892337
846.652438	2626.547018
846.967221	2624.175155
847.281960	2624.074332
847.596656	2618.932355
847.911309	2620.885802
848.225919	2619.643158
848.540485	2613.969339
848.855009	2616.336161
849.169490	2615.416150
849.483928	2614.589401
849.798323	2615.829525
850.112675	2612.744339
850.426984	2613.172837
850.741251	2609.825511
851.055474	2609.371807
851.369654	2616.454628
851.683792	2615.340533
851.997887	2614.639813
852.311938	2612.333485
852.625947	2615.338012
852.939914	2616.865482
853.253837	2616.192488
853.567718	2610.435490
853.881555	2610.392641
854.195350	2616.626027
854.509103	2615.015379
854.822812	2612.232662
855.136479	2612.628392
855.450103	2615.085955
855.763685	2613.124946
856.077224	2615.292642
856.390720	2610.233844
856.704173	2612.383896
857.017584	2617.104937
857.330953	2618.082921
857.644278	2619.998559
857.957561	2618.289608
858.270802	2616.338682
858.584000	2613.944133
858.897155	2618.219032
859.210268	2620.101903
859.523339	2611.920110
859.836367	2611.607559
860.149352	2612.157044
860.462295	2616.991511
860.775195	2609.386930
861.088054	2608.222424
861.400869	2608.270315
861.713642	2604.411312
862.026373	2608.277877
862.339062	2611.882302
862.651708	2615.295163
862.964312	2614.440687
863.276873	2613.734926
863.589392	2617.634258
863.901869	2623.267747
864.214303	2627.590537
864.526696	2629.841412
864.839045	2629.884262
865.151353	2634.799387
865.463619	2632.409880
865.775842	2633.201341
866.088023	2632.760240
866.400162	2633.960035
866.712258	2630.446351
867.024313	2630.322842
867.336325	2625.851339
867.648296	2630.249746
867.960224	2635.129582
868.272110	2634.043214
868.583954	2625.861421
868.895755	2628.518109
869.207515	2630.269910
869.519233	2639.719553
869.830909	2635.295941
870.142542	2629.826289
870.454134	2633.554222
870.765684	2635.686630
871.077191	2642.731642
871.388657	2643.754997
871.700081	2643.669297
872.011463	2640.959677
872.322803	2643.785244
872.634101	2647.291366
872.945357	2653.993580
873.256571	2659.553973
873.567744	2657.048519
873.878874	2654.790083
874.189963	2657.093890
874.501010	2661.215033
874.812015	2666.893893
875.122979	2663.125630
875.433900	2655.415186
875.744780	2656.998108
876.055618	2663.481032
876.366415	2665.278203
876.677169	2665.149654
876.987882	2661.451967
877.298554	2662.011535
877.609183	2672.282886
877.919771	2676.283042
878.230317	2682.098013
878.540822	2696.203161
878.851285	2706.794626
879.161707	2731.241701
879.472087	2769.330139
879.782425	2814.347643
880.092722	2928.819644
880.402977	3115.425515
880.713191	3369.865153
881.023363	3657.704955
881.333494	3845.334181
881.643583	4019.932023
881.953631	4015.846168
882.263637	3842.501052
882.573602	3620.491157
882.883526	3493.522136
883.193408	3381.956360
883.503248	3280.147738
883.813048	3168.075326
884.122806	3056.577606
884.432522	2969.456385
884.742197	2904.788463
885.051831	2873.848382
885.361424	2835.180211
885.670975	2801.648976
885.980485	2770.177053
886.289954	2754.289857
886.599382	2738.773185
886.908768	2728.307750
887.218113	2710.976263
887.527417	2697.796166
887.836680	2690.020186
888.145901	2684.343847
888.455082	2674.437980
888.764221	2662.392142
889.073319	2654.853097
889.382376	2655.463077
889.691392	2657.000628
890.000366	2657.499703
890.309300	2656.264620
890.618193	2654.364105
890.927044	2660.990702
891.235855	2658.628921
891.544625	2659.569096
891.853353	2656.947696
892.162041	2667.425735
892.470687	2686.473734
892.779293	2697.960003
893.087858	2704.609285
893.396381	2728.769015
893.704864	2769.894748
894.013306	2838.673731
894.321707	2933.263421
894.630068	2982.906183
894.938387	2998.069974
895.246665	2993.888337
895.554903	2949.944599
895.863100	2907.530851
896.171256	2852.224352
896.479371	2790.129940
896.787446	2752.318765
897.095480	2736.585324
897.403473	2728.035527
897.711425	2714.477344
898.019336	2694.698377
898.327207	2680.867971
898.635038	2680.225224
898.942827	2676.323371
899.250576	2667.718122
899.558284	2656.060453
899.865952	2652.347643
900.173579	2649.564927
900.481165	2647.913949
900.788711	2640.339615
901.096216	2633.952473
901.403681	2628.273613
901.711105	2628.724797
902.018489	2628.462657
902.325832	2631.525157
902.633135	2632.742596
902.940397	2648.896974
903.247619	2684.842921
903.554800	2753.659712
903.861941	2880.369114
904.169041	3003.506859
904.476101	3062.165725
904.783121	3056.849828
905.090100	2999.836899
905.397039	2925.610949
905.703938	2855.536390
906.010796	2793.164714
906.317614	2743.821901
906.624391	2706.696323
906.931129	2678.758248
907.237826	2658.447440
907.544483	2639.825417
907.851099	2626.426030
908.157675	2616.928497
908.464211	2609.729729
908.770707	2600.660693
909.077163	2594.031576
909.383578	2593.164497
909.689954	2590.948910
909.996289	2593.187182
910.302584	2588.456060
910.608839	2586.099320
910.915054	2587.798189
911.221229	2589.587799
911.527363	2591.359764
911.833458	2589.227356
912.139513	2589.807089
912.445527	2590.941348
912.751502	2598.099787
913.057436	2601.956270
913.363331	2606.422732
913.669186	2618.750874
913.975000	2633.108080
914.280775	2648.718013
914.586510	2666.785508
914.892205	2702.875128
915.197859	2770.043462
915.503475	2853.242665
915.809050	2913.348343
916.114585	2930.684871
916.420081	2939.484205
916.725536	2953.614559
917.030952	2926.193203
917.336328	2881.599156
917.641665	2832.836075
917.946961	2784.735905
918.252218	2748.116964
918.557435	2724.468911
918.862612	2704.420242
919.167750	2686.395597
919.472848	2671.776250
919.777906	2651.314207
920.082925	2642.320788
920.387904	2631.449540
920.692843	2628.203037
920.997743	2620.694238
921.302603	2617.803137
921.607423	2608.678648
921.912204	2604.809563
922.216946	2599.783532
922.521647	2600.822010
922.826310	2594.742378
923.130932	2588.947572
923.435516	2585.524629
923.740059	2585.683425
924.044564	2582.862899
924.349028	2578.482137
924.653454	2570.476784
924.957840	2570.880077
925.262186	2568.979562
925.566493	2567.807493
925.870761	2563.832544
926.174989	2568.631722
926.479178	2560.404559
926.783328	2565.060065
927.087438	2561.901782
927.391509	2562.557132
927.695541	2561.107800
927.999533	2561.188458
928.303486	2558.975392
928.607400	2557.458005
928.911275	2556.548076
929.215110	2555.741492
929.518906	2556.233004
929.822663	2557.460525
930.126381	2556.497665
930.430060	2557.962120
930.733699	2559.469425
931.037299	2557.241235
931.340861	2559.179559
931.644383	2559.797100
931.947866	2555.789383
932.251309	2561.306926
932.554714	2555.048333
932.858080	2559.353478
933.161407	2555.408776
933.464694	2556.190154
933.767943	2554.912222
934.071153	2555.829712
934.374323	2555.093703
934.677455	2551.436346
934.980548	2554.818961
935.283602	2553.934238
935.586617	2554.854249
935.889593	2553.956923
936.192530	2553.243600
936.495428	2553.843497
936.798287	2554.090514
937.101108	2557.523540
937.403890	2558.841801
937.706632	2561.014539
938.009336	2565.314643
938.312002	2568.997206
938.614628	2572.536096
938.917216	2577.607497
939.219765	2576.201015
939.522275	2575.913669
939.824747	2576.095150
940.127179	2570.663307
940.429573	2569.340004
940.731929	2567.472257
941.034246	2564.830692
941.336524	2564.845816
941.638763	2566.973182
941.940964	2564.162739
942.243126	2563.199879
942.545250	2562.731052
942.847335	2562.191648
943.149381	2562.632749
943.451389	2560.187789
943.753359	2561.133006
944.055290	2558.967830
944.357182	2559.633262
944.659036	2557.334496
944.960851	2558.872048
945.262628	2558.055381
945.564367	2556.810216
945.866067	2556.137222
946.167729	2560.497820
946.469352	2557.916750
946.770937	2557.974723
947.072484	2555.446584
947.373992	2558.367933
947.675462	2556.081770
947.976893	2557.304249
948.278286	2554.519012
948.579641	2556.653941
948.880958	2553.730071
949.182236	2553.412479
949.483476	2553.959444
949.784678	2554.027499
950.085841	2554.017417
950.386967	2555.063457
950.688054	2553.460370
950.989103	2558.083108
951.290114	2556.986657
951.591087	2559.121585
951.892021	2559.303067
952.192917	2558.113355
952.493776	2560.515464
952.794596	2560.928839
953.095378	2560.596123
953.396122	2562.179045
953.696828	2561.687533
953.997496	2560.601164
954.298126	2554.834084
954.598718	2556.411965
954.899272	2554.960113
955.199788	2554.123281
955.500266	2551.882488
955.800706	2548.628424
956.101108	2546.042312
956.401472	2545.949050
956.701798	2544.986190
957.002087	2542.269008
957.302337	2547.655481
957.602550	2545.865871
957.902724	2546.949719
958.202861	2545.132383
958.502960	2542.742877
958.803022	2541.969059
959.103045	2541.459903
959.403031	2543.506611
959.702979	2541.974101
960.002889	2540.741538
960.302762	2541.575849
960.602596	2541.739687
960.902393	2541.215407
961.202153	2541.409491
961.501875	2538.851106
961.801559	2537.984027
962.101205	2539.806404
962.400814	2539.274563
962.700385	2540.146682
962.999918	2543.120963
963.299414	2539.080478
963.598873	2540.628113
963.898293	2538.692309
964.197677	2540.673483
964.497022	2538.687268
964.796331	2539.761034
965.095601	2540.673483
965.394835	2540.897814
965.694030	2538.601569
965.993189	2540.728936
966.292309	2541.235572
966.591393	2537.784902
966.890439	2537.913451
967.189447	2540.819676
967.488419	2539.153575
967.787353	2539.642567
968.086249	2538.977135
968.385108	2539.128369
968.683930	2541.104502
968.982714	2539.143493
969.281462	2539.284645
969.580172	2539.927392
969.878844	2539.236754
970.177480	2537.921013
970.476078	2541.268339
970.774639	2538.911600
971.073162	2539.602238
971.371649	2535.972607
971.670098	2533.678882
971.968510	2537.043852
972.266885	2535.503780
972.565223	2541.316230
972.863524	2538.750283
973.161788	2541.235572
973.460014	2540.744059
973.758204	2538.772968
974.056356	2541.001158
974.354471	2541.417053
974.652550	2542.644574
974.950591	2538.941847
975.248595	2539.899666
975.546563	2541.598535
975.844493	2539.687937
976.142386	2539.715664
976.440243	2541.974101
976.738062	2535.854140
977.035845	2538.709953
977.333590	2538.152906
977.631299	2538.737680
977.928971	2538.213400
978.226606	2538.236085
978.524204	2539.055273
978.821765	2536.950591
979.119290	2538.664583
979.416777	2537.190046
979.714228	2537.787422
980.011642	2538.793133
980.309020	2539.982845
980.606360	2537.003523
980.903664	2540.058462
981.200931	2537.444624
981.498162	2541.747249
981.795356	2540.106353
982.092513	2545.921324
982.389633	2548.041129
982.686717	2550.715461
982.983764	2554.723179
983.280775	2552.389124
983.577749	2551.617828
983.874686	2552.739485
984.171587	2549.866027
984.468451	2547.287477
984.765279	2543.662887
985.062070	2544.678680
985.358824	2539.660211
985.655543	2541.417053
985.952224	2541.356559
986.248869	2539.571991
986.545478	2534.669469
986.842050	2537.863040
987.138586	2533.303316
987.435086	2534.969417
987.731549	2532.794159
988.027975	2536.965714
988.324366	2534.493028
988.620719	2536.428831
988.917037	2534.926568
989.213318	2535.344983
989.509563	2538.155427
989.805772	2534.351876
990.101944	2536.743903
990.398080	2537.679037
990.694180	2536.806918
990.990244	2534.540919
991.286271	2536.706095
991.582262	2534.253573
991.878217	2537.883204
992.174136	2534.951773
992.470019	2533.522606
992.765865	2535.965045
993.061676	2533.323481
993.357450	2535.720549
993.653188	2534.523275
993.948890	2536.791794
994.244556	2534.745086
994.540186	2537.679038
994.835780	2535.662576
995.131337	2538.417567
995.426859	2538.707433
995.722345	2538.488143
996.017795	2537.457227
996.313208	2540.328164
996.608586	2542.604245
996.903928	2542.029553
997.199234	2541.578370
997.494504	2539.193904
997.789738	2539.193904
998.084936	2540.890252
998.380099	2536.270035
998.675225	2537.394212
998.970316	2536.718698
999.265371	2535.380271
999.560390	2536.587628
999.855373	2536.819521
1000.150320	2536.078471
1000.445232	2534.571166
1000.740108	2535.879346
1001.034948	2536.280117
1001.329752	2533.310878
1001.624521	2536.937988
1001.919254	2529.968593
1002.213951	2532.622760
1002.508613	2530.661751
1002.803239	2532.900024
1003.097829	2528.070598
1003.392384	2532.811803
1003.686903	2531.546474
1003.981386	2533.802390
1004.275834	2532.305167
1004.570246	2536.186856
1004.864623	2533.941022
1005.158964	2533.497400
1005.453270	2533.983872
1005.747540	2533.620909
1006.041775	2536.209541
1006.335974	2533.562935
1006.630138	2531.664941
1006.924266	2534.969417
1007.218359	2535.103008
1007.512416	2532.358100
1007.806438	2533.326001
1008.100425	2535.150899
1008.394376	2532.181659
1008.688292	2533.157123
1008.982172	2533.346166
1009.276017	2532.819365
1009.569827	2532.927750
1009.863602	2532.683254
1010.157341	2535.970086
1010.451045	2534.455220
1010.744714	2531.493542
1011.038347	2533.141999
1011.331945	2535.783564
1011.625508	2534.699716
1011.919036	2531.117976
1012.212528	2531.831299
1012.505986	2533.245343
1012.799408	2532.370703
1013.092795	2533.023532
1013.386147	2535.090405
1013.679464	2535.949922
1013.972745	2533.666279
1014.265992	2531.974972
1014.559204	2532.567308
1014.852380	2531.072605
1015.145521	2535.128214
1015.438628	2532.085877
1015.731699	2533.681403
1016.024736	2532.653007
1016.317737	2532.073274
1016.610703	2534.303985
1016.903635	2531.269210
1017.196531	2528.380629
1017.489393	2532.232071
1017.782219	2529.204858
1018.075011	2531.642256
1018.367768	2535.597041
1018.660490	2532.378264
1018.953177	2532.378264
1019.245829	2532.378264
