Dividing Wavelength (nm)	Counts (n)	Blue Motor Position (mm): 27.900000	Red Motor Position (mm): 0.000000	
326.493990	2207.463296
326.888308	2207.463296
327.282561	2207.463296
327.676750	2167.499549
328.070874	2163.990906
328.464933	2166.582059
328.858929	2168.548109
329.252859	2169.485763
329.646726	2180.374656
330.040528	2195.921574
330.434265	2205.547658
330.827938	2224.512478
331.221547	2241.463358
331.615091	2260.839033
332.008571	2278.165479
332.401986	2297.495783
332.795338	2316.246355
333.188625	2332.367965
333.581847	2352.169617
333.975006	2369.738038
334.368100	2390.351316
334.761129	2408.370921
335.154095	2426.798859
335.546996	2450.083948
335.939833	2488.434526
336.332606	2501.120590
336.725315	2515.986953
337.117960	2529.832482
337.510540	2540.706250
337.903056	2549.382076
338.295508	2559.741647
338.687896	2569.072823
339.080220	2574.353432
339.472480	2581.758887
339.864676	2588.788776
340.256807	2592.287337
340.648875	2597.106680
341.040879	2603.221599
341.432818	2604.073554
341.824694	2607.234358
342.216506	2606.687392
342.608253	2605.681682
342.999937	2606.800818
343.391557	2609.298710
343.783113	2608.005654
344.174605	2605.343925
344.566033	2606.674790
344.957397	2606.357197
345.348697	2602.510797
345.739934	2602.823348
346.131106	2600.869901
346.522215	2596.912595
346.913260	2596.471494
347.304241	2593.265320
347.695159	2592.854466
348.086012	2593.756833
348.476802	2588.345154
348.867528	2588.584609
349.258191	2586.467324
349.648789	2582.512539
350.039324	2577.788978
350.429796	2583.465317
350.820203	2579.545820
351.210548	2578.625810
351.600828	2578.580439
351.991045	2579.608835
352.381198	2577.869637
352.771288	2575.782599
353.161314	2574.161868
353.551276	2575.777558
353.941175	2572.762948
354.331010	2575.570870
354.720782	2574.081209
355.110490	2572.266394
355.500135	2571.704305
355.889717	2574.146744
356.279235	2572.329408
356.668689	2575.492732
357.058080	2574.320664
357.447408	2572.742783
357.836672	2572.697413
358.225873	2573.720767
358.615010	2573.113308
359.004084	2573.249419
359.393095	2577.373083
359.782043	2576.069945
360.170927	2577.365521
360.559748	2575.840572
360.948505	2578.096488
361.337199	2578.802250
361.725830	2580.044894
362.114398	2579.094637
362.502903	2579.634040
362.891344	2579.772672
363.279722	2581.068249
363.668037	2580.992631
364.056289	2579.381983
364.444478	2582.346181
364.832603	2582.832653
365.220665	2583.664443
365.608665	2582.903229
365.996601	2583.893815
366.384474	2583.417426
366.772284	2586.565627
367.160031	2585.373394
367.547715	2586.432036
367.935336	2585.827098
368.322893	2586.754670
368.710388	2580.397775
369.097820	2584.226532
369.485189	2584.523960
369.872495	2584.932293
370.259738	2588.672829
370.646918	2586.822726
371.034035	2589.706266
371.421090	2588.365319
371.808081	2587.359609
372.195010	2589.703745
372.581875	2590.797676
372.968678	2590.409507
373.355418	2590.260793
373.742096	2588.453539
374.128710	2588.897161
374.515262	2590.878334
374.901751	2589.575196
375.288177	2593.010742
375.674540	2592.793972
376.060841	2592.957810
376.447079	2592.108376
376.833254	2595.644745
377.219367	2592.075608
377.605417	2593.968561
377.991404	2597.295723
378.377329	2593.887903
378.763191	2595.145671
379.148991	2593.633325
379.534727	2597.096597
379.920402	2596.058120
380.306013	2594.316401
380.691563	2599.155909
381.077049	2596.968048
381.462474	2595.659868
381.847835	2593.973603
382.233134	2596.496700
382.618371	2594.727255
383.003545	2598.424941
383.388657	2596.650455
383.773706	2599.581886
384.158693	2598.266145
384.543618	2598.140116
384.928480	2598.114910
385.313280	2598.984509
385.698017	2599.259252
386.082692	2597.318408
386.467305	2600.164139
386.851856	2603.224120
387.236344	2598.949221
387.620770	2599.660024
388.005133	2596.600044
388.389435	2599.647421
388.773674	2596.630291
389.157851	2603.007350
389.541965	2602.165477
389.926018	2602.956939
390.310008	2603.226640
390.693936	2604.232351
391.077802	2602.742690
391.461606	2603.251846
391.845348	2605.492639
392.229027	2605.711929
392.612645	2604.091198
392.996200	2607.191508
393.379694	2605.343925
393.763125	2607.927516
394.146494	2606.115222
394.529801	2607.980448
394.913047	2606.226127
395.296230	2607.897269
395.679351	2607.604882
396.062410	2609.326437
396.445408	2609.417177
396.828343	2608.542537
397.211217	2609.195367
397.594028	2612.830038
397.976778	2607.816611
398.359466	2607.834255
398.742092	2609.848196
399.124656	2607.617485
399.507158	2610.438011
399.889598	2610.914400
400.271977	2610.511108
400.654294	2609.926334
401.036549	2609.384410
401.418742	2611.131170
401.800874	2611.549585
402.182944	2613.621500
402.564952	2611.088320
402.946898	2613.248454
403.328783	2614.702827
403.710606	2612.383896
404.092367	2614.874226
404.474067	2614.433125
404.855705	2615.796758
405.237282	2618.198867
405.618797	2616.368928
406.000250	2617.946810
406.381642	2616.661315
406.762972	2611.962960
407.144240	2611.239554
407.525447	2616.870523
407.906593	2615.892539
408.287677	2620.979064
408.668700	2617.644340
409.049661	2619.098713
409.430560	2618.050153
409.811399	2618.884464
410.192176	2620.588374
410.572891	2623.620628
410.953545	2621.629372
411.334138	2621.057202
411.714669	2619.139042
412.095139	2620.301028
412.475547	2620.797582
412.855894	2621.704990
413.236180	2623.068622
413.616405	2622.652727
413.996568	2620.386728
414.376670	2622.662809
414.756711	2620.482510
415.136691	2624.233128
415.516609	2624.039044
415.896466	2624.638941
416.276262	2624.961575
416.655997	2626.678088
417.035670	2624.517954
417.415283	2627.640948
417.794834	2628.185393
418.174324	2626.310084
418.553753	2624.906122
418.933121	2630.297637
419.312428	2626.126082
419.691674	2628.145064
420.070859	2629.924591
420.449983	2631.026083
420.829045	2632.508182
421.208047	2633.639922
421.586988	2631.961217
421.965867	2636.578914
422.344686	2634.938019
422.723444	2633.244191
423.102141	2634.680920
423.480777	2637.592186
423.859352	2635.545478
424.237866	2637.791312
424.616319	2637.181332
424.994712	2637.135962
425.373044	2638.620582
425.751314	2640.493370
426.129524	2635.338790
426.507673	2639.782567
426.885762	2637.186373
427.263789	2643.202990
427.641756	2641.370531
428.019662	2642.388844
428.397508	2642.935809
428.775292	2643.404637
429.153016	2641.703247
429.530679	2646.555358
429.908282	2646.658701
430.285824	2648.579381
430.663305	2651.241110
431.040726	2651.558703
431.418086	2653.509629
431.795385	2655.848725
432.172624	2658.253355
432.549802	2656.889723
432.926920	2662.205620
433.303977	2664.322904
433.680974	2668.300375
434.057910	2673.833041
434.434786	2679.103567
434.811601	2682.178671
435.188355	2692.828109
435.565050	2698.247349
435.941683	2705.289841
436.318257	2718.830380
436.694770	2732.098697
437.071222	2746.861716
437.447614	2758.917636
437.823946	2771.722167
438.200218	2792.630352
438.576429	2807.716005
438.952580	2836.347238
439.328670	2865.270858
439.704700	2883.136708
440.080670	2914.321285
440.456580	2968.085191
440.832429	2999.484018
441.208218	3012.981707
441.583947	3073.505800
441.959616	3128.285499
442.335224	3164.768329
442.710773	3226.731672
443.086261	3296.375212
443.461689	3300.690440
443.837057	3418.328285
444.212365	3506.629136
444.587612	3541.460988
444.962800	3643.604848
445.337927	3690.565716
445.712995	3713.051783
446.088002	3939.081998
446.462949	3977.893842
446.837837	4062.418868
447.212664	4156.958147
447.587431	4342.276003
447.962139	4581.728290
448.336786	5157.657432
448.711374	5448.196772
449.085901	5082.050207
449.460369	5081.669600
449.834776	5075.111058
450.209124	5418.625364
450.583412	5664.787427
450.957640	6080.039872
451.331808	5979.733513
451.705917	5796.376666
452.079965	5699.526018
452.453954	6138.171938
452.827883	6135.855527
453.201752	6372.772114
453.575562	6323.366286
453.949311	6612.300018
454.323001	6733.358287
454.696632	6954.334745
455.070202	7221.594037
455.443713	7467.811553
455.817164	7845.288111
456.190556	7987.264648
456.563888	8321.795617
456.937160	8565.432062
457.310373	8375.819142
457.683526	8557.497286
458.056619	8481.559865
458.429653	8684.045371
458.802628	8541.521869
459.175542	8874.013692
459.548398	9553.528462
459.921194	9915.248895
460.293930	10069.132637
460.666607	10775.486511
461.039224	11555.723536
461.411782	12171.281188
461.784280	12312.294864
462.156719	12546.660627
462.529099	12493.191628
462.901419	11931.370156
463.273680	11944.646034
463.645882	11981.247332
464.018024	11920.272055
464.390106	12223.557953
464.762130	12941.430864
465.134094	13598.043673
465.505999	15140.135155
465.877845	17739.621259
466.249631	20221.966071
466.621358	20297.822834
466.993026	19413.594367
467.364634	19170.817439
467.736184	18161.316299
468.107674	17597.309486
468.479105	17832.393613
468.850477	17499.647213
469.221790	17259.022857
469.593043	16795.952547
469.964238	16427.197184
470.335373	16236.087042
470.706449	16676.527613
471.077467	16350.306985
471.448425	18057.786122
471.819324	21768.902102
472.190164	23860.474313
472.560945	20790.928338
472.931667	18610.901522
473.302330	18063.099498
473.672934	17606.096217
474.043479	18058.829641
474.413965	17931.835414
474.784393	17636.827091
475.154761	18327.157658
475.525070	18401.600376
475.895321	18077.486952
476.265513	18695.308082
476.635645	19285.556621
477.005719	19128.191962
477.375734	19359.149905
477.745691	19871.845334
478.115588	20370.440655
478.485427	20897.251314
478.855207	21955.757511
479.224928	23665.124560
479.594591	25870.115170
479.964194	26010.511304
480.333739	26254.916525
480.703226	25865.636105
481.072653	25541.797423
481.442022	26092.339314
481.811333	26995.008321
482.180584	26971.135937
482.549777	26054.802882
482.918912	25693.344590
483.287988	25817.198178
483.657005	25528.050196
484.025964	25253.012404
484.394864	25221.593413
484.763706	24941.622852
485.132489	24367.634554
485.501213	24528.175139
485.869879	24466.244564
486.238487	24250.654579
486.607036	24424.546660
486.975527	24101.121353
487.343959	24451.040444
487.712333	24417.637759
488.080648	24083.651234
488.448905	24540.967067
488.817104	24296.846672
489.185244	24960.897703
489.553326	24941.653098
489.921350	25883.822067
490.289315	28133.515109
490.657222	29949.237901
491.025070	30445.567224
491.392861	30260.098133
491.760593	29427.975032
492.128267	28536.860349
492.495883	27508.424635
492.863440	26624.586857
493.230939	25755.083601
493.598380	25602.152637
493.965763	25201.053231
494.333088	24774.503560
494.700354	24676.022099
495.067563	24570.636778
495.434713	24348.324414
495.801805	24476.357119
496.168839	24306.959226
496.535815	24114.624084
496.902733	24330.831610
497.269593	23999.153934
497.636395	24179.803682
498.003139	24185.217882
498.369825	23929.003758
498.736453	24121.205310
499.103023	24005.289018
499.469535	24025.229303
499.835989	24216.657038
500.202385	24251.176338
500.568723	23745.291509
500.935003	24029.504201
501.301226	23606.778245
501.667390	24433.787095
502.033497	24674.091337
502.399546	24400.092023
502.765537	23992.166895
503.131470	24384.126689
503.497345	24511.365412
503.863163	23717.650862
504.228923	24345.007335
504.594625	24534.582446
504.960269	24044.804103
505.325856	24557.822165
505.691385	23959.321257
506.056856	24559.568925
506.422270	24528.901066
506.787625	24121.033911
507.152924	24524.064078
507.518164	24551.987030
507.883347	24351.578479
508.248472	24057.207862
508.613540	24838.861451
508.978550	24608.251348
509.343503	24591.144192
509.708398	24868.904207
510.073236	25029.974114
510.438016	25243.741722
510.802738	24914.778707
511.167403	25170.665156
511.532010	24854.920047
511.896561	25648.730378
512.261053	25621.755164
512.625488	25449.108247
512.989866	25351.350192
513.354186	25201.698499
513.718449	25293.076974
514.082655	25683.607601
514.446803	25412.658185
514.810894	25855.410124
515.174927	25352.214750
515.538904	25381.032506
515.902822	25874.969801
516.266684	25629.972245
516.630488	25524.176069
516.994235	25521.594999
517.357925	25809.676776
517.721558	25993.144529
518.085133	26077.500677
518.448651	26014.627407
518.812112	25731.954787
519.175516	25919.014362
519.538863	26101.615037
519.902152	25866.659459
520.265385	26165.133575
520.628560	25953.505937
520.991678	25962.564890
521.354739	26039.266046
521.717743	26090.060712
522.080690	25894.521916
522.443580	26232.513638
522.806413	26220.752626
523.169189	26306.280842
523.531908	26365.731169
523.894569	25968.939429
524.257174	26039.409719
524.619722	26239.377168
524.982213	25931.569356
525.344647	25989.182183
525.707025	26106.210048
526.069345	26105.592507
526.431608	26057.348665
526.793815	26250.818067
527.155964	25705.682814
527.518057	25872.655911
527.880093	25805.616127
528.242072	26030.975868
528.603995	25739.158596
528.965860	25532.100763
529.327669	25584.637148
529.689421	25568.495373
530.051117	25396.776029
530.412755	25588.740647
530.774337	25399.556226
531.135862	25259.323929
531.497331	25458.507479
531.858743	24994.189483
532.220098	25496.923592
532.581396	25154.518340
532.942638	25108.202739
533.303824	25204.909714
533.664953	25219.773556
534.026025	24883.828543
534.387040	25114.035354
534.747999	25181.659913
535.108902	25345.656209
535.469748	24840.734240
535.830537	25028.998651
536.191270	25147.828729
536.551947	25037.820670
536.912567	24691.417783
537.273131	25006.507543
537.633638	24724.959100
537.994089	24932.387458
538.354483	24484.203675
538.714821	24975.650640
539.075103	25018.903740
539.435328	24806.217459
539.795497	24355.218192
540.155609	24769.457365
540.515665	25062.779422
540.875665	24306.359329
541.235609	24580.525002
541.595496	24550.754468
541.955328	24902.138014
542.315102	24820.062988
542.674821	24380.368509
543.034483	24253.709518
543.394090	24415.094497
543.753640	24214.285175
544.113134	24848.943759
544.472571	24446.815958
544.831953	24728.845830
545.191278	24332.316230
545.550548	24276.475369
545.909761	24489.806917
546.268918	24715.703542
546.628019	24676.216184
546.987064	24388.073912
547.346053	24138.763649
547.704986	24264.255612
548.063863	24422.852833
548.422684	24413.241873
548.781449	23970.031188
549.140158	24363.296641
549.498811	23938.725623
549.857408	23682.836654
550.215949	24129.082113
550.574434	23799.357884
550.932864	24017.972562
551.291237	24153.783767
551.649555	24036.178689
552.007817	24091.134827
552.366022	23956.377223
552.724173	24002.516384
553.082267	23930.306896
553.440305	24411.222891
553.798288	23676.542773
554.156215	24198.922258
554.514086	24283.734631
554.871902	23666.571371
555.229661	23945.163177
555.587365	23810.713083
555.945014	23659.541482
556.302606	23926.382358
556.660143	23858.493139
557.017625	24116.648107
557.375050	23643.855932
557.732421	24033.206928
558.089735	23843.470501
558.446994	23911.962137
558.804197	23927.645167
559.161345	23881.437951
559.518437	23631.031236
559.875474	23840.216436
560.232455	24012.386963
560.589381	23835.697041
560.946251	23806.949862
561.303065	24142.718434
561.659825	24217.579569
562.016528	23839.084697
562.373177	23569.624941
562.729770	23917.456995
563.086307	23799.925014
563.442789	23964.319561
563.799216	23780.052785
564.155587	23791.773468
564.511904	23783.659731
564.868164	23707.755077
565.224370	23694.980793
565.580520	23600.456638
565.936615	23740.777156
566.292654	23406.886413
566.648638	23718.442323
567.004567	23549.364544
567.360441	23495.635926
567.716260	23211.715621
568.072023	23549.735069
568.427732	23301.654847
568.783385	23094.523918
569.138982	23321.297703
569.494525	23359.728939
569.850013	23114.408749
570.205445	23215.446075
570.560823	23009.835054
570.916145	22767.267333
571.271412	22940.216719
571.626625	22708.676523
571.981782	22821.258091
572.336884	22615.256380
572.691931	22761.275922
573.046923	22487.117811
573.401860	22373.974154
573.756743	22370.077343
574.111570	22284.039970
574.466342	22224.312379
574.821059	22313.074495
575.175722	22023.893746
575.530330	22004.243328
575.884882	22023.074559
576.239380	21935.660951
576.593823	21816.561171
576.948211	21804.792597
577.302544	21638.305971
577.656823	21518.984380
578.011047	21614.191611
578.365216	21490.355667
578.719330	21369.993078
579.073389	21266.372161
579.427394	21414.559398
579.781344	21188.201508
580.135239	21074.026936
580.489080	21034.627798
580.842866	20808.610186
581.196597	20985.882361
581.550273	20981.836835
581.903895	20872.453878
582.257463	21184.339985
582.610975	20712.188036
582.964434	21011.466216
583.317837	20725.330324
583.671186	20811.367697
584.024481	20784.145466
584.377721	20559.221784
584.730906	20624.761825
585.084037	20638.924947
585.437113	20549.827594
585.790135	20746.924107
586.143103	20222.344158
586.496016	20226.349355
586.848874	20469.953032
587.201679	20405.625388
587.554428	20070.035777
587.907124	20399.911240
588.259765	20193.405414
588.612352	20264.967114
588.964884	19831.637091
589.317362	20004.881384
589.669786	20052.875689
590.022155	20102.692371
590.374470	20286.054260
590.726731	20096.431258
591.078937	19840.658236
591.431090	19950.658733
591.783188	19694.255566
592.135232	19661.475463
592.487222	19769.426732
592.839157	19793.173087
593.191038	19676.971970
593.542866	19553.476304
593.894639	19281.319531
594.246358	19488.609257
594.598022	19404.787471
594.949633	19148.449839
595.301190	19109.343088
595.652692	19279.000600
596.004141	19524.658548
596.355535	18855.397484
596.706876	18865.444503
597.058162	18751.806813
597.409395	18980.045054
597.760573	19058.629081
598.111698	18848.392801
598.462768	18775.152397
598.813785	18746.901771
599.164748	18561.107525
599.515657	18601.144369
599.866511	18379.709166
600.217312	18739.846676
600.568060	18272.745963
600.918753	18585.312625
601.269392	18491.716042
601.619978	18262.542668
601.970510	18479.760946
602.320988	18414.089835
602.671412	18630.612434
603.021783	18526.114356
603.372100	18260.506042
603.722363	18409.943486
604.072572	18349.454681
604.422728	18482.790680
604.772830	18246.247138
605.122878	18195.737297
605.472872	18183.404114
605.822813	18170.181168
606.172701	18139.644378
606.522534	18341.177106
606.872314	18366.103092
607.222041	18190.557512
607.571714	18412.038085
607.921333	18238.007372
608.270899	18317.700453
608.620411	18495.776692
608.969870	18260.637112
609.319276	18267.815715
609.668627	18293.177760
610.017926	18438.975491
610.367171	18533.913021
610.716362	18584.954703
611.065500	18414.130164
611.414585	18544.880051
611.763616	18520.299385
612.112594	18466.921127
612.461518	18430.942412
612.810389	18630.977918
613.159207	18478.770359
613.507971	18394.378923
613.856682	18666.651643
614.205340	18604.595039
614.553945	18757.510879
614.902496	18487.496597
615.250994	18725.907886
615.599439	18667.639709
615.947830	18654.018511
616.296169	18699.756900
616.644454	18670.805553
616.992686	18629.400036
617.340864	18850.169807
617.688990	18603.685111
618.037063	18783.213202
618.385082	18626.125807
618.733048	18912.440660
619.080961	18787.581362
619.428821	18818.523964
619.776628	18705.508857
620.124382	18637.319689
620.472083	18665.769441
620.819731	18701.049956
621.167326	18391.530672
621.514868	18420.691226
621.862357	18187.331173
622.209793	18207.057208
622.557176	18037.094706
622.904506	17864.026854
623.251783	17773.754912
623.599007	17547.144964
623.946179	17485.128689
624.293297	17422.898166
624.640363	17170.474990
624.987376	17203.250052
625.334336	16988.368348
625.681243	16829.975294
626.028097	16834.459401
626.374899	16774.061337
626.721647	16634.257538
627.068343	16470.843494
627.414987	16397.333389
627.761577	16376.873866
628.108115	16418.980104
628.454600	16139.392670
628.801032	16240.563587
629.147412	16171.081363
629.493739	16198.159921
629.840014	16004.173801
630.186236	16094.493633
630.532405	15857.241810
630.878521	16060.612038
631.224585	15956.063549
631.570597	15771.607730
631.916556	15807.014274
632.262462	15784.639112
632.608316	15695.589650
632.954117	15645.898997
633.299866	15633.903571
633.645562	15557.590584
633.991206	15318.203832
634.336797	15179.211659
634.682336	15152.758204
635.027823	15045.225351
635.373257	14922.957206
635.718639	14816.853520
636.063968	14771.911634
636.409245	14520.118602
636.754470	14551.608170
637.099642	14391.574220
637.444762	14169.337473
637.789829	14216.207601
638.134845	14056.460998
638.479808	14092.618674
638.824719	14030.307492
639.169577	13878.871230
639.514383	13924.980144
639.859137	13745.129418
640.203839	13827.005319
640.548489	13670.298531
640.893086	13655.684226
641.237632	13533.272407
641.582125	13684.650696
641.926566	13506.995393
642.270955	13525.408207
642.615292	13481.774500
642.959576	13498.367458
643.303809	13523.931149
643.647990	13455.820120
643.992118	13512.248275
644.336195	13290.276189
644.680219	13493.497704
645.024192	13419.518771
645.368112	13656.427796
645.711981	13714.365777
646.055797	13893.966965
646.399562	13855.634031
646.743274	14130.606288
647.086935	14406.175922
647.430544	14362.196896
647.774101	14395.758378
648.117606	14551.232604
648.461059	14525.550445
648.804460	14508.465975
649.147810	14238.673503
649.491108	14143.773782
649.834354	14159.552594
650.177548	13850.756715
650.520690	13661.489114
650.863781	13583.807454
651.206820	13630.506183
651.549807	13455.467239
651.892742	13260.384668
652.235626	13196.803115
652.578458	13202.023229
652.921238	12890.817679
653.263967	13081.345568
653.606644	12908.892736
653.949269	12888.844067
654.291843	12693.764016
654.634365	12848.376205
654.976836	12700.453627
655.319255	12711.191285
655.661622	12663.774192
656.003938	12577.588105
656.346203	12507.775686
656.688416	12587.708222
657.030577	12541.075028
657.372687	12456.474384
657.714746	12434.071497
658.056753	12627.931588
658.398708	12443.997528
658.740612	12451.052623
659.082465	12547.769680
659.424266	12509.298115
659.766016	12536.958926
660.107715	12440.917383
660.449362	12517.447140
660.790958	12472.575830
661.132503	12419.857963
661.473996	12484.288951
661.815438	12501.207063
662.156829	12512.993281
662.498168	12499.538441
662.839456	12503.599090
663.180693	12516.569979
663.521879	12612.419958
663.863013	12584.464239
664.204097	12554.600444
664.545129	12681.884537
664.886110	12641.603198
665.227040	12742.340575
665.567918	12744.846028
665.908746	12780.217284
666.249522	12765.035849
666.590248	12814.590392
666.930922	12925.294130
667.271545	12902.077096
667.612118	12978.581647
667.952639	12889.748954
668.293109	12901.923341
668.633528	12853.492976
668.973896	12831.558916
669.314213	12908.461717
669.654480	12658.266732
669.994695	12716.955845
670.334859	12743.878127
670.674973	12688.662369
671.015035	12725.500600
671.355047	12660.232782
671.695008	12633.459213
672.034918	12645.822643
672.374777	12692.665045
672.714585	12600.033843
673.054342	12642.671922
673.394049	12586.160588
673.733705	12687.087008
674.073310	12579.266810
674.412864	12608.225718
674.752368	12472.316210
675.091820	12484.924136
675.431223	12478.579844
675.770574	12347.043537
676.109875	12269.445056
676.449125	12234.315775
676.788324	12167.303717
677.127473	12005.127278
677.466571	11993.860299
677.805619	11894.496636
678.144616	11819.194400
678.483562	11790.845472
678.822458	11657.988383
679.161303	11633.100206
679.500098	11623.900100
679.838842	11572.298849
680.177535	11604.446288
680.516179	11667.972388
680.854771	11610.553645
681.193314	11820.842858
681.531805	11977.295067
681.870247	12393.066751
682.208638	12809.912201
682.546978	13117.951907
682.885268	13167.834124
683.223508	12855.577493
683.561697	12706.268598
683.899836	12606.458793
684.237925	12415.946028
684.575963	12324.179384
684.913951	12245.917991
685.251889	12190.760206
685.589776	12286.269907
685.927614	12215.590409
686.265401	12176.466014
686.603137	12222.317829
686.940824	12371.689738
687.278460	12503.493226
687.616046	12549.171121
687.953582	12723.647976
688.291068	12637.353505
688.628504	12880.087583
688.965889	12887.077143
689.303224	12853.127492
689.640510	12753.630239
689.977745	12442.076849
690.314930	12213.503372
690.652065	12126.180505
690.989150	11833.107985
691.326185	11605.520053
691.663170	11400.612273
692.000105	11159.894656
692.336990	11049.445496
692.673825	10792.749942
693.010610	10671.064050
693.347345	10466.700714
693.684030	10273.395149
694.020665	10209.692609
694.357251	10014.610037
694.693786	9953.977559
695.030272	9789.245255
695.366707	9671.609930
695.703093	9607.645249
696.039429	9605.364127
696.375716	9530.392087
696.711952	9396.420903
697.048139	9431.958517
697.384276	9388.486127
697.720363	9407.299713
698.056400	9343.700516
698.392388	9294.211509
698.728326	9256.455787
699.064214	9186.529942
699.400053	9236.429803
699.735842	9051.689159
700.071581	9009.575360
700.407270	8938.348897
700.742910	8860.657154
701.078501	8769.802959
701.414042	8644.943661
701.749533	8580.195081
702.084974	8439.037732
702.420366	8556.385711
702.755709	8438.110160
703.091002	8301.837689
703.426246	8333.571752
703.761440	8276.258874
704.096584	8240.345694
704.431679	8168.937750
704.766725	8158.379053
705.101721	8109.724357
705.436668	8151.523084
705.771565	8040.514356
706.106413	8120.761963
706.441212	8172.625354
706.775961	8121.898743
707.110661	8156.158425
707.445311	8306.445303
707.779913	8200.195424
708.114465	8328.432296
708.448967	8366.384623
708.783421	8508.958536
709.117825	8692.030558
709.452180	8731.424655
709.786485	8811.619330
710.120742	9101.546170
710.454949	9099.670861
710.789107	9196.198875
711.123216	9407.766020
711.457275	9575.258356
711.791286	9734.861287
712.125247	9731.773580
712.459159	9724.834432
712.793023	9971.934149
713.126837	9546.677534
713.460602	9696.571203
713.794318	9522.658957
714.127985	9550.037463
714.461602	9230.914781
714.795171	9179.142131
715.128691	8934.908309
715.462162	8689.908232
715.795584	8627.793655
716.128957	8488.584713
716.462281	8309.943864
716.795556	8365.325980
717.128782	8151.147518
717.461960	7892.044813
717.795088	7958.671223
718.128167	7870.113273
718.461198	7705.096143
718.794180	7647.294273
719.127113	7637.438818
719.459997	7481.760425
719.792833	7253.524705
720.125619	7315.261196
720.458357	7171.560585
720.791046	7161.334604
721.123686	7161.884090
721.456278	6998.349059
721.788821	7017.709611
722.121315	6915.800165
722.453761	6980.513457
722.786158	6921.211844
723.118506	6935.823628
723.450805	6899.136631
723.783056	6971.797302
724.115259	6879.728189
724.447412	6875.178548
724.779518	6924.697802
725.111574	6920.243942
725.443582	7002.782754
725.775542	6983.704507
726.107453	7176.248858
726.439315	7087.796773
726.771129	7144.270299
727.102895	7311.795403
727.434612	7424.941580
727.766281	7457.441899
728.097901	7538.428036
728.429473	7533.152468
728.760996	7510.857965
729.092471	7479.209601
729.423897	7424.641632
729.755276	7440.349867
730.086606	7366.990996
730.417887	7459.586910
730.749120	7657.726941
731.080305	7852.512085
731.411442	7974.447514
731.742530	7969.234961
732.073570	8075.883091
732.404562	8164.531782
732.735506	8007.038574
733.066401	8147.911097
733.397249	8083.585974
733.728048	7848.224583
734.058798	7512.115733
734.389501	7289.221116
734.720156	7114.895495
735.050762	6881.316152
735.381320	6783.515247
735.711831	6735.311734
736.042293	6622.372244
736.372707	6641.604246
736.703073	6502.160889
737.033391	6540.123298
737.363661	6558.589045
737.693883	6578.972950
738.024056	6667.553585
738.354182	6713.387756
738.684260	6746.729948
739.014290	6860.919644
739.344272	6965.687424
739.674207	6996.372927
740.004093	7067.904380
740.333931	7086.980106
740.663722	7090.624860
740.993464	7165.342322
741.323159	7157.737741
741.652806	6907.918321
741.982405	6920.483397
742.311956	6972.767724
742.641460	6815.299722
742.970915	6623.022553
743.300323	6613.086438
743.629683	6556.446554
743.958996	6420.027890
744.288260	6336.279201
744.617477	6282.157374
744.946647	6293.205062
745.275768	6117.788032
745.604842	6081.244708
745.933869	6060.840638
746.262847	6019.064596
746.591778	6006.600343
746.920662	5962.873374
747.249498	5958.351459
747.578286	6004.304097
747.907027	6084.004739
748.235720	6138.252596
748.564365	6110.049861
748.892963	6146.386498
749.221514	6292.811852
749.550017	6128.913858
749.878473	6005.503892
750.206881	6057.064813
750.535242	6000.087172
750.863555	5932.192912
751.191821	5946.613133
751.520039	5949.189162
751.848210	5857.871181
752.176334	5878.451691
752.504411	5925.697385
752.832440	5851.940263
753.160421	5784.000633
753.488356	5824.823897
753.816243	5858.949988
754.144082	5711.670157
754.471875	5681.367782
754.799620	5730.645061
755.127318	5740.102265
755.454969	5697.630544
755.782572	5654.785777
756.110129	5702.485175
756.437638	5687.749882
756.765100	5631.009175
757.092515	5626.267970
757.419882	5683.369120
757.747203	5660.444473
758.074477	5722.034770
758.401703	5704.867120
758.728882	5657.644112
759.056014	5712.408687
759.383099	5842.228480
759.710138	5852.789698
760.037129	5836.857131
760.364073	5845.389284
760.690970	5927.121511
761.017820	5911.093163
761.344623	5861.193301
761.671379	5962.339012
761.998088	6078.298153
762.324751	6321.637170
762.651366	6916.831081
762.977935	8217.841983
763.304456	9851.932003
763.630931	10763.236507
763.957359	10370.775118
764.283740	9431.207385
764.610074	8600.324408
764.936362	7604.157120
765.262602	7009.507653
765.588796	6471.361960
765.914943	6134.305373
766.241044	5971.949972
766.567097	5775.125682
766.893104	5514.848388
767.219064	5331.743598
767.544978	5269.094658
767.870845	5193.941137
768.196665	5089.150672
768.522438	5012.081512
768.848165	4982.757120
769.173846	4916.561729
769.499479	4871.634966
769.825066	4819.978262
770.150607	4757.727574
770.476101	4737.399121
770.801548	4732.000045
771.126949	4656.158406
771.452303	4601.908029
771.777611	4562.430753
772.102872	4581.756017
772.428087	4542.019122
772.753256	4503.618132
773.078378	4458.071307
773.403453	4386.048342
773.728482	4375.250191
774.053465	4328.364939
774.378401	4317.269360
774.703291	4318.055780
775.028135	4242.486363
775.352932	4196.364846
775.677683	4182.443700
776.002388	4203.263665
776.327046	4211.626940
776.651658	4141.413749
776.976224	4073.645518
777.300743	4083.246395
777.625216	4104.406638
777.949643	4096.633179
778.274024	4053.617013
778.598359	4007.818131
778.922647	4033.840567
779.246889	4024.045605
779.571086	4018.293648
779.895236	4004.715301
780.219339	3989.105368
780.543397	3981.778051
780.867409	4034.062378
781.191374	4047.287845
781.515294	3984.157475
781.839167	3977.820745
782.162995	4000.868900
782.486776	3982.781240
782.810511	3997.755988
783.134201	3991.971264
783.457844	3950.462403
783.781441	3892.320255
784.104993	3896.847211
784.428498	3920.033998
784.751958	3913.689706
785.075372	3890.878485
785.398739	3854.685521
785.722061	3866.595247
786.045337	3905.845671
786.368568	3942.913275
786.691752	3853.417671
787.014891	3905.928850
787.337983	4033.245711
787.661030	4185.748176
787.984031	4348.920244
788.306987	4519.180174
788.629897	4605.396508
788.952760	4560.855393
789.275579	4492.298221
789.598351	4429.984518
789.921078	4287.912200
790.243759	4089.711675
790.566395	4069.768870
790.888984	4062.882654
791.211529	3960.655616
791.534027	3898.374681
791.856480	3887.032085
792.178888	3825.136798
792.501249	3774.800877
792.823566	3786.929893
793.145836	3816.798729
793.468062	3764.791666
793.790241	3715.037998
794.112375	3748.024788
794.434464	3810.537616
794.756507	3835.579548
795.078505	3817.000375
795.400457	3849.735108
795.722364	3987.842559
796.044226	4094.520936
796.366042	4167.282430
796.687812	4148.310047
797.009538	4153.532683
797.331218	4113.465592
797.652852	4082.028957
797.974442	4060.354516
798.295986	4063.590936
798.617484	3982.924913
798.938938	3896.958117
799.260346	3937.365485
799.581709	3931.243004
799.903026	3860.999566
800.224299	3824.809123
800.545526	3815.505673
800.866708	3776.282976
801.187845	3718.861713
801.508936	3749.607710
801.829983	3749.063266
802.150984	3673.773633
802.471940	3663.005728
802.792851	3670.827078
803.113717	3670.328004
803.434538	3673.685413
803.755314	3611.797687
804.076045	3590.960078
804.396731	3609.519086
804.717372	3638.442706
805.037967	3625.307980
805.358518	3609.030094
805.679024	3639.415649
805.999485	3652.555416
806.319901	3657.170593
806.640272	3666.239628
806.960598	3680.717822
807.280879	3658.725789
807.601115	3671.963859
807.921306	3685.118750
808.241453	3727.608115
808.561554	3701.910833
808.881611	3635.385246
809.201623	3671.931091
809.521590	3687.508257
809.841513	3655.116322
810.161390	3687.268802
810.481223	3666.065709
810.801011	3608.475567
811.120755	3601.924588
811.440453	3636.670741
811.760107	3643.052841
812.079716	3602.406018
812.399281	3569.852767
812.718801	3589.946806
813.038276	3564.463773
813.357707	3561.199626
813.677093	3578.362235
813.996434	3527.272661
814.315731	3533.715256
814.634983	3539.104249
814.954191	3551.719737
815.273354	3586.160900
815.592473	3576.186977
815.911547	3586.717947
816.230577	3626.064153
816.549562	3672.717511
816.868502	3716.197463
817.187399	3741.451123
817.506250	3739.263263
817.825058	3710.697564
818.143821	3800.387253
818.462539	3904.766864
818.781213	3949.905355
819.099843	4005.632791
819.418429	4247.446858
819.736970	4492.320906
820.055466	4732.915015
820.373919	5101.448567
820.692327	5508.433520
821.010691	5950.267969
821.329011	7322.417114
821.647286	10051.181088
821.965517	14590.780456
822.283704	18622.120610
822.601847	20812.227213
822.919945	19007.632768
823.237999	16435.520129
823.556010	13952.449391
823.873976	11861.877850
824.191897	9761.594526
824.509775	8410.174606
824.827609	7277.369363
825.145398	6733.837197
825.463144	6618.588858
825.780845	6727.807977
826.098502	6915.323776
826.416116	7789.719473
826.733685	9111.580587
827.051210	10224.342202
827.368692	10276.578638
827.686129	9031.406076
828.003522	7512.766042
828.320872	6496.446741
828.638177	5790.841479
828.955439	5234.834977
829.272656	4731.901743
829.589830	4450.761634
829.906960	4276.173873
830.224046	4093.149742
830.541088	3967.204075
830.858086	3919.769338
831.175041	3843.433666
831.491952	3826.704597
831.808819	3838.342100
832.125642	3909.308943
832.442421	4051.721540
832.759157	4328.117923
833.075849	4876.393815
833.392497	5738.844497
833.709101	6508.298494
834.025662	6854.850095
834.342179	6492.786864
834.658653	5830.512839
834.975083	5188.295045
835.291469	4612.486891
835.607811	4200.012121
835.924110	4059.963826
836.240366	3864.336810
836.556578	3659.010614
836.872746	3550.545148
837.188871	3509.522758
837.504952	3444.912810
837.820990	3361.779142
838.136984	3314.299034
838.452935	3339.086388
838.768842	3332.764781
839.084706	3354.895446
839.400526	3511.047707
839.716303	3848.157227
840.032037	4371.688615
840.347727	4640.578720
840.663373	4360.681256
840.978977	3984.422136
841.294537	3678.774458
841.610054	3445.127059
841.925527	3338.121007
842.240957	3271.809669
842.556344	3216.533417
842.871687	3159.386897
843.186987	3107.026953
843.502244	3073.435224
843.817458	3036.886859
844.132629	3005.442662
844.447756	3014.776358
844.762840	3000.272958
845.077881	2971.543423
845.392879	2952.969291
845.707833	2952.520629
846.022745	2946.211625
846.337613	2945.392437
846.652438	2933.326435
846.967221	2929.764860
847.281960	2920.395876
847.596656	2914.628796
847.911309	2914.618713
848.225919	2906.504976
848.540485	2901.794018
848.855009	2903.029101
849.169490	2894.683471
849.483928	2882.236862
849.798323	2880.832900
850.112675	2879.030688
850.426984	2888.792882
850.741251	2887.890516
851.055474	2878.735780
851.369654	2873.155223
851.683792	2876.558002
851.997887	2885.811040
852.311938	2886.163921
852.625947	2874.821324
852.939914	2879.935575
853.253837	2884.850700
853.567718	2870.178422
853.881555	2868.398894
854.195350	2882.614948
854.509103	2880.031357
854.822812	2874.901983
855.136479	2869.689430
855.450103	2871.491642
855.763685	2865.033924
856.077224	2859.891947
856.390720	2872.633464
856.704173	2883.212325
857.017584	2874.375182
857.330953	2871.569780
857.644278	2882.935062
857.957561	2888.266082
858.270802	2896.117679
858.584000	2893.708007
858.897155	2880.260729
859.210268	2878.768548
859.523339	2877.669576
859.836367	2876.116901
860.149352	2872.648587
860.462295	2867.851929
860.775195	2872.633464
861.088054	2876.157230
861.400869	2858.044364
861.713642	2856.499251
862.026373	2870.402753
862.339062	2870.629605
862.651708	2875.895090
862.964312	2883.628220
863.276873	2874.826366
863.589392	2885.198540
863.901869	2895.951321
864.214303	2916.947727
864.526696	2937.097218
864.839045	2931.680499
865.151353	2928.711259
865.463619	2927.403080
865.775842	2929.772422
866.088023	2946.340174
866.400162	2954.975671
866.712258	2924.746392
867.024313	2915.006882
867.336325	2923.866710
867.648296	2942.173660
867.960224	2938.251643
868.272110	2921.714138
868.583954	2928.958276
868.895755	2942.186263
869.207515	2928.071033
869.519233	2937.084616
869.830909	2945.059721
870.142542	2953.296966
870.454134	2952.641616
870.765684	2955.999025
871.077191	2955.333593
871.388657	2964.601754
871.700081	2980.403251
872.011463	2988.847183
872.322803	2991.128305
872.634101	2989.794920
872.945357	3004.411746
873.256571	3031.122299
873.567744	3025.362781
873.878874	3012.817870
874.189963	3042.825338
874.501010	3041.176881
874.812015	3031.054244
875.122979	3031.462577
875.433900	3028.163142
875.744780	3033.910057
876.055618	3043.137890
876.366415	3035.596323
876.677169	3050.603838
876.987882	3046.409598
877.298554	3039.846016
877.609183	3064.467012
877.919771	3084.636668
878.230317	3111.705144
878.540822	3163.192968
878.851285	3202.221582
879.161707	3241.577870
879.472087	3344.170392
879.782425	3570.944177
880.092722	4006.822503
880.402977	4532.846742
880.713191	5165.239327
881.023363	6318.862015
881.333494	7601.248374
881.643583	8155.747571
881.953631	7860.666151
882.263637	7234.698516
882.573602	6641.813454
882.883526	6067.114353
883.193408	5488.382330
883.503248	5031.346281
883.813048	4727.215990
884.122806	4422.977315
884.432522	4110.002319
884.742197	3874.086402
885.051831	3676.631967
885.361424	3542.166750
885.670975	3470.138744
885.980485	3385.520456
886.289954	3309.477171
886.599382	3269.110131
886.908768	3228.039851
887.218113	3180.516894
887.527417	3125.631331
887.836680	3074.529155
888.145901	3066.435582
888.455082	3059.193965
888.764221	3007.993486
889.073319	2981.411481
889.382376	2980.103302
889.691392	2982.356698
890.000366	2980.274701
890.309300	2967.868422
890.618193	2981.706389
890.927044	2996.676095
891.235855	2999.040396
891.544625	2984.040443
891.853353	2992.471773
892.162041	3007.370903
892.470687	3052.963098
892.779293	3102.734410
893.087858	3151.270640
893.396381	3221.083059
893.704864	3340.807942
894.013306	3582.851382
894.321707	3880.269377
894.630068	4088.494236
894.938387	4084.972990
895.246665	4044.396743
895.554903	3919.726488
895.863100	3722.846745
896.171256	3553.907597
896.479371	3413.090526
896.787446	3292.869089
897.095480	3191.040302
897.403473	3126.357257
897.711425	3085.360074
898.019336	3077.571491
898.327207	3051.733057
898.635038	3014.539424
898.942827	2999.841940
899.250576	2989.399190
899.558284	2958.267544
899.865952	2936.875408
900.173579	2914.132242
900.481165	2907.485481
900.788711	2896.508368
901.096216	2874.012219
901.403681	2859.854139
901.711105	2869.311343
902.018489	2865.066692
902.325832	2864.005529
902.633135	2874.460882
902.940397	2905.549678
903.247619	2991.309787
903.554800	3179.987572
903.861941	3521.916435
904.169041	3951.999955
904.476101	4252.273763
904.783121	4211.463102
905.090100	3966.531081
905.397039	3691.372301
905.703938	3441.464661
906.010796	3259.423554
906.317614	3145.727891
906.624391	3050.671894
906.931129	2978.820328
907.237826	2917.827408
907.544483	2870.259080
907.851099	2840.148268
908.157675	2819.267809
908.464211	2798.299130
908.770707	2784.791358
909.077163	2773.373144
909.383578	2756.833119
909.689954	2745.243506
909.996289	2746.934813
910.302584	2746.246696
910.608839	2745.049422
910.915054	2740.116652
911.221229	2733.764799
911.527363	2735.614902
911.833458	2739.955336
912.139513	2748.379104
912.445527	2750.198960
912.751502	2759.865373
913.057436	2769.317536
913.363331	2781.197015
913.669186	2804.648463
913.975000	2835.638956
914.280775	2900.185890
914.586510	2968.180973
914.892205	3047.458158
915.197859	3172.814011
915.503475	3369.063609
915.809050	3583.085796
916.114585	3724.870768
916.420081	3750.356322
916.725536	3688.685366
917.030952	3569.378898
917.336328	3442.465330
917.641665	3311.264260
917.946961	3212.354301
918.252218	3140.520379
918.557435	3064.789645
918.862612	3003.806807
919.167750	2953.289405
919.472848	2916.491502
919.777906	2888.432440
920.082925	2863.995447
920.387904	2830.232319
920.692843	2812.570636
920.997743	2806.009574
921.302603	2789.958541
921.607423	2780.095523
921.912204	2768.014398
922.216946	2755.348499
922.521647	2747.106212
922.826310	2739.710840
923.130932	2731.957545
923.435516	2723.919425
923.740059	2717.446584
924.044564	2709.915100
924.349028	2704.543750
924.653454	2700.057123
924.957840	2691.199816
925.262186	2686.705627
925.566493	2682.100533
925.870761	2679.516942
926.174989	2674.995027
926.479178	2669.187618
926.783328	2663.992709
927.087438	2662.939108
927.391509	2662.669406
927.695541	2661.383912
927.999533	2656.481390
928.303486	2652.574495
928.607400	2652.277067
928.911275	2651.281439
929.215110	2651.339413
929.518906	2648.775986
929.822663	2651.016779
930.126381	2648.352529
930.430060	2649.264978
930.733699	2649.764052
931.037299	2652.914773
931.340861	2654.074239
931.644383	2653.368477
931.947866	2654.366626
932.251309	2651.445277
932.554714	2652.335041
932.858080	2647.518218
933.161407	2647.505615
933.464694	2646.809936
933.767943	2641.884729
934.071153	2644.352373
934.374323	2643.634009
934.677455	2643.016468
934.980548	2642.993782
935.283602	2641.773823
935.586617	2642.827424
935.889593	2640.531179
936.192530	2640.090078
936.495428	2643.215593
936.798287	2643.780202
937.101108	2646.641057
937.403890	2649.108702
937.706632	2657.081287
938.009336	2660.171514
938.312002	2671.655263
938.614628	2679.872343
938.917216	2688.691842
939.219765	2684.817715
939.522275	2685.299146
939.824747	2679.285049
940.127179	2679.610203
940.429573	2677.611386
940.731929	2674.082578
941.034246	2673.933864
941.336524	2667.292144
941.638763	2665.517658
941.940964	2665.268121
942.243126	2662.755106
942.545250	2659.206133
942.847335	2658.512975
943.149381	2656.370484
943.451389	2649.063332
943.753359	2649.587612
944.055290	2646.963691
944.357182	2646.845224
944.659036	2648.531490
944.960851	2645.600059
945.262628	2642.315747
945.564367	2644.047384
945.866067	2641.483957
946.167729	2643.371869
946.469352	2642.653505
946.770937	2645.552168
947.072484	2641.887249
947.373992	2642.219965
947.675462	2641.584780
947.976893	2637.219141
948.278286	2632.939201
948.579641	2632.782925
948.880958	2634.728811
949.182236	2637.793832
949.483476	2634.270066
949.784678	2634.842237
950.085841	2636.180663
950.386967	2635.124541
950.688054	2634.900210
950.989103	2637.456075
951.290114	2638.023205
951.591087	2639.545633
951.892021	2641.849441
952.192917	2645.393372
952.493776	2645.070738
952.794596	2646.683907
953.095378	2647.218269
953.396122	2644.357415
953.696828	2644.596869
953.997496	2642.653505
954.298126	2637.496404
954.598718	2639.437248
954.899272	2637.496404
955.199788	2636.770478
955.500266	2631.421814
955.800706	2631.346197
956.101108	2626.486524
956.401472	2625.616925
956.701798	2624.102058
957.002087	2621.457973
957.302337	2620.227932
957.602550	2620.442181
957.902724	2617.704834
958.202861	2616.326079
958.502960	2614.743156
958.803022	2615.143928
959.103045	2613.288783
959.403031	2612.502363
959.702979	2612.593104
960.002889	2613.699637
960.302762	2612.018413
960.602596	2613.765172
960.902393	2612.008330
961.202153	2608.597990
961.501875	2606.795777
961.801559	2606.947012
962.101205	2609.850717
962.400814	2607.718308
962.700385	2608.993720
962.999918	2605.437186
963.299414	2603.231682
963.598873	2607.675459
963.898293	2601.517689
964.197677	2607.304934
964.497022	2607.433483
964.796331	2606.044645
965.095601	2609.167640
965.394835	2607.950202
965.694030	2604.388626
965.993189	2604.565067
966.292309	2605.979110
966.591393	2607.584718
966.890439	2602.077257
967.189447	2605.845520
967.488419	2607.675459
967.787353	2605.023812
968.086249	2606.359717
968.385108	2607.062958
968.683930	2604.897783
968.982714	2606.432814
969.281462	2607.279728
969.580172	2606.198401
969.878844	2605.399378
970.177480	2606.727722
970.476078	2608.270315
970.774639	2606.533637
971.073162	2609.669235
971.371649	2606.725201
971.670098	2606.072372
971.968510	2603.476177
972.266885	2606.954574
972.565223	2606.432814
972.863524	2606.911724
973.161788	2607.259563
973.460014	2605.270828
973.758204	2605.724532
974.056356	2603.398040
974.354471	2608.285438
974.652550	2606.296703
974.950591	2607.302413
975.248595	2608.913062
975.546563	2606.329471
975.844493	2607.259563
976.142386	2603.806373
976.440243	2605.787547
976.738062	2604.958277
977.035845	2605.207814
977.333590	2603.347628
977.631299	2602.709922
977.928971	2601.958790
978.226606	2602.099942
978.524204	2599.387802
978.821765	2601.757144
979.119290	2603.047679
979.416777	2600.567432
979.714228	2601.888214
980.011642	2602.861157
980.309020	2603.501383
980.606360	2605.041456
980.903664	2604.824686
981.200931	2601.938626
981.498162	2605.709409
981.795356	2607.836776
982.092513	2608.497167
982.389633	2612.066304
982.686717	2612.628392
982.983764	2619.431429
983.280775	2622.330093
983.577749	2623.819754
983.874686	2623.124075
984.171587	2619.262551
984.468451	2615.544700
984.765279	2612.656119
985.062070	2611.836931
985.358824	2612.411623
985.655543	2609.543206
985.952224	2607.360387
986.248869	2604.179418
986.545478	2604.905345
986.842050	2604.749069
987.138586	2603.824017
987.435086	2604.035746
987.731549	2603.085488
988.027975	2602.472988
988.324366	2598.601382
988.620719	2601.018615
988.917037	2600.171701
989.213318	2598.818151
989.509563	2599.289499
989.805772	2600.842175
990.101944	2602.127669
990.398080	2600.184304
990.694180	2600.985847
990.990244	2599.841506
991.286271	2599.589448
991.582262	2599.929726
991.878217	2600.864860
992.174136	2602.513317
992.470019	2600.494335
992.765865	2598.583738
993.061676	2597.086515
993.357450	2596.239601
993.653188	2595.243973
993.948890	2601.212699
994.244556	2602.863677
994.540186	2600.756475
994.835780	2600.791763
995.131337	2603.776126
995.426859	2602.659511
995.722345	2603.740838
996.017795	2604.123966
996.313208	2604.058431
996.608586	2603.763523
996.903928	2607.246961
997.199234	2608.199739
997.494504	2606.163112
997.789738	2606.392485
998.084936	2604.282762
998.380099	2601.966352
998.675225	2602.762854
998.970316	2602.717484
999.265371	2603.657659
999.560390	2600.930395
999.855373	2602.898965
1000.150320	2602.725046
1000.445232	2598.485435
1000.740108	2600.590117
1001.034948	2598.737493
1001.329752	2598.465271
1001.624521	2597.646083
1001.919254	2601.016094
1002.213951	2601.230343
1002.508613	2598.724890
1002.803239	2598.243460
1003.097829	2600.280086
1003.392384	2598.414859
1003.686903	2598.601382
1003.981386	2599.385281
1004.275834	2596.620208
1004.570246	2598.790425
1004.864623	2598.903851
1005.158964	2599.239088
1005.453270	2598.908892
1005.747540	2597.451999
1006.041775	2598.334201
1006.335974	2598.291351
1006.630138	2597.797318
1006.924266	2597.343614
1007.218359	2598.099787
1007.512416	2592.725917
1007.806438	2595.841350
1008.100425	2595.392687
1008.394376	2591.899168
1008.688292	2599.932246
1008.982172	2596.965527
1009.276017	2597.434355
1009.569827	2598.031731
1009.863602	2598.737493
1010.157341	2598.936618
1010.451045	2596.831937
1010.744714	2597.918305
1011.038347	2599.256732
1011.331945	2597.875456
1011.625508	2597.845209
1011.919036	2599.312184
1012.212528	2596.990733
1012.505986	2597.305805
1012.799408	2598.379571
1013.092795	2599.165991
1013.386147	2598.727411
1013.679464	2598.165322
1013.972745	2595.901844
1014.265992	2598.523244
1014.559204	2598.503079
1014.852380	2596.143819
1015.145521	2595.203644
1015.438628	2598.119952
1015.731699	2595.760692
1016.024736	2596.355548
1016.317737	2596.882348
1016.610703	2596.058120
1016.903635	2598.855960
1017.196531	2598.873604
1017.489393	2599.644901
1017.782219	2598.296392
1018.075011	2595.763212
1018.367768	2598.377050
1018.660490	2593.892944
1018.953177	2593.892944
1019.245829	2593.892944
