Dividing Wavelength (nm)	Counts (n)	Blue Motor Position (mm): 9.600000	Red Motor Position (mm): 0.000000	
326.493990	2160.421769
326.888308	2160.421769
327.282561	2160.421769
327.676750	2119.850563
328.070874	2115.966354
328.464933	2117.602208
328.858929	2117.302259
329.252859	2125.910030
329.646726	2133.290279
330.040528	2144.529531
330.434265	2157.933959
330.827938	2178.146466
331.221547	2196.697912
331.615091	2210.946733
332.008571	2230.962635
332.401986	2247.663977
332.795338	2268.579725
333.188625	2286.077570
333.581847	2304.966773
333.975006	2318.787096
334.368100	2339.518842
334.761129	2356.815040
335.154095	2372.656866
335.546996	2394.069167
335.939833	2416.189750
336.332606	2430.390681
336.725315	2443.280911
337.117960	2456.304732
337.510540	2464.889817
337.903056	2476.978504
338.295508	2488.157263
338.687896	2496.923829
339.080220	2503.061434
339.472480	2509.919924
339.864676	2516.607014
340.256807	2521.247397
340.648875	2525.275278
341.040879	2527.962213
341.432818	2530.399611
341.824694	2535.392874
342.216506	2536.315405
342.608253	2534.634181
342.999937	2534.621578
343.391557	2535.055117
343.783113	2535.796167
344.174605	2536.673327
344.566033	2532.332894
344.957397	2532.511855
345.348697	2530.260980
345.739934	2529.996319
346.131106	2528.635207
346.522215	2529.461957
346.913260	2524.244363
347.304241	2521.517098
347.695159	2518.580626
348.086012	2520.818898
348.476802	2518.174813
348.867528	2510.870181
349.258191	2510.010665
349.648789	2507.850530
350.039324	2502.789212
350.429796	2509.607372
350.820203	2507.454800
351.210548	2505.297186
351.600828	2505.982783
351.991045	2501.934736
352.381198	2500.404746
352.771288	2502.932885
353.161314	2500.830723
353.551276	2503.757113
353.941175	2502.776609
354.331010	2499.991371
354.720782	2501.501197
355.110490	2500.671927
355.500135	2500.891217
355.889717	2501.622185
356.279235	2500.414828
356.668689	2502.154026
357.058080	2499.459530
357.447408	2502.234685
357.836672	2500.553460
358.225873	2501.843995
358.615010	2502.111177
359.004084	2504.556136
359.393095	2502.315343
359.782043	2502.058244
360.170927	2503.220230
360.559748	2504.082268
360.948505	2506.373472
361.337199	2506.386075
361.725830	2507.792557
362.114398	2507.066631
362.502903	2507.560664
362.891344	2507.512773
363.279722	2507.411950
363.668037	2510.023268
364.056289	2509.498987
364.444478	2508.957063
364.832603	2509.113339
365.220665	2511.369256
365.608665	2509.975377
365.996601	2511.628875
366.384474	2510.729029
366.772284	2511.654081
367.160031	2511.722136
367.547715	2515.001407
367.935336	2511.308762
368.322893	2512.024606
368.710388	2510.156858
369.097820	2512.437980
369.485189	2509.647702
369.872495	2514.769514
370.259738	2515.908815
370.646918	2515.583660
371.034035	2516.387724
371.421090	2514.197343
371.808081	2515.447549
372.195010	2519.621624
372.581875	2514.028464
372.968678	2517.146418
373.355418	2517.796727
373.742096	2517.930317
374.128710	2516.785975
374.515262	2517.290091
374.901751	2518.530215
375.288177	2517.542148
375.674540	2517.373270
376.060841	2519.641789
376.447079	2516.511233
376.833254	2517.411078
377.219367	2520.128260
377.605417	2518.620955
377.991404	2517.312776
378.377329	2520.244207
378.763191	2519.046933
379.148991	2517.332941
379.534727	2517.128774
379.920402	2520.060205
380.306013	2521.181862
380.691563	2521.522139
381.077049	2523.281502
381.462474	2519.750174
381.847835	2521.343178
382.233134	2521.993487
382.618371	2520.781090
383.003545	2520.740761
383.388657	2521.993487
383.773706	2521.161697
384.158693	2521.557428
384.543618	2523.594054
384.928480	2522.525329
385.313280	2521.668333
385.698017	2520.574403
386.082692	2525.560104
386.467305	2523.820906
386.851856	2523.793179
387.236344	2526.190248
387.620770	2520.818898
388.005133	2522.835360
388.389435	2523.702438
388.773674	2521.113806
389.157851	2524.985412
389.541965	2527.846267
389.926018	2526.021369
390.310008	2523.306708
390.693936	2523.089938
391.077802	2526.003725
391.461606	2526.477594
391.845348	2526.838036
392.229027	2529.164529
392.612645	2525.169414
392.996200	2526.457429
393.379694	2526.407018
393.763125	2527.911802
394.146494	2527.029600
394.529801	2529.545136
394.913047	2529.908099
395.296230	2529.487163
395.679351	2525.991122
396.062410	2528.625125
396.445408	2528.990609
396.828343	2530.056813
397.211217	2529.814837
397.594028	2529.119158
397.976778	2529.358613
398.359466	2529.814838
398.742092	2532.897503
399.124656	2529.744261
399.507158	2530.515558
399.889598	2529.288037
400.271977	2532.849612
400.654294	2530.477749
401.036549	2531.221319
401.418742	2529.648479
401.800874	2529.978675
402.182944	2530.613860
402.564952	2533.499921
402.946898	2534.346835
403.328783	2530.704601
403.710606	2534.135106
404.092367	2531.264169
404.474067	2533.671320
404.855705	2533.111752
405.237282	2535.218954
405.618797	2533.668800
406.000250	2531.725435
406.381642	2532.411032
406.762972	2531.435568
407.144240	2529.668644
407.525447	2532.572349
407.906593	2528.567152
408.287677	2534.888759
408.668700	2532.373223
409.049661	2534.956814
409.430560	2535.400436
409.811399	2534.228368
410.192176	2536.582587
410.572891	2536.116280
410.953545	2535.786084
411.334138	2539.019984
411.714669	2532.882380
412.095139	2535.730632
412.475547	2534.694674
412.855894	2536.459078
413.236180	2534.258615
413.616405	2537.779861
413.996568	2535.859181
414.376670	2533.018491
414.756711	2537.928575
415.136691	2535.433203
415.516609	2536.033101
415.896466	2536.098636
416.276262	2536.874973
416.655997	2538.152906
417.035670	2536.580066
417.415283	2537.316074
417.794834	2539.408153
418.174324	2538.296579
418.553753	2536.328008
418.933121	2540.837320
419.312428	2536.229706
419.691674	2536.897659
420.070859	2537.134593
420.449983	2538.049562
420.829045	2539.032587
421.208047	2539.418236
421.586988	2537.036290
421.965867	2542.601724
422.344686	2538.553678
422.723444	2540.993596
423.102141	2539.539223
423.480777	2539.932433
423.859352	2538.604089
424.237866	2538.407484
424.616319	2538.427649
424.994712	2541.318751
425.373044	2540.537372
425.751314	2536.489325
426.129524	2534.505631
426.507673	2538.833462
426.885762	2536.194418
427.263789	2540.219779
427.641756	2538.674665
428.019662	2540.978473
428.397508	2539.342618
428.775292	2540.081147
429.153016	2540.481919
429.530679	2541.170037
429.908282	2541.164995
430.285824	2544.693803
430.663305	2541.268339
431.040726	2541.316230
431.418086	2541.253216
431.795385	2542.876467
432.172624	2544.053577
432.549802	2542.271529
432.926920	2544.005686
433.303977	2540.935623
433.680974	2542.765562
434.057910	2544.111550
434.434786	2541.076775
434.811601	2542.964687
435.188355	2541.722043
435.565050	2541.101981
435.941683	2542.831097
436.318257	2544.351005
436.694770	2543.090716
437.071222	2541.543082
437.447614	2543.037784
437.823946	2544.923176
438.200218	2542.959646
438.576429	2544.731612
438.952580	2545.089534
439.328670	2543.231868
439.704700	2542.432846
440.080670	2544.018288
440.456580	2544.119112
440.832429	2544.683721
441.208218	2546.927034
441.583947	2546.364946
441.959616	2544.114070
442.335224	2540.686086
442.710773	2543.100798
443.086261	2544.827394
443.461689	2543.630120
443.837057	2543.856972
444.212365	2541.822866
444.587612	2543.743546
444.962800	2539.453524
445.337927	2543.567105
445.712995	2540.461754
446.088002	2543.783875
446.462949	2542.672300
446.837837	2547.098433
447.212664	2543.867054
447.587431	2545.742363
447.962139	2543.262115
448.336786	2542.926879
448.711374	2549.941644
449.085901	2548.598177
449.460369	2542.798329
449.834776	2550.438198
450.209124	2549.044319
450.583412	2547.239586
450.957640	2545.150028
451.331808	2544.872764
451.705917	2545.061807
452.079965	2545.258412
452.453954	2544.401416
452.827883	2548.351160
453.201752	2545.911242
453.575562	2547.199257
453.949311	2544.784544
454.323001	2548.000800
454.696632	2548.804864
455.070202	2547.418547
455.443713	2546.067518
455.817164	2549.104813
456.190556	2545.213042
456.563888	2549.934083
456.937160	2547.915100
457.310373	2546.546427
457.683526	2549.374514
458.056619	2548.411654
458.429653	2547.423588
458.802628	2549.119936
459.175542	2546.811088
459.548398	2549.596325
459.921194	2547.390820
460.293930	2548.618341
460.666607	2547.000131
461.039224	2548.628424
461.411782	2550.705379
461.784280	2549.245965
462.156719	2547.993238
462.529099	2549.762683
462.901419	2548.930893
463.273680	2548.552806
463.645882	2546.475851
464.018024	2547.670604
464.390106	2545.896118
464.762130	2549.039278
465.134094	2550.677653
465.505999	2549.641696
465.877845	2550.223949
466.249631	2550.055070
466.621358	2551.610266
466.993026	2553.704866
467.364634	2552.923487
467.736184	2552.154711
468.107674	2548.736808
468.479105	2551.461552
468.850477	2552.164793
469.221790	2552.747046
469.593043	2550.355019
469.964238	2550.307128
470.335373	2548.630944
470.706449	2548.963660
471.077467	2551.643034
471.448425	2551.741336
471.819324	2551.176727
472.190164	2551.262427
472.560945	2550.395348
472.931667	2552.177396
473.302330	2552.994063
473.672934	2550.264278
474.043479	2552.300904
474.413965	2551.622869
474.784393	2551.738816
475.154761	2550.912066
475.525070	2551.610266
475.895321	2550.092879
476.265513	2554.057746
476.635645	2553.944320
477.005719	2553.248641
477.375734	2552.978939
477.745691	2553.099927
478.115588	2552.545400
478.485427	2555.071018
478.855207	2551.958106
479.224928	2550.450801
479.594591	2554.423230
479.964194	2554.014897
480.333739	2554.965154
480.703226	2554.387942
481.072653	2554.536656
481.442022	2554.077911
481.811333	2551.524567
482.180584	2549.934083
482.549777	2553.062118
482.918912	2549.480379
483.287988	2555.847356
483.657005	2553.079762
484.025964	2553.967006
484.394864	2554.428271
484.763706	2555.345761
485.132489	2555.386090
485.501213	2555.582695
485.869879	2553.604043
486.238487	2557.521019
486.607036	2555.189485
486.975527	2556.684187
487.343959	2553.810730
487.712333	2555.297870
488.080648	2556.747202
488.448905	2554.788714
488.817104	2555.229815
489.185244	2558.221739
489.553326	2556.853066
489.921350	2554.760987
490.289315	2555.184444
490.657222	2559.880279
491.025070	2558.201575
491.392861	2558.773746
491.760593	2559.431616
492.128267	2557.513457
492.495883	2558.806513
492.863440	2557.354661
493.230939	2557.894064
493.598380	2557.775597
493.965763	2557.107644
494.333088	2556.800134
494.700354	2557.165618
495.067563	2558.375495
495.434713	2556.948848
495.801805	2557.062274
496.168839	2556.139743
496.535815	2558.496482
496.902733	2556.774928
497.269593	2559.729044
497.636395	2559.179559
498.003139	2555.280226
498.369825	2557.359702
498.736453	2557.042109
499.103023	2558.766184
499.469535	2560.049158
499.835989	2558.693087
500.202385	2554.415668
500.568723	2554.970195
500.935003	2555.093703
501.301226	2554.491286
501.667390	2558.488921
502.033497	2560.517985
502.399546	2557.740309
502.765537	2555.900288
503.131470	2557.274003
503.497345	2559.945814
503.863163	2558.317521
504.228923	2560.707028
504.594625	2558.340207
504.960269	2556.676626
505.325856	2560.548232
505.691385	2556.689229
506.056856	2560.409600
506.422270	2557.256358
506.787625	2557.785680
507.152924	2560.253324
507.518164	2557.531101
507.883347	2558.403221
508.248472	2559.842470
508.613540	2558.241904
508.978550	2560.487738
509.343503	2558.405742
509.708398	2557.326935
510.073236	2562.201730
510.438016	2560.379353
510.802738	2559.623180
511.167403	2558.902295
511.532010	2559.930691
511.896561	2556.457336
512.261053	2559.928170
512.625488	2560.752399
512.989866	2558.337686
513.354186	2560.258366
513.718449	2560.545711
514.082655	2557.546225
514.446803	2559.035886
514.810894	2561.967317
515.174927	2563.598130
515.538904	2562.264745
515.902822	2560.495300
516.266684	2560.873386
516.630488	2558.330124
516.994235	2558.791390
517.357925	2559.509754
517.721558	2563.252811
518.085133	2561.213664
518.448651	2557.878941
518.812112	2557.823488
519.175516	2558.604867
519.538863	2556.873231
519.902152	2559.303067
520.265385	2562.098387
520.628560	2562.110990
520.991678	2564.636608
521.354739	2562.032852
521.717743	2561.889179
522.080690	2563.335990
522.443580	2562.592420
522.806413	2564.702143
523.169189	2564.437482
523.531908	2565.541495
523.894569	2565.765826
524.257174	2566.161557
524.619722	2566.010322
524.982213	2567.197514
525.344647	2566.227092
525.707025	2565.405384
526.069345	2568.546022
526.431608	2566.842112
526.793815	2569.723132
527.155964	2569.584500
527.518057	2567.820096
527.880093	2568.273800
528.242072	2570.771692
528.603995	2571.709347
528.965860	2571.971487
529.327669	2568.402350
529.689421	2574.325705
530.051117	2570.711198
530.412755	2572.984758
530.774337	2573.267063
531.135862	2574.323185
531.497331	2576.074986
531.858743	2576.271591
532.220098	2577.093299
532.581396	2575.223031
532.942638	2575.379307
533.303824	2576.442990
533.664953	2579.271077
534.026025	2577.584811
534.387040	2577.400809
534.747999	2578.784606
535.108902	2580.138156
535.469748	2577.536920
535.830537	2580.251582
536.191270	2582.091603
536.551947	2582.293249
536.912567	2578.819894
537.273131	2584.231573
537.633638	2579.815522
537.994089	2586.096800
538.354483	2587.352047
538.714821	2587.483117
539.075103	2587.848601
539.435328	2585.406162
539.795497	2587.941862
540.155609	2587.551172
540.515665	2590.054105
540.875665	2589.933118
541.235609	2589.237438
541.595496	2590.003694
541.955328	2592.436051
542.315102	2592.272213
542.674821	2594.094590
543.034483	2594.039137
543.394090	2592.458736
543.753640	2595.029724
544.113134	2594.744899
544.472571	2596.494179
544.831953	2597.262955
545.191278	2600.622884
545.550548	2597.976279
545.909761	2597.245311
546.268918	2597.439396
546.628019	2598.518203
546.987064	2601.575662
547.346053	2600.307812
547.704986	2598.397215
548.063863	2602.536002
548.422684	2601.956270
548.781449	2601.971393
549.140158	2602.478029
549.498811	2606.694954
549.857408	2600.945518
550.215949	2603.256887
550.574434	2603.748400
550.932864	2605.974069
551.291237	2605.127155
551.649555	2606.657146
552.007817	2605.550612
552.366022	2605.825355
552.724173	2605.424583
553.082267	2605.217896
553.440305	2608.862650
553.798288	2607.942640
554.156215	2605.810232
554.514086	2606.415170
554.871902	2599.803697
555.229661	2604.239912
555.587365	2604.028184
555.945014	2603.955087
556.302606	2606.987341
556.660143	2609.618823
557.017625	2611.985645
557.375050	2610.354832
557.732421	2605.210334
558.089735	2607.004985
558.446994	2608.718977
558.804197	2608.910541
559.161345	2609.089502
559.518437	2607.652773
559.875474	2609.689400
560.232455	2607.131014
560.589381	2608.713936
560.946251	2608.096395
561.303065	2608.124121
561.659825	2609.949019
562.016528	2607.897269
562.373177	2608.119080
562.729770	2606.102619
563.086307	2610.564040
563.442789	2609.646550
563.799216	2608.971035
564.155587	2610.687548
564.511904	2611.574791
564.868164	2608.403905
565.224370	2609.921293
565.580520	2605.094388
565.936615	2609.245778
566.292654	2606.425252
566.648638	2611.181581
567.004567	2608.426591
567.360441	2610.135542
567.716260	2607.458689
568.072023	2607.483895
568.427732	2608.819801
568.783385	2605.772423
569.138982	2607.209152
569.494525	2607.879625
569.850013	2609.036570
570.205445	2608.489605
570.560823	2603.544233
570.916145	2607.073041
571.271412	2603.448451
571.626625	2609.548247
571.981782	2609.218052
572.336884	2604.731425
572.691931	2602.568770
573.046923	2600.388471
573.401860	2598.868563
573.756743	2605.374172
574.111570	2606.021960
574.466342	2607.599841
574.821059	2605.538009
575.175722	2603.030035
575.530330	2606.032042
575.884882	2603.554315
576.239380	2603.866867
576.593823	2601.742021
576.948211	2603.032556
577.302544	2601.797473
577.656823	2602.074737
578.011047	2606.745366
578.365216	2604.108842
578.719330	2603.183791
579.073389	2602.092381
579.427394	2602.752772
579.781344	2603.461054
580.135239	2603.899634
580.489080	2600.668255
580.842866	2601.898296
581.196597	2603.090529
581.550273	2603.289655
581.903895	2604.655807
582.257463	2604.320571
582.610975	2601.137082
582.964434	2603.561877
583.317837	2601.643718
583.671186	2603.808894
584.024481	2603.871908
584.377721	2598.825713
584.730906	2602.110025
585.084037	2603.748400
585.437113	2601.452154
585.790135	2602.296547
586.143103	2601.449634
586.496016	2602.500714
586.848874	2604.638163
587.201679	2601.305961
587.554428	2601.608430
587.907124	2602.225971
588.259765	2606.798298
588.612352	2604.436517
588.964884	2602.372165
589.317362	2602.934253
589.669786	2605.953905
590.022155	2600.040631
590.374470	2603.584562
590.726731	2600.620364
591.078937	2599.264293
591.431090	2603.080447
591.783188	2604.166816
592.135232	2604.144130
592.487222	2605.006168
592.839157	2607.040273
593.191038	2606.851230
593.542866	2604.285283
593.894639	2605.792588
594.246358	2606.281580
594.598022	2606.425252
594.949633	2604.862495
595.301190	2606.800818
595.652692	2606.016919
596.004141	2604.670931
596.355535	2607.516662
596.706876	2607.153699
597.058162	2607.352825
597.409395	2605.893411
597.760573	2611.133690
598.111698	2607.320057
598.462768	2610.344750
598.813785	2608.408947
599.164748	2609.865840
599.515657	2610.140583
599.866511	2608.837445
600.217312	2610.692589
600.568060	2610.158227
600.918753	2615.738784
601.269392	2613.964298
601.619978	2610.664863
601.970510	2611.584873
602.320988	2613.553444
602.671412	2614.753239
603.021783	2613.006479
603.372100	2613.394648
603.722363	2617.120060
604.072572	2617.891357
604.422728	2618.987808
604.772830	2619.907818
605.122878	2619.650720
605.472872	2617.288939
605.822813	2620.449742
606.172701	2622.519136
606.522534	2624.795217
606.872314	2626.471401
607.222041	2624.880917
607.571714	2625.160701
607.921333	2621.954527
608.270899	2623.907974
608.620411	2625.881586
608.969870	2631.326032
609.319276	2634.035652
609.668627	2639.522948
610.017926	2644.743063
610.367171	2647.119967
610.716362	2647.170378
611.065500	2648.881850
611.414585	2648.085348
611.763616	2647.225831
612.112594	2647.974442
612.461518	2646.509987
612.810389	2649.539721
613.159207	2648.183650
613.507971	2649.537200
613.856682	2655.226142
614.205340	2651.772952
614.553945	2657.073725
614.902496	2655.077428
615.250994	2658.586071
615.599439	2658.896102
615.947830	2662.712256
616.296169	2662.077070
616.644454	2665.252997
616.992686	2665.782318
617.340864	2671.856909
617.688990	2669.056548
618.037063	2678.579287
618.385082	2680.638599
618.733048	2681.843435
619.080961	2684.976512
619.428821	2690.665454
619.776628	2694.002698
620.124382	2691.933304
620.472083	2695.610826
620.819731	2701.143492
621.167326	2698.451516
621.514868	2698.776670
621.862357	2698.292720
622.209793	2701.725745
622.557176	2701.324974
622.904506	2699.994109
623.251783	2701.541743
623.599007	2705.680531
623.946179	2705.604913
624.293297	2706.408977
624.640363	2705.562063
624.987376	2705.718339
625.334336	2704.702547
625.681243	2709.829400
626.028097	2707.205480
626.374899	2717.844835
626.721647	2715.997252
627.068343	2717.660833
627.414987	2720.625031
627.761577	2726.775239
628.108115	2731.070302
628.454600	2731.173646
628.801032	2735.879563
629.147412	2735.879563
629.493739	2743.332909
629.840014	2748.127046
630.186236	2749.135277
630.532405	2754.519229
630.878521	2761.748244
631.224585	2762.511978
631.570597	2766.670930
631.916556	2772.264091
632.262462	2776.579318
632.608316	2788.063067
632.954117	2788.698252
633.299866	2798.588996
633.645562	2802.442958
633.991206	2802.211065
634.336797	2799.128399
634.682336	2806.591828
635.027823	2806.085192
635.373257	2808.643577
635.718639	2806.924544
636.063968	2808.207517
636.409245	2810.377734
636.754470	2814.723209
637.099642	2817.757983
637.444762	2817.095072
637.789829	2824.777790
638.134845	2824.956751
638.479808	2828.288954
638.824719	2834.204748
639.169577	2837.496621
639.514383	2842.746983
639.859137	2844.438290
640.203839	2851.390041
640.548489	2851.831142
640.893086	2864.025693
641.237632	2857.646113
641.582125	2874.755789
641.926566	2873.694627
642.270955	2877.883825
642.615292	2884.273488
642.959576	2893.730693
643.303809	2902.620767
643.647990	2908.922210
643.992118	2919.896802
644.336195	2917.774476
644.680219	2932.265273
645.024192	2944.979063
645.368112	2956.387194
645.711981	2970.691468
646.055797	2984.446256
646.399562	2997.686847
646.743274	3017.612007
647.086935	3048.955381
647.430544	3065.510530
647.774101	3071.176787
648.117606	3100.833895
648.461059	3097.897423
648.804460	3116.940382
649.147810	3113.837552
649.491108	3103.137703
649.834354	3118.873664
650.177548	3113.824949
650.520690	3111.790843
650.863781	3120.801906
651.206820	3125.951444
651.549807	3128.033441
651.892742	3127.355406
652.235626	3133.114924
652.578458	3144.946512
652.921238	3139.698671
653.263967	3159.475118
653.606644	3157.753563
653.949269	3162.262876
654.291843	3170.162364
654.634365	3187.231711
654.976836	3193.243287
655.319255	3199.602702
655.661622	3215.121894
656.003938	3221.083059
656.346203	3225.093297
656.688416	3240.652818
657.030577	3244.932757
657.372687	3256.265271
657.714746	3265.052002
658.056753	3280.452727
658.398708	3288.044705
658.740612	3298.555511
659.082465	3317.774910
659.424266	3316.943120
659.766016	3340.939012
660.107715	3344.755165
660.449362	3359.205633
660.790958	3376.650546
661.132503	3389.376939
661.473996	3404.901172
661.815438	3419.787699
662.156829	3434.742282
662.498168	3442.364507
662.839456	3457.112402
663.180693	3471.593117
663.521879	3491.999708
663.863013	3510.349508
664.204097	3519.907535
664.545129	3544.616751
664.886110	3552.896846
665.227040	3580.701330
665.567918	3604.485494
665.908746	3621.640540
666.249522	3625.103813
666.590248	3648.517452
666.930922	3681.048018
667.271545	3689.018082
667.612118	3717.876167
667.952639	3722.566961
668.293109	3735.681523
668.633528	3751.109974
668.973896	3754.270778
669.314213	3798.660658
669.654480	3761.487189
669.994695	3784.018626
670.334859	3805.693067
670.674973	3816.687824
671.015035	3841.843182
671.355047	3842.692616
671.695008	3849.576312
672.034918	3869.844271
672.374777	3892.768918
672.714585	3899.098086
673.054342	3930.733847
673.394049	3937.909930
673.733705	3955.012044
674.073310	3964.048312
674.412864	3995.963857
674.752368	3985.009430
675.091820	3986.380624
675.431223	4023.929658
675.770574	3999.648941
676.109875	4008.511289
676.449125	4015.435314
676.788324	4016.297352
677.127473	4009.549767
677.466571	4018.812887
677.805619	4022.744987
678.144616	4028.370915
678.483562	4048.472516
678.822458	4028.499464
679.161303	4035.252090
679.500098	4066.424065
679.838842	4061.519022
680.177535	4074.207606
680.516179	4095.108230
680.854771	4108.951239
681.193314	4168.522554
681.531805	4192.810833
681.870247	4313.246519
682.208638	4392.692583
682.546978	4488.572808
682.885268	4527.548489
683.223508	4467.843584
683.561697	4464.546669
683.899836	4465.756546
684.237925	4434.871917
684.575963	4442.607568
684.913951	4471.841219
685.251889	4441.498514
685.589776	4515.106922
685.927614	4519.270915
686.265401	4505.604347
686.603137	4560.888160
686.940824	4605.315849
687.278460	4652.047345
687.616046	4697.445456
687.953582	4751.322788
688.291068	4738.281323
688.628504	4812.482067
688.965889	4833.150797
689.303224	4863.763204
689.640510	4851.883725
689.977745	4787.838386
690.314930	4759.123974
690.652065	4759.244961
690.989150	4693.067214
691.326185	4655.926513
691.663170	4621.218169
692.000105	4574.978185
692.336990	4582.605451
692.673825	4515.152292
693.010610	4507.499821
693.347345	4462.220177
693.684030	4418.684772
694.020665	4425.485289
694.357251	4391.689393
694.693786	4413.920882
695.030272	4345.885469
695.366707	4347.607023
695.703093	4340.579655
696.039429	4357.591029
696.375716	4374.899830
696.711952	4322.232376
697.048139	4358.253940
697.384276	4364.280640
697.720363	4370.292216
698.056400	4363.665619
698.392388	4382.070872
698.728326	4373.720200
699.064214	4361.066904
699.400053	4414.608999
699.735842	4356.718909
700.071581	4359.524311
700.407270	4350.291438
700.742910	4341.817258
701.078501	4339.510930
701.414042	4308.336435
701.749533	4301.798058
702.084974	4260.717696
702.420366	4299.791679
702.755709	4288.421357
703.091002	4263.150053
703.426246	4278.891055
703.761440	4276.662865
704.096584	4271.437709
704.431679	4253.476078
704.766725	4275.198410
705.101721	4264.899333
705.436668	4289.454793
705.771565	4271.364613
706.106413	4297.971823
706.441212	4345.779605
706.775961	4327.424764
707.110661	4344.307588
707.445311	4419.216614
707.779913	4381.213876
708.114465	4448.178043
708.448967	4478.349348
708.783421	4509.738093
709.117825	4598.921146
709.452180	4619.284887
709.786485	4647.923682
710.120742	4768.384573
710.454949	4777.740955
710.789107	4804.038134
711.123216	4876.527406
711.457275	4967.865552
711.791286	5039.064288
712.125247	5024.036608
712.459159	5064.086055
712.793023	5154.700795
713.126837	5007.728476
713.460602	5077.649279
713.794318	4997.951158
714.127985	5059.269233
714.461602	4974.784535
714.795171	4949.835865
715.128691	4892.933841
715.462162	4802.351868
715.795584	4818.203776
716.128957	4769.586888
716.462281	4681.046583
716.795556	4760.180095
717.128782	4677.951314
717.461960	4564.321186
717.795088	4608.539667
718.128167	4594.366463
718.461198	4535.384963
718.794180	4522.340978
719.127113	4547.188825
719.459997	4489.581039
719.792833	4387.966501
720.125619	4438.340231
720.458357	4374.612485
720.791046	4382.065831
721.123686	4421.706944
721.456278	4351.095502
721.788821	4356.807129
722.121315	4319.767251
722.453761	4363.952965
722.786158	4360.875340
723.118506	4363.831977
723.450805	4370.009911
723.783056	4401.381012
724.115259	4347.813711
724.447412	4363.590002
724.779518	4382.625399
725.111574	4392.052356
725.443582	4439.242598
725.775542	4428.099127
726.107453	4524.586812
726.439315	4493.369466
726.771129	4507.673740
727.102895	4580.168053
727.434612	4649.012571
727.766281	4649.753620
728.097901	4696.790106
728.429473	4690.050084
728.760996	4695.981001
729.092471	4701.851425
729.423897	4708.359554
729.755276	4743.849277
730.086606	4715.822983
730.417887	4750.617027
730.749120	4832.825643
731.080305	4961.836332
731.411442	5009.870966
731.742530	5004.073639
732.073570	5101.801448
732.404562	5154.098378
732.735506	5044.324732
733.066401	5142.246625
733.397249	5121.159478
733.728048	5024.265981
734.058798	4886.420670
734.389501	4812.086336
734.720156	4738.137650
735.050762	4617.112149
735.381320	4573.596909
735.711831	4568.754881
736.042293	4522.605638
736.372707	4557.485382
736.703073	4480.023012
737.033391	4497.452801
737.363661	4504.081918
737.693883	4519.714536
738.024056	4575.754523
738.354182	4604.801652
738.684260	4616.676089
739.014290	4675.090460
739.344272	4732.405858
739.674207	4733.467021
740.004093	4767.487248
740.333931	4785.874857
740.663722	4791.374755
740.993464	4859.263974
741.323159	4890.521649
741.652806	4723.979570
741.982405	4722.752049
742.311956	4828.931352
742.641460	4745.724587
742.970915	4626.161020
743.300323	4659.906504
743.629683	4635.189727
743.958996	4566.561979
744.288260	4534.197771
744.617477	4520.309393
744.946647	4546.866191
745.275768	4446.406077
745.604842	4437.967186
745.933869	4433.210857
746.262847	4403.316815
746.591778	4414.339298
746.920662	4400.612236
747.249498	4390.408940
747.578286	4425.339095
747.907027	4476.211899
748.235720	4513.987786
748.564365	4478.946725
748.892963	4487.025174
749.221514	4614.326912
749.550017	4530.225342
749.878473	4436.238070
750.206881	4493.671936
750.535242	4467.410045
750.863555	4425.959157
751.191821	4461.242193
751.520039	4465.451556
751.848210	4411.763268
752.176334	4419.347684
752.504411	4475.969924
752.832440	4425.311369
753.160421	4358.594218
753.488356	4412.932816
753.816243	4461.481648
754.144082	4356.673539
754.471875	4326.350998
754.799620	4372.550653
755.127318	4381.859143
755.454969	4351.171119
755.782572	4325.693128
756.110129	4372.061661
756.437638	4387.139752
756.765100	4337.348275
757.092515	4325.786389
757.419882	4362.543962
757.747203	4360.983725
758.074477	4412.355603
758.401703	4413.247888
758.728882	4357.132284
759.056014	4388.894073
759.383099	4507.051158
759.710138	4497.972040
760.037129	4475.291889
760.364073	4484.103826
760.690970	4561.606525
761.017820	4564.790013
761.344623	4507.391436
761.671379	4573.808638
761.998088	4661.852390
762.324751	4800.211898
762.651366	5151.275331
762.977935	5884.806066
763.304456	6810.908877
763.630931	7355.779470
763.957359	7192.783843
764.283740	6736.990438
764.610074	6325.624723
764.936362	5712.920364
765.262602	5330.427857
765.588796	4985.232327
765.914943	4761.329478
766.241044	4689.724929
766.567097	4579.215275
766.893104	4401.204571
767.219064	4276.761168
767.544978	4261.373046
767.870845	4223.403075
768.196665	4143.684789
768.522438	4091.549176
768.848165	4084.844441
769.173846	4051.429153
769.499479	4027.438302
769.825066	3988.190398
770.150607	3953.933237
770.476101	3941.191721
770.801548	3949.887711
771.126949	3911.622833
771.452303	3874.318295
771.777611	3848.517669
772.102872	3858.002600
772.428087	3840.018284
772.753256	3826.412210
773.078378	3802.312974
773.403453	3755.198350
773.728482	3747.223244
774.053465	3721.304152
774.378401	3711.143706
774.703291	3728.278588
775.028135	3677.133562
775.352932	3636.955566
775.677683	3625.439050
776.002388	3657.823422
776.327046	3668.223322
776.651658	3604.709825
776.976224	3556.518915
777.300743	3569.691450
777.625216	3593.331941
777.949643	3596.933845
778.274024	3559.039492
778.598359	3521.314017
778.922647	3542.068447
779.246889	3543.540464
779.571086	3544.415105
779.895236	3534.181562
780.219339	3515.846886
780.543397	3505.701564
780.867409	3542.809497
781.191374	3565.282961
781.515294	3520.751928
781.839167	3515.856968
782.162995	3532.512940
782.486776	3529.394987
782.810511	3537.967469
783.134201	3547.512894
783.457844	3518.627082
783.781441	3471.252839
784.104993	3475.762151
784.428498	3498.810306
784.751958	3504.640401
785.075372	3488.906960
785.398739	3453.129891
785.722061	3464.553145
786.045337	3500.877179
786.368568	3535.993857
786.691752	3464.535501
787.014891	3493.285202
787.337983	3578.793253
787.661030	3679.207997
787.984031	3791.202271
788.306987	3914.821445
788.629897	3972.794714
788.952760	3948.224131
789.275579	3918.521652
789.598351	3899.128333
789.921078	3807.129796
790.243759	3656.679080
790.566395	3635.458343
790.888984	3647.758758
791.211529	3564.630132
791.534027	3524.855428
791.856480	3529.281561
792.178888	3478.106288
792.501249	3433.925615
792.823566	3438.545833
793.145836	3473.276862
793.468062	3434.384360
793.790241	3393.752660
794.112375	3418.487082
794.434464	3466.549442
794.756507	3491.034327
795.078505	3478.315495
795.400457	3485.458810
795.722364	3577.938778
796.044226	3653.878719
796.366042	3705.081719
796.687812	3705.807645
797.009538	3713.820559
797.331218	3683.409798
797.652852	3664.013959
797.974442	3656.006086
798.295986	3670.391019
798.617484	3612.692492
798.938938	3539.741955
799.260346	3575.798808
799.581709	3580.749221
799.903026	3523.857279
800.224299	3497.164370
800.545526	3497.295440
800.866708	3465.987354
801.187845	3410.015423
801.508936	3443.755865
801.829983	3454.927062
802.150984	3385.921228
802.471940	3369.295502
802.792851	3385.044067
803.113717	3387.373080
803.434538	3393.059502
803.755314	3348.667101
804.076045	3320.177020
804.396731	3331.164215
804.717372	3355.399562
805.037967	3347.731967
805.358518	3342.640401
805.679024	3357.935262
805.999485	3361.960623
806.319901	3361.552290
806.640272	3378.775392
806.960598	3397.228536
807.280879	3370.825493
807.601115	3378.624158
807.921306	3394.826426
808.241453	3431.042075
808.561554	3418.459355
808.881611	3360.705376
809.201623	3388.842576
809.521590	3404.248343
809.841513	3379.269425
810.161390	3409.927202
810.481223	3399.779360
810.801011	3352.044674
811.120755	3340.301306
811.440453	3373.807335
811.760107	3383.977863
812.079716	3354.585415
812.399281	3320.217349
812.718801	3341.614527
813.038276	3323.862103
813.357707	3324.996363
813.677093	3341.896831
813.996434	3304.189000
814.315731	3305.824855
814.634983	3307.400215
814.954191	3317.414468
815.273354	3349.811443
815.592473	3352.266485
815.911547	3345.549147
816.230577	3375.843961
816.549562	3421.753749
816.868502	3463.678505
817.187399	3487.840756
817.506250	3482.991166
817.825058	3455.869758
818.143821	3535.560318
818.462539	3628.516674
818.781213	3671.232891
819.099843	3709.742266
819.418429	3896.012900
819.736970	4087.874174
820.055466	4275.248822
820.373919	4590.182305
820.692327	4950.891987
821.010691	5277.142861
821.329011	6298.523480
821.647286	8245.679235
821.965517	11232.782179
822.283704	13866.986710
822.601847	15593.947386
822.919945	14776.983035
823.237999	13326.290192
823.556010	11605.179775
823.873976	10135.058326
824.191897	8487.586564
824.509775	7358.524378
824.827609	6439.806857
825.145398	5978.470704
825.463144	5886.981324
825.780845	5987.181818
826.098502	6073.945117
826.416116	6681.996491
826.733685	7685.052516
827.051210	8622.838201
827.368692	8811.243764
827.686129	7897.902634
828.003522	6659.046638
828.320872	5835.831256
828.638177	5265.223052
828.955439	4802.127537
829.272656	4373.586610
829.589830	4113.843678
829.906960	3971.786484
830.224046	3814.562977
830.541088	3706.699929
830.858086	3673.892100
831.175041	3610.063531
831.491952	3590.448401
831.808819	3604.077160
832.125642	3661.100172
832.442421	3782.231537
832.759157	4003.472656
833.075849	4441.841312
833.392497	5129.197598
833.709101	5735.381225
834.025662	6061.785854
834.342179	5846.634449
834.658653	5316.776412
834.975083	4777.153660
835.291469	4300.101710
835.607811	3930.020524
835.924110	3813.955518
836.240366	3640.799446
836.556578	3455.322793
836.872746	3359.568596
837.188871	3334.738393
837.504952	3281.549178
837.820990	3208.092005
838.136984	3158.948317
838.452935	3179.443128
838.768842	3181.159641
839.084706	3200.361396
839.400526	3325.122392
839.716303	3579.829210
840.032037	3993.997807
840.347727	4257.904732
840.663373	4079.115170
840.978977	3758.764966
841.294537	3498.429699
841.610054	3289.804068
841.925527	3190.561393
842.240957	3128.966054
842.556344	3085.191195
842.871687	3034.734286
843.186987	2991.929849
843.502244	2955.338634
843.817458	2927.602205
844.132629	2894.194479
844.447756	2904.259142
844.762840	2896.026938
845.077881	2866.339583
845.392879	2851.269054
845.707833	2849.136646
846.022745	2844.793692
846.337613	2847.994824
846.652438	2836.037207
846.967221	2836.236333
847.281960	2820.386945
847.596656	2817.485761
847.911309	2815.083651
848.225919	2809.490491
848.540485	2803.307516
848.855009	2806.284317
849.169490	2799.592186
849.483928	2791.067594
849.798323	2789.068777
850.112675	2784.987963
850.426984	2796.396094
850.741251	2797.585806
851.055474	2784.448559
851.369654	2783.561316
851.683792	2783.067283
851.997887	2789.388890
852.311938	2792.252266
852.625947	2783.601646
852.939914	2789.431740
853.253837	2793.416772
853.567718	2779.402364
853.881555	2774.668721
854.195350	2792.146401
854.509103	2787.899229
854.822812	2782.565688
855.136479	2780.370266
855.450103	2780.143414
855.763685	2774.109153
856.077224	2768.710077
856.390720	2779.364556
856.704173	2791.120527
857.017584	2786.684311
857.330953	2781.708692
857.644278	2791.198664
857.957561	2798.006743
858.270802	2801.298616
858.584000	2801.555715
858.897155	2791.302008
859.210268	2789.557769
859.523339	2783.952006
859.836367	2788.158849
860.149352	2783.543672
860.462295	2776.949843
860.775195	2787.311935
861.088054	2787.329579
861.400869	2769.390633
861.713642	2766.113883
862.026373	2779.828342
862.339062	2782.190122
862.651708	2787.306894
862.964312	2793.540280
863.276873	2786.500309
863.589392	2792.358130
863.901869	2802.611837
864.214303	2817.299238
864.526696	2836.266580
864.839045	2834.781960
865.151353	2833.466219
865.463619	2828.427586
865.775842	2830.068481
866.088023	2845.640605
866.400162	2855.183510
866.712258	2831.724500
867.024313	2819.240083
867.336325	2826.690908
867.648296	2846.260667
867.960224	2837.025273
868.272110	2828.215857
868.583954	2830.688543
868.895755	2847.475585
869.207515	2833.183914
869.519233	2830.900272
869.830909	2844.718074
870.142542	2852.168900
870.454134	2858.530836
870.765684	2860.287678
871.077191	2856.431195
871.388657	2864.509644
871.700081	2874.977600
872.011463	2887.855228
872.322803	2888.505537
872.634101	2886.211812
872.945357	2899.354100
873.256571	2923.549118
873.567744	2916.436049
873.878874	2905.015315
874.189963	2930.064809
874.501010	2933.868359
874.812015	2926.218408
875.122979	2927.516506
875.433900	2921.923345
875.744780	2925.648758
876.055618	2932.461878
876.366415	2929.233018
876.677169	2942.425718
876.987882	2943.454113
877.298554	2933.185283
877.609183	2947.721450
877.919771	2970.386478
878.230317	2993.573265
878.540822	3046.228117
878.851285	3082.506781
879.161707	3111.233796
879.472087	3195.388297
879.782425	3383.587173
880.092722	3764.433744
880.402977	4227.826688
880.713191	4731.939552
881.023363	5624.432990
881.333494	6637.601570
881.643583	7114.988757
881.953631	6937.971160
882.263637	6520.160329
882.573602	6097.058807
882.883526	5604.714517
883.193408	5095.810036
883.503248	4668.279861
883.813048	4411.339811
884.122806	4166.614477
884.432522	3889.298083
884.742197	3680.942154
885.051831	3500.370543
885.361424	3372.625184
885.670975	3309.457006
885.980485	3235.694843
886.289954	3168.801252
886.599382	3130.155767
886.908768	3094.635797
887.218113	3054.324210
887.527417	3005.692199
887.836680	2958.890127
888.145901	2957.828964
888.455082	2951.393931
888.764221	2906.215110
889.073319	2879.993548
889.382376	2882.486399
889.691392	2882.357849
890.000366	2878.057745
890.309300	2868.668596
890.618193	2879.872561
890.927044	2897.655231
891.235855	2901.816703
891.544625	2883.298025
891.853353	2891.832698
892.162041	2907.631674
892.470687	2939.781633
892.779293	2990.039416
893.087858	3028.488297
893.396381	3088.949375
893.704864	3191.214222
894.013306	3394.266858
894.321707	3657.495747
894.630068	3852.976570
894.938387	3866.073487
895.246665	3824.960357
895.554903	3721.657033
895.863100	3543.235475
896.171256	3391.406003
896.479371	3272.800256
896.787446	3164.498627
897.095480	3069.634194
897.403473	3008.414422
897.711425	2969.756334
898.019336	2966.555201
898.327207	2945.543672
898.635038	2911.306675
898.942827	2896.210940
899.250576	2887.721637
899.558284	2859.992770
899.865952	2841.219513
900.173579	2823.449446
900.481165	2815.799495
900.788711	2807.723567
901.096216	2780.670215
901.403681	2769.650252
901.711105	2776.909514
902.018489	2776.039915
902.325832	2773.105963
902.633135	2783.450411
902.940397	2812.661377
903.247619	2877.251161
903.554800	3040.440872
903.861941	3331.708659
904.169041	3703.682799
904.476101	3990.690811
904.783121	3985.740397
905.090100	3771.259466
905.397039	3528.351468
905.703938	3295.366981
906.010796	3131.085860
906.317614	3029.773791
906.624391	2943.648198
906.931129	2877.069679
907.237826	2827.656289
907.544483	2783.203394
907.851099	2751.436563
908.157675	2735.085581
908.464211	2717.471789
908.770707	2706.698844
909.077163	2697.322297
909.383578	2680.525173
909.689954	2671.995541
909.996289	2667.808862
910.302584	2670.185766
910.608839	2671.841785
910.915054	2667.768533
911.221229	2659.231339
911.527363	2659.856442
911.833458	2666.624191
912.139513	2670.289110
912.445527	2671.430931
912.751502	2681.175482
913.057436	2689.049764
913.363331	2699.066537
913.669186	2717.638147
913.975000	2749.276429
914.280775	2797.563121
914.586510	2860.544777
914.892205	2930.473142
915.197859	3039.311654
915.503475	3203.645707
915.809050	3384.020713
916.114585	3519.688245
916.420081	3547.117163
916.725536	3507.576873
917.030952	3404.618867
917.336328	3292.344809
917.641665	3173.028260
917.946961	3079.161975
918.252218	3020.036802
918.557435	2952.487861
918.862612	2902.456930
919.167750	2856.403469
919.472848	2817.997438
919.777906	2796.995991
920.082925	2775.840789
920.387904	2747.544793
920.692843	2731.145919
920.997743	2722.830536
921.302603	2710.083978
921.607423	2701.667772
921.912204	2691.088911
922.216946	2680.361335
922.521647	2671.554440
922.826310	2665.137051
923.130932	2658.812923
923.435516	2652.718168
923.740059	2644.291880
924.044564	2636.142854
924.349028	2629.296967
924.653454	2627.494755
924.957840	2619.862448
925.262186	2617.503188
925.566493	2615.973198
925.870761	2607.650253
926.174989	2607.635129
926.479178	2601.673965
926.783328	2593.088880
927.087438	2595.380084
927.391509	2594.054261
927.695541	2593.141812
927.999533	2587.069742
928.303486	2586.900864
928.607400	2587.026893
928.911275	2585.975812
929.215110	2585.524629
929.518906	2588.012438
929.822663	2581.229566
930.126381	2582.636047
930.430060	2582.487333
930.733699	2582.396593
931.037299	2583.344330
931.340861	2584.760894
931.644383	2586.053950
931.947866	2587.697366
932.251309	2582.762076
932.554714	2583.634196
932.858080	2580.533886
933.161407	2578.225038
933.464694	2579.465162
933.767943	2573.498956
934.071153	2576.344687
934.374323	2574.539954
934.677455	2577.564647
934.980548	2575.359142
935.283602	2574.134142
935.586617	2575.318813
935.889593	2576.493402
936.192530	2578.073803
936.495428	2577.826787
936.798287	2577.743608
937.101108	2580.022209
937.403890	2583.982036
937.706632	2586.517736
938.009336	2593.698860
938.312002	2600.567432
938.614628	2611.733587
938.917216	2617.178034
939.219765	2617.039402
939.522275	2616.928497
939.824747	2613.001438
940.127179	2609.654112
940.429573	2609.333998
940.731929	2607.788885
941.034246	2603.720673
941.336524	2600.985847
941.638763	2597.885538
941.940964	2594.054261
942.243126	2595.148191
942.545250	2594.334045
942.847335	2591.725248
943.149381	2585.469176
943.451389	2584.458425
943.753359	2582.535224
944.055290	2580.768300
944.357182	2580.952302
944.659036	2579.306365
944.960851	2576.558937
945.262628	2576.488360
945.564367	2578.890470
945.866067	2579.444997
946.167729	2581.743763
946.469352	2579.329051
946.770937	2579.371900
947.072484	2578.144379
947.373992	2576.569019
947.675462	2574.512228
947.976893	2569.834037
948.278286	2569.614747
948.579641	2570.461661
948.880958	2570.403688
949.182236	2569.962587
949.483476	2567.636094
949.784678	2570.943091
950.085841	2569.254305
950.386967	2569.239181
950.688054	2570.340673
950.989103	2573.758576
951.290114	2573.017526
951.591087	2575.006261
951.892021	2575.442321
952.192917	2576.490881
952.493776	2579.727302
952.794596	2583.130081
953.095378	2581.418609
953.396122	2581.874833
953.696828	2579.951633
953.997496	2579.520614
954.298126	2576.306879
954.598718	2572.886456
954.899272	2570.930488
955.199788	2570.844789
955.500266	2566.350600
955.800706	2566.335477
956.101108	2562.345403
956.401472	2560.654096
956.701798	2562.118551
957.002087	2559.247614
957.302337	2561.881617
957.602550	2557.294167
957.902724	2554.193857
958.202861	2556.931204
958.502960	2553.455328
958.803022	2554.685370
959.103045	2551.320400
959.403031	2552.215205
959.702979	2549.319062
960.002889	2552.729402
960.302762	2548.880481
960.602596	2551.945503
960.902393	2549.903836
961.202153	2548.588094
961.501875	2546.831252
961.801559	2548.391489
962.101205	2547.479041
962.400814	2548.441901
962.700385	2546.206149
962.999918	2546.185985
963.299414	2540.497042
963.598873	2544.903011
963.898293	2544.787064
964.197677	2545.223124
964.497022	2546.314534
964.796331	2545.535676
965.095601	2547.423588
965.394835	2548.270502
965.694030	2546.150697
965.993189	2546.932075
966.292309	2546.758156
966.591393	2548.023485
966.890439	2546.727909
967.189447	2547.405944
967.488419	2547.408464
967.787353	2546.513660
968.086249	2548.083979
968.385108	2545.742363
968.683930	2545.167672
968.982714	2548.467107
969.281462	2544.978628
969.580172	2545.674307
969.878844	2545.202960
970.177480	2545.996941
970.476078	2549.016593
970.774639	2547.413506
971.073162	2547.778989
971.371649	2544.414019
971.670098	2548.421736
971.968510	2546.866540
972.266885	2547.058104
972.565223	2548.628424
972.863524	2544.829914
973.161788	2546.480892
973.460014	2547.887374
973.758204	2545.941489
974.056356	2547.899977
974.354471	2548.315872
974.652550	2545.215562
974.950591	2550.775955
975.248595	2548.681356
975.546563	2547.824360
975.844493	2547.655481
976.142386	2546.813608
976.440243	2546.450645
976.738062	2547.879812
977.035845	2546.251520
977.333590	2548.295707
977.631299	2545.936448
977.928971	2540.620551
978.226606	2542.526107
978.524204	2543.090716
978.821765	2541.233051
979.119290	2547.410985
979.416777	2544.860161
979.714228	2547.000131
980.011642	2540.529810
980.309020	2545.447456
980.606360	2544.897970
980.903664	2544.769420
981.200931	2548.217570
981.498162	2547.010213
981.795356	2546.571633
982.092513	2549.409802
982.389633	2549.649257
982.686717	2553.357026
982.983764	2556.966492
983.280775	2558.625032
983.577749	2562.204251
983.874686	2563.330949
984.171587	2559.103941
984.468451	2559.166956
984.765279	2554.002294
985.062070	2554.027499
985.358824	2553.301573
985.655543	2552.184958
985.952224	2549.981973
986.248869	2546.145655
986.545478	2546.720347
986.842050	2547.484082
987.138586	2545.893598
987.435086	2546.312013
987.731549	2547.433670
988.027975	2542.803370
988.324366	2545.785213
988.620719	2543.995603
988.917037	2546.359904
989.213318	2546.725388
989.509563	2542.642053
989.805772	2542.765562
990.101944	2542.148020
990.398080	2544.837476
990.694180	2540.912938
990.990244	2543.163813
991.286271	2542.896632
991.582262	2544.426622
991.878217	2541.298586
992.174136	2544.479554
992.470019	2541.217927
992.765865	2542.100129
993.061676	2540.106353
993.357450	2541.419574
993.653188	2539.551826
993.948890	2541.895963
994.244556	2546.685059
994.540186	2546.306972
994.835780	2544.086344
995.131337	2543.962836
995.426859	2549.072045
995.722345	2546.632127
996.017795	2546.637168
996.313208	2548.353681
996.608586	2551.963147
996.903928	2549.182951
997.199234	2550.765873
997.494504	2549.097251
997.789738	2547.915100
998.084936	2547.794113
998.380099	2547.234545
998.675225	2543.292362
998.970316	2546.269164
999.265371	2549.306459
999.560390	2544.792106
999.855373	2545.071890
1000.150320	2544.726571
1000.445232	2545.318906
1000.740108	2547.504246
1001.034948	2542.974770
1001.329752	2542.321940
1001.624521	2543.367980
1001.919254	2544.928217
1002.213951	2540.655839
1002.508613	2543.299924
1002.803239	2540.391178
1003.097829	2541.999306
1003.392384	2542.349667
1003.686903	2541.706919
1003.981386	2544.736653
1004.275834	2541.560726
1004.570246	2543.662887
1004.864623	2541.283463
1005.158964	2542.364790
1005.453270	2542.861344
1005.747540	2542.657177
1006.041775	2540.451672
1006.335974	2543.446118
1006.630138	2541.948895
1006.924266	2541.827907
1007.218359	2542.432846
1007.512416	2539.987886
1007.806438	2538.062165
1008.100425	2538.359593
1008.394376	2538.162988
1008.688292	2542.321940
1008.982172	2541.515356
1009.276017	2541.210366
1009.569827	2541.853113
1009.863602	2543.748587
1010.157341	2543.514173
1010.451045	2541.038967
1010.744714	2540.597866
1011.038347	2542.077444
1011.331945	2542.148020
1011.625508	2541.475026
1011.919036	2541.951415
1012.212528	2542.810932
1012.505986	2542.377393
1012.799408	2542.546272
1013.092795	2541.843031
1013.386147	2542.223638
1013.679464	2542.344625
1013.972745	2541.255736
1014.265992	2542.994934
1014.559204	2542.581560
1014.852380	2542.737835
1015.145521	2543.836807
1015.438628	2542.284132
1015.731699	2545.084492
1016.024736	2543.292362
1016.317737	2541.790098
1016.610703	2542.319420
1016.903635	2541.953936
1017.196531	2542.213555
1017.489393	2542.359749
1017.782219	2543.650284
1018.075011	2542.526107
1018.367768	2540.403781
1018.660490	2543.501570
1018.953177	2543.501570
1019.245829	2543.501570
