Dividing Wavelength (nm)	Counts (n)	Blue Motor Position (mm): 19.000000	Red Motor Position (mm): 0.000000	
326.493990	2059.364278
326.888308	2059.364278
327.282561	2059.364278
327.676750	2035.368386
328.070874	2038.723274
328.464933	2042.146217
328.858929	2050.101158
329.252859	2064.445761
329.646726	2076.458831
330.040528	2092.099011
330.434265	2107.713985
330.827938	2132.791205
331.221547	2150.528504
331.615091	2171.595486
332.008571	2192.307067
332.401986	2210.984542
332.795338	2233.052193
333.188625	2252.546335
333.581847	2272.032915
333.975006	2289.437499
334.368100	2304.024077
334.761129	2323.692139
335.154095	2339.685200
335.546996	2384.468290
335.939833	2476.529841
336.332606	2486.317242
336.725315	2499.323418
337.117960	2510.166940
337.510540	2516.274298
337.903056	2524.950124
338.295508	2532.567308
338.687896	2540.015612
339.080220	2543.932589
339.472480	2549.823177
339.864676	2552.989022
340.256807	2551.852242
340.648875	2558.829198
341.040879	2557.268961
341.432818	2560.901113
341.824694	2562.279868
342.216506	2562.665517
342.608253	2560.719631
342.999937	2559.416493
343.391557	2556.527912
343.783113	2556.074208
344.174605	2552.187478
344.566033	2552.820143
344.957397	2551.242262
345.348697	2550.796120
345.739934	2547.171530
346.131106	2546.748073
346.522215	2546.596839
346.913260	2546.813608
347.304241	2541.989224
347.695159	2540.749100
348.086012	2539.642567
348.476802	2537.285827
348.867528	2531.853984
349.258191	2530.218130
349.648789	2529.711494
350.039324	2530.276103
350.429796	2531.362472
350.820203	2532.123686
351.210548	2531.662420
351.600828	2528.829292
351.991045	2527.737882
352.381198	2526.321318
352.771288	2529.237625
353.161314	2527.838705
353.551276	2524.289733
353.941175	2525.698735
354.331010	2525.151770
354.720782	2529.517409
355.110490	2532.317770
355.500135	2530.260980
355.889717	2528.189065
356.279235	2529.993798
356.668689	2527.289219
357.058080	2527.110258
357.447408	2533.111752
357.836672	2530.737369
358.225873	2529.824920
358.615010	2529.827440
359.004084	2532.252235
359.393095	2531.276772
359.782043	2529.590506
360.170927	2532.622760
360.559748	2533.653676
360.948505	2533.963707
361.337199	2536.365817
361.725830	2534.152750
362.114398	2533.134437
362.502903	2534.576207
362.891344	2537.258101
363.279722	2535.080323
363.668037	2536.572504
364.056289	2535.617206
364.444478	2538.283976
364.832603	2537.011085
365.220665	2538.934285
365.608665	2538.594007
365.996601	2538.737680
366.384474	2537.928575
366.772284	2539.761034
367.160031	2541.676672
367.547715	2541.248174
367.935336	2539.965201
368.322893	2539.249357
368.710388	2535.738193
369.097820	2539.670293
369.485189	2539.856816
369.872495	2544.585418
370.259738	2543.226827
370.646918	2542.180788
371.034035	2541.376724
371.421090	2544.219935
371.808081	2543.201622
372.195010	2544.361087
372.581875	2545.623896
372.968678	2544.187167
373.355418	2543.423432
373.742096	2542.702547
374.128710	2546.879143
374.515262	2545.659184
374.901751	2543.335212
375.288177	2544.222455
375.674540	2543.146169
376.060841	2545.049204
376.447079	2546.672456
376.833254	2547.589946
377.219367	2546.614483
377.605417	2548.855276
377.991404	2544.595501
378.377329	2547.652960
378.763191	2546.884184
379.148991	2548.338557
379.534727	2547.847045
379.920402	2547.138763
380.306013	2550.458363
380.691563	2547.189174
381.077049	2547.660522
381.462474	2548.396531
381.847835	2546.896787
382.233134	2550.907025
382.618371	2546.770758
383.003545	2550.418033
383.388657	2551.567416
383.773706	2547.910059
384.158693	2551.365770
384.543618	2550.521377
384.928480	2551.438867
385.313280	2549.021634
385.698017	2554.098076
386.082692	2554.690411
386.467305	2551.388455
386.851856	2552.356357
387.236344	2551.343085
387.620770	2551.416182
388.005133	2546.183464
388.389435	2548.739329
388.773674	2550.418033
389.157851	2553.714948
389.541965	2554.939948
389.926018	2555.028168
390.310008	2555.023127
390.693936	2555.219732
391.077802	2556.079249
391.461606	2559.139229
391.845348	2556.424568
392.229027	2556.409445
392.612645	2554.655123
392.996200	2556.694270
393.379694	2557.246276
393.763125	2559.111503
394.146494	2556.976574
394.529801	2557.538663
394.913047	2556.936245
395.296230	2557.309291
395.679351	2556.732078
396.062410	2558.267110
396.445408	2556.537994
396.828343	2556.593447
397.211217	2556.253169
397.594028	2558.219219
397.976778	2559.091338
398.359466	2559.482028
398.742092	2559.441699
399.124656	2558.922460
399.507158	2559.834909
399.889598	2560.717111
400.271977	2560.205433
400.654294	2560.202913
401.036549	2560.354147
401.418742	2561.009498
401.800874	2559.897923
402.182944	2560.492779
402.564952	2558.380536
402.946898	2559.051009
403.328783	2562.708366
403.710606	2563.366237
404.092367	2562.473953
404.474067	2560.659137
404.855705	2560.785166
405.237282	2565.012174
405.618797	2565.082750
406.000250	2564.452606
406.381642	2565.218861
406.762972	2562.884807
407.144240	2558.075546
407.525447	2562.930177
407.906593	2556.853066
408.287677	2563.729200
408.668700	2564.321536
409.049661	2563.638459
409.430560	2566.370765
409.811399	2567.321022
410.192176	2565.929664
410.572891	2563.857749
410.953545	2566.317832
411.334138	2565.085270
411.714669	2568.001578
412.095139	2566.915209
412.475547	2566.658110
412.855894	2565.823799
413.236180	2566.607699
413.616405	2569.619788
413.996568	2567.502504
414.376670	2568.712381
414.756711	2566.103583
415.136691	2567.111814
415.516609	2568.886300
415.896466	2567.525189
416.276262	2565.849005
416.655997	2568.510734
417.035670	2567.404201
417.415283	2567.857905
417.794834	2568.724983
418.174324	2568.407391
418.553753	2568.959397
418.933121	2568.591393
419.312428	2570.650704
419.691674	2567.124417
420.070859	2569.697926
420.449983	2570.527196
420.829045	2568.785477
421.208047	2568.629202
421.586988	2566.244736
421.965867	2570.774212
422.344686	2570.338153
422.723444	2569.337484
423.102141	2571.485015
423.480777	2571.580797
423.859352	2570.814542
424.237866	2571.976528
424.616319	2568.510734
424.994712	2570.219686
425.373044	2570.307906
425.751314	2567.694067
426.129524	2567.074006
426.507673	2568.629202
426.885762	2563.802297
427.263789	2569.700447
427.641756	2572.122721
428.019662	2570.408729
428.397508	2571.449727
428.775292	2568.152812
429.153016	2570.532237
429.530679	2568.825807
429.908282	2572.836044
430.285824	2572.851168
430.663305	2570.494428
431.040726	2569.897052
431.418086	2572.858730
431.795385	2570.587690
432.172624	2569.652556
432.549802	2572.568863
432.926920	2568.770354
433.303977	2570.524675
433.680974	2569.642473
434.057910	2568.780436
434.434786	2571.048955
434.811601	2572.853688
435.188355	2571.190108
435.565050	2569.445868
435.941683	2574.275294
436.318257	2571.056517
436.694770	2572.127762
437.071222	2573.577094
437.447614	2574.066086
437.823946	2573.814028
438.200218	2573.050293
438.576429	2574.129100
438.952580	2571.265725
439.328670	2572.324367
439.704700	2571.636250
440.080670	2570.859912
440.456580	2571.217834
440.832429	2576.037177
441.208218	2574.907959
441.583947	2574.875191
441.959616	2574.081209
442.335224	2573.831672
442.710773	2573.826631
443.086261	2572.379820
443.461689	2572.526013
443.837057	2572.883935
444.212365	2572.788153
444.587612	2571.812690
444.962800	2568.387226
445.337927	2574.580284
445.712995	2569.481157
446.088002	2573.345201
446.462949	2575.835531
446.837837	2573.032649
447.212664	2576.087589
447.587431	2573.705643
447.962139	2577.252095
448.336786	2577.423494
448.711374	2578.139338
449.085901	2576.155644
449.460369	2574.275294
449.834776	2580.614545
450.209124	2577.345357
450.583412	2577.347877
450.957640	2577.037846
451.331808	2578.139338
451.705917	2575.827969
452.079965	2576.069945
452.453954	2578.262847
452.827883	2580.987590
453.201752	2576.175809
453.575562	2576.924420
453.949311	2575.825449
454.323001	2581.153948
454.696632	2576.942064
455.070202	2577.897363
455.443713	2577.733525
455.817164	2577.529359
456.190556	2579.775193
456.563888	2582.326017
456.937160	2580.906932
457.310373	2578.028433
457.683526	2578.623289
458.056619	2579.734863
458.429653	2577.123546
458.802628	2576.959708
459.175542	2579.782754
459.548398	2581.617734
459.921194	2580.680080
460.293930	2581.761407
460.666607	2582.590677
461.039224	2582.751994
461.411782	2582.154617
461.784280	2581.219483
462.156719	2585.159145
462.529099	2584.975143
462.901419	2584.082859
463.273680	2584.750812
463.645882	2578.436766
464.018024	2582.252920
464.390106	2581.940368
464.762130	2583.399782
465.134094	2587.805751
465.505999	2585.454053
465.877845	2590.696852
466.249631	2590.585947
466.621358	2591.962182
466.993026	2592.231884
467.364634	2595.349838
467.736184	2591.004363
468.107674	2591.894127
468.479105	2591.185844
468.850477	2590.578385
469.221790	2590.507809
469.593043	2590.134764
469.964238	2592.458736
470.335373	2591.382449
470.706449	2592.390680
471.077467	2594.702049
471.448425	2595.256576
471.819324	2598.861001
472.190164	2598.235898
472.560945	2599.634818
472.931667	2596.373192
473.302330	2597.179776
473.672934	2600.151537
474.043479	2594.946545
474.413965	2596.584920
474.784393	2600.333018
475.154761	2600.476691
475.525070	2600.882504
475.895321	2601.124479
476.265513	2602.692278
476.635645	2603.972731
477.005719	2605.900972
477.375734	2605.762341
477.745691	2605.013729
478.115588	2608.958432
478.485427	2612.847682
478.855207	2614.859103
479.224928	2619.393621
479.594591	2619.164248
479.964194	2618.579474
480.333739	2620.568210
480.703226	2623.696246
481.072653	2624.477624
481.442022	2624.119702
481.811333	2627.119189
482.180584	2624.127264
482.549777	2629.410393
482.918912	2625.901750
483.287988	2630.726135
483.657005	2633.103039
484.025964	2631.043727
484.394864	2632.286372
484.763706	2633.307205
485.132489	2634.640591
485.501213	2638.071096
485.869879	2636.692340
486.238487	2639.021353
486.607036	2641.299955
486.975527	2645.683238
487.343959	2643.051756
487.712333	2646.646098
488.080648	2647.336737
488.448905	2652.040133
488.817104	2655.473159
489.185244	2657.267810
489.553326	2665.184942
489.921350	2672.638288
490.289315	2681.815708
490.657222	2689.518591
491.025070	2691.177131
491.392861	2693.861545
491.760593	2692.704601
492.128267	2697.576876
492.495883	2697.796166
492.863440	2697.009746
493.230939	2697.675178
493.598380	2700.518389
493.965763	2706.587938
494.333088	2707.008875
494.700354	2712.269319
495.067563	2719.281564
495.434713	2725.945969
495.801805	2732.867473
496.168839	2737.084398
496.535815	2746.274422
496.902733	2753.221132
497.269593	2762.401073
497.636395	2768.987341
498.003139	2782.459824
498.369825	2789.444343
498.736453	2800.663431
499.103023	2814.060297
499.469535	2826.895075
499.835989	2836.213648
500.202385	2848.229238
500.568723	2861.447143
500.935003	2879.829711
501.301226	2894.990981
501.667390	2921.489806
502.033497	2945.309258
502.399546	2955.565486
502.765537	2970.580562
503.131470	2995.549397
503.497345	3022.900178
503.863163	3032.410314
504.228923	3065.518092
504.594625	3097.050509
504.960269	3113.237654
505.325856	3149.430618
505.691385	3171.750327
506.056856	3209.490925
506.422270	3248.244796
506.787625	3272.482663
507.152924	3312.988334
507.518164	3352.861341
507.883347	3378.692213
508.248472	3418.920621
508.613540	3478.829693
508.978550	3523.428781
509.343503	3564.332703
509.708398	3618.421764
510.073236	3683.500539
510.438016	3732.556007
510.802738	3776.015795
511.167403	3844.862833
511.532010	3910.765837
511.896561	3986.105881
512.261053	4072.060075
512.625488	4124.742653
512.989866	4187.789844
513.354186	4249.433073
513.718449	4316.694668
514.082655	4425.394548
514.446803	4477.041169
514.810894	4582.504628
515.174927	4658.835259
515.538904	4728.004931
515.902822	4843.850646
516.266684	4904.188217
516.630488	5002.916694
516.994235	5090.395837
517.357925	5212.744641
517.721558	5316.746165
518.085133	5432.412920
518.448651	5537.394948
518.812112	5620.445437
519.175516	5725.132559
519.538863	5863.582808
519.902152	5967.425536
520.265385	6111.796621
520.628560	6221.272838
520.991678	6322.673127
521.354739	6451.270441
521.717743	6598.381393
522.080690	6697.888728
522.443580	6881.638786
522.806413	7007.788620
523.169189	7130.273535
523.531908	7276.638396
523.894569	7391.115438
524.257174	7539.156482
524.619722	7705.411216
524.982213	7857.341510
525.344647	7999.139086
525.707025	8146.446642
526.069345	8349.043053
526.431608	8469.471178
526.793815	8654.471442
527.155964	8738.910768
527.518057	8916.576153
527.880093	9040.344042
528.242072	9280.237430
528.603995	9399.533815
528.965860	9530.182879
529.327669	9721.227486
529.689421	9885.314523
530.051117	10028.964723
530.412755	10237.902906
530.774337	10416.505945
531.135862	10563.974819
531.497331	10759.415312
531.858743	10919.660990
532.220098	11174.544249
532.581396	11287.680344
532.942638	11401.789382
533.303824	11642.577575
533.664953	11810.556383
534.026025	11923.773137
534.387040	12222.128786
534.747999	12424.435331
535.108902	12692.798635
535.469748	12712.282695
535.830537	12975.433446
536.191270	13224.587434
536.551947	13341.529600
536.912567	13611.695117
537.273131	13847.207743
537.633638	13931.626905
537.994089	14181.184185
538.354483	14304.387464
538.714821	14684.099775
539.075103	14977.189939
539.435328	15138.005267
539.795497	15257.190747
540.155609	15497.802500
540.515665	15902.357616
540.875665	15881.658639
541.235609	16177.418094
541.595496	16429.919408
541.955328	16838.565421
542.315102	16866.415275
542.674821	17030.875358
543.034483	17210.844550
543.394090	17437.847708
543.753640	17639.758522
544.113134	18268.897042
544.472571	18155.372778
544.831953	18829.427980
545.191278	18762.244523
545.550548	18854.560652
545.909761	19341.520990
546.268918	19627.246029
546.628019	20031.135713
546.987064	20016.261789
547.346053	19940.276477
547.704986	20564.341076
548.063863	20639.464351
548.422684	20961.155501
548.781449	21004.012870
549.140158	21477.793112
549.498811	21601.611412
549.857408	21544.807690
550.215949	22181.976769
550.574434	22328.747443
550.932864	22531.709338
551.291237	23112.362041
551.649555	23227.386048
552.007817	23547.839595
552.366022	23626.630309
552.724173	23879.681109
553.082267	24342.194371
553.440305	24756.486477
553.798288	24587.534726
554.156215	25029.666603
554.514086	25364.812593
554.871902	25390.782098
555.229661	25715.918877
555.587365	25784.123167
555.945014	26088.747492
556.302606	26320.680898
556.660143	26616.029499
557.017625	26970.228530
557.375050	27032.257407
557.732421	27491.544331
558.089735	27769.614377
558.446994	27925.007945
558.804197	28441.469115
559.161345	28589.346322
559.518437	28410.523992
559.875474	28802.955134
560.232455	29170.152780
560.589381	29449.024370
560.946251	29549.343331
561.303065	30195.641939
561.659825	30216.474508
562.016528	30320.241618
562.373177	30256.027401
562.729770	30889.912168
563.086307	30792.638063
563.442789	31362.422038
563.799216	31488.556749
564.155587	31625.416514
564.511904	31823.916988
564.868164	32067.868505
565.224370	32504.934022
565.580520	32509.158509
565.936615	32862.429968
566.292654	32836.399970
566.648638	33294.572799
567.004567	33459.282419
567.360441	33721.117429
567.716260	33721.613983
568.072023	34192.190571
568.427732	34351.105384
568.783385	34189.246537
569.138982	34684.794481
569.494525	34983.818083
569.850013	34870.069487
570.205445	35135.156042
570.560823	35168.455383
570.916145	35274.112927
571.271412	35618.249815
571.626625	35533.749994
571.981782	35772.486437
572.336884	35621.435824
572.691931	36058.725673
573.046923	35967.027085
573.401860	36024.425663
573.756743	36192.041507
574.111570	36485.915571
574.466342	36574.536535
574.821059	36851.404266
575.175722	36629.674155
575.530330	36862.000771
575.884882	36748.055571
576.239380	36812.819274
576.593823	37045.836528
576.948211	37151.355440
577.302544	36924.629546
577.656823	37066.822852
578.011047	37424.033972
578.365216	37431.162164
578.719330	37341.590942
579.073389	37462.064437
579.427394	37636.727815
579.781344	37703.515542
580.135239	37651.601739
580.489080	37837.469082
580.842866	37521.073663
581.196597	38083.537883
581.550273	38197.178094
581.903895	38273.309599
582.257463	38758.538301
582.610975	38396.790142
582.964434	38800.420207
583.317837	38495.644648
583.671186	38573.926206
584.024481	38932.085063
584.377721	38642.243923
584.730906	38942.643760
585.084037	39165.503089
585.437113	39026.702480
585.790135	39252.493240
586.143103	38968.837595
586.496016	39197.612718
586.848874	39407.612064
587.201679	39539.218947
587.554428	39202.285868
587.907124	39541.989061
588.259765	39426.478582
588.612352	39657.171865
588.964884	39266.903378
589.317362	39629.339654
589.669786	39727.120395
590.022155	39692.588491
590.374470	40189.225324
590.726731	39880.525227
591.078937	39377.750789
591.431090	39754.710630
591.783188	39431.033265
592.135232	39336.166311
592.487222	39646.348507
592.839157	39865.663906
593.191038	39615.126121
593.542866	39508.304071
593.894639	39038.090446
594.246358	39388.485927
594.598022	39459.851021
594.949633	39135.732555
595.301190	39192.722799
595.652692	39215.176098
596.004141	39738.674720
596.355535	38761.807489
596.706876	38866.464363
597.058162	38649.079727
597.409395	39190.103920
597.760573	39459.460332
598.111698	39128.271647
598.462768	39120.783013
598.813785	39196.561638
599.164748	38842.254222
599.515657	39183.066469
599.866511	38778.168554
600.217312	39495.809571
600.568060	38523.134060
600.918753	39363.151608
601.269392	39340.768885
601.619978	39118.751428
601.970510	39365.543635
602.320988	39531.989932
602.671412	39836.659627
603.021783	39748.630998
603.372100	39382.232375
603.722363	39538.485459
604.072572	39608.922981
604.422728	39636.535902
604.772830	39476.045728
605.122878	39670.301550
605.472872	39564.638965
605.822813	39866.377229
606.172701	39662.235704
606.522534	40017.523624
606.872314	40248.206824
607.222041	40109.915371
607.571714	40465.747736
607.921333	40000.265234
608.270899	40257.747208
608.620411	40643.130816
608.969870	40417.188822
609.319276	40479.946146
609.668627	40546.270086
610.017926	40959.501029
610.367171	41112.275717
610.716362	41162.508294
611.065500	41092.491708
611.414585	41344.740965
611.763616	41544.423589
612.112594	41470.600932
612.461518	41608.358023
612.810389	42001.177333
613.159207	41823.317864
613.507971	41826.372803
613.856682	42329.943743
614.205340	42194.384596
614.553945	42884.795821
614.902496	42236.233734
615.250994	42674.889736
615.599439	42762.058848
615.947830	42880.820871
616.296169	42891.518199
616.644454	42969.217503
616.992686	43124.404383
617.340864	43590.474180
617.688990	43123.002943
618.037063	43821.124613
618.385082	43657.100590
618.733048	44024.699008
619.080961	43903.557560
619.428821	43930.870532
619.776628	43958.571672
620.124382	43781.332265
620.472083	43913.511318
620.819731	44012.688459
621.167326	43598.146816
621.514868	43609.789361
621.862357	43101.958646
622.209793	43198.184191
622.557176	42776.090900
622.904506	42546.947772
623.251783	42196.217055
623.599007	41880.136709
623.946179	41835.744308
624.293297	41580.175452
624.640363	41050.897148
624.987376	40906.901630
625.334336	40716.386343
625.681243	40311.619498
626.028097	40236.622253
626.374899	40067.388197
626.721647	40045.060927
627.068343	39852.811484
627.414987	39554.276874
627.761577	39307.794698
628.108115	39662.565899
628.454600	38912.656456
628.801032	39148.411057
629.147412	39048.870954
629.493739	38972.696598
629.840014	38552.781086
630.186236	38968.923295
630.532405	38414.348481
630.878521	38651.587701
631.224585	38445.129766
631.570597	38107.954712
631.916556	38282.544993
632.262462	38163.238525
632.608316	38097.683361
632.954117	37961.514234
633.299866	37930.385109
633.645562	37848.582305
633.991206	37328.998140
634.336797	36923.979237
634.682336	36825.228074
635.027823	36597.463703
635.373257	36464.508311
635.718639	36154.003481
636.063968	36040.789248
636.409245	35396.217235
636.754470	35364.087441
637.099642	35145.205582
637.444762	34570.400617
637.789829	34732.572016
638.134845	34357.091754
638.479808	34273.151502
638.824719	34216.153696
639.169577	33714.881522
639.514383	33815.409691
639.859137	33432.851649
640.203839	33603.598051
640.548489	33313.537620
640.893086	33317.623475
641.237632	33045.002916
641.582125	33139.832061
641.926566	32942.584314
642.270955	32968.032059
642.615292	32903.245670
642.959576	32800.252377
643.303809	32810.213697
643.647990	32893.735533
643.992118	32849.020499
644.336195	32705.813921
644.680219	32793.741726
645.024192	33001.122193
645.368112	33530.347565
645.711981	33547.588311
646.055797	34277.368427
646.399562	34082.578242
646.743274	34958.181295
647.086935	35372.496085
647.430544	35310.084080
647.774101	35353.783322
648.117606	35658.188356
648.461059	35784.910361
648.804460	35379.846088
649.147810	34871.261720
649.491108	34528.735481
649.834354	34365.573496
650.177548	33560.791093
650.520690	33068.391350
650.863781	33057.648651
651.206820	32885.752866
651.549807	32464.955152
651.892742	31888.012738
652.235626	31790.602523
652.578458	31660.356751
652.921238	30968.173561
653.263967	31290.232715
653.606644	31002.337460
653.949269	30907.528480
654.291843	30504.921769
654.634365	30879.857586
654.976836	30422.435889
655.319255	30502.572591
655.661622	30385.368285
656.003938	30241.791182
656.346203	30074.520657
656.688416	30308.377263
657.030577	30086.009446
657.372687	29911.381356
657.714746	30064.607228
658.056753	30257.980848
658.398708	29645.536108
658.740612	29705.263699
659.082465	29915.850339
659.424266	29808.516612
659.766016	29818.702263
660.107715	29663.172585
660.449362	29789.675300
660.790958	29764.651012
661.132503	29674.563072
661.473996	29765.044222
661.815438	29842.683032
662.156829	29973.400152
662.498168	29769.336764
662.839456	29762.256464
663.180693	29879.491017
663.521879	29986.436575
663.863013	29931.747618
664.204097	29915.192469
664.545129	30329.542547
664.886110	30254.835168
665.227040	30370.118795
665.567918	30356.847957
665.908746	30432.296386
666.249522	30526.399605
666.590248	30545.840815
666.930922	30654.328966
667.271545	30651.810910
667.612118	30702.250175
667.952639	30512.826298
668.293109	30556.822968
668.633528	30416.590671
668.973896	30374.307993
669.314213	30357.959532
669.654480	30166.236889
669.994695	30158.090384
670.334859	30076.395966
670.674973	29908.845656
671.015035	30109.750760
671.355047	30043.973785
671.695008	29967.229779
672.034918	29865.756393
672.374777	29979.071450
672.714585	29840.588433
673.054342	29977.430554
673.394049	29830.128039
673.733705	30043.870441
674.073310	29762.195970
674.412864	29821.605968
674.752368	29506.450674
675.091820	29739.881303
675.431223	29344.422948
675.770574	29138.879982
676.109875	28984.156888
676.449125	28775.110321
676.788324	28675.494600
677.127473	28201.439616
677.466571	28100.825747
677.805619	27827.083531
678.144616	27765.379808
678.483562	27711.832672
678.822458	27389.145894
679.161303	27327.890833
679.500098	27245.951919
679.838842	27184.076796
680.177535	27266.363551
680.516179	27509.306837
680.854771	27644.354307
681.193314	28429.332537
681.531805	29445.311560
681.870247	30193.721260
682.208638	30932.744331
682.546978	31191.663034
682.885268	31315.534266
683.223508	30872.182430
683.561697	30601.064135
683.899836	30436.944330
684.237925	30026.349911
684.575963	29873.643279
684.913951	29517.846202
685.251889	29692.819611
685.589776	29715.731655
685.927614	29712.018845
686.265401	29899.620344
686.603137	30023.431083
686.940824	30536.222293
687.278460	30862.871418
687.616046	31021.773629
687.953582	31696.345548
688.291068	31600.982041
688.628504	31932.952104
688.965889	31922.395928
689.303224	31644.421664
689.640510	31361.411287
689.977745	30725.888145
690.314930	29973.223711
690.652065	29552.889783
690.989150	28873.730413
691.326185	28025.077369
691.663170	27388.747642
692.000105	26657.447619
692.336990	26057.391515
692.673825	25624.898323
693.010610	25142.409489
693.347345	24640.986080
693.684030	24012.328990
694.020665	23821.501152
694.357251	23142.515702
694.693786	23137.744250
695.030272	22923.656529
695.366707	22422.475096
695.703093	22140.520840
696.039429	22221.391030
696.375716	21974.339204
696.711952	21972.579841
697.048139	21834.860559
697.384276	21675.121517
697.720363	21802.501393
698.056400	21687.187519
698.392388	21523.027385
698.728326	21524.761542
699.064214	21365.236749
699.400053	21362.312880
699.735842	20986.053760
700.071581	20771.908065
700.407270	20531.591220
700.742910	20358.198213
701.078501	20109.298803
701.414042	19895.800897
701.749533	19596.681513
702.084974	19281.627042
702.420366	19505.212297
702.755709	19104.967367
703.091002	18809.470052
703.426246	18865.688999
703.761440	18802.145255
704.096584	18561.281445
704.431679	18494.768461
704.766725	18442.315255
705.101721	18385.929950
705.436668	18500.709461
705.771565	18230.458244
706.106413	18540.650523
706.441212	18616.671123
706.775961	18722.192555
707.110661	18804.426377
707.445311	19163.452313
707.779913	19048.428306
708.114465	19350.348051
708.448967	19653.598660
708.783421	20293.341248
709.117825	20661.370685
709.452180	20894.322404
709.786485	21344.396619
710.120742	22112.265173
710.454949	22226.056618
710.789107	22725.917269
711.123216	23438.058388
711.457275	23652.849350
711.791286	24210.481624
712.125247	24357.794222
712.459159	24091.079375
712.793023	24831.284597
713.126837	23797.389313
713.460602	24065.276229
713.794318	23720.352921
714.127985	23448.266724
714.461602	22557.830076
714.795171	22524.669366
715.128691	21543.645704
715.462162	21017.104747
715.795584	20598.830130
716.128957	20316.046605
716.462281	19935.605848
716.795556	19659.648045
717.128782	19187.533905
717.461960	18591.160364
717.795088	18544.602788
718.128167	18197.670580
718.461198	17754.827900
718.794180	17621.045759
719.127113	17290.023433
719.459997	17096.949761
719.792833	16732.207157
720.125619	16767.069256
720.458357	16440.004236
720.791046	16298.163811
721.123686	16146.339380
721.456278	15919.663897
721.788821	15917.962508
722.121315	15651.968546
722.453761	15747.780716
722.786158	15642.052596
723.118506	15717.861468
723.450805	15611.830879
723.783056	15781.770696
724.115259	15687.753177
724.447412	15679.641960
724.779518	15887.806326
725.111574	15941.053513
725.443582	16207.922116
725.775542	16168.754871
726.107453	16693.949840
726.439315	16611.738703
726.771129	17027.069286
727.102895	17454.181046
727.434612	17721.596613
727.766281	17891.067603
728.097901	18200.879274
728.429473	18287.327501
728.760996	18295.206824
729.092471	18424.139375
729.423897	18314.864804
729.755276	18185.690278
730.086606	18299.411147
730.417887	18888.467453
730.749120	19438.724519
731.080305	19661.339352
731.411442	20068.084850
731.742530	20185.725216
732.073570	20347.901656
732.404562	20667.427631
732.735506	20510.068014
733.066401	20290.301432
733.397249	19788.247880
733.728048	19157.004677
734.058798	18296.900652
734.389501	17542.696146
734.720156	17022.295314
735.050762	16448.453210
735.381320	16067.878862
735.711831	15797.708304
736.042293	15421.726447
736.372707	15465.445854
736.703073	15252.255458
737.033391	15456.376818
737.363661	15451.817094
737.693883	15575.441310
738.024056	15782.128618
738.354182	15995.641648
738.684260	16368.129985
739.014290	16634.524719
739.344272	16863.640120
739.674207	17215.973924
740.004093	17386.400212
740.333931	17436.892409
740.663722	17520.779729
740.993464	17560.448569
741.323159	17399.459321
741.652806	17099.498064
741.982405	16928.252589
742.311956	16572.261428
742.641460	16472.991026
742.970915	16132.811444
743.300323	15785.047446
743.629683	15559.032354
743.958996	15255.438946
744.288260	14940.132417
744.617477	14625.982833
744.946647	14588.527060
745.275768	14283.769145
745.604842	14080.759359
745.933869	13903.519952
746.262847	13874.654305
746.591778	13791.762612
746.920662	13667.094877
747.249498	13683.816385
747.578286	13848.611704
747.907027	14024.527809
748.235720	14288.734682
748.564365	14358.297564
748.892963	14273.701961
749.221514	14379.614083
749.550017	14245.201798
749.878473	14221.364702
750.206881	13991.246111
750.535242	13922.731789
750.863555	13840.288759
751.191821	13736.398140
751.520039	13759.610133
751.848210	13684.088607
752.176334	13729.746337
752.504411	13653.849246
752.832440	13476.428357
753.160421	13589.695522
753.488356	13482.767608
753.816243	13394.675965
754.144082	13228.128845
754.471875	13172.792099
754.799620	13142.686328
755.127318	13118.841670
755.454969	13097.280655
755.782572	13079.329107
756.110129	13091.846292
756.437638	12992.472546
756.765100	12993.359789
757.092515	13030.772713
757.419882	13073.287284
757.747203	13075.691914
758.074477	13167.554340
758.401703	13146.752019
758.728882	13345.980939
759.056014	13392.934246
759.383099	13559.955235
759.710138	13681.946117
760.037129	13807.725426
760.364073	13867.072409
760.690970	13895.854877
761.017820	13908.356939
761.344623	14138.959480
761.671379	14527.808882
761.998088	15239.511421
762.324751	17030.081376
762.651366	20471.097374
762.977935	24962.195800
763.304456	27909.884483
763.630931	28944.462843
763.957359	27728.329848
764.283740	25446.408710
764.610074	23182.366023
764.936362	20534.167250
765.262602	18647.797727
765.588796	16714.762244
765.914943	15431.055102
766.241044	14330.135158
766.567097	13535.921534
766.893104	12815.946462
767.219064	12349.128054
767.544978	11879.579862
767.870845	11482.974644
768.196665	11263.354257
768.522438	11032.098886
768.848165	10824.123563
769.173846	10621.688469
769.499479	10490.525207
769.825066	10316.136572
770.150607	10088.092416
770.476101	10008.167443
770.801548	9887.772086
771.126949	9725.416685
771.452303	9618.844172
771.777611	9416.242720
772.102872	9406.417511
772.428087	9267.460626
772.753256	9114.718705
773.078378	9020.527266
773.403453	8840.288372
773.728482	8725.254283
774.053465	8650.272160
774.378401	8546.646202
774.703291	8424.181452
775.028135	8298.939025
775.352932	8269.574304
775.677683	8166.293665
776.002388	8054.949700
776.327046	8066.226761
776.651658	7972.476423
776.976224	7870.022533
777.300743	7872.291052
777.625216	7778.510467
777.949643	7739.857420
778.274024	7751.378977
778.598359	7661.903537
778.922647	7682.194182
779.246889	7628.626881
779.571086	7639.102398
779.895236	7652.529512
780.219339	7653.726786
780.543397	7660.663413
780.867409	7741.291628
781.191374	7751.850325
781.515294	7714.286167
781.839167	7810.930127
782.162995	7781.217567
782.486776	7727.554484
782.810511	7681.924480
783.134201	7590.004081
783.457844	7587.528874
783.781441	7531.085595
784.104993	7458.782846
784.428498	7439.006399
784.751958	7425.415449
785.075372	7396.736324
785.398739	7339.990576
785.722061	7390.134933
786.045337	7393.877990
786.368568	7550.917494
786.691752	7580.740960
787.014891	7922.619411
787.337983	8283.704658
787.661030	8880.305052
787.984031	9506.222275
788.306987	9910.265714
788.629897	10119.455955
788.952760	10063.620135
789.275579	9842.356331
789.598351	9438.305330
789.921078	9078.571112
790.243759	8669.859564
790.566395	8381.697128
790.888984	8126.534084
791.211529	7915.710510
791.534027	7697.917540
791.856480	7488.228226
792.178888	7414.508912
792.501249	7318.326218
792.823566	7162.983062
793.145836	7166.963053
793.468062	7135.748228
793.790241	7092.106959
794.112375	7155.307905
794.434464	7310.474620
794.756507	7352.971547
795.078505	7512.685383
795.400457	7830.230185
795.722364	8183.189092
796.044226	8469.196435
796.366042	8743.145338
796.687812	8693.368985
797.009538	8768.540150
797.331218	8663.076691
797.652852	8578.977642
797.974442	8427.140609
798.295986	8332.777771
798.617484	8148.856314
798.938938	7999.670927
799.260346	7899.225937
799.581709	7697.052983
799.903026	7619.043647
800.224299	7505.496698
800.545526	7337.457396
800.866708	7244.559013
801.187845	7173.844228
801.508936	7070.873619
801.829983	7031.991200
802.150984	6875.120574
802.471940	6830.574418
802.792851	6820.267779
803.113717	6786.852491
803.434538	6748.907726
803.755314	6692.524941
804.076045	6697.762700
804.396731	6643.338403
804.717372	6673.023237
805.037967	6676.073135
805.358518	6721.453602
805.679024	6802.351518
805.999485	6811.849052
806.319901	6857.857143
806.640272	6879.062757
806.960598	6961.384799
807.280879	6962.645087
807.601115	7039.230297
807.921306	6984.642162
808.241453	6998.457444
808.561554	7015.292377
808.881611	6980.473128
809.201623	6986.227605
809.521590	6932.456138
809.841513	6917.219250
810.161390	6957.898841
810.481223	6826.720456
810.801011	6810.160266
811.120755	6783.686646
811.440453	6703.058432
811.760107	6673.608011
812.079716	6640.406972
812.399281	6574.594708
812.718801	6567.839562
813.038276	6519.449526
813.357707	6461.977852
813.677093	6500.341033
813.996434	6403.293780
814.315731	6448.959072
814.634983	6444.656447
814.954191	6458.562470
815.273354	6562.347225
815.592473	6625.086905
815.911547	6750.014259
816.230577	6843.754515
816.549562	6989.554767
816.868502	7088.000939
817.187399	7181.267327
817.506250	7339.922521
817.825058	7367.056531
818.143821	7638.084085
818.462539	7912.274964
818.781213	8283.460162
819.099843	8844.326337
819.418429	9847.117701
819.736970	10826.644140
820.055466	12010.710355
820.373919	13554.788052
820.692327	15923.127170
821.010691	20100.328070
821.329011	29142.827206
821.647286	42137.341419
821.965517	55516.223449
822.283704	60841.567302
822.601847	62801.310819
822.919945	60115.711724
823.237999	55943.917462
823.556010	49793.918978
823.873976	43079.959051
824.191897	36535.306276
824.509775	31692.940249
824.827609	27166.946956
825.145398	24592.953966
825.463144	23229.757911
825.780845	23546.728021
826.098502	25340.186557
826.416116	29138.542225
826.733685	32792.078146
827.051210	33960.206753
827.368692	32148.287511
827.686129	28156.843048
828.003522	24031.631568
828.320872	20305.808022
828.638177	17458.496274
828.955439	15298.676923
829.272656	13472.891987
829.589830	12000.383552
829.906960	10716.686492
830.224046	9775.172874
830.541088	9029.891210
830.858086	8570.531189
831.175041	8189.911471
831.491952	8074.118687
831.808819	8118.435471
832.125642	8525.569138
832.442421	9431.865256
832.759157	11236.978940
833.075849	14182.411706
833.392497	17414.234943
833.709101	19578.334233
834.025662	19405.044570
834.342179	17701.270681
834.658653	15490.139946
834.975083	13559.935070
835.291469	11942.228801
835.607811	10620.632347
835.924110	9709.597544
836.240366	8836.537754
836.556578	8028.834002
836.872746	7374.633385
837.188871	6876.847169
837.504952	6462.509694
837.820990	6149.683412
838.136984	5924.550523
838.452935	5836.184137
838.768842	5869.803592
839.084706	6300.532379
839.400526	7515.430292
839.716303	9097.392260
840.032037	10193.961688
840.347727	10114.036715
840.663373	9132.226633
840.978977	8084.349709
841.294537	7274.442973
841.610054	6676.771335
841.925527	6240.436784
842.240957	5875.043871
842.556344	5544.286206
842.871687	5261.114512
843.186987	4976.508610
843.502244	4754.004682
843.817458	4583.535544
844.132629	4449.239206
844.447756	4359.703272
844.762840	4279.248977
845.077881	4200.997667
845.392879	4140.362668
845.707833	4089.741922
846.022745	4049.445459
846.337613	4022.288763
846.652438	3978.584480
846.967221	3962.115030
847.281960	3925.745626
847.596656	3908.709046
847.911309	3888.443608
848.225919	3865.801265
848.540485	3847.161599
848.855009	3836.560052
849.169490	3814.459634
849.483928	3801.897078
849.798323	3793.808547
850.112675	3774.110238
850.426984	3780.643574
850.741251	3764.297633
851.055474	3762.686984
851.369654	3766.939197
851.683792	3764.030451
851.997887	3768.368364
852.311938	3767.647479
852.625947	3773.772481
852.939914	3763.206223
853.253837	3771.579579
853.567718	3775.350362
853.881555	3762.971809
854.195350	3773.964045
854.509103	3771.337604
854.822812	3770.485649
855.136479	3758.780090
855.450103	3775.859519
855.763685	3760.317642
856.077224	3759.947117
856.390720	3778.662400
856.704173	3799.883137
857.017584	3814.197494
857.330953	3823.190912
857.644278	3846.778471
857.957561	3850.755942
858.270802	3850.642516
858.584000	3852.379193
858.897155	3845.724870
859.210268	3830.614011
859.523339	3804.233653
859.836367	3807.679282
860.149352	3796.850883
860.462295	3791.981129
860.775195	3779.920168
861.088054	3776.338428
861.400869	3774.972276
861.713642	3775.241978
862.026373	3785.326806
862.339062	3789.410140
862.651708	3807.845640
862.964312	3844.512472
863.276873	3857.218701
863.589392	3913.324222
863.901869	3964.023107
864.214303	4008.690250
864.526696	4041.646794
864.839045	4083.228751
865.151353	4113.352166
865.463619	4120.412302
865.775842	4129.556955
866.088023	4145.734018
866.400162	4135.689519
866.712258	4143.334428
867.024313	4143.644459
867.336325	4141.743944
867.648296	4150.162671
867.960224	4151.097805
868.272110	4163.806554
868.583954	4160.600380
868.895755	4176.656455
869.207515	4175.854912
869.519233	4217.099112
869.830909	4227.902305
870.142542	4252.566150
870.454134	4267.656844
870.765684	4294.306904
871.077191	4339.349613
871.388657	4357.795195
871.700081	4393.741143
872.011463	4441.737969
872.322803	4472.368019
872.634101	4509.755737
872.945357	4543.528947
873.256571	4599.213532
873.567744	4628.565651
873.878874	4647.280934
874.189963	4687.804250
874.501010	4696.079304
874.812015	4695.066032
875.122979	4738.737547
875.433900	4732.960385
875.744780	4746.100153
876.055618	4776.962097
876.366415	4776.389926
876.677169	4790.802584
876.987882	4844.942056
877.298554	4893.790837
877.609183	4975.056758
877.919771	5086.811577
878.230317	5232.639554
878.540822	5445.577893
878.851285	5765.640751
879.161707	6236.973512
879.472087	7002.180336
879.782425	8241.031291
880.092722	10421.491647
880.402977	13738.081885
880.713191	17488.539030
881.023363	21182.396620
881.333494	23366.521894
881.643583	24589.130251
881.953631	24580.164559
882.263637	23754.007664
882.573602	22264.898709
882.883526	20722.845035
883.193408	19045.333037
883.503248	17347.641301
883.813048	15807.631815
884.122806	14379.036871
884.432522	12905.676480
884.742197	11638.627831
885.051831	10550.094002
885.361424	9554.947547
885.670975	8734.633349
885.980485	8045.570633
886.289954	7470.440514
886.599382	6997.386199
886.908768	6622.440299
887.218113	6261.297079
887.527417	5972.139015
887.836680	5702.686821
888.145901	5485.271938
888.455082	5319.612061
888.764221	5167.313762
889.073319	5038.333321
889.382376	4963.063852
889.691392	4903.066560
890.000366	4879.060585
890.309300	4861.340930
890.618193	4864.594994
890.927044	4852.400443
891.235855	4873.941294
891.544625	4908.405142
891.853353	4967.996622
892.162041	5086.060445
892.470687	5276.583292
892.779293	5523.690572
893.087858	5896.647736
893.396381	6473.990922
893.704864	7282.413037
894.013306	8434.694778
894.321707	9611.622719
894.630068	10427.919118
894.938387	10634.908895
895.246665	10395.217153
895.554903	9788.511767
895.863100	9084.330630
896.171256	8529.463429
896.479371	8022.376284
896.787446	7522.205603
897.095480	7094.367917
897.403473	6770.080572
897.711425	6449.468229
898.019336	6190.826789
898.327207	5916.330921
898.635038	5681.887021
898.942827	5440.929949
899.250576	5245.781842
899.558284	5048.995361
899.865952	4930.409778
900.173579	4783.820586
900.481165	4672.690870
900.788711	4585.945216
901.096216	4508.301364
901.403681	4445.120583
901.711105	4423.579733
902.018489	4408.063061
902.325832	4479.808762
902.633135	4602.749902
902.940397	4944.542653
903.247619	5744.790538
903.554800	7191.727721
903.861941	9109.990103
904.169041	10626.139808
904.476101	11243.986143
904.783121	10878.946111
905.090100	10138.934973
905.397039	9303.565370
905.703938	8552.670381
906.010796	7858.629525
906.317614	7310.988818
906.624391	6774.844463
906.931129	6349.857549
907.237826	5950.298216
907.544483	5574.691925
907.851099	5195.634965
908.157675	4844.919371
908.464211	4522.277963
908.770707	4288.701141
909.077163	4090.482972
909.383578	3943.777833
909.689954	3826.739885
909.996289	3758.003752
910.302584	3695.329607
910.608839	3660.777538
910.915054	3627.881489
911.221229	3614.096454
911.527363	3626.233032
911.833458	3641.263232
912.139513	3670.786749
912.445527	3699.778425
912.751502	3779.716002
913.057436	3888.317579
913.363331	4020.171478
913.669186	4226.286615
913.975000	4482.203311
914.280775	4909.166356
914.586510	5483.409232
914.892205	6284.186438
915.197859	7323.029614
915.503475	8541.171509
915.809050	9590.560779
916.114585	10237.673533
916.420081	10494.220373
916.725536	10460.414395
917.030952	10020.674545
917.336328	9602.785577
917.641665	9196.093011
917.946961	8713.740287
918.252218	8297.610681
918.557435	7785.318545
918.862612	7354.632607
919.167750	6979.139743
919.472848	6555.055196
919.777906	6186.498959
920.082925	5826.578218
920.387904	5458.858813
920.692843	5196.413823
920.997743	4952.991627
921.302603	4720.586873
921.607423	4555.365576
921.912204	4391.906163
922.216946	4275.382412
922.521647	4150.949091
922.826310	4046.922361
923.130932	3954.886015
923.435516	3858.995707
923.740059	3789.710089
924.044564	3709.485167
924.349028	3648.519973
924.653454	3586.770879
924.957840	3516.497195
925.262186	3471.073878
925.566493	3407.116759
925.870761	3353.488964
926.174989	3317.613593
926.479178	3281.733181
926.783328	3235.657034
927.087438	3208.454968
927.391509	3177.290555
927.695541	3144.213024
927.999533	3117.560444
928.303486	3098.232660
928.607400	3083.083993
928.911275	3070.163515
929.215110	3056.658264
929.518906	3045.368600
929.822663	3043.158054
930.126381	3041.055893
930.430060	3049.215001
930.733699	3048.398334
931.037299	3061.838050
931.340861	3056.973336
931.644383	3067.731159
931.947866	3065.134964
932.251309	3057.830332
932.554714	3059.705642
932.858080	3054.467883
933.161407	3045.093857
933.464694	3036.533978
933.767943	3030.603061
934.071153	3026.960827
934.374323	3016.628982
934.677455	3010.705626
934.980548	3002.236488
935.283602	2995.746002
935.586617	2993.658965
935.889593	3004.658762
936.192530	3010.332581
936.495428	3022.191895
936.798287	3045.729043
937.101108	3080.593663
937.403890	3126.707617
937.706632	3188.436546
938.009336	3269.228598
938.312002	3345.954960
938.614628	3406.665576
938.917216	3460.807568
939.219765	3489.895026
939.522275	3521.881147
939.824747	3527.590254
940.127179	3525.931714
940.429573	3523.605222
940.731929	3514.581556
941.034246	3504.789115
941.336524	3488.791013
941.638763	3475.520176
941.940964	3460.598360
942.243126	3416.367276
942.545250	3392.583113
942.847335	3354.729088
943.149381	3321.308759
943.451389	3290.759367
943.753359	3254.828542
944.055290	3226.532546
944.357182	3203.605378
944.659036	3192.058615
944.960851	3179.896832
945.262628	3166.315963
945.564367	3169.262518
945.866067	3163.500479
946.167729	3157.738440
946.469352	3157.171310
946.770937	3154.716268
947.072484	3139.998620
947.373992	3139.381078
947.675462	3134.271869
947.976893	3116.153962
948.278286	3109.567694
948.579641	3099.845829
948.880958	3095.059254
949.182236	3098.580500
949.483476	3090.318048
949.784678	3092.311825
950.085841	3094.212340
950.386967	3104.110645
950.688054	3121.036319
950.989103	3142.264618
951.290114	3160.367402
951.591087	3187.098120
951.892021	3216.407388
952.192917	3241.401429
952.493776	3269.468053
952.794596	3278.567336
953.095378	3281.662604
953.396122	3276.858385
953.696828	3269.021911
953.997496	3260.038575
954.298126	3234.638721
954.598718	3213.589383
954.899272	3191.599870
955.199788	3161.373112
955.500266	3128.789614
955.800706	3093.259562
956.101108	3055.029972
956.401472	3025.503933
956.701798	2993.797596
957.002087	2951.046091
957.302337	2925.437030
957.602550	2897.004922
957.902724	2865.469984
958.202861	2844.755883
958.502960	2821.304435
958.803022	2802.153092
959.103045	2780.990328
959.403031	2764.525919
959.702979	2750.708117
960.002889	2737.911148
960.302762	2724.846997
960.602596	2711.447611
960.902393	2704.180787
961.202153	2697.012267
961.501875	2687.696214
961.801559	2680.867971
962.101205	2675.161385
962.400814	2667.645025
962.700385	2665.172339
962.999918	2657.794610
963.299414	2650.910915
963.598873	2651.173055
963.898293	2644.271715
964.197677	2645.216931
964.497022	2640.523617
964.796331	2636.263842
965.095601	2635.260652
965.394835	2633.972638
965.694030	2635.001033
965.993189	2632.193110
966.292309	2629.294447
966.591393	2626.080711
966.890439	2627.666154
967.189447	2630.917698
967.488419	2628.487862
967.787353	2630.748820
968.086249	2629.740589
968.385108	2632.256125
968.683930	2634.877525
968.982714	2640.442959
969.281462	2644.349853
969.580172	2648.360091
969.878844	2654.003662
970.177480	2664.753923
970.476078	2670.331960
970.774639	2675.237002
971.073162	2686.488858
971.371649	2693.526309
971.670098	2697.763398
971.968510	2700.210879
972.266885	2704.899152
972.565223	2710.615820
972.863524	2712.372662
973.161788	2715.288970
973.460014	2717.554968
973.758204	2721.638303
974.056356	2724.070660
974.354471	2725.890516
974.652550	2725.865311
974.950591	2724.373129
975.248595	2725.096535
975.546563	2717.565051
975.844493	2717.484392
976.142386	2713.701006
976.440243	2706.892928
976.738062	2702.287834
977.035845	2692.770136
977.333590	2687.066070
977.631299	2683.282684
977.928971	2677.543330
978.226606	2669.046466
978.524204	2666.659479
978.821765	2665.731907
979.119290	2666.707370
979.416777	2666.909016
979.714228	2667.234171
980.011642	2674.319512
980.309020	2680.799916
980.606360	2696.493028
980.903664	2716.650081
981.200931	2753.909249
981.498162	2803.768782
981.795356	2879.307951
982.092513	2966.479584
982.389633	3067.055644
982.686717	3163.997033
982.983764	3237.484453
983.280775	3284.455404
983.577749	3293.658030
983.874686	3281.070269
984.171587	3243.296903
984.468451	3207.844989
984.765279	3163.946621
985.062070	3116.458952
985.358824	3072.880697
985.655543	3015.925741
985.952224	2966.383802
986.248869	2903.891138
986.545478	2841.688341
986.842050	2789.298149
987.138586	2744.792323
987.435086	2703.641384
987.731549	2676.109122
988.027975	2651.319248
988.324366	2635.540437
988.620719	2621.692387
988.917037	2609.460027
989.213318	2600.111207
989.509563	2593.146853
989.805772	2587.407500
990.101944	2584.823908
990.398080	2582.245358
990.694180	2576.717733
990.990244	2583.230904
991.286271	2581.360636
991.582262	2580.523804
991.878217	2584.380287
992.174136	2588.206522
992.470019	2592.413365
992.765865	2592.947728
993.061676	2598.094746
993.357450	2603.438369
993.653188	2612.688886
993.948890	2633.957514
994.244556	2648.491161
994.540186	2673.344049
994.835780	2704.543750
995.131337	2740.842579
995.426859	2781.106274
995.722345	2829.024962
996.017795	2879.000441
996.313208	2917.030906
996.608586	2944.041408
996.903928	2956.382153
997.199234	2957.072791
997.494504	2954.988273
997.789738	2938.536468
998.084936	2914.215421
998.380099	2884.094527
998.675225	2855.455732
998.970316	2825.574292
999.265371	2788.668005
999.560390	2752.628796
999.855373	2723.584188
1000.150320	2694.290043
1000.445232	2669.038904
1000.740108	2648.919659
1001.034948	2630.322842
1001.329752	2612.704010
1001.624521	2603.461054
1001.919254	2592.980495
1002.213951	2585.607808
1002.508613	2577.637743
1002.803239	2571.648853
1003.097829	2565.743141
1003.392384	2558.688046
1003.686903	2553.722510
1003.981386	2552.374001
1004.275834	2548.600697
1004.570246	2544.640871
1004.864623	2543.771272
1005.158964	2541.550644
1005.453270	2539.866898
1005.747540	2538.314223
1006.041775	2537.754655
1006.335974	2535.032432
1006.630138	2533.383974
1006.924266	2534.780374
1007.218359	2531.087729
1007.512416	2526.207892
1007.806438	2526.596061
1008.100425	2528.887265
1008.394376	2524.425844
1008.688292	2527.553880
1008.982172	2526.699404
1009.276017	2528.408356
1009.569827	2527.057326
1009.863602	2530.790301
1010.157341	2529.156967
1010.451045	2527.044723
1010.744714	2524.831657
1011.038347	2526.482635
1011.331945	2522.439629
1011.625508	2523.578930
1011.919036	2522.089269
1012.212528	2522.041378
1012.505986	2518.142046
1012.799408	2519.498116
1013.092795	2515.198012
1013.386147	2519.850997
1013.679464	2516.768331
1013.972745	2517.746315
1014.265992	2516.329751
1014.559204	2514.938392
1014.852380	2516.349916
1015.145521	2514.552744
1015.438628	2518.021058
1015.731699	2516.982580
1016.024736	2518.411748
1016.317737	2519.359484
1016.610703	2523.508354
1016.903635	2521.748991
1017.196531	2523.868797
1017.489393	2524.682943
1017.782219	2525.807120
1018.075011	2528.670496
1018.367768	2530.818027
1018.660490	2528.254600
1018.953177	2528.254600
1019.245829	2528.254600
