Dividing Wavelength (nm)	Counts (n)	Blue Motor Position (mm): 33.900000	Red Motor Position (mm): 0.000000	
326.493990	2223.882334
326.888308	2223.882334
327.282561	2223.882334
327.676750	2185.511592
328.070874	2182.769204
328.464933	2182.668381
328.858929	2185.844308
329.252859	2189.965451
329.646726	2202.404498
330.040528	2211.735674
330.434265	2226.254197
330.827938	2243.953688
331.221547	2261.040679
331.615091	2276.879984
332.008571	2294.516461
332.401986	2314.416416
332.795338	2333.343428
333.188625	2353.344206
333.581847	2372.959336
333.975006	2390.142108
334.368100	2410.667166
334.761129	2428.328849
335.154095	2448.039760
335.546996	2472.088585
335.939833	2510.550068
336.332606	2526.502799
336.725315	2538.294058
337.117960	2553.321738
337.510540	2561.601833
337.903056	2574.166909
338.295508	2581.010275
338.687896	2591.687439
339.080220	2599.433172
339.472480	2606.125304
339.864676	2612.010851
340.256807	2616.734412
340.648875	2619.333127
341.040879	2622.478807
341.432818	2623.938221
341.824694	2628.470218
342.216506	2629.854015
342.608253	2633.266876
342.999937	2631.779736
343.391557	2632.316619
343.783113	2629.969962
344.174605	2628.573562
344.566033	2626.259672
344.957397	2626.680609
345.348697	2627.535084
345.739934	2623.766822
346.131106	2623.902933
346.522215	2620.684156
346.913260	2619.375977
347.304241	2615.547220
347.695159	2617.760287
348.086012	2616.772221
348.476802	2611.421036
348.867528	2605.807711
349.258191	2606.740325
349.648789	2601.036259
350.039324	2599.047524
350.429796	2603.627412
350.820203	2603.140941
351.210548	2604.706219
351.600828	2599.685230
351.991045	2600.622884
352.381198	2600.131372
352.771288	2598.987030
353.161314	2598.833275
353.551276	2596.998295
353.941175	2597.262955
354.331010	2597.683892
354.720782	2595.468305
355.110490	2595.821185
355.500135	2597.212544
355.889717	2596.650455
356.279235	2598.064499
356.668689	2596.640373
357.058080	2594.946545
357.447408	2598.009046
357.836672	2594.787749
358.225873	2597.187338
358.615010	2597.756988
359.004084	2596.902513
359.393095	2599.357555
359.782043	2598.878645
360.170927	2597.545260
360.559748	2599.886876
360.948505	2602.044490
361.337199	2605.850561
361.725830	2601.956270
362.114398	2602.926692
362.502903	2599.254211
362.891344	2601.820158
363.279722	2605.517845
363.668037	2604.260077
364.056289	2603.224120
364.444478	2605.845520
364.832603	2606.755448
365.220665	2608.149327
365.608665	2609.069338
365.996601	2608.872733
366.384474	2609.127311
366.772284	2605.795108
367.160031	2610.284256
367.547715	2609.787702
367.935336	2609.807867
368.322893	2604.701178
368.710388	2606.757969
369.097820	2606.664707
369.485189	2608.166971
369.872495	2611.042949
370.259738	2612.212497
370.646918	2610.329626
371.034035	2614.889350
371.421090	2612.008330
371.808081	2612.789709
372.195010	2613.434977
372.581875	2612.232662
372.968678	2613.152672
373.355418	2613.339195
373.742096	2612.507405
374.128710	2615.247272
374.515262	2612.063783
374.901751	2615.673249
375.288177	2617.157869
375.674540	2614.291973
376.060841	2616.409258
376.447079	2614.629730
376.833254	2620.943776
377.219367	2619.060905
377.605417	2616.628548
377.991404	2618.382869
378.377329	2617.719958
378.763191	2617.041922
379.148991	2618.329937
379.534727	2617.851028
379.920402	2619.990997
380.306013	2620.512757
380.691563	2620.147273
381.077049	2620.606018
381.462474	2619.096193
381.847835	2622.085597
382.233134	2621.422685
382.618371	2620.071656
383.003545	2621.198354
383.388657	2620.880761
383.773706	2623.774383
384.158693	2622.231790
384.543618	2624.767491
384.928480	2624.447377
385.313280	2623.373612
385.698017	2624.969137
386.082692	2625.753036
386.467305	2625.604322
386.851856	2627.076339
387.236344	2625.876545
387.620770	2625.062398
388.005133	2621.536111
388.389435	2629.037348
388.773674	2625.226236
389.157851	2630.274951
389.541965	2629.496093
389.926018	2631.441978
390.310008	2630.542132
390.693936	2632.399798
391.077802	2632.054479
391.461606	2634.290230
391.845348	2635.190076
392.229027	2636.384830
392.612645	2633.135806
392.996200	2636.246198
393.379694	2638.376086
393.763125	2638.149234
394.146494	2636.765437
394.529801	2638.786940
394.913047	2639.928761
395.296230	2639.800212
395.679351	2639.848103
396.062410	2641.022691
396.445408	2642.124183
396.828343	2640.818525
397.211217	2644.808598
397.594028	2643.770120
397.976778	2644.947230
398.359466	2644.483443
398.742092	2642.920686
399.124656	2643.596200
399.507158	2646.159627
399.889598	2650.227838
400.271977	2648.443270
400.654294	2649.852272
401.036549	2648.526449
401.418742	2652.405617
401.800874	2650.663898
402.182944	2653.590288
402.564952	2654.157418
402.946898	2650.616007
403.328783	2654.464928
403.710606	2655.604229
404.092367	2657.159425
404.474067	2656.118427
404.855705	2656.617501
405.237282	2658.127326
405.618797	2662.147647
406.000250	2665.734427
406.381642	2666.689726
406.762972	2668.673420
407.144240	2671.481343
407.525447	2675.093330
407.906593	2679.516942
408.287677	2690.965402
408.668700	2699.883204
409.049661	2712.526417
409.430560	2723.889178
409.811399	2735.798904
410.192176	2760.868562
410.572891	2782.482509
410.953545	2811.897642
411.334138	2826.022955
411.714669	2865.671630
412.095139	2887.088972
412.475547	2938.544030
412.855894	2988.733757
413.236180	3050.008982
413.616405	3071.605285
413.996568	3148.225783
414.376670	3211.918241
414.756711	3262.022269
415.136691	3341.828776
415.516609	3440.058179
415.896466	3512.731453
416.276262	3624.650109
416.655997	3703.050134
417.035670	3829.550328
417.415283	4001.662882
417.794834	4101.215588
418.174324	4160.774300
418.553753	4235.015373
418.933121	4430.811268
419.312428	4557.886153
419.691674	4578.459102
420.070859	4861.381259
420.449983	4853.106205
420.829045	5099.200212
421.208047	5110.532726
421.586988	5364.009503
421.965867	5470.519002
422.344686	5637.910515
422.723444	5773.706597
423.102141	5548.659407
423.480777	6051.721190
423.859352	5894.290997
424.237866	6369.601228
424.616319	6397.922431
424.994712	6740.451190
425.373044	6595.530620
425.751314	6994.837896
426.129524	7009.230390
426.507673	7211.007614
426.885762	7421.301867
427.263789	7455.110365
427.641756	7489.359965
428.019662	7677.929365
428.397508	7946.254861
428.775292	7797.818086
429.153016	8192.651338
429.530679	8143.694172
429.908282	8263.628263
430.285824	8099.170701
430.663305	8743.717509
431.040726	8360.983026
431.418086	8411.460100
431.795385	8753.013396
432.172624	8894.511023
432.549802	8881.701451
432.926920	9014.283797
433.303977	8950.888767
433.680974	9181.307307
434.057910	9309.778592
434.434786	9411.809025
434.811601	9322.179830
435.188355	9889.425584
435.565050	9663.483590
435.941683	9636.407552
436.318257	10148.016612
436.694770	10275.610737
437.071222	10386.455627
437.447614	10270.952710
437.823946	10176.625160
438.200218	10357.602583
438.576429	10177.356128
438.952580	10423.341750
439.328670	10505.356282
439.704700	10299.611670
440.080670	10300.942535
440.456580	10876.276820
440.832429	10631.054933
441.208218	10243.178473
441.583947	10594.783831
441.959616	10725.110260
442.335224	10539.537826
442.710773	10697.260406
443.086261	10900.560058
443.461689	10198.657523
443.837057	10831.166055
444.212365	11125.440890
444.587612	10779.892479
444.962800	11012.294713
445.337927	10794.224480
445.712995	10361.827070
446.088002	11455.792743
446.462949	11103.158990
446.837837	11081.325753
447.212664	11091.105591
447.587431	11582.844943
447.962139	12280.495265
448.336786	14525.232853
448.711374	15094.366519
449.085901	12965.446921
449.460369	12567.931775
449.834776	12032.629292
450.209124	12877.554403
450.583412	13274.366308
450.957640	14234.675868
451.331808	13421.741920
451.705917	12387.937377
452.079965	11717.378216
452.453954	12599.648195
452.827883	12237.723595
453.201752	12515.632325
453.575562	12033.519056
453.949311	12449.162191
454.323001	12397.565981
454.696632	12632.266981
455.070202	12912.502202
455.443713	13164.509483
455.817164	13621.530408
456.190556	13623.466212
456.563888	13974.922855
456.937160	14161.029652
457.310373	13492.612981
457.683526	13576.091968
458.056619	13123.996250
458.429653	13266.643260
458.802628	12718.092625
459.175542	13074.358529
459.548398	14020.386501
459.921194	14351.426471
460.293930	14406.198608
460.666607	15301.285720
461.039224	16330.775035
461.411782	17022.068462
461.784280	16919.491063
462.156719	16966.525029
462.529099	16658.344171
462.901419	15581.964563
463.273680	15376.177101
463.645882	15236.295164
464.018024	14973.701461
464.390106	15189.646847
464.762130	15925.446101
465.134094	16659.727967
465.505999	18632.941447
465.877845	21889.562120
466.249631	24721.962134
466.621358	24433.000675
466.993026	22982.675837
467.364634	22420.262029
467.736184	20979.442287
468.107674	20171.224337
468.479105	20301.883483
468.850477	19764.950187
469.221790	19343.734057
469.593043	18665.008227
469.964238	18117.695195
470.335373	17780.114327
470.706449	18208.002425
471.077467	17751.982168
471.448425	19580.043185
471.819324	23584.060285
472.190164	25636.639171
472.560945	22113.240636
472.931667	19724.628518
473.302330	19090.000181
473.672934	18607.478579
474.043479	18942.496019
474.413965	18764.044214
474.784393	18396.612155
475.154761	19067.554443
475.525070	19065.643846
475.895321	18724.665241
476.265513	19307.856165
476.635645	19887.256141
477.005719	19681.161169
477.375734	19862.670434
477.745691	20341.784216
478.115588	20860.685305
478.485427	21371.649097
478.855207	22427.443153
479.224928	24189.021432
479.594591	26402.544195
479.964194	26449.850383
480.333739	26651.239438
480.703226	26207.464144
481.072653	25887.847428
481.442022	26459.589892
481.811333	27361.898457
482.180584	27301.626422
482.549777	26338.632447
482.918912	25992.431206
483.287988	26110.815143
483.657005	25781.350533
484.025964	25529.905341
484.394864	25453.138650
484.763706	25142.432174
485.132489	24568.544699
485.501213	24745.315280
485.869879	24664.019112
486.238487	24465.218690
486.607036	24615.813078
486.975527	24306.077024
487.343959	24641.220494
487.712333	24581.215640
488.080648	24256.479632
488.448905	24721.599171
488.817104	24476.261337
489.185244	25143.944520
489.553326	25119.489883
489.921350	26096.697391
490.289315	28364.962044
490.657222	30160.502577
491.025070	30652.027679
491.392861	30433.581880
491.760593	29596.924262
492.128267	28699.314052
492.495883	27657.179003
492.863440	26775.561853
493.230939	25918.061584
493.598380	25765.861588
493.965763	25361.921492
494.333088	24911.333079
494.700354	24845.351937
495.067563	24713.172883
495.434713	24470.799247
495.801805	24623.737772
496.168839	24429.842393
496.535815	24268.984214
496.902733	24489.544778
497.269593	24154.093798
497.636395	24345.640000
498.003139	24316.739065
498.369825	24056.272728
498.736453	24256.645990
499.103023	24132.021106
499.469535	24144.608867
499.835989	24357.108625
500.202385	24386.891762
500.568723	23887.993971
500.935003	24144.868486
501.301226	23748.565738
501.667390	24589.011784
502.033497	24828.796787
502.399546	24553.151536
502.765537	24126.543892
503.131470	24502.873588
503.497345	24645.205526
503.863163	23856.620350
504.228923	24465.009482
504.594625	24652.580734
504.960269	24183.849208
505.325856	24692.466343
505.691385	24084.898920
506.056856	24696.920203
506.422270	24658.337732
506.787625	24232.440890
507.152924	24650.092925
507.518164	24677.950341
507.883347	24482.608150
508.248472	24171.062322
508.613540	24956.912671
508.978550	24737.141049
509.343503	24724.051693
509.708398	24977.898995
510.073236	25144.342771
510.438016	25350.498237
510.802738	25027.471181
511.167403	25290.523630
511.532010	24982.962834
511.896561	25756.716935
512.261053	25722.734517
512.625488	25552.913167
512.989866	25449.960203
513.354186	25302.962677
513.718449	25409.792289
514.082655	25787.389835
514.446803	25520.448136
514.810894	25992.650496
515.174927	25463.215917
515.538904	25510.963205
515.902822	25994.729972
516.266684	25734.596352
516.630488	25651.150132
516.994235	25630.506607
517.357925	25928.705980
517.721558	26110.268177
518.085133	26200.593051
518.448651	26120.715969
518.812112	25857.098911
519.175516	26057.509982
519.538863	26220.548459
519.902152	25994.203172
520.265385	26266.848936
520.628560	26065.848050
520.991678	26079.277684
521.354739	26144.996686
521.717743	26222.708593
522.080690	26002.568967
522.443580	26342.337695
522.806413	26335.290162
523.169189	26426.209892
523.531908	26479.525135
523.894569	26091.870486
524.257174	26157.513871
524.619722	26350.935382
524.982213	26019.814754
525.344647	26099.757372
525.707025	26214.862037
526.069345	26204.268053
526.431608	26161.458574
526.793815	26360.921908
527.155964	25806.271477
527.518057	25995.967576
527.880093	25905.627578
528.242072	26142.224052
528.603995	25842.897980
528.965860	25646.592929
529.327669	25689.425092
529.689421	25684.628435
530.051117	25517.657857
530.412755	25690.027510
530.774337	25491.539639
531.135862	25361.553488
531.497331	25561.798201
531.858743	25128.309381
532.220098	25614.130419
532.581396	25282.535922
532.942638	25208.887184
533.303824	25309.309490
533.664953	25330.620968
534.026025	24977.024354
534.387040	25222.528547
534.747999	25297.475381
535.108902	25456.664937
535.469748	24938.351143
535.830537	25118.312773
536.191270	25243.865230
536.551947	25108.585867
536.912567	24764.451500
537.273131	25111.577792
537.633638	24818.641383
537.994089	25032.361100
538.354483	24569.376490
538.714821	25069.463992
539.075103	25120.674554
539.435328	24899.536779
539.795497	24459.476815
540.155609	24845.719941
540.515665	25145.776979
540.875665	24371.412899
541.235609	24686.860580
541.595496	24646.763242
541.955328	25001.168961
542.315102	24914.912298
542.674821	24460.021260
543.034483	24340.359391
543.394090	24509.472459
543.753640	24307.480986
544.113134	24934.340905
544.472571	24536.959350
544.831953	24828.955584
545.191278	24449.800321
545.550548	24364.887125
545.909761	24571.171141
546.268918	24802.260153
546.628019	24758.220633
546.987064	24459.544871
547.346053	24213.322314
547.704986	24332.386806
548.063863	24493.126517
548.422684	24498.903680
548.781449	24030.333471
549.140158	24435.483444
549.498811	24010.128526
549.857408	23759.300875
550.215949	24179.556666
550.574434	23872.815057
550.932864	24073.974740
551.291237	24237.449277
551.649555	24107.019503
552.007817	24159.444983
552.366022	24018.973231
552.724173	24061.218100
553.082267	24009.805892
553.440305	24489.781712
553.798288	23734.543769
554.156215	24254.949642
554.514086	24356.488563
554.871902	23731.514035
555.229661	24014.342931
555.587365	23864.169478
555.945014	23739.733637
556.302606	23982.664320
556.660143	23939.454070
557.017625	24188.582852
557.375050	23705.199212
557.732421	24105.330717
558.089735	23919.995216
558.446994	23976.748526
558.804197	24011.620708
559.161345	23937.858545
559.518437	23706.204923
559.875474	23894.365990
560.232455	24083.056378
560.589381	23899.255909
560.946251	23902.315889
561.303065	24206.299987
561.659825	24284.253869
562.016528	23892.238623
562.373177	23628.407316
562.729770	23996.880374
563.086307	23849.424103
563.442789	24025.327605
563.799216	23864.068655
564.155587	23864.540003
564.511904	23838.628472
564.868164	23779.137816
565.224370	23756.190483
565.580520	23666.505836
565.936615	23795.501401
566.292654	23489.641994
566.648638	23768.616928
567.004567	23605.830508
567.360441	23550.914699
567.716260	23279.788842
568.072023	23595.102933
568.427732	23372.175548
568.783385	23145.661382
569.138982	23388.198856
569.494525	23425.631943
569.850013	23168.664167
570.205445	23263.694958
570.560823	23079.196289
570.916145	22846.937729
571.271412	23016.622967
571.626625	22768.792282
571.981782	22881.643552
572.336884	22684.854550
572.691931	22821.759686
573.046923	22549.489487
573.401860	22441.591151
573.756743	22454.388120
574.111570	22359.667360
574.466342	22291.188326
574.821059	22370.178166
575.175722	22078.476839
575.530330	22062.138460
575.884882	22077.950039
576.239380	21996.621104
576.593823	21894.827605
576.948211	21863.287626
577.302544	21706.124613
577.656823	21582.893608
578.011047	21679.222496
578.365216	21545.107639
578.719330	21431.568252
579.073389	21322.805357
579.427394	21478.466106
579.781344	21240.137996
580.135239	21124.390583
580.489080	21086.692835
580.842866	20862.278309
581.196597	21055.646889
581.550273	21023.938031
581.903895	20921.002711
582.257463	21227.855225
582.610975	20759.690829
582.964434	21072.018036
583.317837	20763.721231
583.671186	20853.909994
584.024481	20835.812252
584.377721	20603.195769
584.730906	20670.253198
585.084037	20687.191475
585.437113	20595.258472
585.790135	20797.907816
586.143103	20259.467215
586.496016	20274.638567
586.848874	20519.358860
587.201679	20458.300405
587.554428	20130.010384
587.907124	20451.361257
588.259765	20232.872608
588.612352	20307.774072
588.964884	19884.410410
589.317362	20041.124759
589.669786	20103.561970
590.022155	20134.093719
590.374470	20336.170891
590.726731	20123.174579
591.078937	19890.069105
591.431090	19990.161215
591.783188	19745.279605
592.135232	19717.656602
592.487222	19809.876950
592.839157	19826.905968
593.191038	19714.957064
593.542866	19595.315360
593.894639	19310.928748
594.246358	19530.844044
594.598022	19432.831410
594.949633	19182.633903
595.301190	19148.472524
595.652692	19314.598708
596.004141	19553.574606
596.355535	18883.549807
596.706876	18897.584380
597.058162	18788.004819
597.409395	19021.155663
597.760573	19095.754658
598.111698	18870.790647
598.462768	18809.923756
598.813785	18771.142159
599.164748	18577.665195
599.515657	18631.424060
599.866511	18424.288089
600.217312	18778.855124
600.568060	18302.130849
600.918753	18615.068036
601.269392	18508.535852
601.619978	18291.272204
601.970510	18502.617538
602.320988	18446.436399
602.671412	18654.015991
603.021783	18566.932578
603.372100	18289.328839
603.722363	18433.964584
604.072572	18376.482827
604.422728	18515.714455
604.772830	18286.044527
605.122878	18232.378924
605.472872	18215.087766
605.822813	18201.917752
606.172701	18178.584771
606.522534	18375.406541
606.872314	18391.623933
607.222041	18227.650322
607.571714	18448.558724
607.921333	18275.440460
608.270899	18343.932097
608.620411	18522.729221
608.969870	18301.604049
609.319276	18295.466444
609.668627	18327.107246
610.017926	18465.078586
610.367171	18586.232636
610.716362	18623.630436
611.065500	18435.192105
611.414585	18576.233507
611.763616	18565.047187
612.112594	18499.676024
612.461518	18473.794741
612.810389	18664.274739
613.159207	18518.424076
613.507971	18425.966793
613.856682	18700.760090
614.205340	18636.742477
614.553945	18778.744219
614.902496	18527.374644
615.250994	18749.387060
615.599439	18701.460810
615.947830	18678.662192
616.296169	18741.981605
616.644454	18696.843113
616.992686	18675.881995
617.340864	18886.909737
617.688990	18647.979209
618.037063	18806.873858
618.385082	18669.759514
618.733048	18936.839845
619.080961	18813.941555
619.428821	18855.841105
619.776628	18739.811388
620.124382	18663.150561
620.472083	18714.545125
620.819731	18724.055262
621.167326	18420.161905
621.514868	18463.404922
621.862357	18228.890446
622.209793	18245.042302
622.557176	18069.784068
622.904506	17896.524652
623.251783	17817.970872
623.599007	17568.711020
623.946179	17528.278446
624.293297	17453.114842
624.640363	17205.314404
624.987376	17232.967653
625.334336	17028.851334
625.681243	16870.198661
626.028097	16883.774488
626.374899	16804.260369
626.721647	16675.592478
627.068343	16498.479100
627.414987	16439.963907
627.761577	16408.098773
628.108115	16442.108917
628.454600	16171.328380
628.801032	16269.789676
629.147412	16206.881117
629.493739	16215.720781
629.840014	16031.464087
630.186236	16129.849766
630.532405	15894.584157
630.878521	16098.188799
631.224585	15992.695093
631.570597	15812.118442
631.916556	15841.319326
632.262462	15816.302600
632.608316	15735.664303
632.954117	15683.967270
633.299866	15673.476629
633.645562	15591.222642
633.991206	15345.854561
634.336797	15217.204315
634.682336	15191.305387
635.027823	15071.343569
635.373257	14946.028047
635.718639	14854.369787
636.063968	14804.253156
636.409245	14553.039857
636.754470	14575.510801
637.099642	14434.456795
637.444762	14199.901989
637.789829	14243.722219
638.134845	14076.348350
638.479808	14116.380152
638.824719	14046.242579
639.169577	13907.885591
639.514383	13958.266882
639.859137	13774.647895
640.203839	13865.436555
640.548489	13707.035939
640.893086	13690.584134
641.237632	13566.004619
641.582125	13721.861973
641.926566	13544.186506
642.270955	13549.862845
642.615292	13519.321014
642.959576	13522.282692
643.303809	13555.854256
643.647990	13489.921005
643.992118	13555.859297
644.336195	13312.832832
644.680219	13531.402139
645.024192	13444.061628
645.368112	13692.550184
645.711981	13745.865427
646.055797	13917.975460
646.399562	13900.102049
646.743274	14169.208924
647.086935	14444.012302
647.430544	14403.738524
647.774101	14435.764975
648.117606	14579.979783
648.461059	14556.117482
648.804460	14539.642991
649.147810	14266.142751
649.491108	14176.916848
649.834354	14183.235935
650.177548	13877.704203
650.520690	13688.290409
650.863781	13609.706382
651.206820	13657.297395
651.549807	13488.617867
651.892742	13283.926856
652.235626	13221.915623
652.578458	13225.925860
652.921238	12916.043613
653.263967	13113.424951
653.606644	12944.609311
653.949269	12924.422011
654.291843	12716.499620
654.634365	12880.528684
654.976836	12733.561405
655.319255	12732.185170
655.661622	12697.176878
656.003938	12611.968775
656.346203	12535.081096
656.688416	12619.233077
657.030577	12577.204978
657.372687	12490.348418
657.714746	12475.199750
658.056753	12655.365548
658.398708	12474.453659
658.740612	12478.400883
659.082465	12579.138260
659.424266	12542.345399
659.766016	12571.384966
660.107715	12480.109834
660.449362	12547.290771
660.790958	12511.417920
661.132503	12448.842077
661.473996	12523.914940
661.815438	12539.235007
662.156829	12559.291238
662.498168	12543.330944
662.839456	12542.831870
663.180693	12553.622460
663.521879	12648.547387
663.863013	12617.488838
664.204097	12592.230137
664.545129	12716.330742
664.886110	12690.139427
665.227040	12778.747788
665.567918	12788.411680
665.908746	12814.844970
666.249522	12797.407619
666.590248	12844.174403
666.930922	12967.271818
667.271545	12938.418774
667.612118	13026.265921
667.952639	12928.593565
668.293109	12947.570989
668.633528	12894.064182
668.973896	12871.356305
669.314213	12945.844394
669.654480	12695.372144
669.994695	12756.496135
670.334859	12794.264459
670.674973	12736.820511
671.015035	12768.589863
671.355047	12706.245913
671.695008	12675.651151
672.034918	12692.299561
672.374777	12726.067730
672.714585	12639.851397
673.054342	12675.298270
673.394049	12627.009057
673.733705	12730.181312
674.073310	12634.197742
674.412864	12644.637972
674.752368	12509.623269
675.091820	12538.861962
675.431223	12522.284127
675.770574	12382.235832
676.109875	12305.927886
676.449125	12269.548400
676.788324	12213.820964
677.127473	12055.803477
677.466571	12035.822863
677.805619	11925.345977
678.144616	11859.011954
678.483562	11832.253509
678.822458	11700.301307
679.161303	11672.590085
679.500098	11668.146308
679.838842	11614.788215
680.177535	11644.795683
680.516179	11701.160824
680.854771	11651.296251
681.193314	11865.502439
681.531805	12029.468489
681.870247	12456.580248
682.208638	12859.612937
682.546978	13170.606759
682.885268	13215.974623
683.223508	12911.713262
683.561697	12752.881627
683.899836	12656.172132
684.237925	12453.212758
684.575963	12374.643854
684.913951	12301.577371
685.251889	12235.676887
685.589776	12339.963237
685.927614	12251.831264
686.265401	12222.955535
686.603137	12280.200358
686.940824	12432.516301
687.278460	12562.580590
687.616046	12598.622320
687.953582	12762.064089
688.291068	12691.679499
688.628504	12921.828337
688.965889	12939.318620
689.303224	12900.146334
689.640510	12789.372020
689.977745	12480.634114
690.314930	12258.362079
690.652065	12164.324395
690.989150	11880.315870
691.326185	11644.372226
691.663170	11442.322780
692.000105	11204.539115
692.336990	11086.036711
692.673825	10835.052785
693.010610	10718.675228
693.347345	10506.450212
693.684030	10311.420573
694.020665	10245.938505
694.357251	10050.719822
694.693786	9993.590946
695.030272	9836.614457
695.366707	9712.092916
695.703093	9642.467019
696.039429	9649.325509
696.375716	9564.210667
696.711952	9434.509341
697.048139	9481.008944
697.384276	9427.461808
697.720363	9451.049367
698.056400	9381.678048
698.392388	9338.261111
698.728326	9299.802148
699.064214	9237.826203
699.400053	9279.060321
699.735842	9092.106610
700.071581	9052.760404
700.407270	8972.918609
700.742910	8898.417917
701.078501	8805.239750
701.414042	8681.055966
701.749533	8613.355791
702.084974	8477.658012
702.420366	8590.360567
702.755709	8469.725756
703.091002	8344.115326
703.426246	8370.271352
703.761440	8323.156728
704.096584	8275.628730
704.431679	8207.474851
704.766725	8201.455713
705.101721	8151.702045
705.436668	8190.186213
705.771565	8084.364833
706.106413	8165.285434
706.441212	8202.111063
706.775961	8162.487594
707.110661	8198.620064
707.445311	8341.854368
707.779913	8240.675890
708.114465	8367.718008
708.448967	8409.612517
708.783421	8552.826657
709.117825	8735.013957
709.452180	8765.570911
709.786485	8859.454839
710.120742	9148.965784
710.454949	9141.459506
710.789107	9243.477336
711.123216	9459.329462
711.457275	9634.862439
711.791286	9780.551785
712.125247	9784.640161
712.459159	9766.605433
712.793023	10016.941571
713.126837	9590.386859
713.460602	9743.595086
713.794318	9570.744003
714.127985	9598.009083
714.461602	9269.580431
714.795171	9221.674346
715.128691	8976.903642
715.462162	8722.983243
715.795584	8670.779574
716.128957	8515.454063
716.462281	8344.866458
716.795556	8400.208244
717.128782	8191.234773
717.461960	7928.583096
717.795088	7997.417532
718.128167	7904.864467
718.461198	7741.009323
718.794180	7680.611259
719.127113	7675.650764
719.459997	7518.765015
719.792833	7288.280941
720.125619	7351.524736
720.458357	7213.939045
720.791046	7201.709206
721.123686	7190.757299
721.456278	7035.399020
721.788821	7051.898716
722.121315	6951.806607
722.453761	7018.475866
722.786158	6962.559388
723.118506	6977.156049
723.450805	6936.655419
723.783056	7001.371231
724.115259	6919.530619
724.447412	6911.147180
724.779518	6963.643236
725.111574	6958.438244
725.443582	7041.289608
725.775542	7019.083325
726.107453	7217.586320
726.439315	7119.472863
726.771129	7183.790424
727.102895	7356.810386
727.434612	7464.915410
727.766281	7502.368662
728.097901	7578.361536
728.429473	7577.217194
728.760996	7554.408493
729.092471	7528.224740
729.423897	7468.761810
729.755276	7484.303687
730.086606	7403.156234
730.417887	7505.484095
730.749120	7707.427677
731.080305	7896.065133
731.411442	8021.287395
731.742530	8012.697269
732.073570	8121.949155
732.404562	8207.396713
732.735506	8055.617653
733.066401	8196.096966
733.397249	8125.183055
733.728048	7884.067187
734.058798	7551.600571
734.389501	7321.330745
734.720156	7148.686349
735.050762	6914.620535
735.381320	6823.078223
735.711831	6768.711899
736.042293	6663.659294
736.372707	6681.820051
736.703073	6545.711417
737.033391	6575.734009
737.363661	6596.518686
737.693883	6623.826617
738.024056	6705.967178
738.354182	6746.182982
738.684260	6779.134484
739.014290	6895.413739
739.344272	7017.361771
739.674207	7040.752725
740.004093	7106.650688
740.333931	7124.912268
740.663722	7132.942826
740.993464	7207.559465
741.323159	7195.490942
741.652806	6944.819567
741.982405	6965.964687
742.311956	7017.402100
742.641460	6852.722728
742.970915	6658.106463
743.300323	6649.748230
743.629683	6593.718325
743.958996	6463.344005
744.288260	6371.985694
744.617477	6322.368137
744.946647	6326.791750
745.275768	6157.577859
745.604842	6110.853925
745.933869	6094.739877
746.262847	6054.335028
746.591778	6044.509820
746.920662	6000.704713
747.249498	5994.700699
747.578286	6044.794645
747.907027	6114.901971
748.235720	6176.270458
748.564365	6146.978833
748.892963	6177.946641
749.221514	6327.991544
749.550017	6159.382592
749.878473	6034.588829
750.206881	6096.196770
750.535242	6035.155959
750.863555	5962.964115
751.191821	5984.920861
751.520039	5982.165870
751.848210	5888.470985
752.176334	5914.400159
752.504411	5961.781964
752.832440	5883.018977
753.160421	5817.181508
753.488356	5862.811512
753.816243	5898.475154
754.144082	5748.067288
754.471875	5722.922013
754.799620	5761.985914
755.127318	5774.934118
755.454969	5729.510801
755.782572	5694.134504
756.110129	5742.282564
756.437638	5725.780347
756.765100	5661.399771
757.092515	5665.473024
757.419882	5717.255756
757.747203	5690.159554
758.074477	5756.135655
758.401703	5741.932204
758.728882	5695.356984
759.056014	5752.652218
759.383099	5882.134254
759.710138	5895.909207
760.037129	5877.393049
760.364073	5883.868411
760.690970	5961.116532
761.017820	5943.414520
761.344623	5898.296193
761.671379	6000.518191
761.998088	6123.988651
762.324751	6371.723554
762.651366	6983.908674
762.977935	8305.484964
763.304456	9938.846536
763.630931	10838.566469
763.957359	10425.310321
764.283740	9475.037697
764.610074	8630.183162
764.936362	7640.609703
765.262602	7040.810698
765.588796	6502.710375
765.914943	6170.442884
766.241044	6006.872565
766.567097	5799.199712
766.893104	5542.536925
767.219064	5363.311303
767.544978	5301.358043
767.870845	5222.852154
768.196665	5117.484477
768.522438	5049.476791
768.848165	5016.996637
769.173846	4950.040032
769.499479	4900.472886
769.825066	4853.862378
770.150607	4782.923261
770.476101	4763.343419
770.801548	4764.681846
771.126949	4686.821225
771.452303	4629.541114
771.777611	4592.229014
772.102872	4610.374647
772.428087	4567.875200
772.753256	4530.338768
773.078378	4486.374865
773.403453	4415.332405
773.728482	4402.038882
774.053465	4354.024412
774.378401	4343.813555
774.703291	4340.536805
775.028135	4268.874283
775.352932	4224.108837
775.677683	4207.926733
776.002388	4229.679312
776.327046	4237.677102
776.651658	4167.070701
776.976224	4099.594857
777.300743	4109.324284
777.625216	4128.019403
777.949643	4121.357518
778.274024	4079.178184
778.598359	4035.267213
778.922647	4057.307138
779.246889	4049.949574
779.571086	4044.837844
779.895236	4023.203732
780.219339	4015.548740
780.543397	4011.969521
780.867409	4064.145463
781.191374	4075.122576
781.515294	4013.953215
781.839167	4007.934077
782.162995	4025.562992
782.486776	4012.645036
782.810511	4023.407899
783.134201	4016.458668
783.457844	3972.346052
783.781441	3919.615582
784.104993	3927.172272
784.428498	3942.580559
784.751958	3941.721042
785.075372	3921.558947
785.398739	3881.138976
785.722061	3897.794948
786.045337	3937.793983
786.368568	3967.791369
786.691752	3877.103532
787.014891	3934.242490
787.337983	4062.091193
787.661030	4222.949371
787.984031	4382.045666
788.306987	4552.335843
788.629897	4633.790807
788.952760	4587.160134
789.275579	4519.928785
789.598351	4456.266574
789.921078	4311.771981
790.243759	4110.884521
790.566395	4098.175772
790.888984	4091.697890
791.211529	3981.369717
791.534027	3921.747991
791.856480	3910.680137
792.178888	3852.185109
792.501249	3804.594096
792.823566	3812.627174
793.145836	3844.593131
793.468062	3789.873927
793.790241	3742.156885
794.112375	3775.085702
794.434464	3838.178263
794.756507	3862.383363
795.078505	3841.321422
795.400457	3878.570508
795.722364	4017.625696
796.044226	4121.491109
796.366042	4193.163714
796.687812	4174.473636
797.009538	4179.343390
797.331218	4136.836381
797.652852	4110.458544
797.974442	4087.985080
798.295986	4087.879216
798.617484	4007.820651
798.938938	3920.480140
799.260346	3966.299188
799.581709	3960.060760
799.903026	3882.270715
800.224299	3850.060262
800.545526	3839.872090
800.866708	3802.391112
801.187845	3739.195207
801.508936	3774.700053
801.829983	3773.656535
802.150984	3693.991180
802.471940	3686.099254
802.792851	3693.547559
803.113717	3696.206768
803.434538	3698.588713
803.755314	3639.524034
804.076045	3617.330354
804.396731	3637.487407
804.717372	3659.870131
805.037967	3643.360352
805.358518	3631.115389
805.679024	3662.191582
805.999485	3680.513656
806.319901	3678.850075
806.640272	3693.325748
806.960598	3709.288562
807.280879	3683.828214
807.601115	3696.418496
807.921306	3711.526834
808.241453	3751.304058
808.561554	3727.756829
808.881611	3665.175945
809.201623	3696.305070
809.521590	3709.666648
809.841513	3683.248482
810.161390	3711.284859
810.481223	3690.348947
810.801011	3633.328456
811.120755	3627.329482
811.440453	3664.840708
811.760107	3667.167201
812.079716	3623.473000
812.399281	3591.610387
812.718801	3614.817339
813.038276	3586.226435
813.357707	3587.269953
813.677093	3602.534567
813.996434	3546.960887
814.315731	3558.951272
814.634983	3564.456212
814.954191	3577.021288
815.273354	3606.219651
815.592473	3601.564145
815.911547	3607.013632
816.230577	3652.497443
816.549562	3700.295143
816.868502	3741.740990
817.187399	3764.216974
817.506250	3765.368878
817.825058	3738.108838
818.143821	3830.888754
818.462539	3934.378602
818.781213	3977.160354
819.099843	4038.266700
819.418429	4287.806336
819.736970	4527.341802
820.055466	4777.660296
820.373919	5144.673940
820.692327	5552.450354
821.010691	6011.248287
821.329011	7412.142091
821.647286	10194.148211
821.965517	14800.681499
822.283704	18832.936623
822.601847	20950.395158
822.919945	19088.649152
823.237999	16492.704458
823.556010	13992.564373
823.873976	11885.979606
824.191897	9790.109812
824.509775	8441.727188
824.827609	7311.177861
825.145398	6775.898064
825.463144	6659.379354
825.780845	6774.731037
826.098502	6969.793443
826.416116	7869.284004
826.733685	9207.057520
827.051210	10315.811418
827.368692	10332.669036
827.686129	9047.736894
828.003522	7536.744290
828.320872	6518.532036
828.638177	5817.647814
828.955439	5257.676445
829.272656	4758.274539
829.589830	4478.598886
829.906960	4301.447698
830.224046	4116.044142
830.541088	3991.343640
830.858086	3944.602062
831.175041	3865.745812
831.491952	3852.048997
831.808819	3863.903271
832.125642	3937.791463
832.442421	4088.731171
832.759157	4366.634859
833.075849	4924.030198
833.392497	5800.288601
833.709101	6581.402787
834.025662	6903.146869
834.342179	6527.291041
834.658653	5858.314802
834.975083	5208.061409
835.291469	4633.158142
835.607811	4223.730750
835.924110	4087.002055
836.240366	3885.819687
836.556578	3679.192873
836.872746	3572.930391
837.188871	3533.246428
837.504952	3464.152374
837.820990	3385.490209
838.136984	3336.840554
838.452935	3364.307281
838.768842	3359.414841
839.084706	3380.171792
839.400526	3542.917882
839.716303	3887.120305
840.032037	4417.520266
840.347727	4675.922250
840.663373	4389.970360
840.978977	4002.570290
841.294537	3693.630738
841.610054	3467.280410
841.925527	3360.707897
842.240957	3291.323976
842.556344	3236.193917
842.871687	3177.371214
843.186987	3129.525622
843.502244	3093.325097
843.817458	3058.770508
844.132629	3027.858152
844.447756	3035.999616
844.762840	3019.056298
845.077881	2988.706031
845.392879	2972.213896
845.707833	2968.299440
846.022745	2967.780201
846.337613	2967.013946
846.652438	2955.051288
846.967221	2953.032306
847.281960	2939.844647
847.596656	2935.761313
847.911309	2937.104780
848.225919	2929.386774
848.540485	2923.624735
848.855009	2923.055084
849.169490	2912.750966
849.483928	2904.309554
849.798323	2906.144534
850.112675	2900.097670
850.426984	2912.811460
850.741251	2909.474216
851.055474	2895.787483
851.369654	2892.036865
851.683792	2900.085067
851.997887	2907.437590
852.311938	2908.392888
852.625947	2895.767319
852.939914	2897.846795
853.253837	2905.471540
853.567718	2890.527039
853.881555	2888.941596
854.195350	2906.086561
854.509103	2896.231105
854.822812	2891.472256
855.136479	2890.111144
855.450103	2892.344375
855.763685	2882.849362
856.077224	2882.047818
856.390720	2894.164232
856.704173	2903.560943
857.017584	2894.781773
857.330953	2895.182545
857.644278	2901.967938
857.957561	2908.720563
858.270802	2916.494023
858.584000	2911.203332
858.897155	2901.052968
859.210268	2901.100859
859.523339	2898.469377
859.836367	2900.243863
860.149352	2891.502503
860.462295	2887.308263
860.775195	2896.054664
861.088054	2893.103069
861.400869	2876.469782
861.713642	2877.374669
862.026373	2892.770353
862.339062	2893.027452
862.651708	2899.754871
862.964312	2904.952301
863.276873	2894.852349
863.589392	2906.368865
863.901869	2919.987542
864.214303	2942.188784
864.526696	2956.757718
864.839045	2951.338478
865.151353	2949.138014
865.463619	2949.322017
865.775842	2950.940227
866.088023	2969.801704
866.400162	2974.003506
866.712258	2946.083075
867.024313	2936.134358
867.336325	2942.808846
867.648296	2967.182825
867.960224	2959.048923
868.272110	2944.174998
868.583954	2949.536266
868.895755	2961.758543
869.207515	2947.323199
869.519233	2954.844601
869.830909	2965.768781
870.142542	2975.092395
870.454134	2975.011737
870.765684	2978.437201
871.077191	2977.396202
871.388657	2986.976915
871.700081	2998.417814
872.011463	3011.078672
872.322803	3010.919875
872.634101	3013.475740
872.945357	3026.819675
873.256571	3054.309087
873.567744	3043.735266
873.878874	3037.091026
874.189963	3061.704459
874.501010	3060.769325
874.812015	3053.187430
875.122979	3053.361350
875.433900	3047.485885
875.744780	3055.244221
876.055618	3065.795356
876.366415	3058.750343
876.677169	3073.846078
876.987882	3067.862229
877.298554	3063.945252
877.609183	3084.167841
877.919771	3107.493260
878.230317	3131.758854
878.540822	3184.685928
878.851285	3225.529356
879.161707	3269.861263
879.472087	3374.891183
879.782425	3607.573201
880.092722	4046.887073
880.402977	4583.066717
880.713191	5220.313933
881.023363	6405.169089
881.333494	7689.035027
881.643583	8234.664314
881.953631	7922.223681
882.263637	7279.073273
882.573602	6684.232243
882.883526	6102.208346
883.193408	5528.504874
883.503248	5065.704265
883.813048	4758.314868
884.122806	4450.282724
884.432522	4130.063591
884.742197	3896.179258
885.051831	3699.193651
885.361424	3568.383271
885.670975	3496.642610
885.980485	3410.098602
886.289954	3333.480625
886.599382	3288.132925
886.908768	3249.348808
887.218113	3202.904658
887.527417	3145.347284
887.836680	3095.253338
888.145901	3090.673450
888.455082	3082.083324
888.764221	3031.301260
889.073319	2999.143740
889.382376	2999.279851
889.691392	3006.345028
890.000366	3002.579286
890.309300	2990.871207
890.618193	3002.947291
890.927044	3019.862882
891.235855	3018.015299
891.544625	3003.199348
891.853353	3015.923221
892.162041	3035.797970
892.470687	3074.791295
892.779293	3127.904892
893.087858	3175.392561
893.396381	3249.464755
893.704864	3372.615102
894.013306	3613.856999
894.321707	3920.278494
894.630068	4124.891367
894.938387	4118.491622
895.246665	4073.043100
895.554903	3948.226651
895.863100	3747.006475
896.171256	3578.631936
896.479371	3440.680761
896.787446	3313.371462
897.095480	3212.071996
897.403473	3146.627737
897.711425	3110.601131
898.019336	3102.636108
898.327207	3068.797363
898.635038	3036.138248
898.942827	3020.671988
899.250576	3010.367869
899.558284	2978.774958
899.865952	2957.216463
900.173579	2935.501693
900.481165	2928.897782
900.788711	2917.905546
901.096216	2894.930487
901.403681	2879.507077
901.711105	2889.730537
902.018489	2887.162069
902.325832	2886.668036
902.633135	2897.526681
902.940397	2932.247628
903.247619	3018.806761
903.554800	3212.152655
903.861941	3563.684915
904.169041	3998.484434
904.476101	4292.855052
904.783121	4242.083071
905.090100	3992.634175
905.397039	3713.359293
905.703938	3464.976602
906.010796	3281.778551
906.317614	3164.881755
906.624391	3072.631160
906.931129	2999.547032
907.237826	2934.309460
907.544483	2892.538460
907.851099	2862.069726
908.157675	2838.787157
908.464211	2819.386276
908.770707	2805.220634
909.077163	2793.507513
909.383578	2777.955553
909.689954	2766.502052
909.996289	2764.785539
910.302584	2765.221599
910.608839	2768.286620
910.915054	2759.462080
911.221229	2752.706934
911.527363	2756.472676
911.833458	2762.736310
912.139513	2765.183790
912.445527	2771.593617
912.751502	2780.365225
913.057436	2788.700773
913.363331	2802.581590
913.669186	2820.709579
913.975000	2862.684747
914.280775	2920.771442
914.586510	2991.108141
914.892205	3070.695357
915.197859	3205.664690
915.503475	3400.817837
915.809050	3613.050414
916.114585	3760.975512
916.420081	3779.421094
916.725536	3719.446487
917.030952	3600.160184
917.336328	3468.903661
917.641665	3336.119669
917.946961	3234.815162
918.252218	3163.114831
918.557435	3085.778489
918.862612	3025.887061
919.167750	2974.565594
919.472848	2936.583021
919.777906	2912.153589
920.082925	2887.109137
920.387904	2855.551514
920.692843	2836.687516
920.997743	2826.751402
921.302603	2812.270687
921.607423	2801.033956
921.912204	2786.268416
922.216946	2775.825666
922.521647	2767.323760
922.826310	2757.972419
923.130932	2754.841863
923.435516	2743.206880
923.740059	2736.920561
924.044564	2725.572924
924.349028	2721.676112
924.653454	2713.368290
924.957840	2709.451314
925.262186	2703.855633
925.566493	2701.622402
925.870761	2696.538398
926.174989	2691.761905
926.479178	2690.080680
926.783328	2683.812005
927.087438	2684.308559
927.391509	2680.820080
927.695541	2677.961746
927.999533	2673.598627
928.303486	2671.587207
928.607400	2671.758606
928.911275	2672.146775
929.215110	2669.048986
929.518906	2666.664520
929.822663	2669.353976
930.126381	2667.728204
930.430060	2669.240550
930.733699	2669.432114
931.037299	2668.731393
931.340861	2673.212979
931.644383	2672.139213
931.947866	2670.954542
932.251309	2668.242402
932.554714	2669.343894
932.858080	2666.704850
933.161407	2665.124448
933.464694	2664.196876
933.767943	2658.011380
934.071153	2661.698984
934.374323	2662.019097
934.677455	2660.849549
934.980548	2661.686381
935.283602	2662.936587
935.586617	2659.990033
935.889593	2661.217554
936.192530	2659.871566
936.495428	2661.860301
936.798287	2664.007832
937.101108	2665.368944
937.403890	2671.178874
937.706632	2673.782630
938.009336	2680.764628
938.312002	2690.670495
938.614628	2697.692822
938.917216	2703.853112
939.219765	2704.899152
939.522275	2703.011240
939.824747	2701.662731
940.127179	2700.384798
940.429573	2696.969417
940.731929	2695.593182
941.034246	2690.196627
941.336524	2688.648992
941.638763	2685.556244
941.940964	2682.760925
942.243126	2680.595749
942.545250	2681.576253
942.847335	2675.945285
943.149381	2673.248267
943.451389	2667.917247
943.753359	2665.966321
944.055290	2667.085457
944.357182	2665.883142
944.659036	2664.713594
944.960851	2666.006650
945.262628	2663.307112
945.564367	2662.308963
945.866067	2663.455826
946.167729	2663.907009
946.469352	2664.499345
946.770937	2662.119920
947.072484	2662.896258
947.373992	2660.796617
947.675462	2659.944662
947.976893	2654.099444
948.278286	2656.168838
948.579641	2654.641368
948.880958	2653.000473
949.182236	2655.188334
949.483476	2650.568116
949.784678	2652.057777
950.085841	2656.090700
950.386967	2655.072387
950.688054	2655.112716
950.989103	2656.549445
951.290114	2657.209836
951.591087	2657.953407
951.892021	2659.722852
952.192917	2660.347955
952.493776	2664.476660
952.794596	2667.450940
953.095378	2663.410456
953.396122	2665.494973
953.696828	2664.983296
953.997496	2661.817451
954.298126	2659.564055
954.598718	2658.104641
954.899272	2658.023983
955.199788	2652.377890
955.500266	2649.695997
955.800706	2646.134421
956.101108	2646.222642
956.401472	2643.344143
956.701798	2640.652167
957.002087	2641.037815
957.302337	2640.450520
957.602550	2640.158133
957.902724	2638.630664
958.202861	2634.091105
958.502960	2636.198307
958.803022	2634.232257
959.103045	2636.533544
959.403031	2632.591362
959.702979	2630.249746
960.002889	2632.430045
960.302762	2630.935343
960.602596	2629.707822
960.902393	2627.346041
961.202153	2629.493572
961.501875	2629.090280
961.801559	2629.009622
962.101205	2628.573562
962.400814	2627.643469
962.700385	2626.294960
962.999918	2625.891668
963.299414	2622.037706
963.598873	2626.181534
963.898293	2620.593415
964.197677	2625.619446
964.497022	2624.371760
964.796331	2627.567852
965.095601	2624.477624
965.394835	2626.831843
965.694030	2626.685650
965.993189	2626.156329
966.292309	2625.337141
966.591393	2626.355454
966.890439	2623.686163
967.189447	2626.771349
967.488419	2626.312604
967.787353	2626.068108
968.086249	2625.944600
968.385108	2626.985598
968.683930	2626.499127
968.982714	2623.547532
969.281462	2625.198509
969.580172	2625.311935
969.878844	2624.631380
970.177480	2623.892851
970.476078	2623.935700
970.774639	2626.902419
971.073162	2622.735906
971.371649	2626.383181
971.670098	2625.233797
971.968510	2624.293622
972.266885	2628.089611
972.565223	2627.645990
972.863524	2625.168262
973.161788	2625.712707
973.460014	2622.675412
973.758204	2627.809827
974.056356	2623.817233
974.354471	2626.741102
974.652550	2625.533746
974.950591	2626.836884
975.248595	2627.189765
975.546563	2624.598612
975.844493	2625.879065
976.142386	2623.665999
976.440243	2623.139198
976.738062	2624.414610
977.035845	2624.918725
977.333590	2624.951493
977.631299	2622.960237
977.928971	2619.622993
978.226606	2618.662653
978.524204	2623.391256
978.821765	2618.443363
979.119290	2621.962089
979.416777	2623.882768
979.714228	2624.583489
980.011642	2624.510392
980.309020	2625.826133
980.606360	2625.992491
980.903664	2623.842439
981.200931	2625.874024
981.498162	2623.255145
981.795356	2627.827471
982.092513	2627.209930
982.389633	2631.562966
982.686717	2633.886938
982.983764	2636.228554
983.280775	2640.841210
983.577749	2641.799029
983.874686	2640.644605
984.171587	2638.950777
984.468451	2635.860550
984.765279	2634.408697
985.062070	2631.459622
985.358824	2629.385188
985.655543	2627.915691
985.952224	2626.912502
986.248869	2626.047944
986.545478	2626.458798
986.842050	2621.831019
987.138586	2623.504682
987.435086	2622.526698
987.731549	2623.464352
988.027975	2621.788169
988.324366	2619.875051
988.620719	2619.081069
988.917037	2621.949486
989.213318	2621.400000
989.509563	2620.512757
989.805772	2621.634414
990.101944	2617.389762
990.398080	2619.968312
990.694180	2620.089300
990.990244	2619.197016
991.286271	2619.065946
991.582262	2618.939917
991.878217	2619.738940
992.174136	2623.003087
992.470019	2618.929835
992.765865	2620.255658
993.061676	2620.114506
993.357450	2618.400513
993.653188	2617.198198
993.948890	2620.795062
994.244556	2620.356481
994.540186	2622.446039
994.835780	2618.561830
995.131337	2618.246758
995.426859	2622.357819
995.722345	2622.496451
996.017795	2621.722634
996.313208	2624.901081
996.608586	2622.567027
996.903928	2624.964096
997.199234	2625.758077
997.494504	2623.363529
997.789738	2625.241359
998.084936	2623.986112
998.380099	2621.775566
998.675225	2621.284053
998.970316	2621.581482
999.265371	2622.627521
999.560390	2621.289095
999.855373	2621.117695
1000.150320	2620.515277
1000.445232	2619.605349
1000.740108	2619.544855
1001.034948	2618.592077
1001.329752	2618.042592
1001.624521	2618.564351
1001.919254	2619.461676
1002.213951	2621.568879
1002.508613	2617.430091
1002.803239	2617.445215
1003.097829	2617.861110
1003.392384	2617.891357
1003.686903	2618.738271
1003.981386	2619.383538
1004.275834	2615.360698
1004.570246	2617.228445
1004.864623	2619.005452
1005.158964	2619.988477
1005.453270	2618.440843
1005.747540	2618.173662
1006.041775	2617.225925
1006.335974	2619.176851
1006.630138	2618.718106
1006.924266	2618.007303
1007.218359	2619.696090
1007.512416	2613.447580
1007.806438	2613.671911
1008.100425	2616.295832
1008.394376	2610.064966
1008.688292	2616.215173
1008.982172	2615.995883
1009.276017	2618.617283
1009.569827	2617.742643
1009.863602	2617.561161
1010.157341	2616.699124
1010.451045	2616.762138
1010.744714	2617.241048
1011.038347	2618.347581
1011.331945	2616.817591
1011.625508	2615.043105
1011.919036	2616.174844
1012.212528	2619.292798
1012.505986	2616.580657
1012.799408	2616.631068
1013.092795	2615.975718
1013.386147	2615.637961
1013.679464	2615.365739
1013.972745	2617.354474
1014.265992	2616.016048
1014.559204	2614.954885
1014.852380	2616.182406
1015.145521	2616.764659
1015.438628	2617.994701
1015.731699	2615.847169
1016.024736	2617.115019
1016.317737	2618.070318
1016.610703	2616.174844
1016.903635	2618.382869
1017.196531	2616.578136
1017.489393	2616.268105
1017.782219	2614.216356
1018.075011	2614.952364
1018.367768	2617.200719
1018.660490	2616.338682
1018.953177	2616.338682
1019.245829	2616.338682
