Dividing Wavelength (nm)	Counts (n)	Blue Motor Position (mm): 29.700000	Red Motor Position (mm): 0.000000	
326.493990	2208.118646
326.888308	2208.118646
327.282561	2208.118646
327.676750	2171.444252
328.070874	2167.313026
328.464933	2170.957780
328.858929	2171.524910
329.252859	2178.837104
329.646726	2185.493948
330.040528	2196.667665
330.434265	2208.955478
330.827938	2229.621688
331.221547	2246.880078
331.615091	2264.987903
332.008571	2279.211518
332.401986	2299.602985
332.795338	2317.446149
333.188625	2338.777792
333.581847	2359.416276
333.975006	2376.599049
334.368100	2394.981616
334.761129	2411.047773
335.154095	2431.688778
335.546996	2455.972016
335.939833	2493.795793
336.332606	2507.984121
336.725315	2524.176307
337.117960	2532.053110
337.510540	2546.206149
337.903056	2556.117058
338.295508	2569.821434
338.687896	2574.212279
339.080220	2581.214442
339.472480	2590.343972
339.864676	2594.593664
340.256807	2599.561722
340.648875	2605.868205
341.040879	2606.122783
341.432818	2610.551437
341.824694	2612.658639
342.216506	2614.695265
342.608253	2613.319030
342.999937	2611.544544
343.391557	2614.559154
343.783113	2611.534462
344.174605	2612.071345
344.566033	2613.361880
344.957397	2611.612600
345.348697	2610.170830
345.739934	2606.367279
346.131106	2608.645881
346.522215	2604.285283
346.913260	2601.623553
347.304241	2601.000971
347.695159	2600.149016
348.086012	2600.287648
348.476802	2596.899992
348.867528	2595.037286
349.258191	2586.512695
349.648789	2589.207192
350.039324	2582.845255
350.429796	2588.743405
350.820203	2587.102510
351.210548	2583.551017
351.600828	2585.401120
351.991045	2580.269226
352.381198	2582.512539
352.771288	2582.520101
353.161314	2580.301993
353.551276	2578.608166
353.941175	2580.879205
354.331010	2579.283680
354.720782	2577.423494
355.110490	2578.088927
355.500135	2580.586818
355.889717	2578.860223
356.279235	2580.054977
356.668689	2580.874164
357.058080	2578.497260
357.447408	2579.366859
357.836672	2581.320306
358.225873	2582.018506
358.615010	2581.486664
359.004084	2580.271746
359.393095	2583.034299
359.782043	2582.759556
360.170927	2583.989597
360.559748	2581.753846
360.948505	2584.755853
361.337199	2584.939855
361.725830	2586.089238
362.114398	2585.595205
362.502903	2583.180492
362.891344	2586.641244
363.279722	2584.831470
363.668037	2587.142839
364.056289	2589.396235
364.444478	2587.498240
364.832603	2588.153590
365.220665	2590.835484
365.608665	2590.427151
365.996601	2590.222984
366.384474	2591.165680
366.772284	2591.710124
367.160031	2590.137284
367.547715	2594.424786
367.935336	2592.476380
368.322893	2592.733479
368.710388	2588.977819
369.097820	2590.648962
369.485189	2593.109045
369.872495	2590.742223
370.259738	2594.097111
370.646918	2593.908067
371.034035	2597.020980
371.421090	2595.964858
371.808081	2596.327821
372.195010	2596.153902
372.581875	2596.252204
372.968678	2598.029211
373.355418	2596.171546
373.742096	2598.203131
374.128710	2596.461412
374.515262	2598.581217
374.901751	2596.776484
375.288177	2597.603233
375.674540	2598.800507
376.060841	2598.288830
376.447079	2596.940322
376.833254	2601.527772
377.219367	2599.493666
377.605417	2599.508789
377.991404	2599.861670
378.377329	2599.980137
378.763191	2599.047524
379.148991	2601.933584
379.534727	2603.067844
379.920402	2600.622884
380.306013	2602.677155
380.691563	2602.828389
381.077049	2604.149172
381.462474	2602.931733
381.847835	2603.032556
382.233134	2603.070365
382.618371	2602.536002
383.003545	2604.451641
383.388657	2604.507093
383.773706	2605.099429
384.158693	2606.505911
384.543618	2605.661518
384.928480	2606.984821
385.313280	2606.286621
385.698017	2607.874584
386.082692	2607.746035
386.467305	2608.058586
386.851856	2608.960953
387.236344	2606.778133
387.620770	2605.837958
388.005133	2602.442741
388.389435	2606.636981
388.773674	2604.166816
389.157851	2609.086982
389.541965	2608.557661
389.926018	2609.943978
390.310008	2609.999431
390.693936	2611.998248
391.077802	2609.722167
391.461606	2611.300048
391.845348	2611.978083
392.229027	2612.121756
392.612645	2611.174019
392.996200	2612.209977
393.379694	2614.549072
393.763125	2614.470934
394.146494	2612.900615
394.529801	2616.631068
394.913047	2613.059411
395.296230	2613.518156
395.679351	2615.426233
396.062410	2619.013014
396.445408	2614.004627
396.828343	2616.313476
397.211217	2617.268774
397.594028	2614.801130
397.976778	2616.459669
398.359466	2617.518312
398.742092	2615.703496
399.124656	2616.658795
399.507158	2617.220883
399.889598	2618.556789
400.271977	2619.968312
400.654294	2619.953189
401.036549	2619.938065
401.418742	2617.528394
401.800874	2618.347581
402.182944	2620.825308
402.564952	2619.645678
402.946898	2623.179527
403.328783	2624.490227
403.710606	2618.216511
404.092367	2624.419651
404.474067	2622.836729
404.855705	2621.463014
405.237282	2623.900412
405.618797	2624.974178
406.000250	2624.596092
406.381642	2624.344034
406.762972	2622.975361
407.144240	2624.041565
407.525447	2623.872686
407.906593	2622.604836
408.287677	2626.294960
408.668700	2629.312091
409.049661	2627.918212
409.430560	2630.428707
409.811399	2628.245887
410.192176	2630.537091
410.572891	2629.213788
410.953545	2632.586320
411.334138	2631.016001
411.714669	2632.732514
412.095139	2633.153450
412.475547	2633.125724
412.855894	2634.733852
413.236180	2635.288379
413.616405	2634.895169
413.996568	2635.071609
414.376670	2635.174953
414.756711	2637.113277
415.136691	2635.895838
415.516609	2638.363483
415.896466	2638.955818
416.276262	2638.567649
416.655997	2641.710809
417.035670	2639.633853
417.415283	2638.902886
417.794834	2643.298772
418.174324	2643.810449
418.553753	2642.938330
418.933121	2644.236427
419.312428	2645.093423
419.691674	2644.206180
420.070859	2648.914618
420.449983	2648.387817
420.829045	2648.065183
421.208047	2647.679535
421.586988	2649.910246
421.965867	2652.579537
422.344686	2653.910401
422.723444	2655.914260
423.102141	2652.907212
423.480777	2658.802841
423.859352	2659.291833
424.237866	2662.482883
424.616319	2666.104952
424.994712	2672.129131
425.373044	2675.453772
425.751314	2682.834021
426.129524	2683.023065
426.507673	2695.678881
426.885762	2700.699871
427.263789	2717.645709
427.641756	2730.598954
428.019662	2742.385172
428.397508	2762.350662
428.775292	2781.554937
429.153016	2805.994451
429.530679	2828.969510
429.908282	2856.186699
430.285824	2876.081613
430.663305	2936.159564
431.040726	2949.569033
431.418086	2987.730568
431.795385	3050.878581
432.172624	3103.672065
432.549802	3150.335506
432.926920	3209.997561
433.303977	3251.703027
433.680974	3339.159485
434.057910	3417.067997
434.434786	3491.533401
434.811601	3550.918193
435.188355	3693.063608
435.565050	3737.259404
435.941683	3807.170125
436.318257	3977.838389
436.694770	4087.816201
437.071222	4199.008932
437.447614	4265.738685
437.823946	4339.647042
438.200218	4479.597034
438.576429	4529.779200
438.952580	4688.510011
439.328670	4819.267460
439.704700	4865.406620
440.080670	4968.387311
440.456580	5249.560187
440.832429	5288.636691
441.208218	5266.059884
441.583947	5490.807125
441.959616	5666.128374
442.335224	5715.372885
442.710773	5886.688937
443.086261	6101.898315
443.461689	5914.687505
443.837057	6308.101672
444.212365	6562.750517
444.587612	6531.419746
444.962800	6769.669718
445.337927	6787.424662
445.712995	6685.381626
446.088002	7386.575879
446.462949	7325.247722
446.837837	7437.310051
447.212664	7580.458656
447.587431	7998.337542
447.962139	8542.262919
448.336786	10000.270475
448.711374	10571.919677
449.085901	9392.607270
449.460369	9268.995657
449.834776	9054.136639
450.209124	9752.666642
450.583412	10138.420776
450.957640	10948.055289
451.331808	10528.477534
451.705917	9921.119319
452.079965	9533.056337
452.453954	10323.713427
452.827883	10142.768771
453.201752	10481.889711
453.575562	10191.781389
453.949311	10622.623603
454.323001	10684.982676
454.696632	10964.184461
455.070202	11287.244285
455.443713	11588.417939
455.817164	12053.025801
456.190556	12160.107470
456.563888	12563.193091
456.937160	12817.836895
457.310373	12295.200311
457.683526	12445.398969
458.056619	12124.713529
458.429653	12295.933799
458.802628	11893.768189
459.175542	12259.519024
459.548398	13207.003889
459.921194	13562.410277
460.293930	13658.237570
460.666607	14547.804619
461.039224	15537.057965
461.411782	16248.286634
461.784280	16238.544605
462.156719	16331.909294
462.529099	16100.230467
462.901419	15111.380413
463.273680	14956.861486
463.645882	14839.029556
464.018024	14630.434172
464.390106	14854.090003
464.762130	15600.054744
465.134094	16327.170610
465.505999	18251.023632
465.877845	21444.092998
466.249631	24287.820486
466.621358	24071.980963
466.993026	22664.732785
467.364634	22149.110967
467.736184	20733.703681
468.107674	19959.485793
468.479105	20101.086764
468.850477	19575.627134
469.221790	19175.604014
469.593043	18504.785234
469.964238	17962.636864
470.335373	17650.992733
470.706449	18072.019820
471.077467	17606.212164
471.448425	19415.356250
471.819324	23360.086861
472.190164	25497.188252
472.560945	22034.709542
472.931667	19631.611668
473.302330	18984.037648
473.672934	18461.685889
474.043479	18853.829685
474.413965	18664.773813
474.784393	18302.874419
475.154761	18959.860274
475.525070	18993.666252
475.895321	18633.233834
476.265513	19204.651143
476.635645	19785.379463
477.005719	19576.098482
477.375734	19778.273957
477.745691	20248.570761
478.115588	20750.344529
478.485427	21259.508630
478.855207	22304.991005
479.224928	24053.069075
479.594591	26269.976972
479.964194	26371.261315
480.333739	26552.687401
480.703226	26113.287828
481.072653	25785.978312
481.442022	26346.506729
481.811333	27232.907933
482.180584	27198.862501
482.549777	26233.446251
482.918912	25870.082402
483.287988	25977.958053
483.657005	25699.739293
484.025964	25407.307000
484.394864	25354.314391
484.763706	25059.379164
485.132489	24469.042405
485.501213	24627.750531
485.869879	24558.414501
486.238487	24359.253636
486.607036	24498.437373
486.975527	24180.653117
487.343959	24531.093967
487.712333	24487.344314
488.080648	24153.635053
488.448905	24611.374343
488.817104	24360.493760
489.185244	25017.214953
489.553326	25003.717264
489.921350	25965.390457
490.289315	28220.787564
490.657222	30035.998679
491.025070	30527.826252
491.392861	30321.806897
491.760593	29481.484359
492.128267	28587.302134
492.495883	27558.342140
492.863440	26672.626533
493.230939	25804.007999
493.598380	25656.571893
493.965763	25256.211016
494.333088	24823.657331
494.700354	24715.796803
495.067563	24612.942141
495.434713	24373.809968
495.801805	24503.397868
496.168839	24338.148845
496.535815	24152.944415
496.902733	24369.567837
497.269593	24038.989132
497.636395	24235.543720
498.003139	24214.068405
498.369825	23969.794254
498.736453	24156.276617
499.103023	24037.436457
499.469535	24058.011926
499.835989	24261.740076
500.202385	24290.923316
500.568723	23784.012612
500.935003	24060.270363
501.301226	23655.410256
501.667390	24475.669002
502.033497	24724.341559
502.399546	24444.663385
502.765537	24031.185426
503.131470	24426.505149
503.497345	24550.207502
503.863163	23771.318986
504.228923	24391.022987
504.594625	24568.867333
504.960269	24096.168419
505.325856	24590.498924
505.691385	23998.145703
506.056856	24601.919658
506.422270	24562.412136
506.787625	24167.634337
507.152924	24561.166971
507.518164	24578.032151
507.883347	24386.317070
508.248472	24083.787346
508.613540	24871.124836
508.978550	24656.354038
509.343503	24636.078517
509.708398	24906.667491
510.073236	25069.632871
510.438016	25261.232005
510.802738	24949.981085
511.167403	25195.812952
511.532010	24899.188939
511.896561	25675.241806
512.261053	25640.530941
512.625488	25483.877086
512.989866	25383.003597
513.354186	25218.641817
513.718449	25329.345556
514.082655	25705.566867
514.446803	25446.633041
514.810894	25886.632510
515.174927	25383.419492
515.538904	25421.654124
515.902822	25890.597378
516.266684	25655.553580
516.630488	25563.015639
516.994235	25556.499948
517.357925	25841.118453
517.721558	26024.107296
518.085133	26118.762522
518.448651	26029.413111
518.812112	25756.510247
519.175516	25955.721524
519.538863	26109.610307
519.902152	25888.003704
520.265385	26192.774222
520.628560	25973.274822
520.991678	25979.679607
521.354739	26065.331332
521.717743	26120.068180
522.080690	25916.677787
522.443580	26246.157520
522.806413	26244.839259
523.169189	26345.087644
523.531908	26374.601079
523.894569	25999.793811
524.257174	26057.953603
524.619722	26263.793997
524.982213	25944.121829
525.344647	26009.303948
525.707025	26137.467723
526.069345	26120.363088
526.431608	26078.345071
526.793815	26269.883711
527.155964	25715.797889
527.518057	25898.940488
527.880093	25825.256462
528.242072	26051.359774
528.603995	25764.704643
528.965860	25559.277624
529.327669	25612.250068
529.689421	25594.129641
530.051117	25430.889518
530.412755	25598.636432
530.774337	25405.507308
531.135862	25271.468068
531.497331	25477.179913
531.858743	25020.174111
532.220098	25515.240624
532.581396	25188.677199
532.942638	25131.923889
533.303824	25226.848816
533.664953	25249.778504
534.026025	24900.600462
534.387040	25135.729960
534.747999	25205.683531
535.108902	25366.115732
535.469748	24853.054820
535.830537	25053.992691
536.191270	25155.934904
536.551947	25048.192844
536.912567	24702.407499
537.273131	25036.638519
537.633638	24745.287553
537.994089	24941.481699
538.354483	24492.307330
538.714821	24998.943291
539.075103	25046.342740
539.435328	24821.850077
539.795497	24378.029413
540.155609	24779.431288
540.515665	25072.135804
540.875665	24310.482993
541.235609	24598.610141
541.595496	24562.162599
541.955328	24912.520270
542.315102	24833.011192
542.674821	24388.467122
543.034483	24268.472537
543.394090	24433.945892
543.753640	24222.847574
544.113134	24859.331056
544.472571	24460.449758
544.831953	24752.070426
545.191278	24356.760785
545.550548	24278.950576
545.909761	24485.995805
546.268918	24726.751231
546.628019	24685.900240
546.987064	24392.968873
547.346053	24151.227902
547.704986	24274.073259
548.063863	24432.947743
548.422684	24425.350724
548.781449	23969.330468
549.140158	24373.923393
549.498811	23955.003509
549.857408	23691.953581
550.215949	24124.988696
550.574434	23806.261744
550.932864	24025.125959
551.291237	24174.023999
551.649555	24036.728174
552.007817	24094.048614
552.366022	23958.978459
552.724173	24012.323949
553.082267	23944.374236
553.440305	24415.157511
553.798288	23676.769625
554.156215	24199.978380
554.514086	24291.130003
554.871902	23666.284025
555.229661	23943.852477
555.587365	23808.925994
555.945014	23663.521473
556.302606	23933.407206
556.660143	23861.681669
557.017625	24126.566577
557.375050	23651.029494
557.732421	24038.573237
558.089735	23853.472150
558.446994	23915.932046
558.804197	23947.015801
559.161345	23889.463468
559.518437	23636.911742
559.875474	23837.484130
560.232455	24022.696123
560.589381	23835.760056
560.946251	23822.111132
561.303065	24143.018383
561.659825	24230.048863
562.016528	23835.152597
562.373177	23588.677982
562.729770	23933.790333
563.086307	23792.380927
563.442789	23963.036587
563.799216	23779.369709
564.155587	23796.620537
564.511904	23783.599237
564.868164	23718.013825
565.224370	23697.992883
565.580520	23616.215285
565.936615	23747.610440
566.292654	23423.554988
566.648638	23726.417429
567.004567	23544.903123
567.360441	23491.043435
567.716260	23234.201688
568.072023	23553.883938
568.427732	23318.386437
568.783385	23092.066355
569.138982	23331.790865
569.494525	23372.357030
569.850013	23109.899437
570.205445	23214.760478
570.560823	23002.855576
570.916145	22769.553497
571.271412	22942.565897
571.626625	22714.799004
571.981782	22823.481240
572.336884	22626.455304
572.691931	22759.403133
573.046923	22495.844049
573.401860	22379.645453
573.756743	22374.264021
574.111570	22289.741515
574.466342	22223.208366
574.821059	22307.567035
575.175722	22021.148838
575.530330	22009.297085
575.884882	22031.155528
576.239380	21945.541613
576.593823	21831.114982
576.948211	21808.727218
577.302544	21655.627375
577.656823	21514.795181
578.011047	21620.455245
578.365216	21485.957260
578.719330	21368.793283
579.073389	21265.217736
579.427394	21413.641908
579.781344	21188.294770
580.135239	21071.191287
580.489080	21042.386133
580.842866	20806.366872
581.196597	21000.332828
581.550273	20982.325827
581.903895	20876.764065
582.257463	21175.311278
582.610975	20710.378262
582.964434	21017.946620
583.317837	20727.717310
583.671186	20813.820218
584.024481	20784.475662
584.377721	20558.619366
584.730906	20618.195723
585.084037	20643.028446
585.437113	20543.848786
585.790135	20746.919065
586.143103	20215.420133
586.496016	20226.747606
586.848874	20467.621498
587.201679	20404.377703
587.554428	20069.761034
587.907124	20409.955739
588.259765	20186.246976
588.612352	20259.106772
588.964884	19827.639456
589.317362	19999.205045
589.669786	20055.633200
590.022155	20099.362689
590.374470	20289.063829
590.726731	20081.985832
591.078937	19840.378452
591.431090	19942.449214
591.783188	19686.416572
592.135232	19673.438121
592.487222	19760.539177
592.839157	19773.948647
593.191038	19663.222223
593.542866	19553.176355
593.894639	19267.983159
594.246358	19482.393514
594.598022	19388.486900
594.949633	19148.328852
595.301190	19110.374004
595.652692	19272.915928
596.004141	19511.987608
596.355535	18847.432461
596.706876	18859.115335
597.058162	18753.223378
597.409395	18966.764134
597.760573	19045.464107
598.111698	18832.992076
598.462768	18768.571171
598.813785	18725.607937
599.164748	18554.521258
599.515657	18587.687009
599.866511	18381.657572
600.217312	18738.402385
600.568060	18273.469369
600.918753	18576.331810
601.269392	18477.840267
601.619978	18256.397502
601.970510	18455.475187
602.320988	18410.475328
602.671412	18618.269169
603.021783	18528.193832
603.372100	18251.071522
603.722363	18382.239825
604.072572	18330.109253
604.422728	18472.282394
604.772830	18230.450683
605.122878	18189.166153
605.472872	18174.314914
605.822813	18161.510383
606.172701	18130.187174
606.522534	18322.144230
606.872314	18347.468466
607.222041	18185.279424
607.571714	18403.047188
607.921333	18234.458400
608.270899	18301.926683
608.620411	18488.950970
608.969870	18248.442561
609.319276	18253.990351
609.668627	18276.365512
610.017926	18424.721628
610.367171	18542.551038
610.716362	18577.725689
611.065500	18395.218276
611.414585	18535.211118
611.763616	18504.883536
612.112594	18453.642728
612.461518	18422.085105
612.810389	18627.146641
613.159207	18476.242221
613.507971	18387.681751
613.856682	18667.249019
614.205340	18597.444162
614.553945	18742.016893
614.902496	18489.986927
615.250994	18712.614363
615.599439	18667.521242
615.947830	18643.230442
616.296169	18702.214463
616.644454	18656.665117
616.992686	18622.813769
617.340864	18840.838632
617.688990	18598.863247
618.037063	18779.916287
618.385082	18626.876939
618.733048	18903.966481
619.080961	18771.921017
619.428821	18810.332089
619.776628	18701.352425
620.124382	18628.643863
620.472083	18671.092899
620.819731	18686.453295
621.167326	18381.168580
621.514868	18429.233461
621.862357	18188.984672
622.209793	18208.181386
622.557176	18027.922327
622.904506	17861.060135
623.251783	17766.646885
623.599007	17532.268519
623.946179	17470.234600
624.293297	17417.486487
624.640363	17169.373498
624.987376	17197.349381
625.334336	16977.169425
625.681243	16830.300449
626.028097	16837.937797
626.374899	16763.381652
626.721647	16630.282588
627.068343	16459.959643
627.414987	16398.238276
627.761577	16373.518978
628.108115	16420.810042
628.454600	16134.356557
628.801032	16235.847587
629.147412	16169.274110
629.493739	16184.279104
629.840014	15995.218191
630.186236	16093.152687
630.532405	15859.568302
630.878521	16050.686007
631.224585	15949.986438
631.570597	15766.233860
631.916556	15796.909281
632.262462	15780.523010
632.608316	15693.371543
632.954117	15641.089736
633.299866	15634.150588
633.645562	15560.532098
633.991206	15312.991279
634.336797	15185.992011
634.682336	15142.761596
635.027823	15041.046235
635.373257	14924.288071
635.718639	14818.118850
636.063968	14770.240491
636.409245	14517.224980
636.754470	14542.919741
637.099642	14392.090938
637.444762	14170.421322
637.789829	14211.879771
638.134845	14052.927149
638.479808	14086.274382
638.824719	14028.540567
639.169577	13882.679822
639.514383	13925.184310
639.859137	13736.519128
640.203839	13826.909537
640.548489	13667.790557
640.893086	13658.620698
641.237632	13529.055482
641.582125	13676.952854
641.926566	13504.681503
642.270955	13515.998894
642.615292	13482.505468
642.959576	13490.346983
643.303809	13524.132796
643.647990	13451.194861
643.992118	13518.252290
644.336195	13286.886013
644.680219	13505.818284
645.024192	13416.675560
645.368112	13659.603723
645.711981	13713.319738
646.055797	13891.509403
646.399562	13857.705946
646.743274	14131.717863
647.086935	14408.283125
647.430544	14367.195200
647.774101	14407.209359
648.117606	14544.946285
648.461059	14525.719324
648.804460	14511.558723
649.147810	14233.231578
649.491108	14130.104694
649.834354	14156.855577
650.177548	13849.234287
650.520690	13653.508968
650.863781	13575.033326
651.206820	13627.786480
651.549807	13463.331439
651.892742	13259.288217
652.235626	13189.717773
652.578458	13197.849154
652.921238	12882.169580
653.263967	13087.775560
653.606644	12917.636617
653.949269	12884.856515
654.291843	12695.215869
654.634365	12845.505268
654.976836	12700.778782
655.319255	12709.930997
655.661622	12663.355776
656.003938	12590.271648
656.346203	12519.168694
656.688416	12591.824324
657.030577	12544.800441
657.372687	12456.229888
657.714746	12437.018051
658.056753	12627.606434
658.398708	12442.835543
658.740612	12448.237139
659.082465	12546.045606
659.424266	12510.926408
659.766016	12537.281560
660.107715	12449.255452
660.449362	12524.535002
660.790958	12477.390132
661.132503	12424.115218
661.473996	12487.054023
661.815438	12509.169565
662.156829	12523.670444
662.498168	12501.754028
662.839456	12496.682627
663.180693	12523.776309
663.521879	12604.396962
663.863013	12585.830392
664.204097	12558.625805
664.545129	12683.981657
664.886110	12649.555618
665.227040	12742.360739
665.567918	12755.142585
665.908746	12780.665947
666.249522	12762.182556
666.590248	12815.606184
666.930922	12928.366713
667.271545	12899.266653
667.612118	12998.736180
667.952639	12902.583732
668.293109	12912.116554
668.633528	12858.743338
668.973896	12838.850945
669.314213	12921.737596
669.654480	12658.788491
669.994695	12726.851630
670.334859	12754.759457
670.674973	12697.416332
671.015035	12737.614493
671.355047	12675.008403
671.695008	12644.948003
672.034918	12648.451605
672.374777	12698.192670
672.714585	12607.835028
673.054342	12645.200061
673.394049	12601.790685
673.733705	12691.956763
674.073310	12603.736570
674.412864	12620.296761
674.752368	12490.794560
675.091820	12498.961229
675.431223	12487.848005
675.770574	12355.056451
676.109875	12284.903754
676.449125	12239.087227
676.788324	12188.065709
677.127473	12018.778722
677.466571	12009.848318
677.805619	11905.289746
678.144616	11826.342756
678.483562	11799.118005
678.822458	11669.499857
679.161303	11647.263328
679.500098	11628.938733
679.838842	11583.376785
680.177535	11609.374015
680.516179	11671.249138
680.854771	11618.201076
681.193314	11836.170486
681.531805	11989.229999
681.870247	12403.179306
682.208638	12822.880569
682.546978	13133.455975
682.885268	13182.246783
683.223508	12877.244372
683.561697	12724.951115
683.899836	12628.549130
684.237925	12413.576686
684.575963	12333.291269
684.913951	12258.929209
685.251889	12208.850387
685.589776	12305.088534
685.927614	12233.040363
686.265401	12195.443438
686.603137	12244.269534
686.940824	12391.584652
687.278460	12520.537367
687.616046	12564.551682
687.953582	12738.592477
688.291068	12664.961384
688.628504	12893.673493
688.965889	12906.019278
689.303224	12876.019372
689.640510	12768.108433
689.977745	12455.577059
690.314930	12221.155843
690.652065	12148.727065
690.989150	11843.233142
691.326185	11619.322733
691.663170	11405.411451
692.000105	11171.365802
692.336990	11061.856817
692.673825	10802.754112
693.010610	10688.685403
693.347345	10478.000461
693.684030	10280.064596
694.020665	10219.404392
694.357251	10030.580413
694.693786	9964.435433
695.030272	9801.729672
695.366707	9689.566520
695.703093	9622.710737
696.039429	9620.411971
696.375716	9538.205875
696.711952	9406.914065
697.048139	9450.923338
697.384276	9402.941635
697.720363	9421.813195
698.056400	9354.793575
698.392388	9304.689547
698.728326	9276.086040
699.064214	9206.213127
699.400053	9254.255323
699.735842	9062.638545
700.071581	9027.620170
700.407270	8952.968243
700.742910	8872.566880
701.078501	8785.438098
701.414042	8656.820619
701.749533	8596.052030
702.084974	8452.273281
702.420366	8573.732322
702.755709	8444.446890
703.091002	8314.001993
703.426246	8343.863268
703.761440	8290.505175
704.096584	8246.571519
704.431679	8180.255140
704.766725	8168.443717
705.101721	8116.960933
705.436668	8167.143099
705.771565	8059.257366
706.106413	8138.501784
706.441212	8178.069800
706.775961	8134.362996
707.110661	8172.532093
707.445311	8313.996952
707.779913	8216.317034
708.114465	8345.594904
708.448967	8382.909525
708.783421	8523.330865
709.117825	8708.348773
709.452180	8748.453673
709.786485	8831.471394
710.120742	9122.590467
710.454949	9117.791289
710.789107	9222.793482
711.123216	9435.900699
711.457275	9596.582437
711.791286	9760.871120
712.125247	9758.448846
712.459159	9739.315146
712.793023	9991.708075
713.126837	9561.521212
713.460602	9715.679697
713.794318	9538.994816
714.127985	9573.244415
714.461602	9242.332994
714.795171	9194.779790
715.128691	8947.140669
715.462162	8696.998615
715.795584	8645.755287
716.128957	8501.611054
716.462281	8332.505548
716.795556	8373.043987
717.128782	8173.994027
717.461960	7907.453100
717.795088	7977.371383
718.128167	7879.038636
718.461198	7717.414203
718.794180	7661.593506
719.127113	7651.034810
719.459997	7502.189701
719.792833	7267.390399
720.125619	7330.591345
720.458357	7188.201434
720.791046	7177.380597
721.123686	7176.029568
721.456278	7014.999991
721.788821	7036.445059
722.121315	6930.069151
722.453761	6989.935374
722.786158	6937.588032
723.118506	6950.241328
723.450805	6918.325783
723.783056	6984.344734
724.115259	6891.121197
724.447412	6886.425362
724.779518	6933.030829
725.111574	6930.096877
725.443582	7020.993922
725.775542	7001.620768
726.107453	7191.952052
726.439315	7105.251768
726.771129	7161.011971
727.102895	7333.532858
727.434612	7440.458252
727.766281	7473.097202
728.097901	7554.355561
728.429473	7543.073459
728.760996	7522.135026
729.092471	7497.032601
729.423897	7453.887886
729.755276	7457.318391
730.086606	7387.342134
730.417887	7490.189234
730.749120	7678.337699
731.080305	7872.754838
731.411442	7999.426431
731.742530	7991.332859
732.073570	8101.124148
732.404562	8187.567334
732.735506	8033.270218
733.066401	8177.442177
733.397249	8106.480374
733.728048	7863.579938
734.058798	7528.983434
734.389501	7306.850031
734.720156	7126.664069
735.050762	6894.576908
735.381320	6800.960160
735.711831	6748.847232
736.042293	6638.143494
736.372707	6654.519682
736.703073	6522.181832
737.033391	6559.602317
737.363661	6566.899387
737.693883	6597.811742
738.024056	6684.887593
738.354182	6726.769499
738.684260	6764.104284
739.014290	6878.402365
739.344272	6988.667523
739.674207	7013.727099
740.004093	7081.056750
740.333931	7104.311593
740.663722	7111.137315
740.993464	7180.352357
741.323159	7171.863054
741.652806	6919.444919
741.982405	6933.683658
742.311956	6996.262022
742.641460	6828.681465
742.970915	6634.528986
743.300323	6630.075127
743.629683	6577.732827
743.958996	6441.646878
744.288260	6347.508372
744.617477	6304.769469
744.946647	6301.994314
745.275768	6140.122864
745.604842	6093.852633
745.933869	6079.813020
746.262847	6035.365167
746.591778	6019.883783
746.920662	5982.296940
747.249498	5971.317307
747.578286	6016.859091
747.907027	6095.642243
748.235720	6155.808414
748.564365	6124.114680
748.892963	6155.735318
749.221514	6307.274923
749.550017	6142.885416
749.878473	6017.360686
750.206881	6073.957720
750.535242	6013.156363
750.863555	5943.575837
751.191821	5967.347398
751.520039	5963.659794
751.848210	5872.913984
752.176334	5887.253546
752.504411	5940.195744
752.832440	5867.141863
753.160421	5795.812056
753.488356	5845.255693
753.816243	5878.605447
754.144082	5730.269495
754.471875	5703.011976
754.799620	5743.956227
755.127318	5757.980717
755.454969	5708.053130
755.782572	5674.020300
756.110129	5715.778698
756.437638	5705.109096
756.765100	5643.105424
757.092515	5640.098376
757.419882	5694.605852
757.747203	5671.388818
758.074477	5736.200412
758.401703	5721.976797
758.728882	5673.105331
759.056014	5732.734619
759.383099	5856.963773
759.710138	5870.804261
760.037129	5858.929823
760.364073	5861.344536
760.690970	5945.814110
761.017820	5924.011119
761.344623	5878.401280
761.671379	5982.067568
761.998088	6098.172902
762.324751	6341.378328
762.651366	6944.270082
762.977935	8261.705063
763.304456	9895.923632
763.630931	10802.572630
763.957359	10399.736547
764.283740	9461.366088
764.610074	8612.420657
764.936362	7619.197403
765.262602	7018.186000
765.588796	6485.043651
765.914943	6149.242311
766.241044	5987.295244
766.567097	5782.637001
766.893104	5521.938771
767.219064	5346.955280
767.544978	5280.442296
767.870845	5202.443043
768.196665	5100.946972
768.522438	5030.010376
768.848165	4993.472093
769.173846	4927.173358
769.499479	4884.603334
769.825066	4830.133667
770.150607	4769.536477
770.476101	4748.885390
770.801548	4741.573197
771.126949	4666.149973
771.452303	4611.047641
771.777611	4573.992640
772.102872	4587.596193
772.428087	4551.622520
772.753256	4514.494422
773.078378	4467.405003
773.403453	4396.536463
773.728482	4381.087847
774.053465	4335.273841
774.378401	4326.189681
774.703291	4323.767407
775.028135	4254.328033
775.352932	4204.765929
775.677683	4193.309907
776.002388	4213.713977
776.327046	4222.667067
776.651658	4149.872805
776.976224	4087.443156
777.300743	4090.548507
777.625216	4109.765385
777.949643	4106.198769
778.274024	4063.112027
778.598359	4016.672917
778.922647	4040.643604
779.246889	4033.470042
779.571086	4028.774207
779.895236	4009.504397
780.219339	3996.909074
780.543397	3990.804237
780.867409	4044.464799
781.191374	4057.229000
781.515294	3999.159949
781.839167	3988.749966
782.162995	4008.498687
782.486776	3994.431347
782.810511	4005.894931
783.134201	4003.918798
783.457844	3958.903815
783.781441	3900.953231
784.104993	3904.897934
784.428498	3927.744443
784.751958	3924.608845
785.075372	3904.502203
785.398739	3862.393445
785.722061	3875.107235
786.045337	3919.900408
786.368568	3951.558854
786.691752	3865.997870
787.014891	3914.919748
787.337983	4038.627142
787.661030	4201.605126
787.984031	4363.320300
788.306987	4534.147360
788.629897	4615.138537
788.952760	4572.069440
789.275579	4504.414634
789.598351	4438.221764
789.921078	4296.182213
790.243759	4096.761729
790.566395	4078.502669
790.888984	4070.893048
791.211529	3970.521154
791.534027	3904.202255
791.856480	3897.242942
792.178888	3835.866894
792.501249	3784.482413
792.823566	3792.996921
793.145836	3824.957837
793.468062	3770.609157
793.790241	3725.962178
794.112375	3757.187085
794.434464	3820.637568
794.756507	3847.325436
795.078505	3824.622600
795.400457	3860.041747
795.722364	3998.136595
796.044226	4102.087708
796.366042	4173.682175
796.687812	4158.914114
797.009538	4159.889578
797.331218	4121.123105
797.652852	4092.199484
797.974442	4073.217020
798.295986	4071.407245
798.617484	3990.474041
798.938938	3905.071854
799.260346	3944.707926
799.581709	3939.699539
799.903026	3867.124568
800.224299	3832.764063
800.545526	3825.661078
800.866708	3783.489305
801.187845	3724.527970
801.508936	3761.028444
801.829983	3756.458638
802.150984	3678.524920
802.471940	3667.078981
802.792851	3677.647760
803.113717	3680.375024
803.434538	3684.332330
803.755314	3624.544245
804.076045	3598.935183
804.396731	3618.741877
804.717372	3644.557626
805.037967	3630.119761
805.358518	3620.344964
805.679024	3644.587873
805.999485	3660.580933
806.319901	3664.288702
806.640272	3675.424611
806.960598	3689.587732
807.280879	3665.649813
807.601115	3677.579704
807.921306	3696.050492
808.241453	3735.593303
808.561554	3712.300651
808.881611	3644.643325
809.201623	3683.215714
809.521590	3694.044113
809.841513	3666.484124
810.161390	3694.460008
810.481223	3674.121472
810.801011	3622.890747
811.120755	3609.622430
811.440453	3642.868839
811.760107	3648.777072
812.079716	3604.818210
812.399281	3576.169333
812.718801	3595.829833
813.038276	3571.735638
813.357707	3569.091553
813.677093	3583.680652
813.996434	3533.102755
814.315731	3542.161709
814.634983	3547.396947
814.954191	3562.679205
815.273354	3586.052515
815.592473	3588.603339
815.911547	3594.995522
816.230577	3630.830564
816.549562	3684.097916
816.868502	3724.875809
817.187399	3752.324892
817.506250	3745.496649
817.825058	3720.525294
818.143821	3808.430414
818.462539	3913.914037
818.781213	3958.218218
819.099843	4013.988503
819.418429	4265.017800
819.736970	4506.378164
820.055466	4752.227675
820.373919	5119.720229
820.692327	5524.106467
821.010691	5970.785465
821.329011	7350.082966
821.647286	10104.990364
821.965517	14670.428166
822.283704	18713.466318
822.601847	20864.004905
822.919945	19045.375887
823.237999	16463.241434
823.556010	13964.318788
823.873976	11866.316586
824.191897	9772.112893
824.509775	8421.421420
824.827609	7290.244470
825.145398	6748.050730
825.463144	6636.908411
825.780845	6745.706593
826.098502	6937.429236
826.416116	7819.532856
826.733685	9144.577460
827.051210	10259.547100
827.368692	10307.339759
827.686129	9043.406543
828.003522	7521.925818
828.320872	6506.108113
828.638177	5801.518643
828.955439	5240.171038
829.272656	4743.360286
829.589830	4459.114826
829.906960	4285.371459
830.224046	4099.899847
830.541088	3976.643635
830.858086	3926.935338
831.175041	3854.793906
831.491952	3834.354548
831.808819	3843.315198
832.125642	3916.129625
832.442421	4064.284095
832.759157	4342.099563
833.075849	4892.452411
833.392497	5763.042036
833.709101	6537.078441
834.025662	6876.716099
834.342179	6513.132961
834.658653	5845.404407
834.975083	5195.914749
835.291469	4616.093836
835.607811	4208.806414
835.924110	4068.672419
836.240366	3873.776371
836.556578	3667.197448
836.872746	3557.572516
837.188871	3511.635002
837.504952	3450.233748
837.820990	3364.526571
838.136984	3320.547545
838.452935	3346.239785
838.768842	3338.184021
839.084706	3362.318545
839.400526	3524.661343
839.716303	3862.655585
840.032037	4389.325092
840.347727	4653.559692
840.663373	4374.204151
840.978977	3989.493537
841.294537	3678.169519
841.610054	3454.080148
841.925527	3347.946216
842.240957	3279.177316
842.556344	3223.215467
842.871687	3164.755726
843.186987	3115.657408
843.502244	3078.972932
843.817458	3045.615617
844.132629	3013.652181
844.447756	3019.557893
844.762840	3006.639936
845.077881	2973.794298
845.392879	2956.409879
845.707833	2953.463324
846.022745	2951.701441
846.337613	2951.227573
846.652438	2938.170984
846.967221	2937.966818
847.281960	2923.594488
847.596656	2921.678849
847.911309	2919.506112
848.225919	2913.507139
848.540485	2909.564957
848.855009	2909.179308
849.169490	2898.033317
849.483928	2887.930845
849.798323	2888.006462
850.112675	2884.356667
850.426984	2895.215312
850.741251	2893.186248
851.055474	2884.525546
851.369654	2878.145965
851.683792	2883.708879
851.997887	2894.789335
852.311938	2893.871845
852.625947	2879.645709
852.939914	2884.752398
853.253837	2887.507388
853.567718	2874.740666
853.881555	2873.339225
854.195350	2887.056205
854.509103	2884.792727
854.822812	2874.506252
855.136479	2872.288145
855.450103	2874.339894
855.763685	2869.644059
856.077224	2867.662886
856.390720	2880.381717
856.704173	2889.680125
857.017584	2880.595966
857.330953	2875.549771
857.644278	2888.003942
857.957561	2896.074829
858.270802	2900.543812
858.584000	2899.827968
858.897155	2884.754918
859.210268	2886.400855
859.523339	2883.837428
859.836367	2880.227962
860.149352	2878.390461
860.462295	2873.266128
860.775195	2881.251316
861.088054	2881.384907
861.400869	2863.864377
861.713642	2863.327494
862.026373	2875.708567
862.339062	2876.978938
862.651708	2884.454969
862.964312	2886.466390
863.276873	2879.867519
863.589392	2888.704662
863.901869	2901.705798
864.214303	2923.110537
864.526696	2937.981941
864.839045	2935.738628
865.151353	2937.258535
865.463619	2932.824841
865.775842	2933.787701
866.088023	2953.110444
866.400162	2960.397432
866.712258	2932.232505
867.024313	2922.760177
867.336325	2929.606064
867.648296	2951.530042
867.960224	2943.403702
868.272110	2928.461722
868.583954	2935.627722
868.895755	2946.917386
869.207515	2934.604368
869.519233	2942.022426
869.830909	2950.284877
870.142542	2958.869962
870.454134	2959.056485
870.765684	2963.376753
871.077191	2962.857515
871.388657	2967.379430
871.700081	2983.622027
872.011463	2992.451608
872.322803	2994.833553
872.634101	2992.358347
872.945357	3012.888446
873.256571	3039.591438
873.567744	3030.794624
873.878874	3023.021165
874.189963	3046.061759
874.501010	3049.761966
874.812015	3037.990872
875.122979	3036.302085
875.433900	3035.422404
875.744780	3036.901982
876.055618	3047.934548
876.366415	3043.251316
876.677169	3056.295301
876.987882	3053.656257
877.298554	3044.342725
877.609183	3068.565470
877.919771	3090.186978
878.230317	3119.793675
878.540822	3169.847292
878.851285	3210.083261
879.161707	3252.098758
879.472087	3354.756815
879.782425	3582.732915
880.092722	4021.759442
880.402977	4550.536151
880.713191	5186.031567
881.023363	6342.600808
881.333494	7630.413970
881.643583	8178.614245
881.953631	7874.615024
882.263637	7242.678663
882.573602	6658.572770
882.883526	6080.722948
883.193408	5504.592160
883.503248	5040.619484
883.813048	4741.003546
884.122806	4428.121812
884.432522	4112.260756
884.742197	3879.548492
885.051831	3684.297042
885.361424	3547.691855
885.670975	3478.988489
885.980485	3394.360119
886.289954	3314.820794
886.599382	3272.845626
886.908768	3234.356417
887.218113	3187.151052
887.527417	3130.591827
887.836680	3081.178437
888.145901	3074.564443
888.455082	3062.432906
888.764221	3013.437932
889.073319	2984.680670
889.382376	2982.853251
889.691392	2989.976402
890.000366	2985.414158
890.309300	2974.462251
890.618193	2986.498006
890.927044	3002.816221
891.235855	3002.022239
891.544625	2988.499344
891.853353	2997.689367
892.162041	3017.634692
892.470687	3059.723286
892.779293	3112.110957
893.087858	3156.896567
893.396381	3227.563462
893.704864	3351.144828
894.013306	3591.880089
894.321707	3895.594484
894.630068	4100.416565
894.938387	4099.075618
895.246665	4050.100809
895.554903	3932.278961
895.863100	3729.072570
896.171256	3560.219122
896.479371	3423.457659
896.787446	3302.180101
897.095480	3194.299408
897.403473	3131.665592
897.711425	3091.810230
898.019336	3085.826380
898.327207	3055.745815
898.635038	3020.987060
898.942827	3005.384688
899.250576	2994.241218
899.558284	2964.997484
899.865952	2943.292797
900.173579	2923.496185
900.481165	2915.412695
900.788711	2902.724111
901.096216	2877.876264
901.403681	2864.877648
901.711105	2876.411808
902.018489	2872.101622
902.325832	2872.101622
902.633135	2882.619989
902.940397	2913.577715
903.247619	2992.980929
903.554800	3192.035930
903.861941	3536.518137
904.169041	3968.280361
904.476101	4264.228859
904.783121	4219.503743
905.090100	3971.834375
905.397039	3698.739947
905.703938	3448.602935
906.010796	3262.481014
906.317614	3152.230979
906.624391	3052.751370
906.931129	2982.565906
907.237826	2922.014086
907.544483	2875.985831
907.851099	2844.755883
908.157675	2822.902481
908.464211	2804.144347
908.770707	2789.020886
909.077163	2777.448917
909.383578	2762.055754
909.689954	2750.622417
909.996289	2753.263982
910.302584	2751.139135
910.608839	2751.723909
910.915054	2745.132601
911.221229	2737.795201
911.527363	2742.327198
911.833458	2746.768455
912.139513	2753.959661
912.445527	2753.914291
912.751502	2766.532299
913.057436	2775.908845
913.363331	2786.064249
913.669186	2809.687096
913.975000	2842.431911
914.280775	2903.792836
914.586510	2975.581387
914.892205	3052.506874
915.197859	3182.056966
915.503475	3377.260525
915.809050	3596.729679
916.114585	3738.141606
916.420081	3759.929473
916.725536	3698.878579
917.030952	3579.004982
917.336328	3450.027061
917.641665	3318.541165
917.946961	3219.603480
918.252218	3144.918786
918.557435	3070.508834
918.862612	3013.689989
919.167750	2961.085549
919.472848	2918.109713
919.777906	2891.626011
920.082925	2867.693133
920.387904	2839.034173
920.692843	2822.910043
920.997743	2810.082827
921.302603	2795.879376
921.607423	2784.617438
921.912204	2771.094543
922.216946	2759.663727
922.521647	2753.574013
922.826310	2744.802405
923.130932	2736.671024
923.435516	2729.547873
923.740059	2720.380535
924.044564	2714.129504
924.349028	2707.611293
924.653454	2702.953266
924.957840	2695.895651
925.262186	2691.923222
925.566493	2687.239990
925.870761	2683.832170
926.174989	2680.315965
926.479178	2673.442352
926.783328	2670.495797
927.087438	2666.392298
927.391509	2666.230981
927.695541	2663.387770
927.999533	2661.409117
928.303486	2656.249497
928.607400	2657.192192
928.911275	2654.989208
929.215110	2653.204640
929.518906	2653.817140
929.822663	2650.941162
930.126381	2653.633138
930.430060	2653.691111
930.733699	2655.631955
931.037299	2656.640186
931.340861	2658.432316
931.644383	2658.578510
931.947866	2657.469456
932.251309	2654.606080
932.554714	2653.486944
932.858080	2650.605925
933.161407	2649.766573
933.464694	2647.369504
933.767943	2645.637868
934.071153	2649.310348
934.374323	2645.532003
934.677455	2645.973104
934.980548	2646.746922
935.283602	2647.719864
935.586617	2644.637199
935.889593	2646.459576
936.192530	2646.704072
936.495428	2647.412354
936.798287	2648.849083
937.101108	2653.572644
937.403890	2655.889054
937.706632	2659.392656
938.009336	2664.922802
938.312002	2672.691220
938.614628	2686.156142
938.917216	2691.361133
939.219765	2692.268541
939.522275	2691.202337
939.824747	2686.632531
940.127179	2683.731347
940.429573	2682.420647
940.731929	2680.494926
941.034246	2678.579287
941.336524	2673.699451
941.638763	2670.931857
941.940964	2668.933040
942.243126	2666.488080
942.545250	2670.465550
942.847335	2664.766526
943.149381	2660.582368
943.451389	2653.728920
943.753359	2652.229176
944.055290	2653.459218
944.357182	2651.830925
944.659036	2649.138949
944.960851	2651.989722
945.262628	2644.533855
945.564367	2647.969401
945.866067	2649.995945
946.167729	2649.438898
946.469352	2650.578198
946.770937	2648.312200
947.072484	2647.089720
947.373992	2648.806233
947.675462	2648.385297
947.976893	2642.199801
948.278286	2639.936323
948.579641	2640.286683
948.880958	2636.722587
949.182236	2642.393885
949.483476	2637.241826
949.784678	2635.880714
950.085841	2638.539923
950.386967	2639.709471
950.688054	2640.032105
950.989103	2644.022178
951.290114	2642.708957
951.591087	2643.875984
951.892021	2646.058804
952.192917	2652.519043
952.493776	2651.397386
952.794596	2653.018117
953.095378	2651.765390
953.396122	2649.065852
953.696828	2647.397230
953.997496	2647.475368
954.298126	2649.169196
954.598718	2646.898156
954.899272	2643.008906
955.199788	2638.839872
955.500266	2637.584624
955.800706	2632.709829
956.101108	2630.796711
956.401472	2630.211937
956.701798	2628.863428
957.002087	2624.139867
957.302337	2623.081225
957.602550	2624.139867
957.902724	2621.707510
958.202861	2620.459825
958.502960	2618.536625
958.803022	2621.198354
959.103045	2615.829525
959.403031	2617.097375
959.702979	2617.767849
960.002889	2617.626696
960.302762	2616.414299
960.602596	2615.975718
960.902393	2614.551592
961.202153	2615.496809
961.501875	2618.597118
961.801559	2614.740636
962.101205	2614.284411
962.400814	2613.555965
962.700385	2614.339864
962.999918	2610.256529
963.299414	2608.852568
963.598873	2608.497167
963.898293	2611.607559
964.197677	2611.781478
964.497022	2609.787702
964.796331	2611.715943
965.095601	2612.232662
965.394835	2611.277363
965.694030	2612.303238
965.993189	2611.037908
966.292309	2610.367435
966.591393	2612.978752
966.890439	2612.091509
967.189447	2610.558999
967.488419	2609.765017
967.787353	2612.925820
968.086249	2607.899790
968.385108	2610.826180
968.683930	2613.094699
968.982714	2608.862650
969.281462	2609.263422
969.580172	2613.273660
969.878844	2610.874071
970.177480	2612.391458
970.476078	2612.860285
970.774639	2613.228290
971.073162	2613.434977
971.371649	2609.817949
971.670098	2611.743670
971.968510	2610.785851
972.266885	2610.584204
972.565223	2611.937754
972.863524	2611.572271
973.161788	2609.523042
973.460014	2612.068824
973.758204	2612.472117
974.056356	2610.695110
974.354471	2611.511777
974.652550	2610.120418
974.950591	2612.363732
975.248595	2610.755604
975.546563	2612.426746
975.844493	2610.329626
976.142386	2609.631426
976.440243	2609.568412
976.738062	2609.016406
977.035845	2609.482712
977.333590	2610.133021
977.631299	2610.743001
977.928971	2606.198401
978.226606	2607.569594
978.524204	2609.581015
978.821765	2605.737135
979.119290	2611.244596
979.416777	2606.014398
979.714228	2608.739142
980.011642	2608.797115
980.309020	2610.937085
980.606360	2610.231324
980.903664	2610.241406
981.200931	2610.594287
981.498162	2610.163268
981.795356	2611.443721
982.092513	2612.499843
982.389633	2616.421861
982.686717	2617.493106
982.983764	2624.959055
983.280775	2624.154991
983.577749	2626.126082
983.874686	2625.513582
984.171587	2626.544497
984.468451	2620.868158
984.765279	2617.399844
985.062070	2618.050153
985.358824	2616.643671
985.655543	2615.350615
985.952224	2611.552106
986.248869	2609.747373
986.545478	2610.523711
986.842050	2608.658484
987.138586	2607.441045
987.435086	2608.905500
987.731549	2607.728391
988.027975	2608.517331
988.324366	2607.887187
988.620719	2608.247630
988.917037	2605.880808
989.213318	2607.239399
989.509563	2605.638832
989.805772	2605.701847
990.101944	2604.403750
990.398080	2605.530448
990.694180	2604.149172
990.990244	2603.040118
991.286271	2607.252002
991.582262	2604.239912
991.878217	2605.308637
992.174136	2607.861981
992.470019	2607.829214
992.765865	2603.322422
993.061676	2602.725046
993.357450	2603.650097
993.653188	2601.116918
993.948890	2606.629419
994.244556	2606.122783
994.540186	2604.842330
994.835780	2606.084975
995.131337	2606.528596
995.426859	2608.232506
995.722345	2609.092023
996.017795	2608.819801
996.313208	2607.670418
996.608586	2611.279884
996.903928	2609.858278
997.199234	2611.383227
997.494504	2611.395830
997.789738	2610.538834
998.084936	2608.318206
998.380099	2611.680655
998.675225	2608.293000
998.970316	2606.891559
999.265371	2608.706375
999.560390	2607.073041
999.855373	2605.449789
1000.150320	2605.850561
1000.445232	2602.644387
1000.740108	2603.894593
1001.034948	2605.737135
1001.329752	2605.112032
1001.624521	2604.060951
1001.919254	2604.076075
1002.213951	2605.593462
1002.508613	2603.309819
1002.803239	2605.084306
1003.097829	2601.769747
1003.392384	2603.579521
1003.686903	2603.768564
1003.981386	2604.330653
1004.275834	2603.745879
1004.570246	2603.811414
1004.864623	2603.032556
1005.158964	2604.549943
1005.453270	2601.951228
1005.747540	2604.507093
1006.041775	2602.374685
1006.335974	2602.697319
1006.630138	2602.145313
1006.924266	2603.889552
1007.218359	2602.432659
1007.512416	2600.466609
1007.806438	2599.927205
1008.100425	2600.731269
1008.394376	2597.169694
1008.688292	2605.129676
1008.982172	2602.001640
1009.276017	2604.733945
1009.569827	2604.529779
1009.863602	2604.786877
1010.157341	2604.209665
1010.451045	2602.475508
1010.744714	2602.717484
1011.038347	2601.878132
1011.331945	2601.706732
1011.625508	2604.151692
1011.919036	2601.805035
1012.212528	2600.995930
1012.505986	2602.674634
1012.799408	2605.490118
1013.092795	2602.639346
1013.386147	2604.373503
1013.679464	2600.809407
1013.972745	2605.117073
1014.265992	2601.900817
1014.559204	2602.104984
1014.852380	2602.450303
1015.145521	2605.782505
1015.438628	2602.722525
1015.731699	2600.779160
1016.024736	2599.894438
1016.317737	2601.449634
1016.610703	2602.077257
1016.903635	2605.840479
1017.196531	2601.742021
1017.489393	2602.145313
1017.782219	2605.038935
1018.075011	2603.360231
1018.367768	2602.498194
1018.660490	2601.114397
1018.953177	2601.114397
1019.245829	2601.114397
