Dividing Wavelength (nm)	Counts (n)	Blue Motor Position (mm): 21.500000	Red Motor Position (mm): 0.000000	
326.493990	2187.767508
326.888308	2187.767508
327.282561	2187.767508
327.676750	2149.530356
328.070874	2144.763945
328.464933	2145.895684
328.858929	2147.909625
329.252859	2152.968423
329.646726	2161.750113
330.040528	2174.660508
330.434265	2187.034020
330.827938	2208.655529
331.221547	2222.828733
331.615091	2240.813049
332.008571	2259.939187
332.401986	2278.830911
332.795338	2296.540484
333.188625	2313.120839
333.581847	2333.061123
333.975006	2351.655419
334.368100	2369.672503
334.761129	2390.263096
335.154095	2404.151475
335.546996	2431.093922
335.939833	2462.457460
336.332606	2476.013123
336.725315	2492.167501
337.117960	2501.682678
337.510540	2513.098371
337.903056	2524.808972
338.295508	2532.746268
338.687896	2542.372352
339.080220	2549.853424
339.472480	2557.213509
339.864676	2561.526216
340.256807	2570.186918
340.648875	2569.929819
341.040879	2570.998544
341.432818	2575.664132
341.824694	2581.617734
342.216506	2583.130081
342.608253	2581.474062
342.999937	2584.271902
343.391557	2583.046902
343.783113	2580.725450
344.174605	2578.182188
344.566033	2580.637230
344.957397	2579.462641
345.348697	2576.967270
345.739934	2575.374265
346.131106	2573.788822
346.522215	2571.714388
346.913260	2571.452248
347.304241	2569.743297
347.695159	2567.726835
348.086012	2567.810014
348.476802	2564.150136
348.867528	2559.224929
349.258191	2554.133364
349.648789	2557.084959
350.039324	2550.418033
350.429796	2556.900957
350.820203	2554.859290
351.210548	2550.120605
351.600828	2550.639844
351.991045	2553.886347
352.381198	2547.579864
352.771288	2549.659340
353.161314	2548.348640
353.551276	2548.930893
353.941175	2548.353681
354.331010	2546.518701
354.720782	2546.032229
355.110490	2546.433001
355.500135	2544.910573
355.889717	2548.457024
356.279235	2547.189174
356.668689	2546.606921
357.058080	2542.558874
357.447408	2546.707744
357.836672	2548.474668
358.225873	2548.381407
358.615010	2548.081458
359.004084	2549.306459
359.393095	2549.152704
359.782043	2550.864175
360.170927	2550.612118
360.559748	2552.552962
360.948505	2550.778476
361.337199	2555.358364
361.725830	2551.350647
362.114398	2553.001625
362.502903	2552.986501
362.891344	2552.794937
363.279722	2552.305945
363.668037	2555.587737
364.056289	2552.487427
364.444478	2557.170659
364.832603	2556.651420
365.220665	2555.640669
365.608665	2556.419527
365.996601	2558.468756
366.384474	2558.917419
366.772284	2559.262738
367.160031	2558.453632
367.547715	2559.993705
367.935336	2559.832388
368.322893	2556.691749
368.710388	2557.090000
369.097820	2556.376677
369.485189	2556.303580
369.872495	2560.369271
370.259738	2560.681822
370.646918	2562.599982
371.034035	2561.337172
371.421090	2562.269786
371.808081	2561.576627
372.195010	2564.354303
372.581875	2564.288768
372.968678	2562.433623
373.355418	2562.887327
373.742096	2564.124931
374.128710	2563.134344
374.515262	2563.983778
374.901751	2560.628890
375.288177	2565.135682
375.674540	2565.594427
376.060841	2563.948490
376.447079	2563.966134
376.833254	2564.951680
377.219367	2562.942780
377.605417	2565.425548
377.991404	2563.003274
378.377329	2567.421845
378.763191	2565.468398
379.148991	2566.088460
379.534727	2564.808007
379.920402	2567.086608
380.306013	2566.567370
380.691563	2568.334294
381.077049	2565.294478
381.462474	2567.368913
381.847835	2568.452761
382.233134	2570.381003
382.618371	2568.432597
383.003545	2568.636763
383.388657	2571.968966
383.773706	2570.549881
384.158693	2568.777916
384.543618	2569.413101
384.928480	2569.541650
385.313280	2571.096846
385.698017	2569.927299
386.082692	2572.236147
386.467305	2571.500139
386.851856	2575.175140
387.236344	2573.264542
387.620770	2568.966959
388.005133	2569.322360
388.389435	2569.067782
388.773674	2566.068295
389.157851	2571.913513
389.541965	2571.101887
389.926018	2575.127249
390.310008	2572.568863
390.693936	2575.011302
391.077802	2576.236303
391.461606	2576.662280
391.845348	2575.031467
392.229027	2576.589183
392.612645	2574.537434
392.996200	2576.054821
393.379694	2574.028277
393.763125	2577.365521
394.146494	2574.502146
394.529801	2574.575242
394.913047	2574.058524
395.296230	2577.975501
395.679351	2581.201839
396.062410	2574.913000
396.445408	2577.511715
396.828343	2577.796540
397.211217	2577.536920
397.594028	2576.861406
397.976778	2578.225038
398.359466	2577.960377
398.742092	2578.908114
399.124656	2579.681931
399.507158	2579.276118
399.889598	2580.007086
400.271977	2576.730336
400.654294	2579.770152
401.036549	2579.848289
401.418742	2581.443815
401.800874	2580.697724
402.182944	2580.879205
402.564952	2583.510688
402.946898	2581.779051
403.328783	2582.326017
403.710606	2581.892477
404.092367	2583.175451
404.474067	2581.269895
404.855705	2584.408013
405.237282	2584.380287
405.618797	2580.927096
406.000250	2583.309042
406.381642	2581.211922
406.762972	2579.412230
407.144240	2579.634040
407.525447	2582.164700
407.906593	2580.536407
408.287677	2582.648650
408.668700	2584.047571
409.049661	2586.540421
409.430560	2584.042529
409.811399	2586.595874
410.192176	2586.575709
410.572891	2586.134608
410.953545	2586.227870
411.334138	2585.806933
411.714669	2586.293405
412.095139	2585.249886
412.475547	2587.352047
412.855894	2586.336254
413.236180	2586.873137
413.616405	2587.785586
413.996568	2589.489496
414.376670	2587.301635
414.756711	2587.289032
415.136691	2587.999835
415.516609	2587.316759
415.896466	2589.640731
416.276262	2589.040833
416.655997	2588.471183
417.035670	2585.131419
417.415283	2590.563262
417.794834	2588.912284
418.174324	2589.013107
418.553753	2588.067891
418.933121	2591.959662
419.312428	2588.561924
419.691674	2590.192737
420.070859	2589.365988
420.449983	2593.608119
420.829045	2590.419589
421.208047	2590.878334
421.586988	2590.578385
421.965867	2593.386308
422.344686	2592.562079
422.723444	2591.052254
423.102141	2593.862697
423.480777	2591.790783
423.859352	2591.092583
424.237866	2593.141812
424.616319	2591.921853
424.994712	2594.323963
425.373044	2592.904878
425.751314	2590.764908
426.129524	2589.814651
426.507673	2591.647110
426.885762	2591.183324
427.263789	2595.067533
427.641756	2592.138622
428.019662	2593.247676
428.397508	2595.238932
428.775292	2595.347317
429.153016	2595.473346
429.530679	2596.259766
429.908282	2596.763881
430.285824	2595.969899
430.663305	2596.284972
431.040726	2594.797831
431.418086	2594.639035
431.795385	2599.017277
432.172624	2598.845878
432.549802	2596.708428
432.926920	2597.333532
433.303977	2598.548450
433.680974	2598.437544
434.057910	2597.109200
434.434786	2599.266814
434.811601	2598.460229
435.188355	2598.644232
435.565050	2597.681371
435.941683	2596.186669
436.318257	2597.532657
436.694770	2602.162957
437.071222	2598.238419
437.447614	2598.964345
437.823946	2599.478543
438.200218	2601.089191
438.576429	2598.742534
438.952580	2600.867380
439.328670	2601.462237
439.704700	2600.832092
440.080670	2600.655652
440.456580	2600.625405
440.832429	2599.660024
441.208218	2603.861826
441.583947	2599.375199
441.959616	2601.568101
442.335224	2604.756631
442.710773	2603.193873
443.086261	2606.011878
443.461689	2601.368975
443.837057	2604.539861
444.212365	2602.974583
444.587612	2600.184304
444.962800	2601.850405
445.337927	2602.102463
445.712995	2599.561722
446.088002	2604.973400
446.462949	2605.497680
446.837837	2602.546085
447.212664	2605.563215
447.587431	2607.057917
447.962139	2604.938112
448.336786	2609.533124
448.711374	2609.679317
449.085901	2607.836776
449.460369	2607.723350
449.834776	2608.479523
450.209124	2609.228134
450.583412	2609.419698
450.957640	2610.044801
451.331808	2611.451283
451.705917	2608.459358
452.079965	2608.308123
452.453954	2610.443052
452.827883	2610.813577
453.201752	2607.544389
453.575562	2611.554627
453.949311	2608.688731
454.323001	2610.488423
454.696632	2613.024123
455.070202	2606.745366
455.443713	2614.206273
455.817164	2613.452621
456.190556	2611.960439
456.563888	2612.419184
456.937160	2616.263064
457.310373	2613.666870
457.683526	2615.068311
458.056619	2615.088475
458.429653	2614.508743
458.802628	2616.315996
459.175542	2614.395317
459.548398	2619.655761
459.921194	2618.992849
460.293930	2618.942437
460.666607	2621.183230
461.039224	2623.844960
461.411782	2624.321349
461.784280	2624.986781
462.156719	2624.391925
462.529099	2624.767491
462.901419	2624.729682
463.273680	2621.231121
463.645882	2624.991822
464.018024	2621.183230
464.390106	2622.108282
464.762130	2628.893675
465.134094	2627.512399
465.505999	2629.569190
465.877845	2640.574029
466.249631	2643.954122
466.621358	2646.857827
466.993026	2648.443270
467.364634	2648.806233
467.736184	2644.216262
468.107674	2643.676859
468.479105	2644.599390
468.850477	2645.592497
469.221790	2644.929586
469.593043	2647.417395
469.964238	2648.962509
470.335373	2650.505102
470.706449	2650.479896
471.077467	2651.989722
471.448425	2661.542708
471.819324	2676.472085
472.190164	2686.171265
472.560945	2679.736232
472.931667	2673.833041
473.302330	2677.853361
473.672934	2679.509380
474.043479	2683.698579
474.413965	2691.242666
474.784393	2697.725590
475.154761	2706.106508
475.525070	2711.286294
475.895321	2716.093034
476.265513	2728.209447
476.635645	2740.393916
477.005719	2750.463621
477.375734	2758.990732
477.745691	2773.552105
478.115588	2794.621608
478.485427	2812.434525
478.855207	2843.535924
479.224928	2892.898902
479.594591	2951.814867
479.964194	2972.329843
480.333739	2990.808192
480.703226	3004.799915
481.072653	3035.331663
481.442022	3082.257243
481.811333	3142.262098
482.180584	3175.412725
482.549777	3189.144828
482.918912	3219.716906
483.287988	3275.635905
483.657005	3317.633758
484.025964	3355.969212
484.394864	3400.230543
484.763706	3434.432251
485.132489	3478.194508
485.501213	3534.821789
485.869879	3600.167746
486.238487	3648.280518
486.607036	3732.709763
486.975527	3776.472019
487.343959	3867.432078
487.712333	3947.649439
488.080648	3996.644413
488.448905	4114.373000
488.817104	4174.350128
489.185244	4317.891942
489.553326	4416.063372
489.921350	4582.353393
490.289315	4927.821146
490.657222	5234.048557
491.025070	5393.936313
491.392861	5494.474565
491.760593	5527.045460
492.128267	5561.920162
492.495883	5545.997677
492.863440	5574.265948
493.230939	5585.011167
493.598380	5700.962747
493.965763	5761.985914
494.333088	5827.873795
494.700354	5948.064985
495.067563	6073.738430
495.434713	6175.587381
495.801805	6287.291789
496.168839	6436.872906
496.535815	6548.206788
496.902733	6711.414144
497.269593	6763.655622
497.636395	6969.538865
498.003139	7101.168433
498.369825	7230.214410
498.736453	7396.121304
499.103023	7508.145824
499.469535	7674.579519
499.835989	7882.196919
500.202385	8070.778923
500.568723	8108.320396
500.935003	8287.954351
501.301226	8382.806181
501.667390	8723.091628
502.033497	9014.160289
502.399546	9059.830622
502.765537	9157.477772
503.131470	9409.033870
503.497345	9634.985947
503.863163	9556.033916
504.228923	9931.430999
504.594625	10177.209934
504.960269	10171.465539
505.325856	10533.858966
505.691385	10532.404593
506.056856	10891.793492
506.422270	11107.365833
506.787625	11084.776423
507.152924	11481.449695
507.518164	11638.211936
507.883347	11733.948489
508.248472	11783.777774
508.613540	12299.044191
508.978550	12440.428392
509.343503	12615.421965
509.708398	12947.187861
510.073236	13189.017052
510.438016	13467.702119
510.802738	13557.290985
511.167403	13840.603831
511.532010	13886.387590
511.896561	14472.041118
512.261053	14690.000446
512.625488	14774.464978
512.989866	14908.786522
513.354186	15000.578372
513.718449	15283.785354
514.082655	15645.505787
514.446803	15729.786317
514.810894	16176.692167
515.174927	16049.579473
515.538904	16261.539828
515.902822	16717.562605
516.266684	16801.293650
516.630488	16900.133032
516.994235	17095.296263
517.357925	17452.308257
517.721558	17776.830016
518.085133	18018.487807
518.448651	18164.086413
518.812112	18162.967277
519.175516	18435.502136
519.538863	18768.656870
519.902152	18766.126211
520.265385	19186.629018
520.628560	19187.057516
520.991678	19381.774604
521.354739	19594.145812
521.717743	19812.337033
522.080690	19812.183278
522.443580	20250.209136
522.806413	20378.090606
523.169189	20642.441152
523.531908	20798.921088
523.894569	20684.524704
524.257174	20884.166999
524.619722	21190.888443
524.982213	21079.897359
525.344647	21311.734983
525.707025	21503.329077
526.069345	21663.244559
526.431608	21770.795056
526.793815	22071.956107
527.155964	21698.804858
527.518057	21979.183753
527.880093	22066.632648
528.242072	22329.780879
528.603995	22213.426007
528.965860	22160.294766
529.327669	22357.355991
529.689421	22420.204056
530.051117	22383.201987
530.412755	22672.017252
530.774337	22572.517478
531.135862	22555.952247
531.497331	22834.428106
531.858743	22507.514320
532.220098	23056.188463
532.581396	22811.742913
532.942638	22894.984966
533.303824	23030.090410
533.664953	23155.965501
534.026025	22922.565119
534.387040	23192.365152
534.747999	23361.019475
535.108902	23569.612338
535.469748	23153.795284
535.830537	23416.305809
536.191270	23570.171907
536.551947	23552.210275
536.912567	23292.754690
537.273131	23612.361323
537.633638	23401.373911
537.994089	23672.262834
538.354483	23291.811994
538.714821	23797.220435
539.075103	23898.739191
539.435328	23730.430187
539.795497	23349.946580
540.155609	23792.610299
540.515665	24114.999650
540.875665	23422.453496
541.235609	23710.038720
541.595496	23735.488985
541.955328	24113.991419
542.315102	24056.507142
542.674821	23682.700543
543.034483	23585.184463
543.394090	23773.290077
543.753640	23589.640843
544.113134	24226.812442
544.472571	23868.368759
544.831953	24173.802189
545.191278	23802.009531
545.550548	23768.803450
545.909761	23997.490353
546.268918	24241.167128
546.628019	24204.379307
546.987064	23940.784934
547.346053	23737.162648
547.704986	23869.346743
548.063863	24044.239494
548.422684	24035.808164
548.781449	23629.788592
549.140158	24028.369941
549.498811	23628.626606
549.857408	23371.875599
550.215949	23820.651718
550.574434	23490.322550
550.932864	23735.249530
551.291237	23880.908630
551.649555	23764.226083
552.007817	23820.964269
552.366022	23716.105749
552.724173	23753.697633
553.082267	23701.347771
553.440305	24172.718341
553.798288	23461.335916
554.156215	23993.701926
554.514086	24075.280398
554.871902	23441.972844
555.229661	23743.930397
555.587365	23604.272792
555.945014	23436.979581
556.302606	23725.956163
556.660143	23646.749554
557.017625	23923.163581
557.375050	23466.467810
557.732421	23868.761969
558.089735	23668.814684
558.446994	23732.834818
558.804197	23748.540533
559.161345	23713.098700
559.518437	23452.634884
559.875474	23670.490868
560.232455	23836.327186
560.589381	23685.148023
560.946251	23645.481704
561.303065	23978.979237
561.659825	24058.165681
562.016528	23677.893802
562.373177	23412.935797
562.729770	23755.041100
563.086307	23650.066633
563.442789	23813.778104
563.799216	23637.977946
564.155587	23656.756244
564.511904	23642.693946
564.868164	23560.734867
565.224370	23562.509353
565.580520	23447.762609
565.936615	23596.443880
566.292654	23255.510645
566.648638	23576.024686
567.004567	23401.668819
567.360441	23365.553992
567.716260	23076.035486
568.072023	23405.938676
568.427732	23165.619310
568.783385	22959.330254
569.138982	23189.552188
569.494525	23233.536256
569.850013	22965.341830
570.205445	23080.673348
570.560823	22874.573334
570.916145	22643.300319
571.271412	22813.056134
571.626625	22585.047266
571.981782	22678.306092
572.336884	22492.048060
572.691931	22618.419704
573.046923	22361.809850
573.401860	22252.116863
573.756743	22249.195514
574.111570	22155.425012
574.466342	22099.722782
574.821059	22192.827853
575.175722	21884.556254
575.530330	21877.375130
575.884882	21902.059140
576.239380	21804.283441
576.593823	21699.059436
576.948211	21678.579749
577.302544	21522.034278
577.656823	21398.158004
578.011047	21496.452943
578.365216	21368.667254
578.719330	21242.885425
579.073389	21157.357209
579.427394	21299.593364
579.781344	21084.389027
580.135239	20970.461471
580.489080	20932.216757
580.842866	20698.032476
581.196597	20871.735514
581.550273	20868.289885
581.903895	20763.822054
582.257463	21073.888304
582.610975	20602.926067
582.964434	20902.698281
583.317837	20628.731734
583.671186	20707.270390
584.024481	20672.453661
584.377721	20466.958587
584.730906	20506.329998
585.084037	20545.227541
585.437113	20444.076789
585.790135	20645.289404
586.143103	20112.232755
586.496016	20124.815475
586.848874	20366.364882
587.201679	20306.357507
587.554428	19981.271140
587.907124	20294.616660
588.259765	20092.161401
588.612352	20159.460805
588.964884	19742.348174
589.317362	19906.548637
589.669786	19956.100659
590.022155	20012.788434
590.374470	20177.719864
590.726731	19990.128447
591.078937	19737.506146
591.431090	19844.418936
591.783188	19588.744216
592.135232	19569.101360
592.487222	19662.773560
592.839157	19698.568273
593.191038	19578.490509
593.542866	19471.638212
593.894639	19186.510551
594.246358	19401.777902
594.598022	19309.345826
594.949633	19079.270085
595.301190	19023.482156
595.652692	19185.283030
596.004141	19435.535989
596.355535	18759.943236
596.706876	18777.889743
597.058162	18667.193567
597.409395	18886.894613
597.760573	18970.837386
598.111698	18754.642463
598.462768	18690.773564
598.813785	18643.270771
599.164748	18483.965268
599.515657	18498.168719
599.866511	18293.530641
600.217312	18655.583789
600.568060	18196.753090
600.918753	18504.651643
601.269392	18406.114730
601.619978	18170.629831
601.970510	18389.216782
602.320988	18328.876691
602.671412	18543.597077
603.021783	18432.038863
603.372100	18185.246656
603.722363	18311.252817
604.072572	18251.363909
604.422728	18383.432058
604.772830	18153.290782
605.122878	18091.576977
605.472872	18089.300896
605.822813	18087.503724
606.172701	18035.055560
606.522534	18243.736644
606.872314	18274.124719
607.222041	18106.682794
607.571714	18314.098548
607.921333	18141.910377
608.270899	18221.109425
608.620411	18415.493796
608.969870	18163.652874
609.319276	18171.806940
609.668627	18203.840952
610.017926	18342.018979
610.367171	18449.551832
610.716362	18496.459768
611.065500	18322.635743
611.414585	18444.858518
611.763616	18435.600438
612.112594	18382.459115
612.461518	18347.236573
612.810389	18538.240851
613.159207	18394.484788
613.507971	18301.208318
613.856682	18586.330938
614.205340	18516.137912
614.553945	18651.349220
614.902496	18398.565602
615.250994	18650.976175
615.599439	18590.605837
615.947830	18563.209686
616.296169	18612.189537
616.644454	18585.020238
616.992686	18548.360968
617.340864	18763.139327
617.688990	18528.186270
618.037063	18696.734728
618.385082	18541.928455
618.733048	18826.783895
619.080961	18681.321400
619.428821	18733.303258
619.776628	18617.631463
620.124382	18541.363846
620.472083	18575.494978
620.819731	18607.541593
621.167326	18301.785530
621.514868	18333.428853
621.862357	18096.073686
622.209793	18116.462632
622.557176	17948.718238
622.904506	17776.502341
623.251783	17682.862908
623.599007	17447.236857
623.946179	17398.519146
624.293297	17338.489086
624.640363	17097.373218
624.987376	17105.570134
625.334336	16902.978764
625.681243	16749.336997
626.028097	16759.331085
626.374899	16688.719643
626.721647	16557.969756
627.068343	16388.037501
627.414987	16306.827033
627.761577	16289.944209
628.108115	16343.839185
628.454600	16054.595421
628.801032	16159.945454
629.147412	16092.325937
629.493739	16110.380830
629.840014	15921.627427
630.186236	16023.867068
630.532405	15777.407577
630.878521	15982.590100
631.224585	15866.827564
631.570597	15694.344485
631.916556	15733.690691
632.262462	15709.140272
632.608316	15630.533560
632.954117	15567.894703
633.299866	15560.791717
633.645562	15495.188661
633.991206	15242.342028
634.336797	15111.060300
634.682336	15075.910855
635.027823	14969.439165
635.373257	14857.018914
635.718639	14740.195214
636.063968	14702.235326
636.409245	14458.122492
636.754470	14484.122243
637.099642	14325.850177
637.444762	14099.469602
637.789829	14135.985200
638.134845	13981.544410
638.479808	14000.065610
638.824719	13960.605978
639.169577	13803.561433
639.514383	13857.776522
639.859137	13678.329089
640.203839	13754.329524
640.548489	13590.106376
640.893086	13587.752157
641.237632	13459.124596
641.582125	13596.521244
641.926566	13440.452162
642.270955	13448.336527
642.615292	13410.885795
642.959576	13429.333898
643.303809	13461.433445
643.647990	13393.214030
643.992118	13447.005662
644.336195	13215.538563
644.680219	13421.081529
645.024192	13347.689890
645.368112	13586.181838
645.711981	13642.733502
646.055797	13813.394203
646.399562	13779.028657
646.743274	14052.231470
647.086935	14329.144571
647.430544	14294.940342
647.774101	14320.521677
648.117606	14484.495288
648.461059	14444.738229
648.804460	14445.799392
649.147810	14172.788143
649.491108	14060.446030
649.834354	14089.843518
650.177548	13791.508034
650.520690	13593.665431
650.863781	13510.856917
651.206820	13553.986509
651.549807	13385.344789
651.892742	13199.578270
652.235626	13133.324905
652.578458	13138.567705
652.921238	12826.537926
653.263967	13014.698994
653.606644	12845.906039
653.949269	12814.141729
654.291843	12621.955300
654.634365	12776.471707
654.976836	12629.204480
655.319255	12643.037406
655.661622	12598.587032
656.003938	12512.491686
656.346203	12443.367384
656.688416	12508.904905
657.030577	12468.638688
657.372687	12392.355948
657.714746	12367.470292
658.056753	12555.820403
658.398708	12380.045451
658.740612	12373.000438
659.082465	12473.236221
659.424266	12437.139039
659.766016	12464.467134
660.107715	12379.483362
660.449362	12445.867797
660.790958	12405.979667
661.132503	12350.290040
661.473996	12409.934452
661.815438	12435.188112
662.156829	12441.776900
662.498168	12425.751072
662.839456	12419.200093
663.180693	12448.849639
663.521879	12531.174202
663.863013	12509.250224
664.204097	12484.800628
664.545129	12604.074328
664.886110	12571.967219
665.227040	12666.236796
665.567918	12668.969101
665.908746	12701.383720
666.249522	12674.201819
666.590248	12725.576218
666.930922	12843.571985
667.271545	12826.873163
667.612118	12908.376018
667.952639	12815.452429
668.293109	12816.795897
668.633528	12776.683435
668.973896	12749.763674
669.314213	12848.545083
669.654480	12578.631624
669.994695	12638.654122
670.334859	12666.209069
670.674973	12618.713838
671.015035	12649.134681
671.355047	12593.094695
671.695008	12566.968915
672.034918	12569.950757
672.374777	12611.268054
672.714585	12520.708767
673.054342	12556.697564
673.394049	12507.657219
673.733705	12593.286258
674.073310	12518.485618
674.412864	12536.248123
674.752368	12407.585274
675.091820	12410.173907
675.431223	12404.525294
675.770574	12275.330603
676.109875	12197.477544
676.449125	12161.317347
676.788324	12097.670259
677.127473	11943.224429
677.466571	11922.709453
677.805619	11823.272694
678.144616	11742.621794
678.483562	11711.689274
678.822458	11577.597102
679.161303	11561.364587
679.500098	11552.114069
679.838842	11504.074394
680.177535	11526.147086
680.516179	11581.415776
680.854771	11533.237469
681.193314	11749.724780
681.531805	11893.926985
681.870247	12300.387658
682.208638	12707.049977
682.546978	13035.423177
682.885268	13094.702105
683.223508	12775.765945
683.561697	12621.874642
683.899836	12521.164991
684.237925	12318.911378
684.575963	12237.070766
684.913951	12170.761949
685.251889	12107.175355
685.589776	12214.897251
685.927614	12131.997996
686.265401	12093.844023
686.603137	12145.916622
686.940824	12289.458437
687.278460	12404.210222
687.616046	12461.439921
687.953582	12636.521714
688.291068	12550.658262
688.628504	12779.816513
688.965889	12803.623362
689.303224	12764.788833
689.640510	12661.377123
689.977745	12353.642408
690.314930	12131.471196
690.652065	12043.543390
690.989150	11760.349011
691.326185	11529.945595
691.663170	11323.424646
692.000105	11083.029663
692.336990	10972.144443
692.673825	10723.570188
693.010610	10602.511919
693.347345	10398.798892
693.684030	10201.059633
694.020665	10140.807762
694.357251	9945.016908
694.693786	9897.521677
695.030272	9727.574299
695.366707	9606.271535
695.703093	9541.545640
696.039429	9537.815186
696.375716	9462.787693
696.711952	9329.832302
697.048139	9370.680771
697.384276	9324.115633
697.720363	9341.673972
698.056400	9284.010734
698.392388	9231.703722
698.728326	9195.936735
699.064214	9130.870562
699.400053	9174.279938
699.735842	8991.535591
700.071581	8945.146893
700.407270	8870.767188
700.742910	8794.565107
701.078501	8702.165798
701.414042	8586.703210
701.749533	8514.329885
702.084974	8374.233699
702.420366	8492.715938
702.755709	8367.045014
703.091002	8243.163699
703.426246	8266.741176
703.761440	8220.097900
704.096584	8175.566867
704.431679	8106.412319
704.766725	8095.432686
705.101721	8040.978142
705.436668	8089.819361
705.771565	7981.021179
706.106413	8057.455153
706.441212	8106.724870
706.775961	8059.181748
707.110661	8086.058660
707.445311	8243.035150
707.779913	8131.562635
708.114465	8261.395032
708.448967	8307.319944
708.783421	8430.815610
709.117825	8627.811299
709.452180	8661.397987
709.786485	8747.339578
710.120742	9028.769553
710.454949	9029.170325
710.789107	9126.958627
711.123216	9331.178290
711.457275	9494.877158
711.791286	9665.268158
712.125247	9652.531683
712.459159	9640.405187
712.793023	9903.077029
713.126837	9476.358479
713.460602	9618.579512
713.794318	9448.637174
714.127985	9484.878029
714.461602	9168.512858
714.795171	9115.159806
715.128691	8874.573260
715.462162	8619.596739
715.795584	8559.133140
716.128957	8424.020135
716.462281	8248.779545
716.795556	8301.396588
717.128782	8098.442255
717.461960	7824.127868
717.795088	7898.197542
718.128167	7805.480640
718.461198	7641.239848
718.794180	7581.361022
719.127113	7572.458345
719.459997	7431.270749
719.792833	7190.283430
720.125619	7262.656756
720.458357	7116.944724
720.791046	7108.226049
721.123686	7106.272602
721.456278	6943.312262
721.788821	6965.435366
722.121315	6855.586103
722.453761	6923.518172
722.786158	6871.798454
723.118506	6879.337499
723.450805	6848.785587
723.783056	6914.900319
724.115259	6821.485218
724.447412	6820.701318
724.779518	6860.239088
725.111574	6860.760847
725.443582	6939.854031
725.775542	6921.932729
726.107453	7111.812830
726.439315	7022.760847
726.771129	7081.707059
727.102895	7243.916266
727.434612	7363.005964
727.766281	7392.968062
728.097901	7484.744788
728.429473	7464.625543
728.760996	7441.045546
729.092471	7423.088956
729.423897	7367.182560
729.755276	7377.363170
730.086606	7305.844321
730.417887	7401.172540
730.749120	7584.761281
731.080305	7781.267978
731.411442	7907.488388
731.742530	7899.069661
732.073570	8005.266608
732.404562	8090.341120
732.735506	7936.404447
733.066401	8081.297290
733.397249	8016.768001
733.728048	7781.278060
734.058798	7454.490303
734.389501	7239.480051
734.720156	7058.999181
735.050762	6819.849363
735.381320	6718.701132
735.711831	6678.792838
736.042293	6569.490540
736.372707	6592.057265
736.703073	6448.399504
737.033391	6483.344782
737.363661	6491.612275
737.693883	6519.792325
738.024056	6600.796105
738.354182	6651.426934
738.684260	6687.914806
739.014290	6794.893131
739.344272	6904.490337
739.674207	6932.413288
740.004093	7002.092116
740.333931	7017.145002
740.663722	7026.110694
740.993464	7103.288238
741.323159	7102.058197
741.652806	6846.065884
741.982405	6849.307346
742.311956	6911.285812
742.641460	6761.475323
742.970915	6566.261681
743.300323	6557.235495
743.629683	6498.581670
743.958996	6367.937647
744.288260	6279.425068
744.617477	6228.159054
744.946647	6236.910497
745.275768	6070.590229
745.604842	6017.373288
745.933869	6008.490775
746.262847	5961.509742
746.591778	5954.537826
746.920662	5917.379481
747.249498	5899.690073
747.578286	5950.875428
747.907027	6020.823958
748.235720	6081.693370
748.564365	6055.877622
748.892963	6077.352937
749.221514	6235.904787
749.550017	6081.960552
749.878473	5946.504748
750.206881	5999.517522
750.535242	5944.397545
750.863555	5871.343664
751.191821	5894.318723
751.520039	5902.971864
751.848210	5803.426719
752.176334	5818.240150
752.504411	5872.919025
752.832440	5799.918076
753.160421	5728.106840
753.488356	5770.800372
753.816243	5811.958872
754.144082	5661.944216
754.471875	5627.213187
754.799620	5673.453170
755.127318	5685.231826
755.454969	5640.000073
755.782572	5601.110092
756.110129	5645.510054
756.437638	5641.361185
756.765100	5578.167801
757.092515	5568.831584
757.419882	5617.970231
757.747203	5596.159679
758.074477	5662.765924
758.401703	5655.413401
758.728882	5600.694197
759.056014	5651.100694
759.383099	5790.659997
759.710138	5803.434281
760.037129	5779.546773
760.364073	5784.136744
760.690970	5866.264702
761.017820	5858.720615
761.344623	5801.669877
761.671379	5907.783645
761.998088	6020.508886
762.324751	6252.591006
762.651366	6833.478123
762.977935	8108.688400
763.304456	9723.269154
763.630931	10642.168156
763.957359	10282.159195
764.283740	9350.984983
764.610074	8536.548771
764.936362	7549.899181
765.262602	6950.750485
765.588796	6412.143526
765.914943	6073.095682
766.241044	5910.500827
766.567097	5722.725408
766.893104	5463.849555
767.219064	5277.883910
767.544978	5222.983224
767.870845	5145.432634
768.196665	5036.427764
768.522438	4967.850428
768.848165	4936.020583
769.173846	4867.912074
769.499479	4824.989169
769.825066	4770.547228
770.150607	4709.387950
770.476101	4684.250236
770.801548	4686.007078
771.126949	4615.410760
771.452303	4561.039395
771.777611	4518.305534
772.102872	4531.457904
772.428087	4494.632275
772.753256	4456.190957
773.078378	4416.597734
773.403453	4344.428576
773.728482	4329.065660
774.053465	4282.296355
774.378401	4270.495014
774.703291	4273.600364
775.028135	4205.035631
775.352932	4156.864885
775.677683	4138.817555
776.002388	4160.965864
776.327046	4173.707380
776.651658	4101.003860
776.976224	4033.984240
777.300743	4039.239643
777.625216	4061.037592
777.949643	4059.757139
778.274024	4014.900952
778.598359	3967.604847
778.922647	3988.321468
779.246889	3983.703771
779.571086	3980.212772
779.895236	3964.406234
780.219339	3952.972897
780.543397	3941.751289
780.867409	3992.344309
781.191374	4011.659490
781.515294	3949.028195
781.839167	3940.732976
782.162995	3960.753918
782.486776	3947.225982
782.810511	3955.937096
783.134201	3955.601859
783.457844	3913.215838
783.781441	3855.660984
784.104993	3857.284236
784.428498	3881.209552
784.751958	3880.312227
785.075372	3854.967826
785.398739	3819.092454
785.722061	3828.554700
786.045337	3871.326370
786.368568	3905.913726
786.691752	3817.494408
787.014891	3862.804299
787.337983	3985.793330
787.661030	4145.161847
787.984031	4303.940549
788.306987	4478.689626
788.629897	4556.837593
788.952760	4515.038866
789.275579	4445.158392
789.598351	4383.542889
789.921078	4251.956170
790.243759	4049.947053
790.566395	4024.048126
790.888984	4023.780944
791.211529	3918.579625
791.534027	3856.891026
791.856480	3854.385572
792.178888	3791.424081
792.501249	3737.697984
792.823566	3744.745517
793.145836	3779.161475
793.468062	3729.790934
793.790241	3682.114222
794.112375	3710.644632
794.434464	3772.403808
794.756507	3797.206285
795.078505	3779.801701
795.400457	3807.833037
795.722364	3944.914613
796.044226	4048.540572
796.366042	4121.654946
796.687812	4109.518368
797.009538	4110.697998
797.331218	4071.019077
797.652852	4037.823078
797.974442	4022.369421
798.295986	4024.625338
798.617484	3946.147175
798.938938	3853.672249
799.260346	3895.649937
799.581709	3892.683218
799.903026	3819.601611
800.224299	3787.325623
800.545526	3778.065024
800.866708	3742.033377
801.187845	3680.589273
801.508936	3714.175960
801.829983	3717.248544
802.150984	3637.124444
802.471940	3625.204636
802.792851	3638.031852
803.113717	3638.553612
803.434538	3639.637460
803.755314	3584.230138
804.076045	3556.367680
804.396731	3574.286462
804.717372	3604.677058
805.037967	3588.976384
805.358518	3577.626226
805.679024	3604.140175
805.999485	3615.182822
806.319901	3620.992752
806.640272	3632.053044
806.960598	3647.090806
807.280879	3619.583750
807.601115	3633.499855
807.921306	3652.784789
808.241453	3692.650233
808.561554	3667.013446
808.881611	3601.725462
809.201623	3637.726862
809.521590	3651.020385
809.841513	3623.813278
810.161390	3653.326713
810.481223	3635.019763
810.801011	3576.323088
811.120755	3565.023342
811.440453	3604.210751
811.760107	3609.083026
812.079716	3568.353024
812.399281	3532.812889
812.718801	3555.059501
813.038276	3530.327600
813.357707	3526.461035
813.677093	3545.786298
813.996434	3494.459791
814.315731	3498.286026
814.634983	3503.586800
814.954191	3515.849406
815.273354	3545.221689
815.592473	3542.675907
815.911547	3546.726474
816.230577	3587.355653
816.549562	3633.333497
816.868502	3678.189684
817.187399	3702.271276
817.506250	3699.995195
817.825058	3670.995957
818.143821	3754.679111
818.462539	3859.928321
818.781213	3906.070002
819.099843	3961.986481
819.418429	4197.945248
819.736970	4435.139098
820.055466	4672.630377
820.373919	5033.914749
820.692327	5439.276451
821.010691	5855.164081
821.329011	7179.878489
821.647286	9835.588582
821.965517	14295.341114
822.283704	18317.675247
822.601847	20549.260464
822.919945	18791.455488
823.237999	16265.187103
823.556010	13798.981544
823.873976	11736.592574
824.191897	9672.192183
824.509775	8320.013569
824.827609	7196.907507
825.145398	6650.219578
825.463144	6531.729777
825.780845	6645.869062
826.098502	6819.405742
826.416116	7656.169225
826.733685	8957.505282
827.051210	10069.193131
827.368692	10160.657305
827.686129	8945.698899
828.003522	7432.465502
828.320872	6424.532161
828.638177	5734.925000
828.955439	5185.048542
829.272656	4688.683931
829.589830	4402.953852
829.906960	4229.034044
830.224046	4051.668607
830.541088	3924.681942
830.858086	3877.615209
831.175041	3803.250628
831.491952	3783.224645
831.808819	3794.864669
832.125642	3862.756408
832.442421	4004.964838
832.759157	4273.169346
833.075849	4805.505110
833.392497	5647.564325
833.709101	6419.017139
834.025662	6766.133349
834.342179	6430.866371
834.658653	5776.854797
834.975083	5141.676974
835.291469	4569.886620
835.607811	4156.756501
835.924110	4020.279863
836.240366	3825.219977
836.556578	3623.231024
836.872746	3512.796988
837.188871	3474.978252
837.504952	3409.148344
837.820990	3327.504337
838.136984	3279.578087
838.452935	3306.061789
838.768842	3304.239412
839.084706	3322.362360
839.400526	3473.692757
839.716303	3798.136378
840.032037	4305.914161
840.347727	4582.358435
840.663373	4322.885205
840.978977	3947.861167
841.294537	3641.767347
841.610054	3413.657656
841.925527	3308.660504
842.240957	3237.779360
842.556344	3186.415044
842.871687	3131.027886
843.186987	3079.598035
843.502244	3044.317520
843.817458	3009.669669
844.132629	2976.763538
844.447756	2986.843325
844.762840	2972.748258
845.077881	2941.074689
845.392879	2925.699170
845.707833	2922.119950
846.022745	2917.643406
846.337613	2916.148704
846.652438	2907.208217
846.967221	2903.848288
847.281960	2891.615928
847.596656	2890.743809
847.911309	2889.402862
848.225919	2882.045298
848.540485	2874.526417
848.855009	2875.890049
849.169490	2866.097608
849.483928	2857.182327
849.798323	2857.792307
850.112675	2854.533201
850.426984	2864.623070
850.741251	2861.774818
851.055474	2851.725278
851.369654	2845.196984
851.683792	2849.507170
851.997887	2856.441277
852.311938	2862.231043
852.625947	2849.880216
852.939914	2855.722913
853.253837	2856.582430
853.567718	2846.759742
853.881555	2840.118021
854.195350	2857.373891
854.509103	2855.743078
854.822812	2845.854854
855.136479	2842.759586
855.450103	2844.899556
855.763685	2837.264728
856.077224	2835.762464
856.390720	2847.432736
856.704173	2855.964888
857.017584	2851.689990
857.330953	2846.845441
857.644278	2858.949252
857.957561	2862.714993
858.270802	2867.441075
858.584000	2865.631301
858.897155	2855.180989
859.210268	2856.756350
859.523339	2853.817357
859.836367	2849.857531
860.149352	2845.673373
860.462295	2840.019719
860.775195	2848.773682
861.088054	2851.861389
861.400869	2834.166939
861.713642	2829.690395
862.026373	2845.635564
862.339062	2848.095647
862.651708	2852.960361
862.964312	2854.941534
863.276873	2849.217304
863.589392	2856.174096
863.901869	2868.207331
864.214303	2889.702811
864.526696	2909.043197
864.839045	2904.269225
865.151353	2901.357958
865.463619	2902.144378
865.775842	2901.665469
866.088023	2920.569796
866.400162	2928.590271
866.712258	2898.360992
867.024313	2887.535114
867.336325	2897.020045
867.648296	2919.080135
867.960224	2909.948084
868.272110	2897.357803
868.583954	2899.966600
868.895755	2916.393200
869.207515	2901.047927
869.519233	2905.181673
869.830909	2919.206163
870.142542	2923.624735
870.454134	2928.428954
870.765684	2928.922988
871.077191	2927.045158
871.388657	2933.868359
871.700081	2947.993673
872.011463	2957.655044
872.322803	2960.404993
872.634101	2960.798203
872.945357	2975.732622
873.256571	3003.816890
873.567744	2994.357164
873.878874	2985.991370
874.189963	3010.050276
874.501010	3014.035308
874.812015	3003.337980
875.122979	3002.566683
875.433900	3000.295644
875.744780	3003.199348
876.055618	3012.134793
876.366415	3007.151613
876.677169	3019.278108
876.987882	3016.371883
877.298554	3008.164885
877.609183	3028.752957
877.919771	3051.085269
878.230317	3077.649629
878.540822	3127.461270
878.851285	3169.065913
879.161707	3207.726522
879.472087	3302.197745
879.782425	3522.365098
880.092722	3947.104994
880.402977	4461.340495
880.713191	5071.199123
881.023363	6192.797881
881.333494	7460.022970
881.643583	8023.273610
881.953631	7739.938078
882.263637	7129.832434
882.573602	6561.543161
882.883526	5990.594679
883.193408	5420.873718
883.503248	4958.728460
883.813048	4660.675280
884.122806	4371.920508
884.432522	4061.887026
884.742197	3827.803568
885.051831	3635.904485
885.361424	3501.497241
885.670975	3430.971499
885.980485	3347.537882
886.289954	3274.093312
886.599382	3230.532702
886.908768	3191.768749
887.218113	3150.136380
887.527417	3094.482042
887.836680	3046.701985
888.145901	3037.136396
888.455082	3027.903523
888.764221	2978.984166
889.073319	2952.538273
889.382376	2950.781431
889.691392	2949.591718
890.000366	2950.700772
890.309300	2940.273145
890.618193	2950.761266
890.927044	2970.227682
891.235855	2968.856488
891.544625	2953.115485
891.853353	2964.059830
892.162041	2981.328302
892.470687	3019.452028
892.779293	3070.297106
893.087858	3115.067593
893.396381	3181.878005
893.704864	3298.888227
894.013306	3530.924977
894.321707	3827.702745
894.630068	4035.804096
894.938387	4036.298129
895.246665	3989.281808
895.554903	3871.283520
895.863100	3676.652132
896.171256	3512.829755
896.479371	3377.086606
896.787446	3261.311466
897.095480	3157.095693
897.403473	3090.973398
897.711425	3056.716238
898.019336	3046.661656
898.327207	3019.857841
898.635038	2985.267964
898.942827	2968.029738
899.250576	2958.799386
899.558284	2930.619336
899.865952	2908.133269
900.173579	2888.248438
900.481165	2881.100082
900.788711	2870.284286
901.096216	2846.162365
901.403681	2834.025787
901.711105	2841.953001
902.018489	2839.641632
902.325832	2839.543330
902.633135	2848.498940
902.940397	2878.037581
903.247619	2955.832667
903.554800	3139.565080
903.861941	3472.356852
904.169041	3890.230697
904.476101	4191.931152
904.783121	4154.256088
905.090100	3920.021395
905.397039	3649.533245
905.703938	3407.346132
906.010796	3222.587843
906.317614	3111.044752
906.624391	3021.080321
906.931129	2952.487861
907.237826	2893.501320
907.544483	2844.108095
907.851099	2813.904021
908.157675	2791.624642
908.464211	2773.239554
908.770707	2762.141454
909.077163	2749.205853
909.383578	2732.045765
909.689954	2721.363560
909.996289	2720.746019
910.302584	2720.458673
910.608839	2724.615104
910.915054	2718.790051
911.221229	2709.998279
911.527363	2713.201932
911.833458	2718.943806
912.139513	2723.523695
912.445527	2725.391442
912.751502	2735.123390
913.057436	2743.136304
913.363331	2757.261617
913.669186	2778.260543
913.975000	2808.394040
914.280775	2867.965355
914.586510	2934.896755
914.892205	3011.847448
915.197859	3132.139461
915.503475	3320.018223
915.809050	3530.725851
916.114585	3672.634332
916.420081	3700.796738
916.725536	3644.136689
917.030952	3528.689225
917.336328	3403.988723
917.641665	3274.173970
917.946961	3173.492046
918.252218	3106.016202
918.557435	3034.136909
918.862612	2972.597024
919.167750	2925.169848
919.472848	2885.392624
919.777906	2859.234077
920.082925	2835.361693
920.387904	2806.007054
920.692843	2790.092131
920.997743	2778.482354
921.302603	2764.309150
921.607423	2754.337747
921.912204	2743.494226
922.216946	2734.410066
922.521647	2722.628890
922.826310	2715.662015
923.130932	2709.680686
923.435516	2702.754141
923.740059	2692.409693
924.044564	2686.143539
924.349028	2682.692869
924.653454	2675.821776
924.957840	2668.696105
925.262186	2663.465908
925.566493	2661.734272
925.870761	2655.654640
926.174989	2653.340751
926.479178	2645.993269
926.783328	2640.606796
927.087438	2644.163330
927.391509	2640.579070
927.695541	2637.062865
927.999533	2632.120014
928.303486	2635.507669
928.607400	2631.439458
928.911275	2631.320991
929.215110	2628.810496
929.518906	2626.869652
929.822663	2630.506844
930.126381	2628.878552
930.430060	2630.406021
930.733699	2626.390742
931.037299	2631.046248
931.340861	2631.938532
931.644383	2634.239819
931.947866	2630.191772
932.251309	2629.614560
932.554714	2630.171608
932.858080	2624.689353
933.161407	2623.166924
933.464694	2621.742798
933.767943	2623.625669
934.071153	2623.895371
934.374323	2621.112654
934.677455	2621.284053
934.980548	2619.907818
935.283602	2620.994187
935.586617	2621.553755
935.889593	2620.671553
936.192530	2620.464866
936.495428	2620.757253
936.798287	2621.321862
937.101108	2626.519292
937.403890	2630.174128
937.706632	2632.898872
938.009336	2639.275932
938.312002	2647.714823
938.614628	2658.661689
938.917216	2662.465239
939.219765	2666.165446
939.522275	2665.174859
939.824747	2664.446413
940.127179	2659.995074
940.429573	2656.577172
940.731929	2653.096255
941.034246	2648.833959
941.336524	2648.781027
941.638763	2646.555358
941.940964	2642.474544
942.243126	2639.984214
942.545250	2639.545633
942.847335	2636.926754
943.149381	2633.624798
943.451389	2631.527678
943.753359	2626.965434
944.055290	2625.251442
944.357182	2625.672378
944.659036	2623.368571
944.960851	2621.967130
945.262628	2624.311266
945.564367	2623.381173
945.866067	2624.454939
946.167729	2624.737244
946.469352	2623.043416
946.770937	2623.784466
947.072484	2621.004269
947.373992	2621.604167
947.675462	2618.652571
947.976893	2615.988321
948.278286	2613.689555
948.579641	2614.571757
948.880958	2613.127467
949.182236	2614.596963
949.483476	2611.552106
949.784678	2613.497991
950.085841	2613.558485
950.386967	2613.994545
950.688054	2614.750718
950.989103	2617.873713
951.290114	2615.993362
951.591087	2618.811367
951.892021	2620.033847
952.192917	2622.199023
952.493776	2625.213633
952.794596	2624.497789
953.095378	2626.723458
953.396122	2625.821092
953.696828	2623.444188
953.997496	2621.422685
954.298126	2621.500823
954.598718	2616.908332
954.899272	2614.039915
955.199788	2612.520007
955.500266	2609.142434
955.800706	2607.153699
956.101108	2603.710591
956.401472	2605.946343
956.701798	2605.202773
957.002087	2601.338728
957.302337	2598.374530
957.602550	2599.597010
957.902724	2595.480907
958.202861	2596.847060
958.502960	2596.247163
958.803022	2597.136927
959.103045	2593.159456
959.403031	2594.724734
959.702979	2590.076791
960.002889	2593.519899
960.302762	2590.149887
960.602596	2592.224322
960.902393	2591.344641
961.202153	2589.804568
961.501875	2591.226174
961.801559	2587.556214
962.101205	2590.046544
962.400814	2591.072418
962.700385	2587.258786
962.999918	2585.990935
963.299414	2585.834660
963.598873	2582.520101
963.898293	2581.176633
964.197677	2590.296081
964.497022	2586.938672
964.796331	2587.513364
965.095601	2585.267530
965.394835	2587.767942
965.694030	2588.337592
965.993189	2584.518918
966.292309	2585.317941
966.591393	2584.234093
966.890439	2587.188209
967.189447	2584.665112
967.488419	2587.374732
967.787353	2585.368353
968.086249	2586.444639
968.385108	2584.617221
968.683930	2589.686101
968.982714	2589.522264
969.281462	2585.058322
969.580172	2586.104361
969.878844	2584.100503
970.177480	2587.372212
970.476078	2587.689804
970.774639	2585.476738
971.073162	2585.075966
971.371649	2589.368508
971.670098	2589.270206
971.968510	2588.982860
972.266885	2589.018148
972.565223	2587.213415
972.863524	2584.060173
973.161788	2586.762232
973.460014	2586.512695
973.758204	2585.948086
974.056356	2586.096800
974.354471	2587.629310
974.652550	2584.947417
974.950591	2585.305338
975.248595	2587.203333
975.546563	2589.214753
975.844493	2583.392221
976.142386	2587.052098
976.440243	2584.395410
976.738062	2584.670153
977.035845	2583.331727
977.333590	2586.424475
977.631299	2585.171748
977.928971	2583.465317
978.226606	2580.725450
978.524204	2579.255954
978.821765	2578.729153
979.119290	2584.408013
979.416777	2584.123188
979.714228	2582.313414
980.011642	2581.756366
980.309020	2583.997159
980.606360	2582.280646
980.903664	2585.438929
981.200931	2583.175451
981.498162	2584.362643
981.795356	2586.018662
982.092513	2585.716192
982.389633	2589.245000
982.686717	2595.937132
982.983764	2600.096084
983.280775	2599.841506
983.577749	2600.116248
983.874686	2603.728235
984.171587	2598.167842
984.468451	2597.134406
984.765279	2593.126689
985.062070	2592.274734
985.358824	2589.295412
985.655543	2589.759198
985.952224	2585.907756
986.248869	2588.128385
986.545478	2584.160997
986.842050	2583.364494
987.138586	2583.160328
987.435086	2583.412385
987.731549	2583.389700
988.027975	2583.757704
988.324366	2581.337950
988.620719	2582.794844
988.917037	2580.493557
989.213318	2582.313414
989.509563	2581.774010
989.805772	2583.157807
990.101944	2581.216963
990.398080	2582.177302
990.694180	2580.995152
990.990244	2581.058166
991.286271	2580.894329
991.582262	2583.011613
991.878217	2578.489698
992.174136	2582.719227
992.470019	2581.307703
992.765865	2578.562795
993.061676	2579.364339
993.357450	2576.349729
993.653188	2574.902917
993.948890	2582.429360
994.244556	2579.976839
994.540186	2581.416088
994.835780	2583.195616
995.131337	2581.922724
995.426859	2581.819381
995.722345	2584.218970
996.017795	2583.820719
996.313208	2582.746953
996.608586	2585.580081
996.903928	2587.402458
997.199234	2585.522108
997.494504	2584.707962
997.789738	2584.854155
998.084936	2584.024885
998.380099	2584.365163
998.675225	2581.852148
998.970316	2582.336099
999.265371	2585.222159
999.560390	2579.591191
999.855373	2581.965574
1000.150320	2579.850810
1000.445232	2581.348033
1000.740108	2581.083372
1001.034948	2580.460790
1001.329752	2578.111612
1001.624521	2579.558423
1001.919254	2580.062538
1002.213951	2579.865933
1002.508613	2578.603124
1002.803239	2578.545151
1003.097829	2579.644123
1003.392384	2581.980697
1003.686903	2578.648495
1003.981386	2579.487847
1004.275834	2579.646643
1004.570246	2578.908114
1004.864623	2580.859041
1005.158964	2577.826787
1005.453270	2579.371900
1005.747540	2576.876529
1006.041775	2577.428536
1006.335974	2579.102199
1006.630138	2579.999524
1006.924266	2579.434915
1007.218359	2578.898032
1007.512416	2575.197825
1007.806438	2577.889801
1008.100425	2575.764955
1008.394376	2571.487536
1008.688292	2577.274780
1008.982172	2578.532548
1009.276017	2576.755542
1009.569827	2577.834348
1009.863602	2579.749987
1010.157341	2576.082548
1010.451045	2578.953485
1010.744714	2579.513053
1011.038347	2579.586149
1011.331945	2577.340315
1011.625508	2579.260995
1011.919036	2577.466344
1012.212528	2579.956674
1012.505986	2575.833010
1012.799408	2578.784606
1013.092795	2578.159503
1013.386147	2574.355952
1013.679464	2576.077506
1013.972745	2576.904256
1014.265992	2577.665470
1014.559204	2575.936354
1014.852380	2575.641447
1015.145521	2575.560788
1015.438628	2577.874678
1015.731699	2577.995665
1016.024736	2577.920048
1016.317737	2574.948288
1016.610703	2576.077506
1016.903635	2580.435584
1017.196531	2577.642785
1017.489393	2576.982393
1017.782219	2573.579615
1018.075011	2576.548854
1018.367768	2576.243864
1018.660490	2576.846282
1018.953177	2576.846282
1019.245829	2576.846282
