Dividing Wavelength (nm)	Counts (n)	Blue Motor Position (mm): 49.700000	Red Motor Position (mm): 0.000000	
326.493990	2128.899434
326.888308	2128.899434
327.282561	2128.899434
327.676750	2095.721080
328.070874	2094.390215
328.464933	2097.886255
328.858929	2104.774992
329.252859	2113.811260
329.646726	2128.513786
330.040528	2138.185239
330.434265	2154.435399
330.827938	2173.165806
331.221547	2190.620801
331.615091	2209.676363
332.008571	2228.626060
332.401986	2249.264544
332.795338	2269.255239
333.188625	2289.770215
333.581847	2306.292597
333.975006	2325.832109
334.368100	2342.409943
334.761129	2361.059692
335.154095	2375.805067
335.546996	2396.425907
335.939833	2422.385328
336.332606	2439.618513
336.725315	2455.097376
337.117960	2459.279013
337.510540	2469.575570
337.903056	2480.325830
338.295508	2487.257417
338.687896	2495.797131
339.080220	2505.455982
339.472480	2512.891684
339.864676	2517.625328
340.256807	2523.213447
340.648875	2524.350227
341.040879	2526.313756
341.432818	2527.183355
341.824694	2527.558921
342.216506	2530.812986
342.608253	2532.937832
342.999937	2528.652852
343.391557	2530.175280
343.783113	2530.497914
344.174605	2528.693181
344.566033	2523.611698
344.957397	2524.430885
345.348697	2523.876358
345.739934	2522.681605
346.131106	2519.682118
346.522215	2518.875534
346.913260	2518.958713
347.304241	2513.607528
347.695159	2513.539472
348.086012	2512.763135
348.476802	2507.253153
348.867528	2508.868843
349.258191	2506.295334
349.648789	2504.699809
350.039324	2503.142093
350.429796	2503.852895
350.820203	2502.143944
351.210548	2500.389622
351.600828	2501.889366
351.991045	2499.250322
352.381198	2500.553460
352.771288	2497.765702
353.161314	2499.131855
353.551276	2498.433655
353.941175	2493.941987
354.331010	2497.773264
354.720782	2498.970538
355.110490	2495.996257
355.500135	2500.066989
355.889717	2495.345948
356.279235	2500.772750
356.668689	2496.102121
357.058080	2499.603202
357.447408	2500.742503
357.836672	2496.102121
358.225873	2495.625732
358.615010	2497.649755
359.004084	2501.907010
359.393095	2499.242760
359.782043	2502.610251
360.170927	2503.505056
360.559748	2504.041938
360.948505	2506.640653
361.337199	2507.565705
361.725830	2508.026971
362.114398	2507.860613
362.502903	2508.122753
362.891344	2508.904131
363.279722	2507.996724
363.668037	2510.829852
364.056289	2509.405726
364.444478	2510.025788
364.832603	2509.524193
365.220665	2512.125429
365.608665	2512.246416
365.996601	2511.986797
366.384474	2511.906138
366.772284	2515.404699
367.160031	2514.923269
367.547715	2516.808661
367.935336	2518.527694
368.322893	2524.650175
368.710388	2523.828467
369.097820	2530.790301
369.485189	2532.900024
369.872495	2538.828421
370.259738	2545.291180
370.646918	2550.470965
371.034035	2557.324414
371.421090	2569.178687
371.808081	2578.645974
372.195010	2587.034454
372.581875	2598.440065
372.968678	2610.493464
373.355418	2622.836729
373.742096	2640.332053
374.128710	2654.744712
374.515262	2668.098729
374.901751	2683.484330
375.288177	2698.592668
375.674540	2718.207798
376.060841	2737.853174
376.447079	2756.258427
376.833254	2776.675100
377.219367	2788.743622
377.605417	2825.644869
377.991404	2837.027794
378.377329	2859.758357
378.763191	2876.535317
379.148991	2912.740884
379.534727	2941.906479
379.920402	2970.346149
380.306013	2979.982314
380.691563	3029.665406
381.077049	3052.269940
381.462474	3070.735686
381.847835	3108.294803
382.233134	3132.885552
382.618371	3131.756333
383.003545	3200.721838
383.388657	3210.156358
383.773706	3243.095257
384.158693	3261.540839
384.543618	3284.992287
384.928480	3322.528718
385.313280	3367.062271
385.698017	3366.578320
386.082692	3421.451280
386.467305	3424.430602
386.851856	3457.404789
387.236344	3481.113336
387.620770	3510.956967
388.005133	3538.811862
388.389435	3564.554514
388.773674	3575.662697
389.157851	3619.772793
389.541965	3633.154536
389.926018	3600.767643
390.310008	3670.925381
390.693936	3690.842980
391.077802	3728.606263
391.461606	3720.263154
391.845348	3783.113739
392.229027	3783.522073
392.612645	3797.024803
392.996200	3873.446175
393.379694	3913.538472
393.763125	3977.334273
394.146494	3947.273873
394.529801	4010.953728
394.913047	4054.242117
395.296230	4019.201056
395.679351	4074.436979
396.062410	4099.476390
396.445408	4082.465016
396.828343	4113.662197
397.211217	4136.349910
397.594028	4058.678332
397.976778	4124.848517
398.359466	4151.107888
398.742092	4180.129810
399.124656	4102.675002
399.507158	4184.208104
399.889598	4207.125189
400.271977	4268.160959
400.654294	4240.384202
401.036549	4249.944750
401.418742	4220.080955
401.800874	4320.107529
402.182944	4340.556970
402.564952	4403.896547
402.946898	4395.840783
403.328783	4387.260740
403.710606	4299.711021
404.092367	4493.457687
404.474067	4461.426195
404.855705	4470.986743
405.237282	4396.289446
405.618797	4508.039224
406.000250	4539.692629
406.381642	4619.909990
406.762972	4584.180812
407.144240	4593.101133
407.525447	4594.943675
407.906593	4653.100947
408.287677	4693.606618
408.668700	4625.258654
409.049661	4672.511909
409.430560	4714.053538
409.811399	4646.060975
410.192176	4805.462260
410.572891	4742.498248
410.953545	4848.798539
411.334138	4725.239858
411.714669	4794.583450
412.095139	4688.757028
412.475547	4828.679294
412.855894	4810.934432
413.236180	4821.972039
413.616405	4776.382364
413.996568	4864.660529
414.376670	4808.802024
414.756711	4759.494498
415.136691	4791.783089
415.516609	4868.340572
415.896466	4904.808279
416.276262	4941.553249
416.655997	4919.435187
417.035670	5105.279844
417.415283	5190.223286
417.794834	5136.431654
418.174324	5092.419860
418.553753	4997.290767
418.933121	5182.006205
419.312428	5246.371658
419.691674	5189.930899
420.070859	5321.810004
420.449983	5229.314913
420.829045	5343.446637
421.208047	5246.195217
421.586988	5325.159851
421.965867	5335.864741
422.344686	5467.713599
422.723444	5323.123225
423.102141	5139.718486
423.480777	5436.055153
423.859352	5208.104259
424.237866	5469.609073
424.616319	5456.431497
424.994712	5566.883178
425.373044	5444.617553
425.751314	5587.463688
426.129524	5385.076485
426.507673	5583.587041
426.885762	5667.731461
427.263789	5596.343681
427.641756	5481.881762
428.019662	5601.420123
428.397508	5608.260969
428.775292	5556.115273
429.153016	5657.966746
429.530679	5582.808183
429.908282	5666.546789
430.285824	5536.593405
430.663305	5814.113965
431.040726	5542.244538
431.418086	5546.045568
431.795385	5650.906610
432.172624	5662.894473
432.549802	5660.678886
432.926920	5670.244476
433.303977	5683.537998
433.680974	5718.455551
434.057910	5733.110185
434.434786	5740.530763
434.811601	5707.307039
435.188355	5939.505106
435.565050	5821.668134
435.941683	5799.101409
436.318257	6018.305902
436.694770	5993.553837
437.071222	6035.665115
437.447614	5963.432942
437.823946	5879.064192
438.200218	6029.255288
438.576429	5893.318054
438.952580	5992.895966
439.328670	6039.667791
439.704700	5949.171518
440.080670	5937.128202
440.456580	6206.124171
440.832429	6088.027580
441.208218	5934.663077
441.583947	6087.238640
441.959616	6093.222489
442.335224	6018.232805
442.710773	6157.293034
443.086261	6183.532240
443.461689	5976.928111
443.837057	6127.446883
444.212365	6284.105780
444.587612	6178.556621
444.962800	6326.690927
445.337927	6307.146373
445.712995	5919.060706
446.088002	6492.134034
446.462949	6328.959446
446.837837	6259.457058
447.212664	6427.942502
447.587431	6573.798206
447.962139	7117.653006
448.336786	8039.725415
448.711374	7783.508771
449.085901	6861.506938
449.460369	6775.688856
449.834776	6716.102417
450.209124	7111.361646
450.583412	7249.554797
450.957640	7399.408136
451.331808	7164.303844
451.705917	6717.607202
452.079965	6638.234234
452.453954	6852.170721
452.827883	6730.759572
453.201752	6820.562687
453.575562	6618.624146
453.949311	6820.275341
454.323001	6712.117385
454.696632	6785.735875
455.070202	6927.994716
455.443713	7079.360402
455.817164	7185.519540
456.190556	7262.462671
456.563888	7342.168355
456.937160	7379.871144
457.310373	7041.660133
457.683526	7061.030766
458.056619	6957.465302
458.429653	6942.626665
458.802628	6877.346244
459.175542	6983.830536
459.548398	7342.838828
459.921194	7506.177254
460.293930	7503.172726
460.666607	8035.997482
461.039224	8349.516922
461.411782	8471.613668
461.784280	8490.245773
462.156719	8376.466930
462.529099	8259.829754
462.901419	7845.852721
463.273680	7744.361691
463.645882	7750.390911
464.018024	7624.195707
464.390106	7787.072867
464.762130	8165.950866
465.134094	8646.375348
465.505999	9668.590278
465.877845	10888.385672
466.249631	11539.465814
466.621358	11154.329222
466.993026	10526.282112
467.364634	10269.354665
467.736184	9907.062061
468.107674	9567.149660
468.479105	9605.865722
468.850477	9368.863435
469.221790	9135.402560
469.593043	8811.826018
469.964238	8671.243360
470.335373	8682.762397
470.706449	8739.863547
471.077467	8725.559272
471.448425	10042.895952
471.819324	11109.478077
472.190164	11131.848197
472.560945	9875.204489
472.931667	9089.560827
473.302330	8952.348181
473.672934	8602.171991
474.043479	8962.183472
474.413965	8900.825068
474.784393	8785.853993
475.154761	8943.503477
475.525070	9032.893217
475.895321	8855.689097
476.265513	9026.591774
476.635645	9200.209113
477.005719	9201.844967
477.375734	9320.687649
477.745691	9558.937621
478.115588	9686.264564
478.485427	9930.115258
478.855207	10475.784873
479.224928	11292.671087
479.594591	11914.696539
479.964194	11729.066131
480.333739	11662.225472
480.703226	11581.766136
481.072653	11676.232318
481.442022	11908.659757
481.811333	12106.462032
482.180584	11907.903584
482.549777	11612.885179
482.918912	11434.831625
483.287988	11455.938936
483.657005	11466.835390
484.025964	11153.255457
484.394864	11280.247163
484.763706	11246.027811
485.132489	11006.578044
485.501213	10982.093160
485.869879	11052.618902
486.238487	10886.613706
486.607036	11010.260607
486.975527	10779.048086
487.343959	10972.265431
487.712333	11028.007989
488.080648	10953.393871
488.448905	10988.215641
488.817104	10931.427043
489.185244	11194.645850
489.553326	11349.787360
489.921350	11892.613765
490.289315	12953.048203
490.657222	13298.831027
491.025070	13209.716030
491.392861	13081.537132
491.760593	12706.503012
492.128267	12351.998991
492.495883	12012.900737
492.863440	11682.349758
493.230939	11347.788542
493.598380	11277.282965
493.965763	11149.772019
494.333088	11046.856863
494.700354	10970.117899
495.067563	11033.525532
495.434713	10854.589776
495.801805	10984.127266
496.168839	10906.755636
496.535815	10849.692295
496.902733	10847.446461
497.269593	10775.257138
497.636395	10876.244053
498.003139	10869.735923
498.369825	10729.594367
498.736453	10895.730633
499.103023	10824.284880
499.469535	10844.837664
499.835989	10845.545946
500.202385	10806.524895
500.568723	10652.530248
500.935003	10873.872190
501.301226	10687.394868
501.667390	10937.909967
502.033497	11033.089472
502.399546	10897.936138
502.765537	10807.389453
503.131470	10876.130627
503.497345	11050.751155
503.863163	10660.714561
504.228923	10971.244597
504.594625	11046.325022
504.960269	10789.294231
505.325856	11001.012610
505.691385	10799.346292
506.056856	10954.046701
506.422270	10974.516306
506.787625	10860.649243
507.152924	10983.509724
507.518164	10961.915942
507.883347	10883.563808
508.248472	10807.361727
508.613540	11040.709176
508.978550	10920.016392
509.343503	10899.370346
509.708398	11016.912410
510.073236	11128.909204
510.438016	11133.703341
510.802738	11081.005640
511.167403	11136.924639
511.532010	11026.725016
511.896561	11262.499781
512.261053	11335.233549
512.625488	11206.923580
512.989866	11183.905672
513.354186	11177.160608
513.718449	11074.086656
514.082655	11278.273551
514.446803	11166.170893
514.810894	11290.407609
515.174927	11154.760241
515.538904	11175.595330
515.902822	11325.604945
516.266684	11216.889942
516.630488	11150.296299
516.994235	11208.193951
517.357925	11272.531677
517.721558	11359.552075
518.085133	11377.075126
518.448651	11387.270859
518.812112	11268.602098
519.175516	11292.870212
519.538863	11405.025803
519.902152	11317.181177
520.265385	11486.475726
520.628560	11397.738815
520.991678	11377.478418
521.354739	11428.525142
521.717743	11362.496109
522.080690	11357.288597
522.443580	11480.023049
522.806413	11436.280957
523.169189	11464.849176
523.531908	11528.536593
523.894569	11343.266627
524.257174	11348.113697
524.619722	11474.747481
524.982213	11418.387381
525.344647	11467.165586
525.707025	11421.764954
526.069345	11513.897082
526.431608	11429.740060
526.793815	11532.130936
527.155964	11331.190543
527.518057	11377.924560
527.880093	11326.497229
528.242072	11399.102447
528.603995	11306.866976
528.965860	11222.596528
529.327669	11278.944025
529.689421	11220.701054
530.051117	11199.775224
530.412755	11291.461210
530.774337	11188.455313
531.135862	11171.885041
531.497331	11196.324554
531.858743	11048.444827
532.220098	11208.715711
532.581396	11079.972203
532.942638	11067.946531
533.303824	11029.227948
533.664953	11044.255628
534.026025	10955.682555
534.387040	11054.862216
534.747999	11053.173429
535.108902	11113.440423
535.469748	10875.923939
535.830537	10982.582152
536.191270	10955.140631
536.551947	10987.499797
536.912567	10984.364200
537.273131	10908.625904
537.633638	10883.132789
537.994089	10872.281706
538.354483	10821.335805
538.714821	10972.220060
539.075103	10975.955555
539.435328	10938.396438
539.795497	10764.343040
540.155609	10923.706516
540.515665	11010.754640
540.875665	10742.141799
541.235609	10816.760958
541.595496	10809.297530
541.955328	10968.262754
542.315102	10852.152378
542.674821	10803.953907
543.034483	10806.499689
543.394090	10804.989864
543.753640	10731.517567
544.113134	10961.739501
544.472571	10808.400204
544.831953	10949.126534
545.191278	10758.815415
545.550548	10784.767275
545.909761	10921.627040
546.268918	10897.671477
546.628019	10981.891514
546.987064	10847.970741
547.346053	10765.817578
547.704986	10865.430778
548.063863	10858.053049
548.422684	10853.924344
548.781449	10765.096693
549.140158	10862.312824
549.498811	10738.860008
549.857408	10598.516805
550.215949	10827.362504
550.574434	10682.830103
550.932864	10779.285020
551.291237	10838.639566
551.649555	10783.270052
552.007817	10802.126488
552.366022	10761.882957
552.724173	10757.734088
553.082267	10739.374205
553.440305	10877.252283
553.798288	10680.017139
554.156215	10829.993987
554.514086	10809.398353
554.871902	10656.243058
555.229661	10690.782523
555.587365	10663.320838
555.945014	10558.369056
556.302606	10687.657008
556.660143	10578.710112
557.017625	10743.439896
557.375050	10635.100458
557.732421	10770.289081
558.089735	10684.554178
558.446994	10678.184680
558.804197	10716.326050
559.161345	10716.227747
559.518437	10570.281302
559.875474	10656.434622
560.232455	10688.476195
560.589381	10637.119441
560.946251	10628.642740
561.303065	10745.267314
561.659825	10674.691160
562.016528	10605.050140
562.373177	10483.361728
562.729770	10604.389749
563.086307	10515.615030
563.442789	10612.526172
563.799216	10491.437656
564.155587	10538.859790
564.511904	10493.176854
564.868164	10479.066665
565.224370	10500.660447
565.580520	10419.671790
565.936615	10426.668912
566.292654	10296.281988
566.648638	10431.944479
567.004567	10380.900276
567.360441	10373.144461
567.716260	10286.189598
568.072023	10377.477332
568.427732	10327.315331
568.783385	10227.810516
569.138982	10309.293206
569.494525	10322.846348
569.850013	10196.530156
570.205445	10278.627867
570.560823	10177.668679
570.916145	10090.802037
571.271412	10153.781172
571.626625	10104.952555
571.981782	10079.378782
572.336884	10056.784330
572.691931	10056.920442
573.046923	10014.058031
573.401860	9958.522160
573.756743	9897.559486
574.111570	9948.833062
574.466342	9926.251213
574.821059	9955.936048
575.175722	9850.797743
575.530330	9858.959371
575.884882	9845.428914
576.239380	9770.613150
576.593823	9749.362166
576.948211	9767.303633
577.302544	9646.815014
577.656823	9664.753960
578.011047	9663.216408
578.365216	9639.732193
578.719330	9562.907529
579.073389	9570.658303
579.427394	9522.853041
579.781344	9500.876131
580.135239	9453.514491
580.489080	9462.467580
580.842866	9364.359164
581.196597	9368.697077
581.550273	9404.877438
581.903895	9370.711018
582.257463	9439.981513
582.610975	9317.549530
582.964434	9344.943160
583.317837	9265.416438
583.671186	9248.909180
584.024481	9242.365762
584.377721	9159.612701
584.730906	9137.189649
585.084037	9169.584103
585.437113	9095.801776
585.790135	9124.979974
586.143103	9025.147484
586.496016	8997.597578
586.848874	9057.236949
587.201679	9048.114981
587.554428	8935.546015
587.907124	8972.369124
588.259765	8946.311399
588.612352	8951.090413
588.964884	8825.674067
589.317362	8844.255760
589.669786	8836.880552
590.022155	8888.428871
590.374470	8900.671313
590.726731	8841.838527
591.078937	8695.541722
591.431090	8803.462743
591.783188	8677.857354
592.135232	8664.609202
592.487222	8672.435593
592.839157	8723.321000
593.191038	8659.910847
593.542866	8596.059592
593.894639	8497.557966
594.246358	8555.853869
594.598022	8571.373062
594.949633	8466.975807
595.301190	8440.227444
595.652692	8470.524779
596.004141	8577.727436
596.355535	8360.579734
596.706876	8335.510076
597.058162	8274.769213
597.409395	8351.535904
597.760573	8416.067714
598.111698	8322.778642
598.462768	8306.437742
598.813785	8272.263760
599.164748	8248.315758
599.515657	8233.346052
599.866511	8135.968604
600.217312	8270.222092
600.568060	8129.861246
600.918753	8225.701142
601.269392	8193.727624
601.619978	8112.965819
601.970510	8178.921755
602.320988	8174.009151
602.671412	8225.416317
603.021783	8164.993047
603.372100	8141.428173
603.722363	8141.400447
604.072572	8116.663505
604.422728	8126.125751
604.772830	8058.758292
605.122878	8061.062099
605.472872	8056.893065
605.822813	8085.579751
606.172701	8031.440279
606.522534	8105.152030
606.872314	8109.074048
607.222041	8075.116836
607.571714	8128.812686
607.921333	8093.741379
608.270899	8095.412521
608.620411	8187.731172
608.969870	8091.682067
609.319276	8085.443639
609.668627	8100.062986
610.017926	8136.021536
610.367171	8179.320006
610.716362	8155.069536
611.065500	8148.838670
611.414585	8177.003596
611.763616	8165.151843
612.112594	8145.554358
612.461518	8162.553129
612.810389	8220.173517
613.159207	8159.846029
613.507971	8108.401054
613.856682	8228.504024
614.205340	8182.760594
614.553945	8263.739169
614.902496	8159.687233
615.250994	8217.310142
615.599439	8198.410856
615.947830	8212.770583
616.296169	8186.967437
616.644454	8197.135444
616.992686	8200.906227
617.340864	8249.800378
617.688990	8156.423086
618.037063	8248.678722
618.385082	8197.533695
618.733048	8281.877240
619.080961	8220.566727
619.428821	8239.675221
619.776628	8246.231241
620.124382	8187.814351
620.472083	8175.090478
620.819731	8202.128707
621.167326	8093.819517
621.514868	8105.583049
621.862357	7993.775298
622.209793	8010.015375
622.557176	7949.450953
622.904506	7911.387721
623.251783	7846.772731
623.599007	7806.922410
623.946179	7806.186402
624.293297	7761.461285
624.640363	7679.958430
624.987376	7660.224833
625.334336	7613.059798
625.681243	7554.932773
626.028097	7545.301649
626.374899	7524.295161
626.721647	7514.553131
627.068343	7448.282123
627.414987	7426.582476
627.761577	7373.589867
628.108115	7415.534787
628.454600	7306.015720
628.801032	7357.042279
629.147412	7319.150446
629.493739	7309.610062
629.840014	7245.453818
630.186236	7300.919113
630.532405	7181.582399
630.878521	7236.651963
631.224585	7187.142792
631.570597	7115.374405
631.916556	7147.146277
632.262462	7144.870196
632.608316	7109.796368
632.954117	7084.686381
633.299866	7075.017448
633.645562	7064.667959
633.991206	6984.755588
634.336797	6930.003616
634.682336	6876.983281
635.027823	6847.348858
635.373257	6840.167734
635.718639	6774.559637
636.063968	6790.018336
636.409245	6681.815009
636.754470	6677.212436
637.099642	6640.066694
637.444762	6577.563948
637.789829	6595.112204
638.134845	6527.137286
638.479808	6522.774167
638.824719	6521.632346
639.169577	6451.071316
639.514383	6469.584953
639.859137	6399.354118
640.203839	6406.240334
640.548489	6389.864146
640.893086	6371.814295
641.237632	6344.145922
641.582125	6357.479774
641.926566	6333.080589
642.270955	6347.001736
642.615292	6335.686866
642.959576	6348.998032
643.303809	6343.674574
643.647990	6349.658424
643.992118	6338.363718
644.336195	6288.942767
644.680219	6310.201312
645.024192	6301.855682
645.368112	6399.366721
645.711981	6418.041676
646.055797	6497.707030
646.399562	6453.745648
646.743274	6580.581078
647.086935	6637.324306
647.430544	6623.456092
647.774101	6654.781822
648.117606	6656.137892
648.461059	6646.847046
648.804460	6611.052333
649.147810	6520.666965
649.491108	6491.143447
649.834354	6463.638912
650.177548	6377.901488
650.520690	6295.072810
650.863781	6275.394666
651.206820	6293.641122
651.549807	6214.389142
651.892742	6158.354197
652.235626	6161.499877
652.578458	6150.731972
652.921238	6055.683537
653.263967	6095.722902
653.606644	6033.794847
653.949269	6034.876175
654.291843	5978.891641
654.634365	6028.678076
654.976836	5981.722248
655.319255	5978.465663
655.661622	5959.636953
656.003938	5953.093536
656.346203	5912.303039
656.688416	5946.459377
657.030577	5900.592439
657.372687	5870.675712
657.714746	5851.998237
658.056753	5899.949692
658.398708	5838.989539
658.740612	5831.085010
659.082465	5878.408842
659.424266	5868.412233
659.766016	5875.653851
660.107715	5850.488411
660.449362	5861.987283
660.790958	5854.014698
661.132503	5842.704869
661.473996	5880.251383
661.815438	5865.863930
662.156829	5864.979208
662.498168	5852.703998
662.839456	5828.488816
663.180693	5865.042222
663.521879	5863.587849
663.863013	5855.030491
664.204097	5873.362647
664.545129	5913.764974
664.886110	5915.302526
665.227040	5944.735303
665.567918	5910.100055
665.908746	5942.116423
666.249522	5944.324449
666.590248	5926.425832
666.930922	5955.364576
667.271545	5970.238500
667.612118	5971.581968
667.952639	5947.631446
668.293109	5965.789682
668.633528	5929.677376
668.973896	5926.693013
669.314213	5916.678761
669.654480	5902.326596
669.994695	5898.555813
670.334859	5882.971086
670.674973	5880.579058
671.015035	5886.494852
671.355047	5881.252052
671.695008	5867.739239
672.034918	5839.912070
672.374777	5854.327250
672.714585	5831.873950
673.054342	5839.476010
673.394049	5831.984856
673.733705	5868.439960
674.073310	5851.511765
674.412864	5812.142874
674.752368	5803.625845
675.091820	5804.911339
675.431223	5740.341720
675.770574	5739.018417
676.109875	5693.673238
676.449125	5701.633220
676.788324	5667.481923
677.127473	5608.205516
677.466571	5604.999342
677.805619	5595.254792
678.144616	5575.848870
678.483562	5554.486981
678.822458	5525.452455
679.161303	5516.348131
679.500098	5511.526268
679.838842	5492.624461
680.177535	5496.705275
680.516179	5512.594992
680.854771	5525.800295
681.193314	5601.445329
681.531805	5714.906578
681.870247	5864.767479
682.208638	5966.780268
682.546978	5982.710315
682.885268	5955.871212
683.223508	5873.166042
683.561697	5814.668492
683.899836	5788.149503
684.237925	5740.676957
684.575963	5706.581113
684.913951	5663.806922
685.251889	5725.210697
685.589776	5698.517787
685.927614	5671.363612
686.265401	5742.199385
686.603137	5726.014761
686.940824	5800.235669
687.278460	5819.840716
687.616046	5827.087375
687.953582	5900.005145
688.291068	5883.525613
688.628504	5946.751764
688.965889	5909.169962
689.303224	5857.251119
689.640510	5809.161032
689.977745	5730.796295
690.314930	5633.640658
690.652065	5573.429116
690.989150	5483.242874
691.326185	5403.751439
691.663170	5352.301423
692.000105	5279.837357
692.336990	5194.977094
692.673825	5169.269730
693.010610	5105.370584
693.347345	5035.069173
693.684030	5020.389333
694.020665	4980.975072
694.357251	4886.289600
694.693786	4897.070107
695.030272	4865.149521
695.366707	4830.726002
695.703093	4797.792144
696.039429	4821.175536
696.375716	4800.368174
696.711952	4774.219709
697.048139	4762.763687
697.384276	4744.539916
697.720363	4751.847068
698.056400	4760.908542
698.392388	4715.417170
698.728326	4690.362635
699.064214	4672.063247
699.400053	4665.739119
699.735842	4631.585302
700.071581	4606.296354
700.407270	4578.822065
700.742910	4559.837080
701.078501	4508.414790
701.414042	4504.270962
701.749533	4479.120645
702.084974	4413.189914
702.420366	4467.515909
702.755709	4409.290582
703.091002	4353.714381
703.426246	4403.679778
703.761440	4362.508674
704.096584	4322.607942
704.431679	4340.660313
704.766725	4324.909228
705.101721	4315.207528
705.436668	4341.688709
705.771565	4293.293632
706.106413	4317.715502
706.441212	4352.779247
706.775961	4362.470866
707.110661	4340.803986
707.445311	4372.853122
707.779913	4393.191657
708.114465	4404.196496
708.448967	4429.780352
708.783421	4492.477182
709.117825	4529.670815
709.452180	4535.226167
709.786485	4583.543106
710.120742	4666.339017
710.454949	4655.485412
710.789107	4717.622675
711.123216	4794.071773
711.457275	4784.430566
711.791286	4861.139283
712.125247	4874.026993
712.459159	4775.021252
712.793023	4853.688458
713.126837	4811.511644
713.460602	4802.175427
713.794318	4728.506526
714.127985	4731.019541
714.461602	4645.539216
714.795171	4617.777582
715.128691	4551.032705
715.462162	4492.746884
715.795584	4444.132517
716.128957	4426.450670
716.462281	4374.718349
716.795556	4351.372765
717.128782	4307.043379
717.461960	4239.108790
717.795088	4249.574225
718.128167	4210.835478
718.461198	4148.047907
718.794180	4148.045387
719.127113	4128.105103
719.459997	4103.668109
719.792833	4061.332499
720.125619	4051.151889
720.458357	4018.510418
720.791046	4023.528887
721.123686	3994.610308
721.456278	3956.247127
721.788821	3970.813541
722.121315	3944.496197
722.453761	3918.506529
722.786158	3929.549176
723.118506	3954.177733
723.450805	3906.869025
723.783056	3927.048764
724.115259	3943.061989
724.447412	3945.638019
724.779518	3942.053758
725.111574	3944.372689
725.443582	3973.828151
725.775542	3961.684011
726.107453	4009.184283
726.439315	4010.227802
726.771129	4027.037530
727.102895	4064.188313
727.434612	4107.980817
727.766281	4122.199391
728.097901	4124.288949
728.429473	4134.078870
728.760996	4132.521153
729.092471	4132.117861
729.423897	4111.610447
729.755276	4120.117394
730.086606	4122.143938
730.417887	4157.971419
730.749120	4222.750246
731.080305	4290.142911
731.411442	4313.629647
731.742530	4285.447076
732.073570	4286.394813
732.404562	4342.696940
732.735506	4334.560517
733.066401	4297.568530
733.397249	4233.457656
733.728048	4152.486643
734.058798	4072.884303
734.389501	4001.254548
734.720156	3937.499076
735.050762	3893.983836
735.381320	3888.589801
735.711831	3834.604085
736.042293	3804.304229
736.372707	3829.295750
736.703073	3800.712407
737.033391	3788.091879
737.363661	3809.557112
737.693883	3832.801872
738.024056	3843.133717
738.354182	3841.225640
738.684260	3900.645721
739.014290	3922.955347
739.344272	3919.061056
739.674207	3964.504537
740.004093	3968.766832
740.333931	3962.656954
740.663722	3962.687201
740.993464	3960.217036
741.323159	3934.963375
741.652806	3905.651586
741.982405	3881.534706
742.311956	3847.771578
742.641460	3839.937625
742.970915	3814.041218
743.300323	3769.248046
743.629683	3739.290989
743.958996	3725.730285
744.288260	3704.769167
744.617477	3669.740710
744.946647	3655.832166
745.275768	3625.827219
745.604842	3626.595995
745.933869	3581.734767
746.262847	3569.590627
746.591778	3606.476750
746.920662	3578.737801
747.249498	3545.995506
747.578286	3592.729523
747.907027	3613.879684
748.235720	3610.756689
748.564365	3632.153867
748.892963	3634.344248
749.221514	3619.487968
749.550017	3592.795058
749.878473	3592.268257
750.206881	3565.928229
750.535242	3559.677198
750.863555	3561.252558
751.191821	3553.514387
751.520039	3534.219371
751.848210	3512.537368
752.176334	3552.286866
752.504411	3551.142524
752.832440	3514.478212
753.160421	3495.488186
753.488356	3506.170391
753.816243	3517.817977
754.144082	3474.930361
754.471875	3460.134574
754.799620	3479.797595
755.127318	3473.612099
755.454969	3470.095894
755.782572	3475.384064
756.110129	3452.845066
756.437638	3442.558591
756.765100	3458.652475
757.092515	3465.145481
757.419882	3474.789208
757.747203	3442.213272
758.074477	3446.064714
758.401703	3462.655151
758.728882	3484.420333
759.056014	3493.552383
759.383099	3496.405676
759.710138	3495.510871
760.037129	3511.723222
760.364073	3539.767161
760.690970	3528.132178
761.017820	3502.742406
761.344623	3521.558513
761.671379	3569.933425
761.998088	3619.442597
762.324751	3748.659973
762.651366	3997.725741
762.977935	4475.347341
763.304456	4917.945526
763.630931	5017.422614
763.957359	4651.376872
764.283740	4307.701250
764.610074	4115.736632
764.936362	3914.682813
765.262602	3755.548710
765.588796	3645.313799
765.914943	3554.479768
766.241044	3464.099442
766.567097	3434.744803
766.893104	3388.280488
767.219064	3355.530632
767.544978	3327.799244
767.870845	3273.695061
768.196665	3252.615476
768.522438	3263.154008
768.848165	3258.934562
769.173846	3221.587174
769.499479	3201.835933
769.825066	3186.145342
770.150607	3172.052796
770.476101	3188.242462
770.801548	3179.100329
771.126949	3137.389822
771.452303	3117.371401
771.777611	3123.992956
772.102872	3129.013945
772.428087	3106.958897
772.753256	3093.688060
773.078378	3087.996597
773.403453	3053.346226
773.728482	3040.566901
774.053465	3060.214798
774.378401	3049.421688
774.703291	3016.714682
775.028135	3022.620393
775.352932	3014.786440
775.677683	3002.710356
776.002388	3001.513082
776.327046	3001.331601
776.651658	2990.656958
776.976224	2981.545072
777.300743	2977.915441
777.625216	2969.549646
777.949643	2961.887093
778.274024	2965.761219
778.598359	2956.024231
778.922647	2964.311888
779.246889	2961.105714
779.571086	2947.424022
779.895236	2937.321550
780.219339	2948.785134
780.543397	2965.519244
780.867409	2964.180818
781.191374	2957.644962
781.515294	2955.373922
781.839167	2956.140177
782.162995	2947.736574
782.486776	2956.498099
782.810511	2951.217490
783.134201	2936.890531
783.457844	2948.409568
783.781441	2938.715429
784.104993	2913.771800
784.428498	2918.127357
784.751958	2933.064295
785.075372	2925.479879
785.398739	2909.587642
785.722061	2926.712442
786.045337	2935.922630
786.368568	2921.204981
786.691752	2913.570153
787.014891	2962.807103
787.337983	2994.490755
787.661030	3020.687111
787.984031	3087.434508
788.306987	3134.092908
788.629897	3127.383132
788.952760	3112.509208
789.275579	3099.434975
789.598351	3036.508772
789.921078	2992.360868
790.243759	2984.189157
790.566395	2963.162504
790.888984	2940.842796
791.211529	2926.853594
791.534027	2913.469330
791.856480	2905.403484
792.178888	2888.276164
792.501249	2880.636295
792.823566	2877.278887
793.145836	2873.636653
793.468062	2869.875952
793.790241	2868.618185
794.112375	2877.087323
794.434464	2885.649723
794.756507	2893.534088
795.078505	2899.631363
795.400457	2912.856830
795.722364	2952.114816
796.044226	2973.464102
796.366042	2976.745893
796.687812	2966.948411
797.009538	2983.432984
797.331218	2972.249184
797.652852	2955.459621
797.974442	2941.243567
798.295986	2938.218875
798.617484	2930.515992
798.938938	2917.184661
799.260346	2900.747979
799.581709	2895.679098
799.903026	2887.698952
800.224299	2883.318189
800.545526	2872.235213
800.866708	2858.430013
801.187845	2846.933661
801.508936	2850.399455
801.829983	2855.856504
802.150984	2841.179184
802.471940	2828.717452
802.792851	2829.208964
803.113717	2829.801300
803.434538	2835.999399
803.755314	2826.733758
804.076045	2823.562872
804.396731	2818.665391
804.717372	2821.846359
805.037967	2815.081131
805.358518	2821.758139
805.679024	2835.049141
805.999485	2830.050837
806.319901	2834.781960
806.640272	2826.209478
806.960598	2831.172494
807.280879	2840.470902
807.601115	2851.253930
807.921306	2834.948318
808.241453	2830.489417
808.561554	2837.899914
808.881611	2841.932837
809.201623	2834.693740
809.521590	2833.990499
809.841513	2829.518995
810.161390	2834.721466
810.481223	2828.447750
810.801011	2816.578353
811.120755	2815.320586
811.440453	2814.735812
811.760107	2813.863692
812.079716	2813.651964
812.399281	2806.498566
812.718801	2799.045220
813.038276	2793.386525
813.357707	2797.858029
813.677093	2804.265335
813.996434	2800.509676
814.315731	2796.910292
814.634983	2789.749333
814.954191	2794.261165
815.273354	2806.385140
815.592473	2819.053560
815.911547	2816.359063
816.230577	2824.215702
816.549562	2834.053513
816.868502	2834.754234
817.187399	2843.903928
817.506250	2858.331710
817.825058	2854.694518
818.143821	2866.059799
818.462539	2883.676111
818.781213	2909.786768
819.099843	2948.081893
819.418429	3005.051972
819.736970	3069.369534
820.055466	3143.587921
820.373919	3249.356370
820.692327	3388.792165
821.010691	3560.521591
821.329011	4013.091178
821.647286	4929.177216
821.965517	6329.478685
822.283704	7099.575429
822.601847	7079.962820
822.919945	6438.181085
823.237999	5915.461322
823.556010	5324.398637
823.873976	4759.912914
824.191897	4341.933205
824.509775	4044.023698
824.827609	3764.373250
825.145398	3637.157212
825.463144	3625.791931
825.780845	3718.750808
826.098502	3825.441787
826.416116	4111.423925
826.733685	4434.934932
827.051210	4504.961600
827.368692	4385.057755
827.686129	4109.992237
828.003522	3779.373203
828.320872	3520.046167
828.638177	3321.303718
828.955439	3180.189219
829.272656	3096.717793
829.589830	3026.897812
829.906960	2976.251860
830.224046	2931.746034
830.541088	2897.380488
830.858086	2881.279042
831.175041	2861.633666
831.491952	2865.520396
831.808819	2876.424411
832.125642	2901.025242
832.442421	2947.187088
832.759157	3031.472660
833.075849	3210.531924
833.392497	3496.335100
833.709101	3706.273952
834.025662	3655.912825
834.342179	3492.113133
834.658653	3311.433138
834.975083	3161.544511
835.291469	3063.408369
835.607811	2973.338073
835.924110	2914.782551
836.240366	2863.004860
836.556578	2822.494147
836.872746	2798.125210
837.188871	2773.249636
837.504952	2756.598705
837.820990	2746.186202
838.136984	2734.331928
838.452935	2728.312791
838.768842	2723.856411
839.084706	2743.148907
839.400526	2821.982470
839.716303	2956.906433
840.032037	3041.176881
840.347727	3028.256403
840.663373	2961.060343
840.978977	2886.932697
841.294537	2812.951243
841.610054	2766.013060
841.925527	2743.116139
842.240957	2721.058570
842.556344	2697.783563
842.871687	2681.790502
843.186987	2674.027126
843.502244	2667.458502
843.817458	2665.641166
844.132629	2650.555513
844.447756	2642.272897
844.762840	2634.653193
845.077881	2638.469347
845.392879	2638.585293
845.707833	2632.659417
846.022745	2622.569548
846.337613	2627.187245
846.652438	2624.376801
846.967221	2626.234467
847.281960	2622.579630
847.596656	2622.428395
847.911309	2622.377984
848.225919	2617.586367
848.540485	2613.172837
848.855009	2617.238527
849.169490	2613.044287
849.483928	2614.586881
849.798323	2615.592591
850.112675	2613.301386
850.426984	2614.985132
850.741251	2612.308279
851.055474	2612.456993
851.369654	2616.147118
851.683792	2615.900101
851.997887	2613.034205
852.311938	2611.985645
852.625947	2613.412292
852.939914	2618.718106
853.253837	2616.071500
853.567718	2615.743825
853.881555	2612.361211
854.195350	2616.414299
854.509103	2614.491099
854.822812	2611.877260
855.136479	2608.789554
855.450103	2613.702158
855.763685	2615.756428
856.077224	2612.063783
856.390720	2609.081941
856.704173	2612.469596
857.017584	2615.184257
857.330953	2617.528394
857.644278	2620.747171
857.957561	2623.585340
858.270802	2616.517642
858.584000	2613.412292
858.897155	2619.764146
859.210268	2622.975361
859.523339	2613.629061
859.836367	2610.538834
860.149352	2611.063114
860.462295	2613.760131
860.775195	2611.388268
861.088054	2608.978597
861.400869	2607.146137
861.713642	2604.713781
862.026373	2606.147989
862.339062	2611.995727
862.651708	2615.423712
862.964312	2617.092334
863.276873	2614.722992
863.589392	2617.387242
863.901869	2623.406379
864.214303	2625.909312
864.526696	2628.286216
864.839045	2630.325363
865.151353	2634.010446
865.463619	2633.841568
865.775842	2632.838378
866.088023	2633.307205
866.400162	2633.912144
866.712258	2633.508852
867.024313	2632.813172
867.336325	2628.543315
867.648296	2628.727317
867.960224	2636.989768
868.272110	2637.627474
868.583954	2627.958541
868.895755	2629.498614
869.207515	2632.223357
869.519233	2640.765592
869.830909	2638.050931
870.142542	2631.971300
870.454134	2636.092443
870.765684	2641.995634
871.077191	2642.804739
871.388657	2647.770276
871.700081	2643.654174
872.011463	2645.295069
872.322803	2646.434370
872.634101	2651.140287
872.945357	2658.434837
873.256571	2662.772750
873.567744	2657.943324
873.878874	2658.422234
874.189963	2658.089518
874.501010	2666.349448
874.812015	2668.219716
875.122979	2667.027483
875.433900	2659.795948
875.744780	2658.205464
876.055618	2667.103101
876.366415	2668.290292
876.677169	2670.291631
876.987882	2665.258038
877.298554	2663.266783
877.609183	2674.843792
877.919771	2681.046932
878.230317	2690.274764
878.540822	2701.382947
878.851285	2713.854762
879.161707	2737.200345
879.472087	2778.200049
879.782425	2828.230981
880.092722	2944.805143
880.402977	3141.125317
880.713191	3407.358734
881.023363	3710.385013
881.333494	3910.591917
881.643583	4086.013989
881.953631	4084.262188
882.263637	3904.126637
882.573602	3678.920651
882.883526	3541.420659
883.193408	3425.721137
883.503248	3316.451607
883.813048	3199.968186
884.122806	3081.115422
884.432522	2992.151660
884.742197	2928.814603
885.051831	2887.646020
885.361424	2849.534897
885.670975	2815.277736
885.980485	2780.723147
886.289954	2763.132040
886.599382	2746.897004
886.908768	2734.059706
887.218113	2715.959443
887.527417	2702.456713
887.836680	2694.708459
888.145901	2688.336441
888.455082	2680.411747
888.764221	2668.494459
889.073319	2661.696463
889.382376	2657.726555
889.691392	2660.040444
890.000366	2660.095897
890.309300	2660.005156
890.618193	2662.782832
890.927044	2662.785352
891.235855	2662.245949
891.544625	2662.470280
891.853353	2663.332318
892.162041	2670.518483
892.470687	2693.221319
892.779293	2704.790767
893.087858	2715.803168
893.396381	2739.234451
893.704864	2779.019237
894.013306	2853.446832
894.321707	2950.015175
894.630068	3003.680778
894.938387	3026.060981
895.246665	3017.559075
895.554903	2969.859677
895.863100	2923.690270
896.171256	2866.198431
896.479371	2802.891621
896.787446	2763.371495
897.095480	2745.104874
897.403473	2737.780078
897.711425	2722.321379
898.019336	2703.759851
898.327207	2687.358457
898.635038	2684.875689
898.942827	2681.621624
899.250576	2674.311951
899.558284	2661.719148
899.865952	2656.526760
900.173579	2655.470638
900.481165	2651.533497
900.788711	2643.424801
901.096216	2637.435910
901.403681	2634.111269
901.711105	2634.839716
902.018489	2634.247381
902.325832	2636.543626
902.633135	2638.907927
902.940397	2652.312355
903.247619	2693.478418
903.554800	2765.138420
903.861941	2896.657082
904.169041	3030.056095
904.476101	3096.780808
904.783121	3089.917277
905.090100	3028.800848
905.397039	2950.405865
905.703938	2874.670090
906.010796	2809.651808
906.317614	2752.492685
906.624391	2717.156717
906.931129	2685.284022
907.237826	2661.666216
907.544483	2645.854637
907.851099	2632.412401
908.157675	2621.858745
908.464211	2613.797940
908.770707	2601.661362
909.077163	2595.823706
909.383578	2595.669951
909.689954	2591.574013
909.996289	2589.479414
910.302584	2588.375401
910.608839	2587.352047
910.915054	2585.653178
911.221229	2590.044023
911.527363	2593.288006
911.833458	2590.714497
912.139513	2591.626945
912.445527	2593.078798
912.751502	2598.548450
913.057436	2604.141610
913.363331	2611.647888
913.669186	2622.965278
913.975000	2635.177473
914.280775	2657.529950
914.586510	2675.330264
914.892205	2714.593291
915.197859	2781.769186
915.503475	2868.547608
915.809050	2941.404884
916.114585	2957.176134
916.420081	2973.408650
916.725536	2982.016420
917.030952	2954.423664
917.336328	2903.974317
917.641665	2852.153776
917.946961	2801.686785
918.252218	2764.556166
918.557435	2737.533061
918.862612	2715.694783
919.167750	2695.356247
919.472848	2678.107940
919.777906	2660.799138
920.082925	2648.710451
920.387904	2636.485653
920.692843	2632.740076
920.997743	2627.784621
921.302603	2620.439660
921.607423	2613.568568
921.912204	2608.227465
922.216946	2604.617999
922.521647	2601.754623
922.826310	2596.073243
923.130932	2592.005032
923.435516	2587.377253
923.740059	2584.947417
924.044564	2583.987077
924.349028	2584.728126
924.653454	2574.139183
924.957840	2572.213462
925.262186	2570.086095
925.566493	2568.689695
925.870761	2567.711712
926.174989	2567.802452
926.479178	2564.477811
926.783328	2564.152657
927.087438	2563.146947
927.391509	2558.814075
927.695541	2559.993705
927.999533	2556.711914
928.303486	2557.271482
928.607400	2557.667213
928.911275	2554.889537
929.215110	2553.024310
929.518906	2556.303580
929.822663	2555.940617
930.126381	2555.335679
930.430060	2552.139587
930.733699	2554.224104
931.037299	2556.054043
931.340861	2555.411296
931.644383	2554.919784
931.947866	2556.099414
932.251309	2558.158725
932.554714	2555.244938
932.858080	2555.809547
933.161407	2556.220401
933.464694	2557.856256
933.767943	2552.868034
934.071153	2554.778631
934.374323	2551.338044
934.677455	2556.119578
934.980548	2553.349464
935.283602	2553.190668
935.586617	2551.426264
935.889593	2553.956923
936.192530	2554.178734
936.495428	2551.083466
936.798287	2550.402910
937.101108	2555.890206
937.403890	2558.221739
937.706632	2565.506207
938.009336	2564.661813
938.312002	2566.582493
938.614628	2572.546178
938.917216	2576.090109
939.219765	2576.264029
939.522275	2578.935841
939.824747	2575.447362
940.127179	2570.554922
940.429573	2567.552915
940.731929	2568.109963
941.034246	2565.372616
941.336524	2572.450396
941.638763	2569.045097
941.940964	2567.255487
942.243126	2565.791032
942.545250	2562.027811
942.847335	2561.833726
943.149381	2561.536298
943.451389	2559.666030
943.753359	2558.408262
944.055290	2559.529919
944.357182	2555.638148
944.659036	2555.315514
944.960851	2555.378529
945.262628	2557.652089
945.564367	2558.360371
945.866067	2555.812068
946.167729	2557.803324
946.469352	2555.655792
946.770937	2558.579661
947.072484	2553.672098
947.373992	2555.741492
947.675462	2558.128478
947.976893	2556.250648
948.278286	2552.595812
948.579641	2557.631924
948.880958	2553.460370
949.182236	2556.505227
949.483476	2553.478014
949.784678	2552.280740
950.085841	2553.805689
950.386967	2556.175031
950.688054	2551.882488
950.989103	2553.611604
951.290114	2557.168138
951.591087	2557.263920
951.892021	2558.302398
952.192917	2559.776935
952.493776	2559.045968
952.794596	2564.273645
953.095378	2560.833057
953.396122	2562.292471
953.696828	2560.071843
953.997496	2558.642676
954.298126	2555.741492
954.598718	2555.423899
954.899272	2554.463559
955.199788	2554.108158
955.500266	2549.727395
955.800706	2548.608259
956.101108	2544.905532
956.401472	2546.054915
956.701798	2543.864533
957.002087	2542.687424
957.302337	2544.855120
957.602550	2544.908052
957.902724	2543.645243
958.202861	2541.288504
958.502960	2542.311858
958.803022	2541.338915
959.103045	2540.285314
959.403031	2540.481919
959.702979	2538.072248
960.002889	2540.534851
960.302762	2540.406302
960.602596	2539.917310
960.902393	2540.013092
961.202153	2539.214069
961.501875	2539.642567
961.801559	2537.338760
962.101205	2539.103163
962.400814	2538.374717
962.700385	2538.823379
962.999918	2539.070396
963.299414	2536.829603
963.598873	2537.590817
963.898293	2535.181146
964.197677	2537.812628
964.497022	2539.869419
964.796331	2535.556712
965.095601	2535.513862
965.394835	2535.798687
965.694030	2534.576207
965.993189	2538.669624
966.292309	2536.481763
966.591393	2536.751465
966.890439	2536.708615
967.189447	2535.539068
967.488419	2535.299613
967.787353	2534.165353
968.086249	2536.680889
968.385108	2536.640560
968.683930	2535.256763
968.982714	2537.820190
969.281462	2536.781712
969.580172	2537.532844
969.878844	2535.697864
970.177480	2536.237268
970.476078	2539.277083
970.774639	2538.442772
971.073162	2537.938657
971.371649	2532.164015
971.670098	2532.741227
971.968510	2536.373379
972.266885	2531.085208
972.565223	2537.772299
972.863524	2535.319777
973.161788	2536.020498
973.460014	2537.484953
973.758204	2538.800694
974.056356	2538.029398
974.354471	2535.561753
974.652550	2540.159285
974.950591	2537.313554
975.248595	2538.505787
975.546563	2535.544109
975.844493	2535.614685
976.142386	2536.575025
976.440243	2535.236598
976.738062	2536.275076
977.035845	2535.443286
977.333590	2537.094264
977.631299	2536.151568
977.928971	2535.680220
978.226606	2534.324150
978.524204	2537.789943
978.821765	2536.244829
979.119290	2536.234747
979.416777	2533.724252
979.714228	2534.117462
980.011642	2535.539068
980.309020	2538.848585
980.606360	2535.531506
980.903664	2534.956814
981.200931	2537.744573
981.498162	2536.617875
981.795356	2537.525282
982.092513	2540.255067
982.389633	2544.839997
982.686717	2547.728578
982.983764	2549.760163
983.280775	2552.326110
983.577749	2551.396017
983.874686	2551.643034
984.171587	2547.327806
984.468451	2545.293700
984.765279	2542.901673
985.062070	2542.803370
985.358824	2538.432690
985.655543	2537.318595
985.952224	2537.558050
986.248869	2536.517052
986.545478	2531.042358
986.842050	2533.308357
987.138586	2529.678726
987.435086	2531.982534
987.731549	2530.971782
988.027975	2534.084695
988.324366	2532.622760
988.620719	2533.895652
988.917037	2532.937832
989.213318	2531.591844
989.509563	2533.625950
989.805772	2534.112421
990.101944	2533.257946
990.398080	2533.399098
990.694180	2534.089736
990.990244	2531.695188
991.286271	2531.460774
991.582262	2533.847761
991.878217	2533.058820
992.174136	2534.911444
992.470019	2532.577390
992.765865	2530.402132
993.061676	2531.223840
993.357450	2532.600075
993.653188	2528.851977
993.948890	2534.412370
994.244556	2536.459078
994.540186	2533.784746
994.835780	2534.021680
995.131337	2534.651825
995.426859	2535.319778
995.722345	2534.790456
996.017795	2537.558050
996.313208	2535.337422
996.608586	2537.064017
996.903928	2538.765406
997.199234	2536.595189
997.494504	2537.610982
997.789738	2537.028729
998.084936	2533.290713
998.380099	2533.192411
998.675225	2536.060827
998.970316	2533.144520
999.265371	2533.764582
999.560390	2533.625950
999.855373	2533.782226
1000.150320	2533.444468
1000.445232	2532.511855
1000.740108	2532.990764
1001.034948	2533.101670
1001.329752	2532.360620
1001.624521	2532.390867
1001.919254	2524.249404
1002.213951	2528.519261
1002.508613	2527.606812
1002.803239	2526.860721
1003.097829	2525.068591
1003.392384	2530.959179
1003.686903	2529.865249
1003.981386	2534.649304
1004.275834	2531.730476
1004.570246	2532.627801
1004.864623	2530.162677
1005.158964	2531.617050
1005.453270	2529.005732
1005.747540	2532.607637
1006.041775	2529.469518
1006.335974	2531.538912
1006.630138	2529.507327
1006.924266	2530.765095
1007.218359	2529.247708
1007.512416	2530.482790
1007.806438	2531.319622
1008.100425	2529.726617
1008.394376	2531.859025
1008.688292	2529.484642
1008.982172	2529.625794
1009.276017	2533.275590
1009.569827	2531.065044
1009.863602	2531.183511
1010.157341	2529.419107
1010.451045	2529.477080
1010.744714	2530.397091
1011.038347	2531.929602
1011.331945	2532.690816
1011.625508	2533.106711
1011.919036	2531.150743
1012.212528	2530.518078
1012.505986	2530.129910
1012.799408	2528.816689
1013.092795	2531.057482
1013.386147	2530.286185
1013.679464	2529.179652
1013.972745	2530.898686
1014.265992	2529.489683
1014.559204	2531.294416
1014.852380	2528.783922
1015.145521	2530.553367
1015.438628	2529.731658
1015.731699	2532.685775
1016.024736	2529.512368
1016.317737	2529.449354
1016.610703	2533.270548
1016.903635	2526.545649
1017.196531	2524.186389
1017.489393	2528.753675
1017.782219	2524.834178
1018.075011	2529.083870
1018.367768	2528.610002
1018.660490	2528.763757
1018.953177	2528.763757
1019.245829	2528.763757
