Dividing Wavelength (nm)	Counts (n)	Blue Motor Position (mm): 13.300000	Red Motor Position (mm): 0.000000	
326.493990	2168.112049
326.888308	2168.112049
327.282561	2168.112049
327.676750	2126.278034
328.070874	2124.674947
328.464933	2123.805348
328.858929	2127.515637
329.252859	2133.620474
329.646726	2143.133132
330.040528	2155.063022
330.434265	2169.200938
330.827938	2184.480676
331.221547	2199.846113
331.615091	2219.793958
332.008571	2237.180898
332.401986	2256.911974
332.795338	2275.491147
333.188625	2293.488066
333.581847	2312.107568
333.975006	2328.771102
334.368100	2351.058043
334.761129	2367.318284
335.154095	2382.567775
335.546996	2404.101063
335.939833	2431.814807
336.332606	2445.461210
336.725315	2457.197016
337.117960	2472.383492
337.510540	2480.870275
337.903056	2495.262769
338.295508	2502.161588
338.687896	2509.751045
339.080220	2518.373939
339.472480	2524.766122
339.864676	2529.537574
340.256807	2533.618388
340.648875	2542.803370
341.040879	2539.773637
341.432818	2548.048691
341.824694	2547.973074
342.216506	2547.753783
342.608253	2548.459545
342.999937	2550.077755
343.391557	2550.854093
343.783113	2551.612787
344.174605	2547.778989
344.566033	2546.438042
344.957397	2546.438042
345.348697	2545.946530
345.739934	2541.878319
346.131106	2541.835469
346.522215	2539.798843
346.913260	2540.267670
347.304241	2536.713657
347.695159	2536.373379
348.086012	2531.818696
348.476802	2531.294416
348.867528	2525.552542
349.258191	2523.536080
349.648789	2522.550535
350.039324	2521.512057
350.429796	2522.883251
350.820203	2522.174969
351.210548	2520.518950
351.600828	2519.717406
351.991045	2519.150277
352.381198	2515.719771
352.771288	2517.128774
353.161314	2518.363857
353.551276	2516.622138
353.941175	2513.168947
354.331010	2512.357322
354.720782	2516.256654
355.110490	2513.652898
355.500135	2514.454442
355.889717	2513.993176
356.279235	2513.269771
356.668689	2514.759432
357.058080	2514.406551
357.447408	2514.061232
357.836672	2513.670542
358.225873	2516.964936
358.615010	2517.126253
359.004084	2520.161028
359.393095	2518.018538
359.782043	2519.281347
360.170927	2517.859741
360.559748	2518.106758
360.948505	2518.358815
361.337199	2520.710514
361.725830	2520.506347
362.114398	2522.754702
362.502903	2520.075328
362.891344	2522.096831
363.279722	2519.082221
363.668037	2524.438447
364.056289	2521.610360
364.444478	2524.428365
364.832603	2523.904085
365.220665	2523.830988
365.608665	2524.065402
365.996601	2527.014477
366.384474	2525.466842
366.772284	2526.719569
367.160031	2525.234949
367.547715	2528.494055
367.935336	2526.192768
368.322893	2524.304856
368.710388	2523.573889
369.097820	2526.064219
369.485189	2523.087418
369.872495	2529.023376
370.259738	2531.052441
370.646918	2529.756864
371.034035	2528.068078
371.421090	2531.483459
371.808081	2528.000022
372.195010	2529.547656
372.581875	2527.833664
372.968678	2528.534384
373.355418	2530.613860
373.742096	2532.295085
374.128710	2531.848943
374.515262	2534.435055
374.901751	2531.710311
375.288177	2530.883562
375.674540	2533.542771
376.060841	2532.839530
376.447079	2530.424817
376.833254	2532.022863
377.219367	2532.963038
377.605417	2533.424304
377.991404	2533.404139
378.377329	2533.547812
378.763191	2534.866074
379.148991	2534.530837
379.534727	2532.819365
379.920402	2535.894469
380.306013	2533.701567
380.691563	2535.521424
381.077049	2534.566125
381.462474	2536.063348
381.847835	2533.605785
382.233134	2536.123842
382.618371	2534.089736
383.003545	2536.002854
383.388657	2536.622916
383.773706	2538.072247
384.158693	2535.478574
384.543618	2537.706764
384.928480	2537.202648
385.313280	2535.854140
385.698017	2537.855478
386.082692	2536.587628
386.467305	2537.777340
386.851856	2538.694830
387.236344	2540.585263
387.620770	2537.023688
388.005133	2537.018646
388.389435	2537.197607
388.773674	2533.021011
389.157851	2536.779192
389.541965	2539.574511
389.926018	2540.900335
390.310008	2538.518390
390.693936	2540.670962
391.077802	2542.120294
391.461606	2539.090561
391.845348	2541.049049
392.229027	2542.783206
392.612645	2540.489481
392.996200	2544.184647
393.379694	2540.507125
393.763125	2542.558874
394.146494	2542.200952
394.529801	2541.785057
394.913047	2542.498381
395.296230	2543.229348
395.679351	2543.685572
396.062410	2542.745397
396.445408	2545.230686
396.828343	2543.564585
397.211217	2544.114070
397.594028	2545.996941
397.976778	2542.059800
398.359466	2544.996272
398.742092	2543.705737
399.124656	2546.133052
399.507158	2546.377548
399.889598	2546.163299
400.271977	2544.083823
400.654294	2544.277908
401.036549	2545.255892
401.418742	2546.191026
401.800874	2544.000644
402.182944	2545.109698
402.564952	2545.492826
402.946898	2545.906201
403.328783	2548.041129
403.710606	2547.148845
404.092367	2547.350491
404.474067	2548.192364
404.855705	2545.520552
405.237282	2549.563558
405.618797	2546.823691
406.000250	2549.508105
406.381642	2545.608772
406.762972	2547.839483
407.144240	2545.830583
407.525447	2545.248330
407.906593	2544.966025
408.287677	2548.114226
408.668700	2551.063301
409.049661	2548.073897
409.430560	2549.074566
409.811399	2548.303269
410.192176	2549.992056
410.572891	2550.077755
410.953545	2544.761859
411.334138	2550.108002
411.714669	2549.757642
412.095139	2549.913918
412.475547	2550.927190
412.855894	2550.148332
413.236180	2547.481561
413.616405	2550.501212
413.996568	2548.320913
414.376670	2551.136398
414.756711	2551.017931
415.136691	2551.693445
415.516609	2554.874413
415.896466	2552.958775
416.276262	2550.990204
416.655997	2550.476007
417.035670	2548.920811
417.415283	2551.753939
417.794834	2554.168652
418.174324	2556.270813
418.553753	2554.874413
418.933121	2553.974567
419.312428	2551.839639
419.691674	2550.370142
420.070859	2552.197561
420.449983	2553.344423
420.829045	2553.982129
421.208047	2552.530277
421.586988	2555.746533
421.965867	2552.802499
422.344686	2553.931717
422.723444	2554.413148
423.102141	2555.282747
423.480777	2554.634958
423.859352	2556.371636
424.237866	2552.346275
424.616319	2554.082952
424.994712	2553.745195
425.373044	2553.309135
425.751314	2552.520194
426.129524	2550.619679
426.507673	2554.392983
426.885762	2550.748229
427.263789	2555.318035
427.641756	2554.987839
428.019662	2554.370298
428.397508	2553.619166
428.775292	2555.640669
429.153016	2555.534804
429.530679	2553.379711
429.908282	2555.892726
430.285824	2554.816440
430.663305	2559.171997
431.040726	2556.885834
431.418086	2554.584547
431.795385	2557.057233
432.172624	2557.067315
432.549802	2555.917932
432.926920	2557.016904
433.303977	2557.730227
433.680974	2559.252655
434.057910	2555.754095
434.434786	2557.120247
434.811601	2557.619322
435.188355	2554.455997
435.565050	2557.679815
435.941683	2558.446071
436.318257	2558.499003
436.694770	2555.875082
437.071222	2557.500854
437.447614	2558.168807
437.823946	2558.166287
438.200218	2557.115206
438.576429	2560.142419
438.952580	2559.534960
439.328670	2559.610577
439.704700	2559.953376
440.080670	2556.527912
440.456580	2557.916750
440.832429	2561.120403
441.208218	2558.269630
441.583947	2558.030176
441.959616	2558.796431
442.335224	2558.977912
442.710773	2560.880948
443.086261	2559.706359
443.461689	2561.644683
443.837057	2560.407080
444.212365	2559.076215
444.587612	2559.897923
444.962800	2554.241748
445.337927	2557.198385
445.712995	2557.606719
446.088002	2560.520506
446.462949	2559.724003
446.837837	2560.661658
447.212664	2561.992523
447.587431	2560.765002
447.962139	2559.295505
448.336786	2563.570404
448.711374	2560.906154
449.085901	2561.196020
449.460369	2561.024621
449.834776	2561.750547
450.209124	2560.981771
450.583412	2563.817420
450.957640	2560.303736
451.331808	2563.726679
451.705917	2564.545867
452.079965	2561.818603
452.453954	2562.524364
452.827883	2561.120403
453.201752	2564.223233
453.575562	2563.499827
453.949311	2562.521844
454.323001	2563.590568
454.696632	2561.949673
455.070202	2564.944118
455.443713	2562.519323
455.817164	2565.859087
456.190556	2563.759447
456.563888	2565.327246
456.937160	2566.491752
457.310373	2565.004612
457.683526	2564.818089
458.056619	2567.613409
458.429653	2566.590055
458.802628	2564.167780
459.175542	2563.330949
459.548398	2563.187276
459.921194	2565.481001
460.293930	2563.197358
460.666607	2567.643656
461.039224	2566.257339
461.411782	2566.683316
461.784280	2566.146433
462.156719	2567.363872
462.529099	2564.089643
462.901419	2569.518965
463.273680	2563.898079
463.645882	2562.783984
464.018024	2563.882955
464.390106	2563.240208
464.762130	2568.861095
465.134094	2568.692216
465.505999	2570.534758
465.877845	2571.941240
466.249631	2573.052814
466.621358	2567.593244
466.993026	2570.449058
467.364634	2574.454255
467.736184	2571.467371
468.107674	2569.019891
468.479105	2567.729356
468.850477	2567.394119
469.221790	2569.531568
469.593043	2570.290262
469.964238	2569.934860
470.335373	2567.124417
470.706449	2566.741289
471.077467	2571.956363
471.448425	2569.715570
471.819324	2573.004923
472.190164	2570.227247
472.560945	2572.236147
472.931667	2570.355797
473.302330	2572.092474
473.672934	2573.080540
474.043479	2572.631878
474.413965	2572.258832
474.784393	2571.308575
475.154761	2571.749676
475.525070	2570.247412
475.895321	2573.884604
476.265513	2570.955694
476.635645	2576.402661
477.005719	2572.767989
477.375734	2571.550550
477.745691	2572.243709
478.115588	2574.149265
478.485427	2573.319995
478.855207	2573.796384
479.224928	2575.480130
479.594591	2577.022723
479.964194	2576.848803
480.333739	2578.106571
480.703226	2576.347208
481.072653	2578.214956
481.442022	2578.071283
481.811333	2574.267732
482.180584	2572.679769
482.549777	2575.283525
482.918912	2572.029460
483.287988	2574.184553
483.657005	2575.661611
484.025964	2575.838052
484.394864	2578.436766
484.763706	2578.151941
485.132489	2577.705799
485.501213	2577.753690
485.869879	2578.081365
486.238487	2578.172106
486.607036	2579.634040
486.975527	2578.620768
487.343959	2576.100192
487.712333	2578.179667
488.080648	2576.344688
488.448905	2577.083217
488.817104	2577.748649
489.185244	2576.816035
489.553326	2578.419122
489.921350	2579.576067
490.289315	2581.075810
490.657222	2582.013465
491.025070	2579.195460
491.392861	2582.888105
491.760593	2585.138980
492.128267	2584.103023
492.495883	2581.602611
492.863440	2581.201839
493.230939	2578.240161
493.598380	2581.189236
493.965763	2581.348033
494.333088	2579.692014
494.700354	2579.568505
495.067563	2580.460790
495.434713	2582.194947
495.801805	2582.383990
496.168839	2580.251582
496.535815	2580.707806
496.902733	2580.599421
497.269593	2582.293249
497.636395	2581.811819
498.003139	2582.121850
498.369825	2580.531366
498.736453	2582.416757
499.103023	2580.080182
499.469535	2584.612180
499.835989	2582.028588
500.202385	2578.371231
500.568723	2577.567167
500.935003	2578.898032
501.301226	2575.681776
501.667390	2582.547827
502.033497	2584.639906
502.399546	2584.327355
502.765537	2581.416088
503.131470	2583.293918
503.497345	2581.612693
503.863163	2583.472879
504.228923	2580.690162
504.594625	2582.618403
504.960269	2585.557396
505.325856	2585.088569
505.691385	2580.566654
506.056856	2583.293918
506.422270	2583.770307
506.787625	2588.970257
507.152924	2583.813157
507.518164	2585.494382
507.883347	2587.130236
508.248472	2586.197623
508.613540	2585.796851
508.978550	2587.967068
509.343503	2588.619897
509.708398	2587.276430
510.073236	2590.089393
510.438016	2590.144846
510.802738	2591.669795
511.167403	2591.591657
511.532010	2589.068560
511.896561	2592.690629
512.261053	2591.826071
512.625488	2594.185331
512.989866	2590.681729
513.354186	2593.862697
513.718449	2596.405959
514.082655	2597.686412
514.446803	2596.433686
514.810894	2595.891762
515.174927	2597.963676
515.538904	2597.746906
515.902822	2600.242277
516.266684	2598.861001
516.630488	2601.663883
516.994235	2600.978286
517.357925	2602.246136
517.721558	2604.802001
518.085133	2602.581373
518.448651	2602.382247
518.812112	2600.275045
519.175516	2605.333843
519.538863	2602.553646
519.902152	2606.818463
520.265385	2608.552619
520.628560	2610.112857
520.991678	2610.402723
521.354739	2608.590428
521.717743	2611.572271
522.080690	2612.550254
522.443580	2611.463886
522.806413	2613.334154
523.169189	2613.989504
523.531908	2618.463528
523.894569	2614.705348
524.257174	2617.417488
524.619722	2619.580143
524.982213	2620.139712
525.344647	2620.459825
525.707025	2622.209105
526.069345	2619.756584
526.431608	2622.806482
526.793815	2623.441667
527.155964	2623.073663
527.518057	2624.288581
527.880093	2625.518623
528.242072	2629.302009
528.603995	2628.455095
528.965860	2630.756382
529.327669	2628.404683
529.689421	2629.407873
530.051117	2632.248563
530.412755	2630.085908
530.774337	2631.172277
531.135862	2629.438120
531.497331	2634.786784
531.858743	2632.666979
532.220098	2637.098153
532.581396	2636.394912
532.942638	2636.432721
533.303824	2641.683082
533.664953	2640.180819
534.026025	2639.306178
534.387040	2641.622589
534.747999	2642.293062
535.108902	2646.726757
535.469748	2643.202990
535.830537	2642.824904
536.191270	2647.581232
536.551947	2643.089564
536.912567	2644.871612
537.273131	2647.377066
537.633638	2646.565440
537.994089	2651.646923
538.354483	2652.481234
538.714821	2654.777480
539.075103	2652.985349
539.435328	2657.129178
539.795497	2654.275885
540.155609	2659.443067
540.515665	2657.146822
540.875665	2658.452481
541.235609	2660.148829
541.595496	2661.023469
541.955328	2659.425423
542.315102	2666.130158
542.674821	2663.044972
543.034483	2664.285096
543.394090	2666.999757
543.753640	2669.238029
544.113134	2670.815911
544.472571	2673.906138
544.831953	2675.819256
545.191278	2674.601817
545.550548	2676.154492
545.909761	2677.503001
546.268918	2681.669515
546.628019	2682.700431
546.987064	2685.228569
547.346053	2683.552386
547.704986	2685.339475
548.063863	2686.067922
548.422684	2687.497089
548.781449	2689.810978
549.140158	2692.621422
549.498811	2693.125537
549.857408	2691.240145
550.215949	2696.787935
550.574434	2700.168029
550.932864	2703.696837
551.291237	2704.490818
551.649555	2706.668597
552.007817	2709.350491
552.366022	2708.400233
552.724173	2708.932075
553.082267	2713.643033
553.440305	2718.608570
553.798288	2718.643858
554.156215	2723.564024
554.514086	2724.927656
554.871902	2720.531770
555.229661	2725.890516
555.587365	2726.918912
555.945014	2732.691033
556.302606	2740.232599
556.660143	2742.957343
557.017625	2751.456728
557.375050	2748.111922
557.732421	2752.321286
558.089735	2758.703387
558.446994	2759.290681
558.804197	2769.378030
559.161345	2770.960952
559.518437	2767.641352
559.875474	2778.671397
560.232455	2780.944957
560.589381	2786.422171
560.946251	2786.369239
561.303065	2797.144705
561.659825	2804.335911
562.016528	2807.373207
562.373177	2807.254739
562.729770	2810.450831
563.086307	2821.611946
563.442789	2830.678461
563.799216	2833.970334
564.155587	2838.880418
564.511904	2851.667305
564.868164	2853.688807
565.224370	2860.975795
565.580520	2861.673995
565.936615	2878.203939
566.292654	2873.939123
566.648638	2890.690877
567.004567	2894.139026
567.360441	2903.303844
567.716260	2907.266191
568.072023	2924.829571
568.427732	2931.105807
568.783385	2934.838782
569.138982	2952.001390
569.494525	2964.604274
569.850013	2976.355204
570.205445	2979.636995
570.560823	2985.376349
570.916145	3000.744306
571.271412	3009.984741
571.626625	3026.217257
571.981782	3036.985161
572.336884	3041.391130
572.691931	3059.912329
573.046923	3058.745302
573.401860	3078.935123
573.756743	3101.892538
574.111570	3113.651029
574.466342	3122.657050
574.821059	3142.161275
575.175722	3144.318888
575.530330	3169.766633
575.884882	3181.199970
576.239380	3202.750903
576.593823	3211.535113
576.948211	3227.427351
577.302544	3237.827251
577.656823	3248.688417
578.011047	3273.443003
578.365216	3291.109727
578.719330	3310.056903
579.073389	3324.131805
579.427394	3363.011704
579.781344	3357.731095
580.135239	3382.079868
580.489080	3399.789442
580.842866	3407.661204
581.196597	3457.770273
581.550273	3462.750933
581.903895	3504.189218
582.257463	3530.819113
582.610975	3539.888148
582.964434	3580.492122
583.317837	3596.848146
583.671186	3629.131695
584.024481	3669.718025
584.377721	3668.006553
584.730906	3701.104248
585.084037	3738.353334
585.437113	3757.035850
585.790135	3795.247797
586.143103	3798.809372
586.496016	3816.655056
586.848874	3877.408522
587.201679	3894.916449
587.554428	3908.179725
587.907124	3965.870690
588.259765	3986.536900
588.612352	4042.569325
588.964884	4035.884755
589.317362	4081.587856
589.669786	4121.980101
590.022155	4156.484278
590.374470	4215.405284
590.726731	4232.860280
591.078937	4244.888473
591.431090	4286.412457
591.783188	4298.140701
592.135232	4325.962829
592.487222	4391.969177
592.839157	4419.433383
593.191038	4459.059373
593.542866	4465.751505
593.894639	4492.845186
594.246358	4560.074014
594.598022	4574.539605
594.949633	4596.093058
595.301190	4613.429586
595.652692	4677.217827
596.004141	4740.718721
596.355535	4710.612950
596.706876	4748.008229
597.058162	4777.456130
597.409395	4826.206608
597.760573	4890.130959
598.111698	4901.065222
598.462768	4936.892702
598.813785	4970.912929
599.164748	4983.788036
599.515657	5036.125295
599.866511	5046.560484
600.217312	5139.844515
600.568060	5108.067602
600.918753	5211.635587
601.269392	5253.971197
601.619978	5247.112707
601.970510	5345.145505
602.320988	5369.358167
602.671412	5454.145334
603.021783	5475.207275
603.372100	5485.118183
603.722363	5562.283125
604.072572	5599.733857
604.422728	5649.255632
604.772830	5685.758627
605.122878	5697.985945
605.472872	5763.659577
605.822813	5815.822917
606.172701	5860.409402
606.522534	5944.813441
606.872314	5998.637840
607.222041	6002.771586
607.571714	6098.742553
607.921333	6131.789837
608.270899	6201.229210
608.620411	6311.023021
608.969870	6280.208968
609.319276	6348.440985
609.668627	6420.242139
610.017926	6503.774058
610.367171	6578.733496
610.716362	6668.579460
611.065500	6657.357852
611.414585	6749.958807
611.763616	6804.746067
612.112594	6856.768254
612.461518	6885.129785
612.810389	7004.587487
613.159207	7001.754359
613.507971	7040.709875
613.856682	7208.192129
614.205340	7243.059270
614.553945	7365.642487
614.902496	7313.731206
615.250994	7474.223900
615.599439	7500.964701
615.947830	7556.500572
616.296169	7611.297914
616.644454	7689.430758
616.992686	7707.354580
617.340864	7865.160340
617.688990	7861.528188
618.037063	7992.550297
618.385082	8004.913727
618.733048	8146.020665
619.080961	8155.238414
619.428821	8249.339113
619.776628	8290.714383
620.124382	8307.047721
620.472083	8391.474445
620.819731	8464.790466
621.167326	8395.341010
621.514868	8459.754354
621.862357	8444.658618
622.209793	8499.032504
622.557176	8497.820106
622.904506	8460.757543
623.251783	8489.582861
623.599007	8488.569589
623.946179	8517.528497
624.293297	8545.297693
624.640363	8506.208586
624.987376	8554.480155
625.334336	8517.914146
625.681243	8516.724433
626.028097	8551.639465
626.374899	8622.379456
626.721647	8578.450842
627.068343	8559.531391
627.414987	8587.587933
627.761577	8658.700970
628.108115	8735.422290
628.454600	8637.805387
628.801032	8715.920586
629.147412	8740.823886
629.493739	8805.764030
629.840014	8786.736195
630.186236	8865.484059
630.532405	8813.648395
630.878521	8952.799364
631.224585	8942.255791
631.570597	8932.886807
631.916556	8962.672464
632.262462	9002.467333
632.608316	9036.580821
632.954117	9041.309423
633.299866	9094.917053
633.645562	9112.855999
633.991206	9022.584057
634.336797	8985.254313
634.682336	9046.645484
635.027823	9019.801340
635.373257	9035.249956
635.718639	8991.986774
636.063968	9016.302779
636.409245	8951.387841
636.754470	9005.877673
637.099642	8965.981982
637.444762	8876.304896
637.789829	8958.823543
638.134845	8905.021829
638.479808	8967.166653
638.824719	8980.548396
639.169577	8927.732227
639.514383	8999.913988
639.859137	8936.085419
640.203839	9025.402062
640.548489	8959.315056
640.893086	9020.151700
641.237632	8944.123539
641.582125	9099.350748
641.926566	9035.736428
642.270955	9076.300072
642.615292	9093.233308
642.959576	9133.948187
643.303809	9206.162716
643.647990	9181.030043
643.992118	9273.855329
644.336195	9152.918049
644.680219	9312.014343
645.024192	9319.394593
645.368112	9488.056477
645.711981	9575.790198
646.055797	9708.450682
646.399562	9730.019259
646.743274	9909.471733
647.086935	10145.095263
647.430544	10147.822528
647.774101	10179.407877
648.117606	10341.894348
648.461059	10329.727523
648.804460	10404.694522
649.147810	10262.854097
649.491108	10202.440909
649.834354	10283.033836
650.177548	10121.333785
650.520690	10029.390700
650.863781	10012.253298
651.206820	10069.306557
651.549807	9991.682870
651.892742	9912.168750
652.235626	9887.023475
652.578458	9922.671994
652.921238	9737.061751
653.263967	9905.511906
653.606644	9818.841869
653.949269	9817.301796
654.291843	9744.018543
654.634365	9855.596922
654.976836	9790.528228
655.319255	9834.164456
655.661622	9829.798817
656.003938	9797.275813
656.346203	9775.651783
656.688416	9849.688689
657.030577	9850.391930
657.372687	9831.139764
657.714746	9831.888375
658.056753	9983.070058
658.398708	9905.201875
658.740612	9922.919011
659.082465	10019.827632
659.424266	10006.587041
659.766016	10059.380525
660.107715	10014.955356
660.449362	10092.498385
660.790958	10096.717831
661.132503	10082.784081
661.473996	10129.341658
661.815438	10183.856695
662.156829	10213.034894
662.498168	10237.086239
662.839456	10251.448486
663.180693	10291.533221
663.521879	10393.949303
663.863013	10394.178675
664.204097	10405.992619
664.545129	10513.974134
664.886110	10511.995482
665.227040	10601.233987
665.567918	10629.439243
665.908746	10689.885198
666.249522	10678.003198
666.590248	10741.385626
666.930922	10844.512510
667.271545	10863.159738
667.612118	10939.326531
667.952639	10904.383773
668.293109	10915.340721
668.633528	10917.021946
668.973896	10913.243601
669.314213	11034.432940
669.654480	10821.116515
669.994695	10894.679552
670.334859	10940.317118
670.674973	10919.272821
671.015035	10973.137550
671.355047	10948.811462
671.695008	10939.802920
672.034918	10962.231014
672.374777	11012.370330
672.714585	10962.399892
673.054342	11002.209884
673.394049	10985.942081
673.733705	11068.496016
674.073310	11027.592094
674.412864	11067.046685
674.752368	10978.871863
675.091820	10985.914355
675.431223	11017.434169
675.770574	10916.855588
676.109875	10881.731349
676.449125	10870.429082
676.788324	10829.583133
677.127473	10712.000740
677.466571	10717.712367
677.805619	10658.549386
678.144616	10598.405900
678.483562	10591.804509
678.822458	10486.144445
679.161303	10481.947684
679.500098	10495.624334
679.838842	10471.071395
680.177535	10495.735240
680.516179	10560.186392
680.854771	10532.762515
681.193314	10743.787735
681.531805	10864.689728
681.870247	11230.906870
682.208638	11576.472925
682.546978	11873.608615
682.885268	11959.787140
683.223508	11712.495858
683.561697	11583.948956
683.899836	11506.171514
684.237925	11341.850063
684.575963	11287.027515
684.913951	11231.408465
685.251889	11180.530619
685.589776	11282.815631
685.927614	11227.304965
686.265401	11189.897083
686.603137	11242.874569
686.940824	11390.320757
687.278460	11493.785399
687.616046	11548.013091
687.953582	11703.295753
688.291068	11622.493618
688.628504	11826.544403
688.965889	11844.914367
689.303224	11844.478307
689.640510	11770.632965
689.977745	11525.577436
690.314930	11320.233595
690.652065	11270.409351
690.989150	11015.253870
691.326185	10816.851699
691.663170	10656.757255
692.000105	10439.909502
692.336990	10362.026196
692.673825	10137.450354
693.010610	10036.435713
693.347345	9863.244352
693.684030	9667.743365
694.020665	9623.592939
694.357251	9456.035068
694.693786	9432.591182
695.030272	9264.519113
695.366707	9153.091968
695.703093	9106.040359
696.039429	9107.300648
696.375716	9053.698059
696.711952	8930.310777
697.048139	8966.433165
697.384276	8929.249614
697.720363	8938.600955
698.056400	8889.182523
698.392388	8852.848407
698.728326	8816.189136
699.064214	8757.535311
699.400053	8817.777100
699.735842	8638.513669
700.071581	8608.241540
700.407270	8547.422540
700.742910	8476.362435
701.078501	8399.956187
701.414042	8288.360164
701.749533	8222.570586
702.084974	8101.575332
702.420366	8211.971560
702.755709	8103.120445
703.091002	7986.548804
703.426246	8012.868668
703.761440	7965.373437
704.096584	7924.542612
704.431679	7865.412397
704.766725	7858.551387
705.101721	7809.405178
705.436668	7854.894030
705.771565	7760.032117
706.106413	7838.916093
706.441212	7890.678661
706.775961	7838.913572
707.110661	7872.170064
707.445311	8025.592540
707.779913	7924.933301
708.114465	8055.171511
708.448967	8100.549457
708.783421	8215.823001
709.117825	8397.291937
709.452180	8442.062424
709.786485	8529.410497
710.120742	8799.873442
710.454949	8787.197461
710.789107	8888.449036
711.123216	9080.169158
711.457275	9236.986851
711.791286	9402.379547
712.125247	9381.022698
712.459159	9381.599911
712.793023	9641.597420
713.126837	9226.168535
713.460602	9370.905103
713.794318	9204.322694
714.127985	9245.150999
714.461602	8956.681053
714.795171	8904.363958
715.128691	8678.963887
715.462162	8427.072553
715.795584	8378.311993
716.128957	8252.918332
716.462281	8088.241480
716.795556	8133.790825
717.128782	7938.267153
717.461960	7668.699013
717.795088	7742.463696
718.128167	7654.288874
718.461198	7489.170921
718.794180	7433.299813
719.127113	7433.781243
719.459997	7300.268804
719.792833	7069.978814
720.125619	7123.210878
720.458357	6991.057030
720.791046	6976.853579
721.123686	6980.611760
721.456278	6832.278328
721.788821	6846.746440
722.121315	6741.918166
722.453761	6798.621065
722.786158	6756.260249
723.118506	6769.657115
723.450805	6741.164514
723.783056	6810.397200
724.115259	6704.154883
724.447412	6699.418719
724.779518	6751.418221
725.111574	6754.962152
725.443582	6833.037022
725.775542	6807.188506
726.107453	6992.196331
726.439315	6912.089876
726.771129	6959.559901
727.102895	7124.597196
727.434612	7240.311841
727.766281	7259.924450
728.097901	7354.085642
728.429473	7333.910945
728.760996	7309.141235
729.092471	7296.601365
729.423897	7244.758139
729.755276	7262.349245
730.086606	7201.658794
730.417887	7292.253370
730.749120	7464.902807
731.080305	7650.707135
731.411442	7789.069164
731.742530	7785.815099
732.073570	7884.432671
732.404562	7975.889284
732.735506	7818.408679
733.066401	7970.366700
733.397249	7905.751711
733.728048	7672.825197
734.058798	7345.815629
734.389501	7131.296889
734.720156	6959.995961
735.050762	6726.061217
735.381320	6616.544670
735.711831	6580.056798
736.042293	6474.661395
736.372707	6496.731567
736.703073	6361.250557
737.033391	6392.934209
737.363661	6407.908956
737.693883	6421.520072
738.024056	6501.843297
738.354182	6559.854374
738.684260	6602.132011
739.014290	6697.487957
739.344272	6801.809594
739.674207	6832.225396
740.004093	6895.484315
740.333931	6912.987201
740.663722	6926.152175
740.993464	7001.527507
741.323159	7001.414081
741.652806	6754.150526
741.982405	6741.741726
742.311956	6806.989380
742.641460	6667.888822
742.970915	6476.135932
743.300323	6466.275436
743.629683	6404.422998
743.958996	6281.645697
744.288260	6195.104208
744.617477	6140.117823
744.946647	6152.448485
745.275768	5996.215566
745.604842	5948.853925
745.933869	5924.462303
746.262847	5880.140478
746.591778	5874.214602
746.920662	5834.863355
747.249498	5818.681251
747.578286	5860.991655
747.907027	5941.503923
748.235720	5997.932079
748.564365	5968.257327
748.892963	5986.261807
749.221514	6145.247197
749.550017	6002.625393
749.878473	5864.724629
750.206881	5914.934522
750.535242	5860.253126
750.863555	5791.332991
751.191821	5814.378626
751.520039	5819.470191
751.848210	5731.355863
752.176334	5743.157204
752.504411	5797.054701
752.832440	5720.799687
753.160421	5646.228419
753.488356	5696.425708
753.816243	5733.349640
754.144082	5591.065593
754.471875	5555.686775
754.799620	5596.497436
755.127318	5610.456391
755.454969	5556.649636
755.782572	5525.074368
756.110129	5571.465587
756.437638	5565.456531
756.765100	5504.761039
757.092515	5496.249051
757.419882	5537.876379
757.747203	5523.975397
758.074477	5591.458803
758.401703	5582.543522
758.728882	5531.345564
759.056014	5572.413324
759.383099	5712.801897
759.710138	5717.427155
760.037129	5698.641295
760.364073	5707.002049
760.690970	5788.179749
761.017820	5781.414521
761.344623	5724.469647
761.671379	5819.467671
761.998088	5929.742911
762.324751	6157.076264
762.651366	6715.003446
762.977935	7960.057540
763.304456	9554.834121
763.630931	10478.244957
763.957359	10141.942022
764.283740	9234.816634
764.610074	8433.905837
764.936362	7458.823175
765.262602	6870.586056
765.588796	6332.291649
765.914943	5984.656200
766.241044	5837.449467
766.567097	5650.836033
766.893104	5390.558740
767.219064	5210.276996
767.544978	5154.552081
767.870845	5080.449640
768.196665	4971.386798
768.522438	4898.448863
768.848165	4869.721848
769.173846	4806.868742
769.499479	4772.062095
769.825066	4708.498186
770.150607	4651.240761
770.476101	4621.084578
770.801548	4623.892501
771.126949	4556.550248
771.452303	4501.891537
771.777611	4456.410247
772.102872	4471.518585
772.428087	4434.834108
772.753256	4397.985794
773.078378	4357.349053
773.403453	4290.997386
773.728482	4274.769912
774.053465	4232.051174
774.378401	4217.588104
774.703291	4223.975246
775.028135	4155.602076
775.352932	4104.562914
775.677683	4086.991972
776.002388	4109.732617
776.327046	4129.718272
776.651658	4047.265160
776.976224	3983.643277
777.300743	3988.679390
777.625216	4005.257225
777.949643	4014.815252
778.274024	3964.996049
778.598359	3918.539296
778.922647	3935.240639
779.246889	3934.809620
779.571086	3931.122016
779.895236	3916.807660
780.219339	3906.342224
780.543397	3892.635327
780.867409	3941.627781
781.191374	3956.322744
781.515294	3901.091863
781.839167	3892.436202
782.162995	3904.862646
782.486776	3896.587592
782.810511	3903.854415
783.134201	3905.805342
783.457844	3867.371585
783.781441	3806.305568
784.104993	3810.008295
784.428498	3831.985205
784.751958	3832.436388
785.075372	3808.044766
785.398739	3770.672172
785.722061	3776.565280
786.045337	3819.092454
786.368568	3859.734237
786.691752	3771.388015
787.014891	3815.883760
787.337983	3930.068415
787.661030	4083.226231
787.984031	4241.604161
788.306987	4419.768620
788.629897	4501.899099
788.952760	4454.892860
789.275579	4384.135224
789.598351	4328.695135
789.921078	4200.657389
790.243759	4000.750433
790.566395	3972.139364
790.888984	3973.949139
791.211529	3866.368395
791.534027	3808.911844
791.856480	3805.186431
792.178888	3742.096391
792.501249	3687.263761
792.823566	3700.262376
793.145836	3731.046182
793.468062	3683.969367
793.790241	3637.636122
794.112375	3666.821882
794.434464	3722.297259
794.756507	3747.233327
795.078505	3734.527098
795.400457	3760.733537
795.722364	3890.334040
796.044226	3991.376407
796.366042	4065.708221
796.687812	4054.927713
797.009538	4060.674629
797.331218	4016.771220
797.652852	3990.602590
797.974442	3970.127944
798.295986	3975.383347
798.617484	3896.544742
798.938938	3805.582162
799.260346	3842.017101
799.581709	3842.095239
799.903026	3775.126031
800.224299	3739.704363
800.545526	3732.049371
800.866708	3694.233156
801.187845	3628.879637
801.508936	3664.712159
801.829983	3674.539888
802.150984	3589.712392
802.471940	3576.993561
802.792851	3589.727516
803.113717	3590.266919
803.434538	3592.527877
803.755314	3542.267573
804.076045	3510.929240
804.396731	3527.852394
804.717372	3553.388358
805.037967	3544.553736
805.358518	3534.756254
805.679024	3557.295253
805.999485	3567.470822
806.319901	3572.673292
806.640272	3588.389090
806.960598	3605.082871
807.280879	3574.225968
807.601115	3584.963626
807.921306	3598.912498
808.241453	3641.260711
808.561554	3621.486785
808.881611	3558.628638
809.201623	3586.622165
809.521590	3605.047582
809.841513	3575.322419
810.161390	3602.080863
810.481223	3589.934203
810.801011	3527.857435
811.120755	3516.038450
811.440453	3555.230900
811.760107	3559.231056
812.079716	3520.454500
812.399281	3484.937051
812.718801	3507.357583
813.038276	3482.560147
813.357707	3477.153509
813.677093	3499.291737
813.996434	3452.126701
814.315731	3452.212401
814.634983	3454.286836
814.954191	3470.088332
815.273354	3501.955986
815.592473	3500.209227
815.911547	3502.986902
816.230577	3534.617622
816.549562	3589.049481
816.868502	3629.945841
817.187399	3654.758401
817.506250	3649.997031
817.825058	3619.102319
818.143821	3701.825133
818.462539	3805.360351
818.781213	3853.798278
819.099843	3903.955238
819.418429	4127.842963
819.736970	4364.222667
820.055466	4595.319241
820.373919	4949.934167
820.692327	5346.582234
821.010691	5736.838118
821.329011	6998.202866
821.647286	9552.202639
821.965517	13882.652095
822.283704	17855.492180
822.601847	20151.692387
822.919945	18454.141802
823.237999	16005.713873
823.556010	13581.105396
823.873976	11572.248438
824.191897	9533.941059
824.509775	8190.337448
824.827609	7081.142450
825.145398	6530.771958
825.463144	6413.234935
825.780845	6533.133738
826.098502	6683.728127
826.416116	7473.278684
826.733685	8741.867405
827.051210	9864.272747
827.368692	9988.970729
827.686129	8821.550403
828.003522	7330.704771
828.320872	6333.471279
828.638177	5649.346372
828.955439	5114.285865
829.272656	4626.952482
829.589830	4337.862473
829.906960	4169.941638
830.224046	3995.353878
830.541088	3867.540463
830.858086	3820.193946
831.175041	3752.145931
831.491952	3727.076273
831.808819	3739.696802
832.125642	3800.210813
832.442421	3939.591155
832.759157	4192.112633
833.075849	4701.574161
833.392497	5527.206777
833.709101	6285.413959
834.025662	6647.396532
834.342179	6336.806002
834.658653	5689.594945
834.975083	5068.285336
835.291469	4510.111138
835.607811	4099.226853
835.924110	3960.506902
836.240366	3775.327677
836.556578	3572.617840
836.872746	3460.389152
837.188871	3429.741457
837.504952	3364.972713
837.820990	3285.433388
838.136984	3237.209710
838.452935	3257.303749
838.768842	3257.276023
839.084706	3277.790998
839.400526	3419.112185
839.716303	3735.835278
840.032037	4220.312848
840.347727	4507.643493
840.663373	4268.564252
840.978977	3897.434506
841.294537	3600.392077
841.610054	3372.728528
841.925527	3266.047630
842.240957	3199.320397
842.556344	3145.513642
842.871687	3091.946341
843.186987	3043.405071
843.502244	3006.433248
843.817458	2975.838486
844.132629	2940.046293
844.447756	2950.627675
844.762840	2937.760130
845.077881	2907.551016
845.392879	2887.739281
845.707833	2887.887995
846.022745	2883.348436
846.337613	2883.875237
846.652438	2870.773278
846.967221	2870.853936
847.281960	2859.281968
847.596656	2851.130422
847.911309	2852.680577
848.225919	2846.553054
848.540485	2838.761951
848.855009	2845.391068
849.169490	2832.762978
849.483928	2824.613953
849.798323	2821.463232
850.112675	2817.760504
850.426984	2829.392967
850.741251	2829.045127
851.055474	2817.994918
851.369654	2812.832776
851.683792	2814.423260
851.997887	2828.273830
852.311938	2827.820127
852.625947	2815.923003
852.939914	2819.940803
853.253837	2825.624704
853.567718	2812.177426
853.881555	2807.834472
854.195350	2820.321410
854.509103	2819.222439
854.822812	2809.984524
855.136479	2810.589463
855.450103	2812.527786
855.763685	2802.901703
856.077224	2795.902061
856.390720	2810.536531
856.704173	2823.215032
857.017584	2816.391831
857.330953	2812.222797
857.644278	2818.604897
857.957561	2826.587564
858.270802	2829.750888
858.584000	2832.324397
858.897155	2823.010866
859.210268	2820.943993
859.523339	2816.071717
859.836367	2817.349650
860.149352	2809.805563
860.462295	2806.864050
860.775195	2816.727067
861.088054	2814.249340
861.400869	2799.360292
861.713642	2796.517082
862.026373	2808.096612
862.339062	2810.579380
862.651708	2819.184630
862.964312	2821.667398
863.276873	2815.454176
863.589392	2822.358036
863.901869	2834.164419
864.214303	2851.309383
864.526696	2871.141282
864.839045	2869.084491
865.151353	2865.870756
865.463619	2862.238604
865.775842	2864.733976
866.088023	2881.362222
866.400162	2890.068294
866.712258	2861.550487
867.024313	2849.918024
867.336325	2856.849611
867.648296	2878.360214
867.960224	2870.682537
868.272110	2856.869776
868.583954	2863.405632
868.895755	2879.227293
869.207515	2865.525437
869.519233	2867.849409
869.830909	2876.139586
870.142542	2892.029303
870.454134	2886.965464
870.765684	2891.842780
871.077191	2888.976884
871.388657	2898.139182
871.700081	2910.137128
872.011463	2923.191196
872.322803	2920.708427
872.634101	2924.554828
872.945357	2935.100922
873.256571	2962.517237
873.567744	2956.109930
873.878874	2945.034515
874.189963	2970.194914
874.501010	2972.271869
874.812015	2963.648976
875.122979	2963.744758
875.433900	2961.544294
875.744780	2963.069243
876.055618	2968.846405
876.366415	2964.468163
876.677169	2980.685555
876.987882	2977.842344
877.298554	2969.199286
877.609183	2984.675628
877.919771	3008.936181
878.230317	3035.266128
878.540822	3084.213211
878.851285	3121.689149
879.161707	3157.133502
879.472087	3247.929723
879.782425	3449.104529
880.092722	3851.882639
880.402977	4355.388044
880.713191	4943.292447
881.023363	6015.699625
881.333494	7252.511433
881.643583	7827.523085
881.953631	7553.617032
882.263637	6982.179558
882.573602	6431.892246
882.883526	5872.848449
883.193408	5313.169467
883.503248	4854.109394
883.813048	4562.670208
884.122806	4290.039567
884.432522	3989.773321
884.742197	3763.765791
885.051831	3578.147986
885.361424	3440.330401
885.670975	3373.572921
885.980485	3295.697177
886.289954	3225.526836
886.599382	3180.990762
886.908768	3142.047849
887.218113	3100.680140
887.527417	3047.367418
887.836680	2996.655931
888.145901	2991.614777
888.455082	2985.603201
888.764221	2938.914554
889.073319	2910.464803
889.382376	2906.540264
889.691392	2909.186870
890.000366	2905.529513
890.309300	2900.551374
890.618193	2910.976480
890.927044	2926.508275
891.235855	2928.406269
891.544625	2911.399937
891.853353	2918.792789
892.162041	2936.010850
892.470687	2975.785554
892.779293	3023.391690
893.087858	3068.101683
893.396381	3129.795324
893.704864	3242.233220
894.013306	3463.673464
894.321707	3749.970673
894.630068	3955.541365
894.938387	3955.848876
895.246665	3907.504210
895.554903	3802.229795
895.863100	3614.504787
896.171256	3456.968729
896.479371	3323.330262
896.787446	3210.257181
897.095480	3108.123404
897.403473	3044.443548
897.711425	3009.374762
898.019336	3000.013339
898.327207	2977.774289
898.635038	2941.742642
898.942827	2929.996753
899.250576	2917.537542
899.558284	2889.115516
899.865952	2866.639532
900.173579	2847.871316
900.481165	2840.725480
900.788711	2830.479335
901.096216	2807.350521
901.403681	2794.634211
901.711105	2802.465643
902.018489	2801.901034
902.325832	2800.678554
902.633135	2807.789102
902.940397	2838.545181
903.247619	2910.490008
903.554800	3083.499888
903.861941	3398.335069
904.169041	3799.925987
904.476101	4101.293726
904.783121	4079.606682
905.090100	3851.502032
905.397039	3590.657609
905.703938	3351.848069
906.010796	3172.806449
906.317614	3065.230746
906.624391	2979.911738
906.931129	2911.152920
907.237826	2852.305011
907.544483	2808.583083
907.851099	2778.668877
908.157675	2755.046030
908.464211	2740.174626
908.770707	2726.548387
909.077163	2717.116388
909.383578	2699.830272
909.689954	2688.311235
909.996289	2687.983560
910.302584	2692.127388
910.608839	2692.964220
910.915054	2684.701769
911.221229	2678.183557
911.527363	2681.762776
911.833458	2684.500123
912.139513	2688.152439
912.445527	2696.051927
912.751502	2703.485108
913.057436	2710.625902
913.363331	2721.774414
913.669186	2738.750500
913.975000	2771.210489
914.280775	2825.546566
914.586510	2889.082749
914.892205	2963.079325
915.197859	3080.689445
915.503475	3260.920777
915.809050	3457.868575
916.114585	3601.445678
916.420081	3623.742702
916.725536	3574.944332
917.030952	3461.780511
917.336328	3345.198787
917.641665	3220.425188
917.946961	3122.289046
918.252218	3059.738409
918.557435	2983.450628
918.862612	2931.252001
919.167750	2884.046636
919.472848	2847.747808
919.777906	2821.745536
920.082925	2798.846095
920.387904	2767.601023
920.692843	2755.444281
920.997743	2742.392733
921.302603	2729.487380
921.607423	2721.242572
921.912204	2711.566078
922.216946	2700.115097
922.521647	2693.100331
922.826310	2683.224711
923.130932	2677.099709
923.435516	2668.605365
923.740059	2665.167298
924.044564	2653.688590
924.349028	2649.645585
924.653454	2643.414719
924.957840	2639.785088
925.262186	2633.544140
925.566493	2627.149436
925.870761	2626.100876
926.174989	2622.186420
926.479178	2617.752725
926.783328	2611.307610
927.087438	2611.501694
927.391509	2609.482712
927.695541	2605.522886
927.999533	2602.200766
928.303486	2600.809407
928.607400	2600.650611
928.911275	2600.093563
929.215110	2600.063316
929.518906	2598.165322
929.822663	2599.468460
930.126381	2597.832606
930.430060	2598.462750
930.733699	2598.548450
931.037299	2598.054417
931.340861	2600.862339
931.644383	2601.295878
931.947866	2598.845878
932.251309	2599.045003
932.554714	2598.722369
932.858080	2596.153902
933.161407	2593.250197
933.464694	2594.104673
933.767943	2588.292222
934.071153	2594.916298
934.374323	2589.340782
934.677455	2591.319435
934.980548	2591.407655
935.283602	2589.381111
935.586617	2587.452870
935.889593	2591.510999
936.192530	2590.971595
936.495428	2591.178283
936.798287	2590.999322
937.101108	2594.954107
937.403890	2599.377719
937.706632	2603.312340
938.009336	2604.360900
938.312002	2617.120060
938.614628	2624.555762
938.917216	2632.729993
939.219765	2633.410549
939.522275	2632.011629
939.824747	2629.906947
940.127179	2627.605660
940.429573	2628.616412
940.731929	2625.611884
941.034246	2617.886316
941.336524	2615.998404
941.638763	2614.443208
941.940964	2612.507405
942.243126	2611.156375
942.545250	2612.303238
942.847335	2604.499532
943.149381	2606.301744
943.451389	2600.179263
943.753359	2598.780343
944.055290	2595.919488
944.357182	2596.670620
944.659036	2594.863366
944.960851	2591.826071
945.262628	2590.195258
945.564367	2593.167018
945.866067	2592.441092
946.167729	2593.315732
946.469352	2596.295054
946.770937	2593.787080
947.072484	2593.368664
947.373992	2589.292891
947.675462	2588.652665
947.976893	2585.098651
948.278286	2583.548496
948.579641	2583.525811
948.880958	2584.344999
949.182236	2587.006728
949.483476	2582.999011
949.784678	2584.675194
950.085841	2584.937334
950.386967	2586.507654
950.688054	2586.013621
950.989103	2586.132088
951.290114	2586.721903
951.591087	2590.296081
951.892021	2589.285329
952.192917	2597.804879
952.493776	2595.130547
952.794596	2598.966865
953.095378	2596.912595
953.396122	2594.011411
953.696828	2594.513006
953.997496	2593.119127
954.298126	2590.162490
954.598718	2587.919177
954.899272	2585.721234
955.199788	2581.484144
955.500266	2582.096644
955.800706	2580.591860
956.101108	2577.272260
956.401472	2577.665470
956.701798	2573.733370
957.002087	2571.094326
957.302337	2572.392423
957.602550	2571.381672
957.902724	2569.619788
958.202861	2566.816907
958.502960	2566.211968
958.803022	2566.494273
959.103045	2565.554098
959.403031	2564.906309
959.702979	2566.184242
960.002889	2563.260373
960.302762	2564.155177
960.602596	2563.020918
960.902393	2560.933880
961.202153	2562.473953
961.501875	2562.133675
961.801559	2561.236349
962.101205	2560.694425
962.400814	2563.328428
962.700385	2561.564024
962.999918	2557.120247
963.299414	2555.262582
963.598873	2560.580999
963.898293	2556.560679
964.197677	2559.608057
964.497022	2557.329455
964.796331	2559.474466
965.095601	2558.569579
965.394835	2561.349775
965.694030	2559.547563
965.993189	2556.520350
966.292309	2557.445402
966.591393	2559.126627
966.890439	2557.397511
967.189447	2559.925649
967.488419	2558.206616
967.787353	2558.181410
968.086249	2560.286092
968.385108	2556.606050
968.683930	2560.165104
968.982714	2558.335165
969.281462	2557.861297
969.580172	2557.750392
969.878844	2556.969013
970.177480	2560.487738
970.476078	2560.346586
970.774639	2561.072512
971.073162	2561.148129
971.371649	2558.960268
971.670098	2558.572100
971.968510	2560.742316
972.266885	2563.767009
972.565223	2558.892213
972.863524	2560.384394
973.161788	2557.495813
973.460014	2559.817265
973.758204	2560.175187
974.056356	2557.667213
974.354471	2560.056719
974.652550	2559.008159
974.950591	2559.653427
975.248595	2560.409600
975.546563	2560.497820
975.844493	2559.061092
976.142386	2557.644527
976.440243	2558.662840
976.738062	2558.582182
977.035845	2561.884138
977.333590	2559.111503
977.631299	2560.407080
977.928971	2555.446584
978.226606	2553.546069
978.524204	2555.524722
978.821765	2550.856614
979.119290	2560.076884
979.416777	2558.062943
979.714228	2557.286605
980.011642	2555.807027
980.309020	2558.166287
980.606360	2559.343396
980.903664	2558.448591
981.200931	2557.561348
981.498162	2557.397511
981.795356	2557.780638
982.092513	2560.691905
982.389633	2564.104766
982.686717	2565.365054
982.983764	2570.035683
983.280775	2572.147927
983.577749	2574.587845
983.874686	2573.135993
984.171587	2571.815211
984.468451	2568.362020
984.765279	2565.367575
985.062070	2565.354972
985.358824	2563.036041
985.655543	2564.109807
985.952224	2557.727706
986.248869	2560.470094
986.545478	2557.105124
986.842050	2558.211657
987.138586	2556.147305
987.435086	2559.076215
987.731549	2556.207798
988.027975	2556.842984
988.324366	2555.701163
988.620719	2555.229815
988.917037	2557.803324
989.213318	2555.726368
989.509563	2554.743343
989.805772	2555.378529
990.101944	2553.150339
990.398080	2556.732078
990.694180	2556.535473
990.990244	2552.936090
991.286271	2555.320555
991.582262	2554.148487
991.878217	2555.877603
992.174136	2557.037068
992.470019	2552.815102
992.765865	2553.268806
993.061676	2553.165462
993.357450	2553.278888
993.653188	2549.984494
993.948890	2553.621687
994.244556	2557.309291
994.540186	2555.633107
994.835780	2554.536656
995.131337	2555.688560
995.426859	2557.873900
995.722345	2557.941955
996.017795	2560.046637
996.313208	2561.919426
996.608586	2559.983623
996.903928	2560.530588
997.199234	2562.007646
997.494504	2560.979251
997.789738	2559.479507
998.084936	2559.517316
998.380099	2560.429765
998.675225	2556.613611
998.970316	2556.265772
999.265371	2557.485731
999.560390	2558.506565
999.855373	2555.819630
1000.150320	2554.703014
1000.445232	2557.052192
1000.740108	2555.106306
1001.034948	2556.754764
1001.329752	2555.428940
1001.624521	2553.629248
1001.919254	2552.157231
1002.213951	2555.620504
1002.508613	2553.609084
1002.803239	2552.162273
1003.097829	2552.114382
1003.392384	2551.751418
1003.686903	2552.706717
1003.981386	2555.655792
1004.275834	2552.268137
1004.570246	2553.979608
1004.864623	2550.939793
1005.158964	2554.067829
1005.453270	2554.418189
1005.747540	2554.554300
1006.041775	2553.956923
1006.335974	2554.617314
1006.630138	2549.397200
1006.924266	2552.444577
1007.218359	2552.681511
1007.512416	2550.859134
1007.806438	2550.874258
1008.100425	2546.871582
1008.394376	2552.321069
1008.688292	2553.117571
1008.982172	2552.391645
1009.276017	2551.574978
1009.569827	2556.800134
1009.863602	2553.750236
1010.157341	2554.433312
1010.451045	2554.370298
1010.744714	2551.456511
1011.038347	2551.799309
1011.331945	2550.977601
1011.625508	2553.314176
1011.919036	2555.673436
1012.212528	2553.127653
1012.505986	2554.791234
1012.799408	2551.940462
1013.092795	2553.515822
1013.386147	2551.847200
1013.679464	2553.218394
1013.972745	2553.505740
1014.265992	2555.000442
1014.559204	2553.830894
1014.852380	2553.909032
1015.145521	2552.880637
1015.438628	2552.376522
1015.731699	2553.702345
1016.024736	2551.698486
1016.317737	2554.496327
1016.610703	2551.942982
1016.903635	2555.693601
1017.196531	2551.534649
1017.489393	2552.797458
1017.782219	2551.776624
1018.075011	2553.115051
1018.367768	2550.811243
1018.660490	2552.822664
1018.953177	2552.822664
1019.245829	2552.822664
