Dividing Wavelength (nm)	Counts (n)	Blue Motor Position (mm): 36.200000	Red Motor Position (mm): 0.000000	
326.493990	2234.004971
326.888308	2234.004971
327.282561	2234.004971
327.676750	2194.255473
328.070874	2191.298836
328.464933	2190.908147
328.858929	2196.607171
329.252859	2199.929292
329.646726	2208.927751
330.040528	2222.778321
330.434265	2234.322564
330.827938	2250.562641
331.221547	2268.514190
331.615091	2285.581016
332.008571	2306.864768
332.401986	2324.052582
332.795338	2343.534121
333.188625	2363.048427
333.581847	2380.332023
333.975006	2402.099725
334.368100	2418.170924
334.761129	2435.094077
335.154095	2455.553600
335.546996	2481.966726
335.939833	2517.963085
336.332606	2536.068389
336.725315	2550.062632
337.117960	2563.255332
337.510540	2572.009295
337.903056	2581.423650
338.295508	2592.209199
338.687896	2599.907041
339.080220	2608.603031
339.472480	2617.009155
339.864676	2622.062912
340.256807	2626.768829
340.648875	2631.600775
341.040879	2632.863584
341.432818	2635.767288
341.824694	2635.963893
342.216506	2640.637043
342.608253	2638.310551
342.999937	2637.871970
343.391557	2640.435397
343.783113	2639.898514
344.174605	2639.311220
344.566033	2637.690489
344.957397	2636.778040
345.348697	2634.028090
345.739934	2635.679068
346.131106	2631.842750
346.522215	2628.528192
346.913260	2629.125568
347.304241	2627.167080
347.695159	2623.066101
348.086012	2622.688015
348.476802	2619.892695
348.867528	2613.810543
349.258191	2616.557972
349.648789	2613.008999
350.039324	2608.681169
350.429796	2616.099227
350.820203	2611.766355
351.210548	2613.150152
351.600828	2610.690069
351.991045	2608.570263
352.381198	2608.035901
352.771288	2607.206631
353.161314	2608.250150
353.551276	2609.301231
353.941175	2605.343925
354.331010	2607.476333
354.720782	2608.635798
355.110490	2606.629419
355.500135	2608.424070
355.889717	2606.636981
356.279235	2609.263422
356.668689	2606.447938
357.058080	2606.256374
357.447408	2607.667897
357.836672	2607.002465
358.225873	2606.531117
358.615010	2607.529265
359.004084	2609.094543
359.393095	2608.129162
359.782043	2608.013216
360.170927	2608.867692
360.559748	2608.131683
360.948505	2610.644698
361.337199	2614.170985
361.725830	2611.143772
362.114398	2613.384565
362.502903	2611.915069
362.891344	2614.717951
363.279722	2614.780965
363.668037	2614.735595
364.056289	2613.495471
364.444478	2613.780296
364.832603	2616.386572
365.220665	2619.741460
365.608665	2615.433794
365.996601	2619.517129
366.384474	2618.334978
366.772284	2619.330606
367.160031	2617.843466
367.547715	2618.390431
367.935336	2618.874382
368.322893	2620.114506
368.710388	2616.152159
369.097820	2615.237189
369.485189	2614.397837
369.872495	2619.186933
370.259738	2618.624845
370.646918	2620.873199
371.034035	2622.451081
371.421090	2626.158849
371.808081	2624.439816
372.195010	2622.713221
372.581875	2622.778756
372.968678	2624.154991
373.355418	2625.944600
373.742096	2625.377470
374.128710	2626.108438
374.515262	2625.765639
374.901751	2627.736730
375.288177	2627.913171
375.674540	2626.975516
376.060841	2626.173973
376.447079	2628.455095
376.833254	2627.063736
377.219367	2627.958541
377.605417	2629.372585
377.991404	2627.368726
378.377329	2631.895682
378.763191	2631.764612
379.148991	2626.766308
379.534727	2631.777215
379.920402	2633.455919
380.306013	2632.619088
380.691563	2633.927267
381.077049	2634.590179
381.462474	2633.571866
381.847835	2635.066568
382.233134	2634.438944
382.618371	2633.087915
383.003545	2635.079171
383.388657	2636.155457
383.773706	2633.644963
384.158693	2637.319964
384.543618	2637.713174
384.928480	2637.750982
385.313280	2641.143679
385.698017	2640.198463
386.082692	2638.560088
386.467305	2639.137300
386.851856	2641.725932
387.236344	2641.819194
387.620770	2640.271559
388.005133	2639.354069
388.389435	2643.432363
388.773674	2641.332722
389.157851	2644.662404
389.541965	2646.711633
389.926018	2645.279946
390.310008	2646.051242
390.693936	2648.748260
391.077802	2647.684576
391.461606	2649.330513
391.845348	2651.810761
392.229027	2649.164155
392.612645	2651.029382
392.996200	2652.761018
393.379694	2653.202119
393.763125	2654.195226
394.146494	2655.805875
394.529801	2654.159938
394.913047	2654.747233
395.296230	2658.069353
395.679351	2658.369302
396.062410	2658.427275
396.445408	2657.441729
396.828343	2658.870897
397.211217	2658.994405
397.594028	2666.130158
397.976778	2663.702842
398.359466	2667.067813
398.742092	2668.496980
399.124656	2671.251970
399.507158	2671.967814
399.889598	2683.817046
400.271977	2688.152439
400.654294	2700.508307
401.036549	2708.813608
401.418742	2720.345247
401.800874	2739.282342
402.182944	2759.557862
402.564952	2786.281019
402.946898	2814.375369
403.328783	2839.916375
403.710606	2872.514997
404.092367	2936.663679
404.474067	2982.089517
404.855705	3023.666433
405.237282	3068.885583
405.618797	3156.505878
406.000250	3215.482337
406.381642	3320.459324
406.762972	3392.643606
407.144240	3473.352479
407.525447	3545.027605
407.906593	3632.080770
408.287677	3754.742125
408.668700	3806.441679
409.049661	3928.482972
409.430560	4017.020757
409.811399	4049.110222
410.192176	4232.963623
410.572891	4324.200946
410.953545	4507.237681
411.334138	4480.259946
411.714669	4650.557684
412.095139	4635.436743
412.475547	4843.616233
412.855894	4968.866221
413.236180	5154.138707
413.616405	5072.048558
413.996568	5285.526299
414.376670	5380.332759
414.756711	5396.938320
415.136691	5540.671698
415.516609	5753.846971
415.896466	5836.174055
416.276262	6049.049379
416.655997	6119.610409
417.035670	6341.277505
417.415283	6666.182391
417.794834	6780.162880
418.174324	6756.529951
418.553753	6762.339880
418.933121	7097.735407
419.312428	7240.107674
419.691674	7123.752802
420.070859	7596.033301
420.449983	7375.170268
420.829045	7754.922908
421.208047	7612.706917
421.586988	7932.621061
421.965867	7991.511820
422.344686	8150.754308
422.723444	8210.565078
423.102141	7672.255547
423.480777	8403.676558
423.859352	7988.454360
424.237866	8616.511553
424.616319	8517.762911
424.994712	8922.905322
425.373044	8547.659474
425.751314	8992.062391
426.129524	8883.244044
426.507673	9046.872336
426.885762	9209.439466
427.263789	9127.734965
427.641756	9069.055934
428.019662	9174.242129
428.397508	9417.621475
428.775292	9135.115214
429.153016	9510.718984
429.530679	9359.252476
429.908282	9410.826000
430.285824	9136.282241
430.663305	9815.020674
431.040726	9270.636553
431.418086	9262.227908
431.795385	9581.920241
432.172624	9663.017283
432.549802	9586.754707
432.926920	9680.865488
433.303977	9556.215398
433.680974	9767.764898
434.057910	9845.723822
434.434786	9909.892669
434.811601	9771.109704
435.188355	10329.891361
435.565050	10050.820645
435.941683	9984.814298
436.318257	10475.215223
436.694770	10596.001269
437.071222	10669.370222
437.447614	10526.261947
437.823946	10413.075440
438.200218	10558.011134
438.576429	10368.176403
438.952580	10609.534247
439.328670	10676.200986
439.704700	10454.438108
440.080670	10444.481829
440.456580	11008.965031
440.832429	10749.582542
441.208218	10362.830260
441.583947	10690.618686
441.959616	10836.965902
442.335224	10638.616663
442.710773	10782.755855
443.086261	10987.706485
443.461689	10275.267938
443.837057	10914.312326
444.212365	11199.991994
444.587612	10842.017139
444.962800	11076.266955
445.337927	10848.908396
445.712995	10423.286297
446.088002	11512.909016
446.462949	11165.797847
446.837837	11141.227263
447.212664	11139.946810
447.587431	11649.920016
447.962139	12360.891587
448.336786	14622.517040
448.711374	15176.008006
449.085901	13026.986806
449.460369	12638.691931
449.834776	12089.889238
450.209124	12963.463227
450.583412	13363.236809
450.957640	14322.719620
451.331808	13463.102067
451.705917	12452.564969
452.079965	11774.837288
452.453954	12672.419771
452.827883	12299.238275
453.201752	12584.224784
453.575562	12092.924013
453.949311	12519.541739
454.323001	12477.800986
454.696632	12701.950850
455.070202	12999.240295
455.443713	13242.034867
455.817164	13692.913147
456.190556	13681.048791
456.563888	14045.667887
456.937160	14221.349578
457.310373	13562.571594
457.683526	13636.210248
458.056619	13193.486035
458.429653	13344.942462
458.802628	12774.369546
459.175542	13148.985250
459.548398	14094.057923
459.921194	14428.793059
460.293930	14488.641637
460.666607	15376.827410
461.039224	16404.232208
461.411782	17108.793952
461.784280	16991.093092
462.156719	17047.170887
462.529099	16726.422433
462.901419	15664.311811
463.273680	15453.009327
463.645882	15320.056456
464.018024	15054.143153
464.390106	15263.678712
464.762130	15994.348592
465.134094	16756.334119
465.505999	18765.992620
465.877845	22017.173888
466.249631	24838.866492
466.621358	24523.577607
466.993026	23083.569490
467.364634	22533.733361
467.736184	21076.313099
468.107674	20270.633371
468.479105	20400.687578
468.850477	19853.780359
469.221790	19446.722309
469.593043	18760.495242
469.964238	18200.639819
470.335373	17865.007358
470.706449	18309.228794
471.077467	17858.035442
471.448425	19707.173523
471.819324	23728.333067
472.190164	25744.303093
472.560945	22192.248120
472.931667	19824.234156
473.302330	19188.476601
473.672934	18708.268888
474.043479	19051.042144
474.413965	18851.954376
474.784393	18464.473647
475.154761	19162.428959
475.525070	19161.894597
475.895321	18827.517382
476.265513	19409.125384
476.635645	19997.448202
477.005719	19770.117370
477.375734	19967.163471
477.745691	20448.949064
478.115588	20971.421811
478.485427	21490.915235
478.855207	22561.167320
479.224928	24325.520755
479.594591	26550.640692
479.964194	26576.307727
480.333739	26771.337366
480.703226	26352.719951
481.072653	26030.998554
481.442022	26605.720339
481.811333	27512.976797
482.180584	27438.924767
482.549777	26487.230538
482.918912	26137.545861
483.287988	26260.446671
483.657005	25923.937049
484.025964	25678.160634
484.394864	25586.061274
484.763706	25269.955722
485.132489	24704.819691
485.501213	24898.079885
485.869879	24791.759430
486.238487	24611.092038
486.607036	24760.864719
486.975527	24460.061589
487.343959	24786.902278
487.712333	24731.663835
488.080648	24383.579724
488.448905	24873.027871
488.817104	24623.001764
489.185244	25295.126203
489.553326	25263.742500
489.921350	26281.153210
490.289315	28560.241220
490.657222	30319.598871
491.025070	30836.876709
491.392861	30609.223242
491.760593	29757.542985
492.128267	28860.636016
492.495883	27817.550709
492.863440	26935.820134
493.230939	26058.969396
493.598380	25912.160913
493.965763	25513.745922
494.333088	25065.305041
494.700354	24999.036553
495.067563	24869.534352
495.434713	24616.317194
495.801805	24772.499702
496.168839	24574.669701
496.535815	24411.089300
496.902733	24624.725838
497.269593	24313.787469
497.636395	24487.823223
498.003139	24453.301402
498.369825	24184.849877
498.736453	24402.342898
499.103023	24272.024030
499.469535	24286.197234
499.835989	24499.748073
500.202385	24526.733369
500.568723	24032.513770
500.935003	24274.872282
501.301226	23892.427666
501.667390	24737.985442
502.033497	24963.113290
502.399546	24694.528175
502.765537	24257.255970
503.131470	24642.967254
503.497345	24785.102586
503.863163	24013.760678
504.228923	24588.174952
504.594625	24797.836541
504.960269	24332.341436
505.325856	24818.152391
505.691385	24224.566608
506.056856	24832.113867
506.422270	24804.765607
506.787625	24384.361102
507.152924	24788.449912
507.518164	24819.516023
507.883347	24627.069975
508.248472	24296.148472
508.613540	25098.304434
508.978550	24880.493820
509.343503	24876.211360
509.708398	25134.716688
510.073236	25284.922908
510.438016	25497.528530
510.802738	25170.032491
511.167403	25420.030872
511.532010	25128.085050
511.896561	25906.240078
512.261053	25866.815735
512.625488	25695.471957
512.989866	25599.105260
513.354186	25439.346053
513.718449	25549.954010
514.082655	25931.168584
514.446803	25656.082901
514.810894	26133.865818
515.174927	25609.497598
515.538904	25640.750232
515.902822	26152.278633
516.266684	25897.826392
516.630488	25807.383051
516.994235	25774.366014
517.357925	26094.043224
517.721558	26260.640755
518.085133	26370.379113
518.448651	26272.079133
518.812112	25997.978996
519.175516	26211.726440
519.538863	26375.112756
519.902152	26146.919886
520.265385	26432.047548
520.628560	26226.411321
520.991678	26231.510448
521.354739	26288.730065
521.717743	26365.083381
522.080690	26147.550031
522.443580	26496.816292
522.806413	26474.254608
523.169189	26576.453920
523.531908	26620.132998
523.894569	26230.164460
524.257174	26306.847972
524.619722	26484.808264
524.982213	26171.843351
525.344647	26230.484573
525.707025	26374.956481
526.069345	26350.254827
526.431608	26308.630019
526.793815	26500.224112
527.155964	25956.838139
527.518057	26128.887679
527.880093	26062.528450
528.242072	26284.079600
528.603995	26001.916137
528.965860	25793.724045
529.327669	25844.359915
529.689421	25812.835059
530.051117	25657.194475
530.412755	25834.993451
530.774337	25625.077284
531.135862	25502.428532
531.497331	25704.218358
531.858743	25276.771362
532.220098	25745.202939
532.581396	25427.161584
532.942638	25344.380797
533.303824	25462.439579
533.664953	25464.551822
534.026025	25126.214782
534.387040	25372.835590
534.747999	25427.569918
535.108902	25594.764826
535.469748	25088.431334
535.830537	25266.890701
536.191270	25388.168259
536.551947	25250.111220
536.912567	24878.910898
537.273131	25269.348263
537.633638	24958.548526
537.994089	25182.393400
538.354483	24684.801269
538.714821	25208.526742
539.075103	25239.975980
539.435328	25024.708629
539.795497	24596.840696
540.155609	24969.507994
540.515665	25287.582117
540.875665	24502.666901
541.235609	24829.729401
541.595496	24764.098619
541.955328	25127.369206
542.315102	25053.932197
542.674821	24587.985909
543.034483	24465.062414
543.394090	24633.247909
543.753640	24433.557723
544.113134	25064.546347
544.472571	24653.546115
544.831953	24959.839061
545.191278	24580.121709
545.550548	24498.331509
545.909761	24693.245202
546.268918	24926.776653
546.628019	24898.599124
546.987064	24582.347379
547.346053	24341.521377
547.704986	24449.613798
548.063863	24613.368119
548.422684	24633.888136
548.781449	24141.289267
549.140158	24556.955087
549.498811	24136.691735
549.857408	23880.633887
550.215949	24298.091837
550.574434	23984.237160
550.932864	24204.399472
551.291237	24365.061045
551.649555	24224.329674
552.007817	24274.718527
552.366022	24136.623679
552.724173	24157.748634
553.082267	24117.656338
553.440305	24601.246664
553.798288	23851.546429
554.156215	24350.512275
554.514086	24477.836698
554.871902	23841.943031
555.229661	24140.061746
555.587365	23988.365865
555.945014	23847.246325
556.302606	24097.562298
556.660143	24062.911927
557.017625	24301.418998
557.375050	23828.790661
557.732421	24218.053437
558.089735	24039.609194
558.446994	24096.765796
558.804197	24124.847544
559.161345	24044.884761
559.518437	23819.388909
559.875474	24001.341795
560.232455	24184.635628
560.589381	24020.359548
560.946251	24002.949923
561.303065	24308.121212
561.659825	24408.442694
562.016528	24000.051260
562.373177	23728.451534
562.729770	24109.882878
563.086307	23968.375169
563.442789	24136.575788
563.799216	23967.838287
564.155587	23970.235355
564.511904	23953.004691
564.868164	23891.409353
565.224370	23868.303224
565.580520	23793.631133
565.936615	23915.009515
566.292654	23606.803451
566.648638	23878.272106
567.004567	23712.677764
567.360441	23650.348938
567.716260	23377.254511
568.072023	23705.577299
568.427732	23474.662206
568.783385	23252.322115
569.138982	23492.288600
569.494525	23530.835783
569.850013	23272.814406
570.205445	23374.058419
570.560823	23192.370193
570.916145	22939.208488
571.271412	23128.851655
571.626625	22884.272514
571.981782	22992.072548
572.336884	22804.166059
572.691931	22935.848559
573.046923	22679.450433
573.401860	22552.007544
573.756743	22574.138209
574.111570	22475.026604
574.466342	22399.550448
574.821059	22476.871666
575.175722	22186.591945
575.530330	22159.089931
575.884882	22183.544568
576.239380	22095.899067
576.593823	21979.297179
576.948211	21961.441412
577.302544	21813.607055
577.656823	21667.584992
578.011047	21777.572887
578.365216	21646.707054
578.719330	21530.095083
579.073389	21411.862381
579.427394	21582.593659
579.781344	21337.916216
580.135239	21214.007175
580.489080	21181.234634
580.842866	20951.105961
581.196597	21144.832462
581.550273	21122.139708
581.903895	21007.133345
582.257463	21322.661684
582.610975	20847.946309
582.964434	21160.495327
583.317837	20872.809280
583.671186	20945.190167
584.024481	20926.295922
584.377721	20697.939215
584.730906	20766.907240
585.084037	20772.460071
585.437113	20685.258192
585.790135	20894.138402
586.143103	20358.374653
586.496016	20371.169102
586.848874	20613.988880
587.201679	20528.445540
587.554428	20211.901408
587.907124	20557.406969
588.259765	20317.995011
588.612352	20396.914274
588.964884	19956.652665
589.317362	20132.455344
589.669786	20198.038235
590.022155	20215.357119
590.374470	20427.249418
590.726731	20202.938236
591.078937	19973.837958
591.431090	20074.192208
591.783188	19831.800928
592.135232	19793.145361
592.487222	19894.830475
592.839157	19909.517877
593.191038	19797.112749
593.542866	19680.546148
593.894639	19389.351458
594.246358	19609.125601
594.598022	19512.363174
594.949633	19257.174925
595.301190	19234.404033
595.652692	19407.182019
596.004141	19643.085334
596.355535	18963.699112
596.706876	18980.523963
597.058162	18874.977325
597.409395	19104.090206
597.760573	19169.181584
598.111698	18940.570299
598.462768	18882.443274
598.813785	18853.706177
599.164748	18661.383637
599.515657	18692.747176
599.866511	18505.710286
600.217312	18863.112970
600.568060	18371.711375
600.918753	18698.254636
601.269392	18586.507379
601.619978	18374.783958
601.970510	18569.183454
602.320988	18519.878448
602.671412	18723.992247
603.021783	18646.328231
603.372100	18363.927834
603.722363	18509.100462
604.072572	18441.261654
604.422728	18595.858719
604.772830	18354.132872
605.122878	18308.039082
605.472872	18292.570301
605.822813	18285.936143
606.172701	18251.101769
606.522534	18448.021842
606.872314	18473.925811
607.222041	18306.544379
607.571714	18527.823307
607.921333	18347.105503
608.270899	18421.389426
608.620411	18596.556919
608.969870	18372.986787
609.319276	18371.686169
609.668627	18401.948216
610.017926	18546.546152
610.367171	18642.950658
610.716362	18701.173464
611.065500	18517.088170
611.414585	18659.904058
611.763616	18645.632552
612.112594	18577.098065
612.461518	18549.870793
612.810389	18738.195698
613.159207	18593.416280
613.507971	18513.400566
613.856682	18779.565927
614.205340	18702.713537
614.553945	18855.316825
614.902496	18596.841744
615.250994	18816.772163
615.599439	18764.903731
615.947830	18758.382999
616.296169	18813.316452
616.644454	18769.667622
616.992686	18740.139063
617.340864	18967.013671
617.688990	18701.453248
618.037063	18886.380415
618.385082	18746.642151
618.733048	19027.651190
619.080961	18893.503566
619.428821	18922.507844
619.776628	18813.475248
620.124382	18740.706193
620.472083	18789.275189
620.819731	18797.197363
621.167326	18502.176437
621.514868	18531.273977
621.862357	18312.646696
622.209793	18307.570254
622.557176	18150.253487
622.904506	17967.546948
623.251783	17901.238131
623.599007	17644.827402
623.946179	17587.963187
624.293297	17532.150052
624.640363	17267.343282
624.987376	17289.718443
625.334336	17092.261488
625.681243	16934.150739
626.028097	16943.270186
626.374899	16870.705297
626.721647	16733.046509
627.068343	16569.430820
627.414987	16510.391346
627.761577	16472.484390
628.108115	16509.219278
628.454600	16236.886065
628.801032	16336.037999
629.147412	16264.264572
629.493739	16279.569515
629.840014	16088.663539
630.186236	16185.274732
630.532405	15949.845286
630.878521	16161.203222
631.224585	16053.695575
631.570597	15877.542537
631.916556	15910.899852
632.262462	15885.868002
632.608316	15799.812985
632.954117	15737.365692
633.299866	15736.120527
633.645562	15650.559543
633.991206	15413.582463
634.336797	15281.151351
634.682336	15246.639612
635.027823	15129.468073
635.373257	15006.950391
635.718639	14910.422377
636.063968	14854.513460
636.409245	14610.869454
636.754470	14642.293486
637.099642	14485.886647
637.444762	14258.591102
637.789829	14289.684939
638.134845	14130.936484
638.479808	14159.484538
638.824719	14095.343417
639.169577	13956.169763
639.514383	13994.560670
639.859137	13822.669926
640.203839	13912.319286
640.548489	13755.834309
640.893086	13744.509357
641.237632	13620.678453
641.582125	13764.759672
641.926566	13588.430192
642.270955	13608.224283
642.615292	13563.305082
642.959576	13574.690528
643.303809	13608.073048
643.647990	13531.979352
643.992118	13599.321605
644.336195	13368.953477
644.680219	13578.012648
645.024192	13494.324453
645.368112	13737.749169
645.711981	13786.686170
646.055797	13977.413185
646.399562	13947.476293
646.743274	14211.426067
647.086935	14487.875382
647.430544	14456.368171
647.774101	14490.784128
648.117606	14631.437361
648.461059	14612.069248
648.804460	14596.676085
649.147810	14322.394466
649.491108	14225.712697
649.834354	14238.756682
650.177548	13925.491821
650.520690	13739.274118
650.863781	13651.963854
651.206820	13703.766751
651.549807	13535.603941
651.892742	13331.943846
652.235626	13269.100823
652.578458	13273.005196
652.921238	12968.796767
653.263967	13160.552177
653.606644	12990.302330
653.949269	12976.257675
654.291843	12772.204370
654.634365	12931.829986
654.976836	12790.196248
655.319255	12783.350361
655.661622	12738.506777
656.003938	12658.543995
656.346203	12587.284765
656.688416	12667.260150
657.030577	12612.293929
657.372687	12537.231148
657.714746	12519.380423
658.056753	12696.198894
658.398708	12517.928570
658.740612	12517.139630
659.082465	12632.065334
659.424266	12598.637443
659.766016	12615.081687
660.107715	12527.353007
660.449362	12605.972322
660.790958	12557.294941
661.132503	12498.976352
661.473996	12567.364645
661.815438	12583.781163
662.156829	12607.633382
662.498168	12580.186820
662.839456	12577.638517
663.180693	12598.312289
663.521879	12692.120600
663.863013	12674.035461
664.204097	12642.523208
664.545129	12764.219183
664.886110	12747.827871
665.227040	12829.270232
665.567918	12841.074093
665.908746	12857.684695
666.249522	12848.779497
666.590248	12901.472158
666.930922	13013.133715
667.271545	12978.422851
667.612118	13072.495823
667.952639	12968.504380
668.293109	12988.230415
668.633528	12943.717027
668.973896	12917.853387
669.314213	12995.933298
669.654480	12735.472003
669.994695	12811.454794
670.334859	12831.735356
670.674973	12779.803910
671.015035	12811.235504
671.355047	12756.291968
671.695008	12726.705436
672.034918	12733.364800
672.374777	12779.264506
672.714585	12691.843337
673.054342	12732.217938
673.394049	12679.807582
673.733705	12775.287036
674.073310	12679.263137
674.412864	12698.177547
674.752368	12550.234805
675.091820	12572.816653
675.431223	12565.761558
675.770574	12432.924634
676.109875	12353.823889
676.449125	12317.991367
676.788324	12255.458375
677.127473	12090.960483
677.466571	12083.509658
677.805619	11978.464615
678.144616	11907.200343
678.483562	11871.198943
678.822458	11743.516599
679.161303	11721.443907
679.500098	11705.418078
679.838842	11659.493167
680.177535	11689.445183
680.516179	11755.776685
680.854771	11694.231758
681.193314	11913.474059
681.531805	12075.174110
681.870247	12495.639108
682.208638	12912.471955
682.546978	13215.346999
682.885268	13263.558074
683.223508	12953.232205
683.561697	12798.274697
683.899836	12706.588712
684.237925	12495.999551
684.575963	12413.430492
684.913951	12333.770179
685.251889	12285.213785
685.589776	12393.757389
685.927614	12309.708752
686.265401	12278.400666
686.603137	12323.675268
686.940824	12472.326293
687.278460	12600.603493
687.616046	12638.139925
687.953582	12803.499853
688.291068	12742.000297
688.628504	12962.419708
688.965889	12978.183396
689.303224	12948.269189
689.640510	12828.957680
689.977745	12513.152077
690.314930	12296.175774
690.652065	12208.643699
690.989150	11913.630335
691.326185	11687.690861
691.663170	11484.469347
692.000105	11248.404715
692.336990	11118.844540
692.673825	10862.365756
693.010610	10751.528427
693.347345	10538.254852
693.684030	10348.200831
694.020665	10291.586153
694.357251	10089.209032
694.693786	10022.814515
695.030272	9871.761381
695.366707	9751.769317
695.703093	9685.838586
696.039429	9675.791567
696.375716	9596.650492
696.711952	9463.990008
697.048139	9509.196556
697.384276	9459.458011
697.720363	9479.148758
698.056400	9416.542668
698.392388	9367.822437
698.728326	9325.224687
699.064214	9269.535061
699.400053	9312.795722
699.735842	9125.741188
700.071581	9082.631761
700.407270	9009.610648
700.742910	8925.130992
701.078501	8837.069596
701.414042	8709.467909
701.749533	8644.787385
702.084974	8510.551540
702.420366	8624.080846
702.755709	8507.143720
703.091002	8367.816310
703.426246	8399.384016
703.761440	8352.957509
704.096584	8307.788771
704.431679	8235.879232
704.766725	8228.677944
705.101721	8177.956374
705.436668	8224.564362
705.771565	8117.661654
706.106413	8198.002523
706.441212	8234.258501
706.775961	8193.858694
707.110661	8237.739418
707.445311	8373.454841
707.779913	8270.033049
708.114465	8396.689519
708.448967	8438.440355
708.783421	8582.985359
709.117825	8765.936394
709.452180	8802.668762
709.786485	8890.367195
710.120742	9177.672635
710.454949	9175.625926
710.789107	9277.711812
711.123216	9498.126182
711.457275	9670.856277
711.791286	9820.646602
712.125247	9814.259460
712.459159	9801.921236
712.793023	10041.209686
713.126837	9621.087486
713.460602	9776.473491
713.794318	9602.581410
714.127985	9633.927305
714.461602	9303.280544
714.795171	9253.547041
715.128691	8997.847115
715.462162	8758.276361
715.795584	8699.821662
716.128957	8545.811891
716.462281	8379.121098
716.795556	8425.880320
717.128782	8210.655819
717.461960	7954.476983
717.795088	8029.980865
718.128167	7940.762524
718.461198	7769.519569
718.794180	7718.427475
719.127113	7705.234775
719.459997	7540.187398
719.792833	7321.802093
720.125619	7386.512864
720.458357	7239.500215
720.791046	7229.231385
721.123686	7224.349027
721.456278	7057.544808
721.788821	7080.512305
722.121315	6979.432130
722.453761	7046.885289
722.786158	6985.385732
723.118506	6997.408884
723.450805	6961.778009
723.783056	7023.118769
724.115259	6937.479647
724.447412	6935.009482
724.779518	6984.536298
725.111574	6986.346072
725.443582	7069.310862
725.775542	7046.623149
726.107453	7241.667912
726.439315	7150.286916
726.771129	7216.295784
727.102895	7388.388174
727.434612	7494.622929
727.766281	7531.173815
728.097901	7610.831608
728.429473	7608.311031
728.760996	7591.201355
729.092471	7562.325625
729.423897	7504.228848
729.755276	7505.700865
730.086606	7432.515914
730.417887	7534.745473
730.749120	7737.830876
731.080305	7932.179960
731.411442	8042.954274
731.742530	8036.123511
732.073570	8147.908577
732.404562	8229.136689
732.735506	8080.475582
733.066401	8221.143939
733.397249	8149.204153
733.728048	7911.652381
734.058798	7568.972387
734.389501	7345.548448
734.720156	7168.384658
735.050762	6940.199350
735.381320	6845.854156
735.711831	6790.640918
736.042293	6687.037645
736.372707	6700.237906
736.703073	6565.873512
737.033391	6600.995231
737.363661	6618.833354
737.693883	6651.023642
738.024056	6736.473720
738.354182	6773.062415
738.684260	6812.358209
739.014290	6929.859943
739.344272	7038.905142
739.674207	7071.309679
740.004093	7139.534135
740.333931	7152.149622
740.663722	7158.095663
740.993464	7235.028712
741.323159	7217.810651
741.652806	6969.269163
741.982405	6998.064234
742.311956	7042.622993
742.641460	6873.260388
742.970915	6682.533374
743.300323	6672.632548
743.629683	6624.285362
743.958996	6489.963817
744.288260	6398.751700
744.617477	6344.634914
744.946647	6345.315470
745.275768	6184.202713
745.604842	6137.660260
745.933869	6119.388598
746.262847	6077.516774
746.591778	6061.526234
746.920662	6023.082395
747.249498	6014.300705
747.578286	6066.272481
747.907027	6139.739736
748.235720	6201.728285
748.564365	6177.611405
748.892963	6210.686415
749.221514	6353.824937
749.550017	6176.383884
749.878473	6060.772582
750.206881	6118.513958
750.535242	6064.578653
750.863555	5996.828066
751.191821	6006.396176
751.520039	6004.387276
751.848210	5918.105408
752.176334	5936.999652
752.504411	5992.250698
752.832440	5909.749695
753.160421	5843.027503
753.488356	5891.631788
753.816243	5917.137506
754.144082	5770.760042
754.471875	5744.672071
754.799620	5783.753616
755.127318	5795.108815
755.454969	5756.939719
755.782572	5721.528134
756.110129	5762.878198
756.437638	5745.468573
756.765100	5683.414490
757.092515	5688.508576
757.419882	5743.825157
757.747203	5721.036621
758.074477	5779.483759
758.401703	5760.191263
758.728882	5717.036466
759.056014	5781.729593
759.383099	5900.811729
759.710138	5912.650879
760.037129	5903.874230
760.364073	5903.206277
760.690970	5988.283310
761.017820	5964.322706
761.344623	5924.704278
761.671379	6030.439959
761.998088	6150.888248
762.324751	6405.819398
762.651366	7021.558532
762.977935	8362.026545
763.304456	10005.120065
763.630931	10882.679086
763.957359	10458.823911
764.283740	9504.644394
764.610074	8653.473293
764.936362	7660.945718
765.262602	7065.320788
765.588796	6525.362800
765.914943	6195.147058
766.241044	6029.691348
766.567097	5822.908258
766.893104	5562.119287
767.219064	5388.678389
767.544978	5328.116488
767.870845	5243.339403
768.196665	5139.486593
768.522438	5071.988064
768.848165	5034.794431
769.173846	4964.808092
769.499479	4922.346453
769.825066	4868.209502
770.150607	4809.807734
770.476101	4788.186226
770.801548	4781.776398
771.126949	4704.238411
771.452303	4648.145492
771.777611	4608.489256
772.102872	4627.892657
772.428087	4589.032922
772.753256	4549.154875
773.078378	4503.416486
773.403453	4431.895116
773.728482	4418.969597
774.053465	4371.184500
774.378401	4362.090258
774.703291	4357.268395
775.028135	4286.636788
775.352932	4238.922267
775.677683	4224.716296
776.002388	4245.127928
776.327046	4255.613528
776.651658	4180.805325
776.976224	4119.802322
777.300743	4121.304586
777.625216	4146.999347
777.949643	4138.764623
778.274024	4093.081686
778.598359	4052.964184
778.922647	4078.306064
779.246889	4064.891554
779.571086	4061.546748
779.895236	4044.018657
780.219339	4031.309908
780.543397	4025.310935
780.867409	4078.825303
781.191374	4092.481789
781.515294	4028.643137
781.839167	4023.624669
782.162995	4044.505128
782.486776	4032.340824
782.810511	4042.440775
783.134201	4032.071122
783.457844	3984.492712
783.781441	3934.461781
784.104993	3942.048717
784.428498	3960.741316
784.751958	3957.895584
785.075372	3931.835339
785.398739	3894.823188
785.722061	3906.745517
786.045337	3952.340233
786.368568	3984.170078
786.691752	3894.772776
787.014891	3950.795119
787.337983	4081.295469
787.661030	4241.465529
787.984031	4401.771701
788.306987	4569.425354
788.629897	4647.848064
788.952760	4606.056899
789.275579	4542.654307
789.598351	4472.090756
789.921078	4324.783199
790.243759	4130.799599
790.566395	4116.795274
790.888984	4109.157926
791.211529	4001.932584
791.534027	3939.749951
791.856480	3924.046757
792.178888	3864.387222
792.501249	3821.572702
792.823566	3831.213909
793.145836	3854.478834
793.468062	3801.874393
793.790241	3760.302518
794.112375	3791.061118
794.434464	3857.669884
794.756507	3876.927092
795.078505	3854.249461
795.400457	3894.795462
795.722364	4034.223695
796.044226	4141.844768
796.366042	4211.054769
796.687812	4193.486348
797.009538	4191.832849
797.331218	4154.603928
797.652852	4129.057881
797.974442	4106.649952
798.295986	4105.591310
798.617484	4023.107950
798.938938	3932.830967
799.260346	3978.506342
799.581709	3976.701609
799.903026	3898.898961
800.224299	3861.733054
800.545526	3855.915562
800.866708	3815.949295
801.187845	3760.085748
801.508936	3793.700162
801.829983	3784.437042
802.150984	3706.999878
802.471940	3703.324877
802.792851	3709.394426
803.113717	3713.114798
803.434538	3713.850806
803.755314	3652.162206
804.076045	3633.099083
804.396731	3654.070283
804.717372	3675.714477
805.037967	3662.723424
805.358518	3651.063235
805.679024	3676.246319
805.999485	3692.967826
806.319901	3697.320863
806.640272	3708.940722
806.960598	3721.909090
807.280879	3698.417313
807.601115	3713.374417
807.921306	3729.100296
808.241453	3770.120165
808.561554	3740.896596
808.881611	3675.081812
809.201623	3716.336095
809.521590	3724.331365
809.841513	3696.849515
810.161390	3729.874113
810.481223	3705.419476
810.801011	3651.050632
811.120755	3646.536279
811.440453	3680.034746
811.760107	3681.549613
812.079716	3634.911378
812.399281	3604.815689
812.718801	3629.935759
813.038276	3605.022377
813.357707	3600.220678
813.677093	3616.259109
813.996434	3563.989905
814.315731	3575.990372
814.634983	3579.297369
814.954191	3594.204061
815.273354	3622.429481
815.592473	3612.921865
815.911547	3624.355202
816.230577	3666.869773
816.549562	3716.782237
816.868502	3759.314452
817.187399	3783.111219
817.506250	3777.560908
817.825058	3754.298504
818.143821	3850.884491
818.462539	3953.532466
818.781213	3994.549814
819.099843	4056.757652
819.418429	4310.635201
819.736970	4553.379362
820.055466	4805.852949
820.373919	5171.162683
820.692327	5582.936732
821.010691	6046.564090
821.329011	7474.017213
821.647286	10298.079159
821.965517	14940.243322
822.283704	18957.763154
822.601847	21026.889627
822.919945	19159.348814
823.237999	16541.117179
823.556010	14049.536973
823.873976	11920.763568
824.191897	9818.627620
824.509775	8470.849933
824.827609	7346.281936
825.145398	6814.435164
825.463144	6693.654159
825.780845	6808.930224
826.098502	7017.132399
826.416116	7926.067561
826.733685	9275.534034
827.051210	10368.045333
827.368692	10361.731288
827.686129	9076.136234
828.003522	7558.779174
828.320872	6544.572117
828.638177	5836.063149
828.955439	5276.671513
829.272656	4773.213999
829.589830	4496.497502
829.906960	4322.953261
830.224046	4132.503509
830.541088	4010.013553
830.858086	3961.734423
831.175041	3882.686610
831.491952	3867.537943
831.808819	3881.196949
832.125642	3958.563537
832.442421	4111.940643
832.759157	4391.182757
833.075849	4956.535558
833.392497	5838.424930
833.709101	6619.718076
834.025662	6941.358815
834.342179	6548.226953
834.658653	5878.418924
834.975083	5225.954984
835.291469	4645.400584
835.607811	4244.255808
835.924110	4101.208026
836.240366	3902.561359
836.556578	3697.479659
836.872746	3589.989656
837.188871	3544.158006
837.504952	3476.624188
837.820990	3397.173083
838.136984	3354.603059
838.452935	3377.484857
838.768842	3372.360524
839.084706	3397.538567
839.400526	3560.146025
839.716303	3913.848502
840.032037	4442.950366
840.347727	4695.416392
840.663373	4400.118202
840.978977	4016.246940
841.294537	3707.347717
841.610054	3478.665856
841.925527	3373.363713
842.240957	3304.796459
842.556344	3253.729571
842.871687	3191.393183
843.186987	3139.781850
843.502244	3106.507714
843.817458	3068.620922
844.132629	3040.564381
844.447756	3047.289280
844.762840	3032.407794
845.077881	2998.334635
845.392879	2982.689414
845.707833	2978.989207
846.022745	2978.515338
846.337613	2978.661532
846.652438	2965.612505
846.967221	2962.996146
847.281960	2948.361677
847.596656	2944.311110
847.911309	2945.788168
848.225919	2937.719801
848.540485	2936.189811
848.855009	2933.588575
849.169490	2926.823347
849.483928	2915.546286
849.798323	2915.016965
850.112675	2912.503949
850.426984	2923.294539
850.741251	2919.352357
851.055474	2908.234092
851.369654	2902.409039
851.683792	2909.443969
851.997887	2916.110895
852.311938	2918.835639
852.625947	2909.086047
852.939914	2910.371541
853.253837	2914.558220
853.567718	2899.714542
853.881555	2898.066085
854.195350	2916.587284
854.509103	2909.363311
854.822812	2903.460119
855.136479	2897.514078
855.450103	2900.765623
855.763685	2895.472411
856.077224	2891.346227
856.390720	2904.415418
856.704173	2914.028898
857.017584	2906.046231
857.330953	2904.974986
857.644278	2914.825401
857.957561	2924.837132
858.270802	2924.615322
858.584000	2925.353851
858.897155	2909.443969
859.210268	2911.581418
859.523339	2907.868608
859.836367	2908.491191
860.149352	2899.769995
860.462295	2898.436610
860.775195	2905.660583
861.088054	2904.503638
861.400869	2889.286915
861.713642	2888.707183
862.026373	2901.312588
862.339062	2906.701581
862.651708	2910.628640
862.964312	2913.381110
863.276873	2904.702764
863.589392	2917.371183
863.901869	2929.621187
864.214303	2950.148766
864.526696	2964.813482
864.839045	2962.814665
865.151353	2959.963892
865.463619	2961.095631
865.775842	2961.100673
866.088023	2981.487099
866.400162	2986.644199
866.712258	2955.951134
867.024313	2946.912345
867.336325	2956.142698
867.648296	2980.070534
867.960224	2969.002681
868.272110	2956.117492
868.583954	2962.822227
868.895755	2975.122642
869.207515	2961.740899
869.519233	2969.166519
869.830909	2980.980463
870.142542	2988.348109
870.454134	2988.842142
870.765684	2990.929180
871.077191	2988.224601
871.388657	2995.277175
871.700081	3011.487005
872.011463	3020.251051
872.322803	3023.626104
872.634101	3024.057122
872.945357	3041.708723
873.256571	3065.878535
873.567744	3055.062739
873.878874	3048.625186
874.189963	3071.219637
874.501010	3075.681058
874.812015	3066.518761
875.122979	3065.162691
875.433900	3062.412741
875.744780	3067.784091
876.055618	3077.223651
876.366415	3071.633012
876.677169	3083.305803
876.987882	3079.499732
877.298554	3077.281625
877.609183	3097.877259
877.919771	3121.308542
878.230317	3148.374497
878.540822	3200.336190
878.851285	3237.670975
879.161707	3284.334416
879.472087	3392.028586
879.782425	3630.868372
880.092722	4077.907813
880.402977	4613.742138
880.713191	5256.869860
881.023363	6442.128309
881.333494	7740.999241
881.643583	8276.301724
881.953631	7958.709032
882.263637	7310.903118
882.573602	6704.643875
882.883526	6117.790553
883.193408	5550.118821
883.503248	5095.739460
883.813048	4784.743117
884.122806	4473.093946
884.432522	4148.100839
884.742197	3912.376486
885.051831	3717.288873
885.361424	3585.568564
885.670975	3514.513501
885.980485	3424.667536
886.289954	3344.354394
886.599382	3300.899648
886.908768	3265.719955
887.218113	3218.307903
887.527417	3159.923780
887.836680	3110.623816
888.145901	3105.161726
888.455082	3095.205447
888.764221	3041.675955
889.073319	3013.632016
889.382376	3013.775689
889.691392	3015.940865
890.000366	3015.048580
890.309300	3002.223885
890.618193	3015.008251
890.927044	3030.542567
891.235855	3029.907381
891.544625	3017.448170
891.853353	3028.573996
892.162041	3045.214845
892.470687	3088.795620
892.779293	3140.333856
893.087858	3186.871268
893.396381	3262.786004
893.704864	3385.553223
894.013306	3633.509937
894.321707	3939.006381
894.630068	4143.289058
894.938387	4134.681288
895.246665	4089.842745
895.554903	3966.021924
895.863100	3759.483331
896.171256	3591.988473
896.479371	3450.841207
896.787446	3328.134481
897.095480	3223.074314
897.403473	3162.537618
897.711425	3123.173769
898.019336	3115.486009
898.327207	3081.919486
898.635038	3044.940102
898.942827	3033.647917
899.250576	3021.007224
899.558284	2990.989674
899.865952	2971.145172
900.173579	2950.315124
900.481165	2940.880604
900.788711	2930.515992
901.096216	2904.445665
901.403681	2893.813872
901.711105	2903.729821
902.018489	2899.011301
902.325832	2897.045251
902.633135	2909.461613
902.940397	2943.882612
903.247619	3027.328831
903.554800	3229.305181
903.861941	3588.593256
904.169041	4023.319679
904.476101	4318.708609
904.783121	4257.158641
905.090100	4008.786032
905.397039	3726.914956
905.703938	3475.220227
906.010796	3288.037143
906.317614	3180.111081
906.624391	3082.335381
906.931129	3009.341994
907.237826	2949.170782
907.544483	2901.070613
907.851099	2871.305120
908.157675	2850.477593
908.464211	2830.358347
908.770707	2817.440391
909.077163	2802.725263
909.383578	2787.455608
909.689954	2775.200563
909.996289	2775.603855
910.302584	2777.890018
910.608839	2779.331788
910.915054	2769.367948
911.221229	2763.454674
911.527363	2765.866866
911.833458	2772.800973
912.139513	2776.377672
912.445527	2781.698610
912.751502	2790.102213
913.057436	2800.305509
913.363331	2814.186326
913.669186	2835.119717
913.975000	2871.990717
914.280775	2935.433638
914.586510	3006.609689
914.892205	3085.496185
915.197859	3219.371587
915.503475	3415.386772
915.809050	3636.741317
916.114585	3782.133235
916.420081	3797.138229
916.725536	3735.868045
917.030952	3614.842544
917.336328	3481.196515
917.641665	3348.102492
917.946961	3247.654981
918.252218	3177.378775
918.557435	3096.856425
918.862612	3036.642363
919.167750	2987.213849
919.472848	2948.404527
919.777906	2921.104158
920.082925	2892.762791
920.387904	2864.363451
920.692843	2847.213445
920.997743	2836.569049
921.302603	2822.174034
921.607423	2811.685914
921.912204	2794.326700
922.216946	2789.703962
922.521647	2775.059410
922.826310	2769.889707
923.130932	2764.760333
923.435516	2752.336409
923.740059	2745.750142
924.044564	2736.345869
924.349028	2733.585838
924.653454	2725.499827
924.957840	2718.994218
925.262186	2714.636140
925.566493	2711.389637
925.870761	2706.073741
926.174989	2703.222968
926.479178	2697.405477
926.783328	2694.174097
927.087438	2693.599405
927.391509	2690.410876
927.695541	2686.859383
927.999533	2683.784279
928.303486	2681.205729
928.607400	2681.462827
928.911275	2682.453414
929.215110	2677.354287
929.518906	2676.280521
929.822663	2678.107940
930.126381	2678.861592
930.430060	2679.103567
930.733699	2676.426715
931.037299	2680.938547
931.340861	2680.099195
931.644383	2682.362673
931.947866	2681.651871
932.251309	2680.336130
932.554714	2680.386541
932.858080	2677.760100
933.161407	2674.130469
933.464694	2673.608710
933.767943	2667.007319
934.071153	2674.153154
934.374323	2672.482012
934.677455	2672.688699
934.980548	2672.416477
935.283602	2670.357166
935.586617	2668.706188
935.889593	2670.657114
936.192530	2669.437155
936.495428	2671.483863
936.798287	2672.638288
937.101108	2674.256498
937.403890	2678.302024
937.706632	2682.846624
938.009336	2691.444312
938.312002	2700.291537
938.614628	2707.868391
938.917216	2713.960626
939.219765	2713.774103
939.522275	2712.841490
939.824747	2709.811756
940.127179	2707.671786
940.429573	2705.194059
940.731929	2704.369831
941.034246	2699.873121
941.336524	2697.118131
941.638763	2692.845753
941.940964	2691.736699
942.243126	2690.156297
942.545250	2690.191585
942.847335	2685.485668
943.149381	2682.362673
943.451389	2678.455779
943.753359	2676.933351
944.055290	2677.293793
944.357182	2675.622651
944.659036	2672.035870
944.960851	2675.748680
945.262628	2669.686692
945.564367	2671.022598
945.866067	2671.390602
946.167729	2673.543175
946.469352	2673.318843
946.770937	2673.139882
947.072484	2670.601662
947.373992	2668.592762
947.675462	2666.775426
947.976893	2663.775939
948.278286	2662.223264
948.579641	2663.135713
948.880958	2660.968017
949.182236	2664.968172
949.483476	2660.841988
949.784678	2661.194868
950.085841	2662.394663
950.386967	2662.674447
950.688054	2663.168480
950.989103	2667.188800
951.290114	2665.724345
951.591087	2667.463543
951.892021	2669.283400
952.192917	2671.746003
952.493776	2672.459327
952.794596	2677.659277
953.095378	2675.216838
953.396122	2674.377486
953.696828	2673.059224
953.997496	2670.367248
954.298126	2669.550581
954.598718	2666.921619
954.899272	2666.999757
955.199788	2661.598161
955.500266	2660.146308
955.800706	2657.648417
956.101108	2655.332007
956.401472	2654.298570
956.701798	2652.062818
957.002087	2650.096768
957.302337	2648.327323
957.602550	2648.274391
957.902724	2641.428504
958.202861	2645.592497
958.502960	2644.985038
958.803022	2641.269708
959.103045	2643.838176
959.403031	2641.436066
959.702979	2640.342136
960.002889	2637.584624
960.302762	2640.377424
960.602596	2638.746610
960.902393	2641.007568
961.202153	2638.229892
961.501875	2636.538585
961.801559	2636.314254
962.101205	2636.251239
962.400814	2637.299799
962.700385	2634.935498
962.999918	2635.550519
963.299414	2631.023563
963.598873	2632.926598
963.898293	2629.826289
964.197677	2634.867442
964.497022	2634.701084
964.796331	2632.760240
965.095601	2635.154788
965.394835	2635.537916
965.694030	2632.651855
965.993189	2631.431896
966.292309	2633.302164
966.591393	2634.514562
966.890439	2636.054634
967.189447	2637.287196
967.488419	2633.191259
967.787353	2634.648152
968.086249	2633.851650
968.385108	2633.125724
968.683930	2635.240488
968.982714	2635.545478
969.281462	2632.588841
969.580172	2634.350724
969.878844	2633.176135
970.177480	2633.909623
970.476078	2635.008595
970.774639	2634.559932
971.073162	2632.445168
971.371649	2634.829634
971.670098	2634.209572
971.968510	2635.696712
972.266885	2635.734521
972.565223	2638.567649
972.863524	2636.314254
973.161788	2635.951291
973.460014	2634.627988
973.758204	2636.858698
974.056356	2634.988430
974.354471	2633.483646
974.652550	2634.696043
974.950591	2634.935498
975.248595	2635.023718
975.546563	2635.832823
975.844493	2634.010446
976.142386	2634.494397
976.440243	2632.379633
976.738062	2631.426855
977.035845	2632.442647
977.333590	2635.230406
977.631299	2633.062709
977.928971	2628.848305
978.226606	2626.045423
978.524204	2629.536422
978.821765	2629.276803
979.119290	2633.188738
979.416777	2631.459622
979.714228	2634.975827
980.011642	2630.385857
980.309020	2633.060189
980.606360	2634.824593
980.903664	2631.200003
981.200931	2632.757720
981.498162	2632.729993
981.795356	2634.474232
982.092513	2634.877525
982.389633	2635.991620
982.686717	2640.566467
982.983764	2644.967394
983.280775	2648.534011
983.577749	2647.099802
983.874686	2649.567447
984.171587	2644.470841
984.468451	2641.453710
984.765279	2642.562764
985.062070	2641.602424
985.358824	2638.867598
985.655543	2640.420273
985.952224	2637.261991
986.248869	2635.623616
986.545478	2633.408028
986.842050	2631.066412
987.138586	2633.009777
987.435086	2632.377112
987.731549	2629.309570
988.027975	2627.351082
988.324366	2632.125055
988.620719	2633.108080
988.917037	2629.798562
989.213318	2628.268572
989.509563	2628.747482
989.805772	2627.000722
990.101944	2625.856380
990.398080	2627.628346
990.694180	2629.677575
990.990244	2627.948459
991.286271	2630.703449
991.582262	2629.077677
991.878217	2627.696401
992.174136	2630.801752
992.470019	2628.497945
992.765865	2627.003242
993.061676	2625.241359
993.357450	2625.846298
993.653188	2622.839249
993.948890	2628.747482
994.244556	2630.416104
994.540186	2629.100362
994.835780	2629.536422
995.131337	2629.932153
995.426859	2629.206227
995.722345	2630.685805
996.017795	2632.384674
996.313208	2631.804942
996.608586	2630.577421
996.903928	2633.312247
997.199234	2635.006074
997.494504	2634.930457
997.789738	2632.177987
998.084936	2633.181177
998.380099	2630.322842
998.675225	2631.389046
998.970316	2629.758233
999.265371	2630.905096
999.560390	2629.450723
999.855373	2629.410393
1000.150320	2629.274282
1000.445232	2632.120014
1000.740108	2629.917029
1001.034948	2627.383850
1001.329752	2626.882255
1001.624521	2627.777060
1001.919254	2624.999384
1002.213951	2629.581793
1002.508613	2627.895527
1002.803239	2626.534415
1003.097829	2626.015176
1003.392384	2627.056175
1003.686903	2626.930146
1003.981386	2625.395114
1004.275834	2626.189096
1004.570246	2627.479632
1004.864623	2629.072636
1005.158964	2627.714045
1005.453270	2628.230763
1005.747540	2628.046761
1006.041775	2626.947790
1006.335974	2627.393932
1006.630138	2626.751185
1006.924266	2626.494086
1007.218359	2626.610032
1007.512416	2624.732203
1007.806438	2622.987963
1008.100425	2624.643982
1008.394376	2621.873868
1008.688292	2627.194806
1008.982172	2626.922584
1009.276017	2624.684312
1009.569827	2626.857049
1009.863602	2627.421658
1010.157341	2625.425361
1010.451045	2628.830661
1010.744714	2624.948972
1011.038347	2628.286216
1011.331945	2625.304374
1011.625508	2624.588530
1011.919036	2625.992491
1012.212528	2626.393263
1012.505986	2625.165742
1012.799408	2625.821092
1013.092795	2625.826133
1013.386147	2624.646503
1013.679464	2628.671864
1013.972745	2624.149949
1014.265992	2623.771863
1014.559204	2624.525515
1014.852380	2626.491565
1015.145521	2625.490896
1015.438628	2625.765639
1015.731699	2625.571555
1016.024736	2625.412758
1016.317737	2624.212964
1016.610703	2624.812861
1016.903635	2625.274127
1017.196531	2625.460649
1017.489393	2627.986267
1017.782219	2623.655916
1018.075011	2626.574744
1018.367768	2624.570886
1018.660490	2627.277985
1018.953177	2627.277985
1019.245829	2627.277985
