Dividing Wavelength (nm)	Counts (n)	Blue Motor Position (mm): 13.100000	Red Motor Position (mm): 0.000000	
326.493990	2167.466781
326.888308	2167.466781
327.282561	2167.466781
327.676750	2125.801645
328.070874	2122.013218
328.464933	2124.042282
328.858929	2125.751233
329.252859	2132.037552
329.646726	2140.269756
330.040528	2153.286016
330.434265	2164.184990
330.827938	2184.644513
331.221547	2201.139168
331.615091	2216.393700
332.008571	2236.921278
332.401986	2253.912488
332.795338	2275.438214
333.188625	2291.786676
333.581847	2309.234110
333.975006	2329.431493
334.368100	2345.323730
334.761129	2364.953983
335.154095	2380.359749
335.546996	2401.615775
335.939833	2425.967068
336.332606	2445.136056
336.725315	2458.094342
337.117960	2469.290744
337.510540	2481.271047
337.903056	2488.139619
338.295508	2498.894920
338.687896	2509.395644
339.080220	2514.093999
339.472480	2524.022552
339.864676	2527.531195
340.256807	2533.010929
340.648875	2536.874973
341.040879	2540.446631
341.432818	2544.167002
341.824694	2544.923176
342.216506	2546.972405
342.608253	2545.553320
342.999937	2548.051212
343.391557	2547.315203
343.783113	2547.710934
344.174605	2546.339740
344.566033	2543.383103
344.957397	2545.195398
345.348697	2542.931920
345.739934	2544.643392
346.131106	2541.296065
346.522215	2539.032587
346.913260	2538.944367
347.304241	2535.690302
347.695159	2531.675023
348.086012	2529.819879
348.476802	2529.204858
348.867528	2523.089938
349.258191	2520.972654
349.648789	2519.805627
350.039324	2517.209432
350.429796	2519.117509
350.820203	2521.461646
351.210548	2517.774042
351.600828	2516.622138
351.991045	2515.651716
352.381198	2514.582991
352.771288	2515.946623
353.161314	2515.087107
353.551276	2514.361180
353.941175	2512.470748
354.331010	2512.879081
354.720782	2511.026457
355.110490	2512.795902
355.500135	2511.636437
355.889717	2513.529390
356.279235	2511.636437
356.668689	2511.432270
357.058080	2513.173989
357.447408	2512.551406
357.836672	2511.623834
358.225873	2512.488392
358.615010	2513.032836
359.004084	2513.998217
359.393095	2517.272447
359.782043	2515.097189
360.170927	2515.752539
360.559748	2514.787158
360.948505	2518.005935
361.337199	2519.437622
361.725830	2519.684639
362.114398	2517.239679
362.502903	2519.304032
362.891344	2518.031140
363.279722	2522.621111
363.668037	2521.073477
364.056289	2519.626666
364.444478	2522.172448
364.832603	2521.559948
365.220665	2524.330062
365.608665	2521.406193
365.996601	2522.021214
366.384474	2524.801410
366.772284	2525.018180
367.160031	2523.594054
367.547715	2525.335772
367.935336	2521.963240
368.322893	2522.958868
368.710388	2522.396780
369.097820	2523.873838
369.485189	2520.173631
369.872495	2528.224353
370.259738	2524.355268
370.646918	2527.135464
371.034035	2528.544467
371.421090	2528.229395
371.808081	2526.961544
372.195010	2528.925074
372.581875	2528.312574
372.968678	2529.162008
373.355418	2529.739220
373.742096	2528.214271
374.128710	2530.286185
374.515262	2528.569672
374.901751	2528.176463
375.288177	2530.888603
375.674540	2529.071267
376.060841	2531.057482
376.447079	2529.242667
376.833254	2533.512524
377.219367	2532.287523
377.605417	2534.021680
377.991404	2532.572349
378.377329	2532.171577
378.763191	2531.841381
379.148991	2529.812317
379.534727	2530.374406
379.920402	2533.867925
380.306013	2531.024714
380.691563	2534.281300
381.077049	2532.693336
381.462474	2533.671320
381.847835	2533.283151
382.233134	2534.654345
382.618371	2532.771474
383.003545	2534.263656
383.388657	2533.056299
383.773706	2536.116280
384.158693	2537.043852
384.543618	2535.476053
384.928480	2534.493028
385.313280	2535.176105
385.698017	2535.806249
386.082692	2537.227854
386.467305	2534.876156
386.851856	2538.538554
387.236344	2535.712987
387.620770	2534.760209
388.005133	2533.439427
388.389435	2536.038142
388.773674	2531.115455
389.157851	2537.353883
389.541965	2539.874460
389.926018	2541.094419
390.310008	2537.389171
390.693936	2538.261291
391.077802	2539.821528
391.461606	2538.349511
391.845348	2538.962011
392.229027	2542.513504
392.612645	2539.569470
392.996200	2539.072917
393.379694	2538.936805
393.763125	2539.771116
394.146494	2538.546116
394.529801	2538.530992
394.913047	2540.456713
395.296230	2540.151723
395.679351	2539.629964
396.062410	2541.427135
396.445408	2542.952084
396.828343	2541.701878
397.211217	2543.761190
397.594028	2544.393854
397.976778	2541.774975
398.359466	2544.101467
398.742092	2542.606765
399.124656	2542.460572
399.507158	2544.434184
399.889598	2542.755479
400.271977	2540.837320
400.654294	2544.648433
401.036549	2542.395037
401.418742	2544.653474
401.800874	2542.664739
402.182944	2542.828576
402.564952	2540.638195
402.946898	2547.045501
403.328783	2545.344112
403.710606	2547.756304
404.092367	2544.608103
404.474067	2543.395706
404.855705	2544.429143
405.237282	2543.282280
405.618797	2544.224976
406.000250	2547.360573
406.381642	2547.962991
406.762972	2543.642722
407.144240	2541.117104
407.525447	2545.994421
407.906593	2544.477033
408.287677	2547.050543
408.668700	2546.448125
409.049661	2546.904349
409.430560	2546.390151
409.811399	2548.943496
410.192176	2547.781510
410.572891	2546.342260
410.953545	2545.961653
411.334138	2547.642878
411.714669	2547.516849
412.095139	2546.377548
412.475547	2548.270502
412.855894	2548.628424
413.236180	2548.242775
413.616405	2549.256047
413.996568	2549.364432
414.376670	2548.709082
414.756711	2552.066491
415.136691	2548.623383
415.516609	2554.052705
415.896466	2547.731098
416.276262	2552.021120
416.655997	2551.847200
417.035670	2547.214380
417.415283	2550.125646
417.794834	2551.968188
418.174324	2551.333003
418.553753	2551.867365
418.933121	2549.515667
419.312428	2553.271326
419.691674	2553.165462
420.070859	2549.472817
420.449983	2549.742519
420.829045	2549.520708
421.208047	2552.913404
421.586988	2548.000800
421.965867	2551.587581
422.344686	2551.907694
422.723444	2553.835936
423.102141	2554.123281
423.480777	2553.747715
423.859352	2552.492468
424.237866	2552.517674
424.616319	2552.144628
424.994712	2554.899619
425.373044	2555.000442
425.751314	2552.074052
426.129524	2547.597508
426.507673	2552.144628
426.885762	2550.130687
427.263789	2555.035730
427.641756	2551.965668
428.019662	2555.398693
428.397508	2554.481203
428.775292	2553.551110
429.153016	2554.423230
429.530679	2555.479352
429.908282	2553.452808
430.285824	2556.792572
430.663305	2556.462377
431.040726	2553.538507
431.418086	2555.597819
431.795385	2554.125802
432.172624	2553.019269
432.549802	2556.810216
432.926920	2554.609753
433.303977	2555.917932
433.680974	2555.454146
434.057910	2556.127140
434.434786	2551.476676
434.811601	2554.970195
435.188355	2556.311142
435.565050	2554.829043
435.941683	2554.844166
436.318257	2557.135371
436.694770	2558.859445
437.071222	2557.742830
437.447614	2554.440874
437.823946	2555.295350
438.200218	2554.592109
438.576429	2556.958930
438.952580	2558.148643
439.328670	2556.333827
439.704700	2556.318704
440.080670	2555.706204
440.456580	2554.690411
440.832429	2555.922973
441.208218	2557.221070
441.583947	2555.542366
441.959616	2559.444219
442.335224	2557.654610
442.710773	2559.731565
443.086261	2557.886503
443.461689	2556.225442
443.837057	2558.330124
444.212365	2559.444219
444.587612	2556.966492
444.962800	2551.990873
445.337927	2555.204609
445.712995	2553.604042
446.088002	2557.059753
446.462949	2558.113355
446.837837	2558.176369
447.212664	2561.092677
447.587431	2559.688715
447.962139	2557.221070
448.336786	2560.268448
448.711374	2562.090825
449.085901	2559.819785
449.460369	2559.557645
449.834776	2560.790207
450.209124	2559.819785
450.583412	2559.943293
450.957640	2560.351627
451.331808	2560.659137
451.705917	2560.616287
452.079965	2561.410269
452.453954	2561.022100
452.827883	2559.691236
453.201752	2560.510423
453.575562	2560.704508
453.949311	2560.195351
454.323001	2562.012687
454.696632	2560.916236
455.070202	2562.660475
455.443713	2560.281051
455.817164	2559.608057
456.190556	2560.873386
456.563888	2563.701474
456.937160	2560.268448
457.310373	2563.656103
457.683526	2563.199879
458.056619	2560.785166
458.429653	2561.218705
458.802628	2560.107131
459.175542	2560.870866
459.548398	2563.600651
459.921194	2561.382543
460.293930	2563.885476
460.666607	2563.799776
461.039224	2562.330280
461.411782	2563.393963
461.784280	2562.146278
462.156719	2562.060578
462.529099	2566.930333
462.901419	2562.650393
463.273680	2563.119220
463.645882	2559.608057
464.018024	2561.574107
464.390106	2558.317521
464.762130	2564.034190
465.134094	2566.708522
465.505999	2567.762123
465.877845	2565.733059
466.249631	2568.112483
466.621358	2564.155177
466.993026	2567.931002
467.364634	2570.252453
467.736184	2566.963100
468.107674	2570.207083
468.479105	2568.331773
468.850477	2568.188101
469.221790	2566.582493
469.593043	2570.275138
469.964238	2568.906465
470.335373	2567.386557
470.706449	2569.014850
471.077467	2568.084757
471.448425	2568.225909
471.819324	2572.246229
472.190164	2567.502504
472.560945	2570.159192
472.931667	2569.183728
473.302330	2568.692216
473.672934	2568.077195
474.043479	2570.207083
474.413965	2568.228430
474.784393	2570.345714
475.154761	2568.382185
475.525070	2569.161043
475.895321	2570.161712
476.265513	2569.720611
476.635645	2570.857392
477.005719	2568.422514
477.375734	2568.024263
477.745691	2571.984089
478.115588	2571.122052
478.485427	2571.253122
478.855207	2570.000395
479.224928	2574.355952
479.594591	2571.928637
479.964194	2573.554409
480.333739	2576.480799
480.703226	2573.118349
481.072653	2574.479461
481.442022	2573.882084
481.811333	2572.193297
482.180584	2572.697413
482.549777	2574.184553
482.918912	2567.933522
483.287988	2572.526013
483.657005	2573.231775
484.025964	2574.489543
484.394864	2571.782443
484.763706	2575.603638
485.132489	2575.969122
485.501213	2575.119687
485.869879	2574.418967
486.238487	2576.269070
486.607036	2576.032136
486.975527	2577.514235
487.343959	2576.989955
487.712333	2576.710171
488.080648	2575.031467
488.448905	2576.632033
488.817104	2575.737228
489.185244	2577.821746
489.553326	2574.887794
489.921350	2576.561457
490.289315	2577.912486
490.657222	2579.044225
491.025070	2580.506160
491.392861	2578.035995
491.760593	2579.724781
492.128267	2577.731005
492.495883	2577.453741
492.863440	2576.954667
493.230939	2574.953329
493.598380	2576.921900
493.965763	2578.913155
494.333088	2575.502815
494.700354	2577.915007
495.067563	2578.968608
495.434713	2577.975501
495.801805	2577.549523
496.168839	2575.628844
496.535815	2578.600604
496.902733	2580.279308
497.269593	2576.032136
497.636395	2577.693196
498.003139	2577.877198
498.369825	2576.110274
498.736453	2578.119174
499.103023	2576.848803
499.469535	2580.211252
499.835989	2576.836200
500.202385	2575.941395
500.568723	2576.415264
500.935003	2575.124728
501.301226	2574.935685
501.667390	2579.334092
502.033497	2579.823084
502.399546	2578.600604
502.765537	2579.361818
503.131470	2579.518094
503.497345	2578.643454
503.863163	2578.835017
504.228923	2583.069587
504.594625	2581.075810
504.960269	2580.181006
505.325856	2582.210070
505.691385	2582.104206
506.056856	2582.837694
506.422270	2582.545307
506.787625	2581.748804
507.152924	2582.068918
507.518164	2586.885740
507.883347	2585.519587
508.248472	2584.256778
508.613540	2584.624783
508.978550	2583.946748
509.343503	2582.474731
509.708398	2585.643096
510.073236	2586.202664
510.438016	2587.241142
510.802738	2585.655699
511.167403	2590.893458
511.532010	2586.583271
511.896561	2589.633169
512.261053	2587.178127
512.625488	2589.129054
512.989866	2585.517067
513.354186	2592.027717
513.718449	2592.599888
514.082655	2593.033427
514.446803	2594.911257
514.810894	2591.815989
515.174927	2595.092739
515.538904	2598.543408
515.902822	2598.114910
516.266684	2594.026535
516.630488	2593.454364
516.994235	2598.427462
517.357925	2599.549119
517.721558	2600.756475
518.085133	2598.974427
518.448651	2595.687595
518.812112	2595.617019
519.175516	2601.177411
519.538863	2599.503748
519.902152	2602.505755
520.265385	2605.585900
520.628560	2606.498349
520.991678	2604.287803
521.354739	2606.291662
521.717743	2605.679162
522.080690	2606.296703
522.443580	2612.663680
522.806413	2611.910028
523.169189	2610.251488
523.531908	2612.716612
523.894569	2611.617641
524.257174	2613.094699
524.619722	2612.711571
524.982213	2615.763990
525.344647	2613.876078
525.707025	2615.862292
526.069345	2620.545524
526.431608	2618.385390
526.793815	2619.496964
527.155964	2619.418827
527.518057	2619.176851
527.880093	2623.771863
528.242072	2622.027624
528.603995	2622.733385
528.965860	2623.449229
529.327669	2621.904115
529.689421	2626.574744
530.051117	2627.260341
530.412755	2624.918725
530.774337	2629.138171
531.135862	2625.395114
531.497331	2628.742441
531.858743	2630.590023
532.220098	2634.612864
532.581396	2632.692185
532.942638	2632.241001
533.303824	2635.726959
533.664953	2636.089922
534.026025	2633.274438
534.387040	2639.848102
534.747999	2637.955149
535.108902	2637.080509
535.469748	2638.393730
535.830537	2642.109060
536.191270	2639.671662
536.551947	2638.673514
536.912567	2636.044552
537.273131	2640.901704
537.633638	2641.867085
537.994089	2645.108547
538.354483	2645.491674
538.714821	2649.315389
539.075103	2647.644247
539.435328	2648.246665
539.795497	2648.839000
540.155609	2649.002838
540.515665	2651.452839
540.875665	2653.257572
541.235609	2652.740853
541.595496	2653.991060
541.955328	2650.961326
542.315102	2658.187820
542.674821	2655.291677
543.034483	2658.618839
543.394090	2659.332162
543.753640	2661.038593
544.113134	2661.683860
544.472571	2662.054385
544.831953	2663.735610
545.191278	2664.814417
545.550548	2666.455312
545.909761	2667.087977
546.268918	2672.298010
546.628019	2672.938236
546.987064	2672.184584
547.346053	2674.995027
547.704986	2672.524862
548.063863	2677.248423
548.422684	2678.370080
548.781449	2675.841941
549.140158	2680.222704
549.498811	2679.945440
549.857408	2679.552230
550.215949	2684.900894
550.574434	2686.869465
550.932864	2688.986750
551.291237	2690.867100
551.649555	2691.961030
552.007817	2693.140660
552.366022	2695.121834
552.724173	2692.061853
553.082267	2697.279448
553.440305	2699.149716
553.798288	2703.167515
554.156215	2704.289172
554.514086	2705.294882
554.871902	2702.068544
555.229661	2707.094574
555.587365	2706.419060
555.945014	2715.465410
556.302606	2714.926007
556.660143	2721.058570
557.017625	2724.804148
557.375050	2727.307081
557.732421	2726.245918
558.089735	2731.564335
558.446994	2732.650704
558.804197	2740.353587
559.161345	2741.749986
559.518437	2738.863926
559.875474	2747.000348
560.232455	2750.035123
560.589381	2752.086872
560.946251	2755.721544
561.303065	2760.041813
561.659825	2767.578338
562.016528	2767.727052
562.373177	2771.238216
562.729770	2774.252826
563.086307	2779.205759
563.442789	2786.134825
563.799216	2791.228911
564.155587	2792.796710
564.511904	2804.121662
564.868164	2803.604944
565.224370	2811.511994
565.580520	2810.760862
565.936615	2823.081442
566.292654	2822.254693
566.648638	2833.680468
567.004567	2835.797752
567.360441	2844.196315
567.716260	2843.329236
568.072023	2859.350023
568.427732	2863.098121
568.783385	2867.398225
569.138982	2879.481871
569.494525	2887.154507
569.850013	2896.089953
570.205445	2902.197310
570.560823	2906.467168
570.916145	2916.766245
571.271412	2923.481062
571.626625	2939.418670
571.981782	2948.454938
572.336884	2949.231276
572.691931	2964.122844
573.046923	2960.036989
573.401860	2976.483753
573.756743	2996.424038
574.111570	3004.875532
574.466342	3013.644619
574.821059	3029.065509
575.175722	3030.396373
575.530330	3046.354146
575.884882	3058.891495
576.239380	3077.142993
576.593823	3085.909559
576.948211	3093.698142
577.302544	3104.246757
577.656823	3109.466871
578.011047	3130.460757
578.365216	3141.510966
578.719330	3160.019562
579.073389	3172.483815
579.427394	3203.444061
579.781344	3198.954914
580.135239	3222.063563
580.489080	3232.032445
580.842866	3241.943353
581.196597	3285.521608
581.550273	3287.838018
581.903895	3316.375990
582.257463	3343.275587
582.610975	3348.999817
582.964434	3380.958212
583.317837	3396.752147
583.671186	3425.829522
584.024481	3455.015282
584.377721	3455.637865
584.730906	3481.161227
585.084037	3511.498891
585.437113	3524.810057
585.790135	3558.114440
586.143103	3566.676840
586.496016	3577.469950
586.848874	3627.417703
587.201679	3644.192142
587.554428	3655.333092
587.907124	3703.912171
588.259765	3721.359605
588.612352	3769.686626
588.964884	3769.845422
589.317362	3800.782983
589.669786	3836.670958
590.022155	3868.725134
590.374470	3913.324222
590.726731	3931.731996
591.078937	3947.939305
591.431090	3982.660252
591.783188	3992.243486
592.135232	4014.820293
592.487222	4069.037903
592.839157	4093.979012
593.191038	4128.304228
593.542866	4135.389570
593.894639	4160.295391
594.246358	4214.218093
594.598022	4232.056216
594.949633	4246.665479
595.301190	4268.478552
595.652692	4325.572140
596.004141	4375.028380
596.355535	4348.353114
596.706876	4382.849730
597.058162	4411.599430
597.409395	4454.285401
597.760573	4511.003422
598.111698	4527.694683
598.462768	4559.542172
598.813785	4588.198611
599.164748	4603.687557
599.515657	4645.012415
599.866511	4655.495495
600.217312	4732.642792
600.568060	4713.670410
600.918753	4796.332730
601.269392	4834.295139
601.619978	4837.592054
601.970510	4919.110032
602.320988	4942.309422
602.671412	5014.844064
603.021783	5034.391138
603.372100	5044.629722
603.722363	5111.346872
604.072572	5150.609899
604.422728	5192.554820
604.772830	5226.786775
605.122878	5233.879678
605.472872	5302.459535
605.822813	5346.715825
606.172701	5386.823245
606.522534	5462.226303
606.872314	5510.376884
607.222041	5511.375033
607.571714	5604.223004
607.921333	5634.595956
608.270899	5697.842272
608.620411	5791.501870
608.969870	5765.383652
609.319276	5829.383620
609.668627	5896.607407
610.017926	5971.203881
610.367171	6041.646444
610.716362	6128.485360
611.065500	6118.372806
611.414585	6202.751639
611.763616	6254.776347
612.112594	6305.694521
612.461518	6333.430949
612.810389	6440.184944
613.159207	6438.428102
613.507971	6478.079297
613.856682	6633.845910
614.205340	6665.829511
614.553945	6784.258817
614.902496	6734.225365
615.250994	6886.168263
615.599439	6914.038282
615.947830	6965.654656
616.296169	7015.773808
616.644454	7086.405414
616.992686	7108.558765
617.340864	7240.223621
617.688990	7240.921821
618.037063	7370.897890
618.385082	7385.371043
618.733048	7509.461566
619.080961	7525.510079
619.428821	7617.238914
619.776628	7661.285996
620.124382	7674.085486
620.472083	7756.168073
620.819731	7834.714291
621.167326	7774.827904
621.514868	7836.181267
621.862357	7820.145357
622.209793	7879.328503
622.557176	7877.382617
622.904506	7845.285591
623.251783	7875.693831
623.599007	7876.591156
623.946179	7908.252123
624.293297	7938.103315
624.640363	7911.821260
624.987376	7947.900798
625.334336	7915.140860
625.681243	7922.639576
626.028097	7958.734237
626.374899	8030.928602
626.721647	7988.408990
627.068343	7987.335224
627.414987	8007.015888
627.761577	8079.999193
628.108115	8154.106675
628.454600	8072.523162
628.801032	8137.007082
629.147412	8171.997730
629.493739	8224.632418
629.840014	8219.548414
630.186236	8290.953838
630.532405	8244.650840
630.878521	8378.599338
631.224585	8377.787713
631.570597	8376.595480
631.916556	8404.621775
632.262462	8443.421015
632.608316	8487.140422
632.954117	8497.893203
633.299866	8546.409268
633.645562	8560.907626
633.991206	8489.038416
634.336797	8446.092827
634.682336	8507.534410
635.027823	8487.309301
635.373257	8501.792536
635.718639	8468.523441
636.063968	8488.867017
636.409245	8427.319570
636.754470	8476.851427
637.099642	8446.929658
637.444762	8366.659366
637.789829	8447.244730
638.134845	8410.237620
638.479808	8455.867624
638.824719	8475.112229
639.169577	8435.566898
639.514383	8502.783122
639.859137	8452.111964
640.203839	8538.678658
640.548489	8480.486099
640.893086	8540.548926
641.237632	8467.873132
641.582125	8623.470866
641.926566	8567.791322
642.270955	8605.973021
642.615292	8620.539435
642.959576	8659.522678
643.303809	8737.179132
643.647990	8712.550575
643.992118	8806.517683
644.336195	8691.695322
644.680219	8844.563271
645.024192	8868.503710
645.368112	9015.342440
645.711981	9100.308567
646.055797	9223.743740
646.399562	9247.084282
646.743274	9415.995703
647.086935	9643.250919
647.430544	9651.805757
647.774101	9689.541314
648.117606	9852.768834
648.461059	9830.930556
648.804460	9911.037011
649.147810	9783.420201
649.491108	9730.621677
649.834354	9804.159508
650.177548	9649.945571
650.520690	9578.845137
650.863781	9557.730264
651.206820	9620.820305
651.549807	9545.944047
651.892742	9472.779260
652.235626	9452.914593
652.578458	9487.421292
652.921238	9322.308380
653.263967	9479.418460
653.606644	9404.504393
653.949269	9400.657993
654.291843	9333.308177
654.634365	9441.791287
654.976836	9379.734684
655.319255	9424.157331
655.661622	9428.381818
656.003938	9398.452488
656.346203	9383.056804
656.688416	9456.047671
657.030577	9458.706879
657.372687	9450.383934
657.714746	9458.318710
658.056753	9603.713149
658.398708	9528.761274
658.740612	9547.877329
659.082465	9647.939192
659.424266	9631.515112
659.766016	9689.082569
660.107715	9652.952619
660.449362	9722.210511
660.790958	9735.746009
661.132503	9716.123318
661.473996	9771.807903
661.815438	9825.045009
662.156829	9843.425056
662.498168	9863.589671
662.839456	9882.877126
663.180693	9929.837994
663.521879	10022.529690
663.863013	10045.245129
664.204097	10050.377024
664.545129	10153.607252
664.886110	10144.996961
665.227040	10235.672195
665.567918	10273.001939
665.908746	10329.533439
666.249522	10324.830042
666.590248	10373.857784
666.930922	10488.367593
667.271545	10506.432568
667.612118	10587.459034
667.952639	10547.202900
668.293109	10564.572196
668.633528	10572.953114
668.973896	10578.798332
669.314213	10689.812101
669.654480	10497.494602
669.994695	10555.906452
670.334859	10599.635941
670.674973	10588.396689
671.015035	10645.870884
671.355047	10623.281473
671.695008	10612.793353
672.034918	10646.899279
672.374777	10701.066477
672.714585	10653.548561
673.054342	10695.443070
673.394049	10676.695019
673.733705	10761.401527
674.073310	10723.837369
674.412864	10759.876578
674.752368	10688.924858
675.091820	10693.761845
675.431223	10722.221679
675.770574	10636.537187
676.109875	10591.809550
676.449125	10584.580535
676.788324	10551.792871
677.127473	10444.713722
677.466571	10454.228900
677.805619	10397.435260
678.144616	10342.400984
678.483562	10333.387401
678.822458	10235.455426
679.161303	10232.198840
679.500098	10248.943033
679.838842	10225.300021
680.177535	10261.387121
680.516179	10318.190843
680.854771	10290.948447
681.193314	10497.736578
681.531805	10616.864084
681.870247	10975.532098
682.208638	11309.894189
682.546978	11595.495719
682.885268	11690.730677
683.223508	11443.822523
683.561697	11329.625265
683.899836	11257.151117
684.237925	11099.620100
684.575963	11052.497915
684.913951	10994.552372
685.251889	10945.743920
685.589776	11050.302492
685.927614	10996.299132
686.265401	10963.085489
686.603137	11008.859166
686.940824	11154.999696
687.278460	11255.169943
687.616046	11312.571042
687.953582	11468.425874
688.291068	11399.004145
688.628504	11591.528331
688.965889	11611.234201
689.303224	11610.689757
689.640510	11538.170238
689.977745	11305.657099
690.314930	11113.032090
690.652065	11067.268495
690.989150	10829.013482
691.326185	10637.323607
691.663170	10479.926181
692.000105	10259.615155
692.336990	10195.254744
692.673825	9980.698195
693.010610	9879.600376
693.347345	9703.603612
693.684030	9528.557107
694.020665	9491.101334
694.357251	9319.389552
694.693786	9295.318042
695.030272	9140.068148
695.366707	9035.151654
695.703093	8977.322057
696.039429	8985.488727
696.375716	8935.593906
696.711952	8812.897263
697.048139	8854.915280
697.384276	8807.815780
697.720363	8825.553080
698.056400	8773.944267
698.392388	8745.456707
698.728326	8706.496149
699.064214	8659.444540
699.400053	8715.792037
699.735842	8547.346922
700.071581	8511.738732
700.407270	8456.815361
700.742910	8392.379333
701.078501	8320.142118
701.414042	8207.106846
701.749533	8142.665777
702.084974	8022.114144
702.420366	8127.285216
702.755709	8032.083026
703.091002	7911.465858
703.426246	7935.101308
703.761440	7902.013695
704.096584	7861.439968
704.431679	7799.968138
704.766725	7791.955224
705.101721	7742.367914
705.436668	7791.879607
705.771565	7694.570214
706.106413	7779.448122
706.441212	7830.782191
706.775961	7782.112371
707.110661	7806.216648
707.445311	7963.636760
707.779913	7868.895835
708.114465	7997.223447
708.448967	8040.537041
708.783421	8163.795773
709.117825	8346.225048
709.452180	8379.521870
709.786485	8464.898851
710.120742	8735.558401
710.454949	8727.754695
710.789107	8818.681987
711.123216	9016.973253
711.457275	9163.600254
711.791286	9328.433382
712.125247	9307.941091
712.459159	9310.819590
712.793023	9563.338548
713.126837	9157.003904
713.460602	9305.317171
713.794318	9136.642683
714.127985	9179.873098
714.461602	8896.068740
714.795171	8851.550310
715.128691	8623.115465
715.462162	8380.184781
715.795584	8335.232813
716.128957	8214.966005
716.462281	8049.727064
716.795556	8095.077284
717.128782	7906.349087
717.461960	7637.262377
717.795088	7708.357770
718.128167	7620.102290
718.461198	7469.868343
718.794180	7406.909373
719.127113	7406.246461
719.459997	7271.962726
719.792833	7037.271808
720.125619	7100.568536
720.458357	6971.653629
720.791046	6954.506144
721.123686	6962.637526
721.456278	6810.429968
721.788821	6826.818759
722.121315	6720.825978
722.453761	6781.876872
722.786158	6733.078503
723.118506	6745.968733
723.450805	6720.888993
723.783056	6785.927439
724.115259	6690.009405
724.447412	6684.098652
724.779518	6731.772844
725.111574	6734.006075
725.443582	6820.529919
725.775542	6789.791484
726.107453	6975.774773
726.439315	6894.846609
726.771129	6939.692714
727.102895	7101.982580
727.434612	7219.645631
727.766281	7245.012717
728.097901	7327.347362
728.429473	7315.379663
728.760996	7288.149871
729.092471	7274.783251
729.423897	7233.090388
729.755276	7245.438695
730.086606	7184.944848
730.417887	7276.096472
730.749120	7443.707275
731.080305	7632.828683
731.411442	7773.179447
731.742530	7773.892770
732.073570	7871.920527
732.404562	7955.487734
732.735506	7808.109602
733.066401	7945.433153
733.397249	7891.845688
733.728048	7659.781212
734.058798	7341.616348
734.389501	7122.895806
734.720156	6947.125895
735.050762	6716.412448
735.381320	6613.267920
735.711831	6573.576395
736.042293	6465.879705
736.372707	6487.259238
736.703073	6354.089598
737.033391	6388.480349
737.363661	6392.712398
737.693883	6420.968065
738.024056	6494.478171
738.354182	6553.119393
738.684260	6588.374702
739.014290	6688.628129
739.344272	6800.007382
739.674207	6828.303378
740.004093	6885.840588
740.333931	6909.755822
740.663722	6914.650782
740.993464	6986.467060
741.323159	6996.307392
741.652806	6749.326142
741.982405	6736.607311
742.311956	6806.374359
742.641460	6664.281876
742.970915	6470.885571
743.300323	6464.304344
743.629683	6406.777217
743.958996	6278.076560
744.288260	6191.608168
744.617477	6136.833511
744.946647	6149.464122
745.275768	5988.147199
745.604842	5940.588954
745.933869	5918.712867
746.262847	5877.773656
746.591778	5870.254775
746.920662	5832.378066
747.249498	5814.640766
747.578286	5861.105081
747.907027	5941.143481
748.235720	5992.364124
748.564365	5969.033664
748.892963	5989.828424
749.221514	6143.195447
749.550017	5996.858313
749.878473	5869.168407
750.206881	5914.737917
750.535242	5857.465368
750.863555	5788.482219
751.191821	5815.197813
751.520039	5818.560263
751.848210	5725.792950
752.176334	5743.898254
752.504411	5795.991017
752.832440	5718.410180
753.160421	5647.229088
753.488356	5696.561819
753.816243	5735.678653
754.144082	5589.465027
754.471875	5550.368358
754.799620	5600.353919
755.127318	5607.046051
755.454969	5558.726591
755.782572	5525.031519
756.110129	5567.336882
756.437638	5567.853600
756.765100	5502.452191
757.092515	5492.296786
757.419882	5536.303539
757.747203	5523.723339
758.074477	5585.878246
758.401703	5582.404891
758.728882	5528.953536
759.056014	5572.025155
759.383099	5712.733841
759.710138	5720.882866
760.037129	5702.969126
760.364073	5706.949117
760.690970	5793.498167
761.017820	5780.224809
761.344623	5722.669955
761.671379	5816.856353
761.998088	5931.981183
762.324751	6152.645090
762.651366	6718.738941
762.977935	7958.008311
763.304456	9550.370180
763.630931	10476.210851
763.957359	10149.980142
764.283740	9235.219926
764.610074	8439.700644
764.936362	7466.097560
765.262602	6873.101592
765.588796	6333.836762
765.914943	5986.937322
766.241044	5832.342778
766.567097	5651.914840
766.893104	5393.361621
767.219064	5212.174990
767.544978	5150.811545
767.870845	5080.563066
768.196665	4974.696315
768.522438	4898.799223
768.848165	4870.442733
769.173846	4808.068536
769.499479	4768.946662
769.825066	4711.916088
770.150607	4651.389475
770.476101	4624.651195
770.801548	4618.032160
771.126949	4557.079569
771.452303	4503.224922
771.777611	4457.398313
772.102872	4473.184686
772.428087	4437.803348
772.753256	4399.861104
773.078378	4358.077500
773.403453	4294.188437
773.728482	4275.533647
774.053465	4234.508737
774.378401	4213.456878
774.703291	4220.401068
775.028135	4154.959329
775.352932	4101.442440
775.677683	4090.382148
776.002388	4111.963328
776.327046	4121.453300
776.651658	4049.369841
776.976224	3987.348526
777.300743	3994.731295
777.625216	4008.344931
777.949643	4010.673944
778.274024	3965.961430
778.598359	3914.521497
778.922647	3937.476391
779.246889	3932.699897
779.571086	3930.741409
779.895236	3916.817742
780.219339	3901.285947
780.543397	3890.553331
780.867409	3941.771454
781.191374	3959.690235
781.515294	3897.469794
781.839167	3889.958474
782.162995	3910.932195
782.486776	3900.360895
782.810511	3902.344589
783.134201	3905.694436
783.457844	3865.518961
783.781441	3807.807831
784.104993	3814.109274
784.428498	3830.351871
784.751958	3832.774146
785.075372	3807.850681
785.398739	3766.533384
785.722061	3777.833131
786.045337	3819.223524
786.368568	3859.593084
786.691752	3774.395064
787.014891	3811.182884
787.337983	3932.984722
787.661030	4085.270418
787.984031	4245.705140
788.306987	4416.698557
788.629897	4500.863142
788.952760	4457.857058
789.275579	4390.179568
789.598351	4327.344106
789.921078	4201.040517
790.243759	4005.156402
790.566395	3973.918892
790.888984	3972.025938
791.211529	3870.025752
791.534027	3808.561484
791.856480	3803.820279
792.178888	3745.000096
792.501249	3690.122095
792.823566	3697.567879
793.145836	3733.206316
793.468062	3685.713606
793.790241	3634.939104
794.112375	3663.189730
794.434464	3720.883216
794.756507	3747.495467
795.078505	3734.280082
795.400457	3759.072477
795.722364	3891.614493
796.044226	3993.859176
796.366042	4067.250814
796.687812	4054.284966
797.009538	4063.467428
797.331218	4018.414636
797.652852	3987.265347
797.974442	3970.251452
798.295986	3970.712718
798.617484	3897.676481
798.938938	3808.125424
799.260346	3843.889890
799.581709	3840.540043
799.903026	3775.138634
800.224299	3734.832088
800.545526	3731.454515
800.866708	3692.677960
801.187845	3629.802168
801.508936	3667.341121
801.829983	3671.868077
802.150984	3592.830346
802.471940	3575.375351
802.792851	3591.048298
803.113717	3587.900098
803.434538	3595.121551
803.755314	3538.332952
804.076045	3509.056452
804.396731	3525.669574
804.717372	3555.377094
805.037967	3544.384858
805.358518	3536.034186
805.679024	3553.340467
805.999485	3569.194896
806.319901	3569.416707
806.640272	3585.792895
806.960598	3605.455916
807.280879	3577.200249
807.601115	3586.135694
807.921306	3602.007767
808.241453	3640.542347
808.561554	3622.482413
808.881611	3557.527146
809.201623	3585.329109
809.521590	3602.030452
809.841513	3575.035073
810.161390	3602.922736
810.481223	3586.483533
810.801011	3532.270965
811.120755	3518.770755
811.440453	3553.620252
811.760107	3561.625604
812.079716	3521.225797
812.399281	3486.068790
812.718801	3510.266328
813.038276	3479.820280
813.357707	3481.017554
813.677093	3500.413393
813.996434	3451.713327
814.315731	3454.617031
814.634983	3458.413020
814.954191	3468.313846
815.273354	3499.614370
815.592473	3500.456243
815.911547	3499.168228
816.230577	3535.141902
816.549562	3584.517483
816.868502	3628.622538
817.187399	3657.089934
817.506250	3649.765138
817.825058	3622.709265
818.143821	3702.041903
818.462539	3805.476298
818.781213	3854.768700
819.099843	3906.112852
819.418429	4128.886482
819.736970	4365.573696
820.055466	4595.503243
820.373919	4947.090957
820.692327	5350.537019
821.010691	5745.697946
821.329011	7008.363312
821.647286	9561.911901
821.965517	13900.245722
822.283704	17870.663533
822.601847	20170.150572
822.919945	18473.688876
823.237999	16035.151691
823.556010	13604.652625
823.873976	11596.047725
824.191897	9555.565089
824.509775	8202.300106
824.827609	7093.790705
825.145398	6541.234873
825.463144	6426.699857
825.780845	6537.070880
826.098502	6695.262287
826.416116	7492.102352
826.733685	8754.054395
827.051210	9876.857988
827.368692	10004.124437
827.686129	8832.461981
828.003522	7344.018458
828.320872	6340.662485
828.638177	5655.015150
828.955439	5116.869456
829.272656	4628.283346
829.589830	4344.302547
829.906960	4171.466588
830.224046	3994.985874
830.541088	3866.822099
830.858086	3821.920542
831.175041	3752.110643
831.491952	3731.310842
831.808819	3737.972727
832.125642	3803.563180
832.442421	3939.868418
832.759157	4196.352243
833.075849	4705.781004
833.392497	5533.427560
833.709101	6286.812879
834.025662	6655.298540
834.342179	6343.142732
834.658653	5697.323034
834.975083	5067.007404
835.291469	4513.234133
835.607811	4093.999176
835.924110	3964.502016
836.240366	3778.284314
836.556578	3571.755803
836.872746	3465.117755
837.188871	3426.656271
837.504952	3366.061602
837.820990	3287.868265
838.136984	3234.018659
838.452935	3258.768204
838.768842	3256.809716
839.084706	3277.261677
839.400526	3420.029675
839.716303	3730.295050
840.032037	4220.930389
840.347727	4513.970142
840.663373	4269.302781
840.978977	3901.815268
841.294537	3599.524998
841.610054	3374.046790
841.925527	3264.837753
842.240957	3195.839481
842.556344	3147.101605
842.871687	3091.195209
843.186987	3041.202087
843.502244	3004.830162
843.817458	2972.917137
844.132629	2938.168464
844.447756	2948.434773
844.762840	2935.471446
845.077881	2908.206366
845.392879	2886.456308
845.707833	2882.123436
846.022745	2879.643188
846.337613	2882.809033
846.652438	2870.090202
846.967221	2870.266642
847.281960	2856.242152
847.596656	2853.880371
847.911309	2852.073118
848.225919	2844.692868
848.540485	2836.720284
848.855009	2838.716581
849.169490	2832.210972
849.483928	2821.274188
849.798323	2818.196564
850.112675	2816.719506
850.426984	2825.057574
850.741251	2827.036227
851.055474	2818.642706
851.369654	2810.569298
851.683792	2814.067859
851.997887	2822.337872
852.311938	2823.603201
852.625947	2814.524083
852.939914	2817.072387
853.253837	2825.327276
853.567718	2808.341108
853.881555	2801.938843
854.195350	2820.752429
854.509103	2818.148673
854.822812	2813.669608
855.136479	2808.462096
855.450103	2806.732980
855.763685	2802.672331
856.077224	2796.902730
856.390720	2810.896973
856.704173	2820.628921
857.017584	2813.478044
857.330953	2808.066365
857.644278	2819.545072
857.957561	2825.856597
858.270802	2828.077225
858.584000	2827.883141
858.897155	2820.424754
859.210268	2816.958961
859.523339	2816.192705
859.836367	2816.096923
860.149352	2810.750780
860.462295	2804.144347
860.775195	2812.928558
861.088054	2815.915442
861.400869	2799.037659
861.713642	2792.527008
862.026373	2809.127528
862.339062	2809.573670
862.651708	2815.733960
862.964312	2821.916935
863.276873	2812.555513
863.589392	2817.536173
863.901869	2832.195848
864.214303	2851.904239
864.526696	2866.193390
864.839045	2866.170704
865.151353	2864.234901
865.463619	2861.726927
865.775842	2860.212061
866.088023	2878.410626
866.400162	2889.901936
866.712258	2861.205168
867.024313	2849.086234
867.336325	2853.973633
867.648296	2878.733260
867.960224	2871.433669
868.272110	2859.861700
868.583954	2861.489993
868.895755	2879.514639
869.207515	2866.334542
869.519233	2867.516692
869.830909	2876.285780
870.142542	2887.192316
870.454134	2885.160731
870.765684	2890.234652
871.077191	2887.565361
871.388657	2896.667165
871.700081	2907.341808
872.011463	2917.966040
872.322803	2919.619538
872.634101	2922.679518
872.945357	2935.080757
873.256571	2962.176959
873.567744	2953.884261
873.878874	2944.926130
874.189963	2968.599389
874.501010	2972.521407
874.812015	2962.383646
875.122979	2961.178810
875.433900	2956.346864
875.744780	2963.346507
876.055618	2969.148875
876.366415	2964.775674
876.677169	2979.238744
876.987882	2974.847899
877.298554	2968.029738
877.609183	2984.978098
877.919771	3008.490039
878.230317	3032.831251
878.540822	3084.750094
878.851285	3119.609673
879.161707	3157.662823
879.472087	3247.781009
879.782425	3447.856844
880.092722	3854.471272
880.402977	4358.732850
880.713191	4949.203200
881.023363	6025.756727
881.333494	7263.334791
881.643583	7839.009354
881.953631	7568.168323
882.263637	6988.019735
882.573602	6440.830212
882.883526	5877.244335
883.193408	5318.704653
883.503248	4857.708778
883.813048	4570.347886
884.122806	4293.366729
884.432522	3994.834639
884.742197	3767.307201
885.051831	3579.272163
885.361424	3442.440124
885.670975	3374.823128
885.980485	3295.545942
886.289954	3222.991135
886.599382	3183.440763
886.908768	3145.185967
887.218113	3100.841457
887.527417	3048.042932
887.836680	2997.878410
888.145901	2991.486227
888.455082	2984.524394
888.764221	2940.051335
889.073319	2908.022364
889.382376	2906.331057
889.691392	2909.416243
890.000366	2908.818866
890.309300	2897.935015
890.618193	2907.775347
890.927044	2923.584406
891.235855	2930.160591
891.544625	2910.026222
891.853353	2918.853283
892.162041	2938.004626
892.470687	2973.958135
892.779293	3026.088707
893.087858	3069.127558
893.396381	3133.223309
893.704864	3242.906214
894.013306	3460.462249
894.321707	3752.995366
894.630068	3958.732416
894.938387	3963.962613
895.246665	3914.042587
895.554903	3804.775577
895.863100	3616.783389
896.171256	3457.223308
896.479371	3326.667505
896.787446	3205.760472
897.095480	3108.892180
897.403473	3047.616955
897.711425	3007.819566
898.019336	3001.480315
898.327207	2977.408805
898.635038	2942.957560
898.942827	2926.687236
899.250576	2916.816657
899.558284	2887.572923
899.865952	2865.626260
900.173579	2849.996162
900.481165	2843.787981
900.788711	2834.056034
901.096216	2808.570481
901.403681	2792.821916
901.711105	2801.671662
902.018489	2800.005560
902.325832	2799.987916
902.633135	2806.687610
902.940397	2835.013853
903.247619	2910.852972
903.554800	3083.262954
903.861941	3395.885068
904.169041	3800.548570
904.476101	4104.179787
904.783121	4084.438628
905.090100	3854.849358
905.397039	3592.933690
905.703938	3350.827235
906.010796	3177.225020
906.317614	3066.637228
906.624391	2979.011892
906.931129	2912.183836
907.237826	2852.887264
907.544483	2804.638381
907.851099	2776.730553
908.157675	2754.713313
908.464211	2736.681106
908.770707	2725.862790
909.077163	2713.448949
909.383578	2702.426466
909.689954	2691.207378
909.996289	2683.779238
910.302584	2689.175793
910.608839	2689.412727
910.915054	2682.924762
911.221229	2675.816735
911.527363	2677.802950
911.833458	2683.464166
912.139513	2688.974147
912.445527	2693.874148
912.751502	2699.600899
913.057436	2708.904348
913.363331	2720.584702
913.669186	2736.179511
913.975000	2768.778133
914.280775	2824.210660
914.586510	2888.906308
914.892205	2962.834829
915.197859	3080.530648
915.503475	3260.141919
915.809050	3458.234059
916.114585	3600.462653
916.420081	3629.028351
916.725536	3576.428952
917.030952	3467.298054
917.336328	3345.339939
917.641665	3218.638099
917.946961	3124.955817
918.252218	3059.340158
918.557435	2990.024293
918.862612	2931.108328
919.167750	2882.284753
919.472848	2847.672190
919.777906	2821.687563
920.082925	2796.789304
920.387904	2767.981630
920.692843	2751.466810
920.997743	2740.880387
921.302603	2730.490569
921.607423	2720.567058
921.912204	2708.513659
922.216946	2697.793645
922.521647	2690.398273
922.826310	2682.587005
923.130932	2678.123063
923.435516	2667.919768
923.740059	2663.657472
924.044564	2653.081131
924.349028	2647.548465
924.653454	2642.842548
924.957840	2636.916672
925.262186	2629.186062
925.566493	2627.136833
925.870761	2624.197840
926.174989	2620.270782
926.479178	2614.854062
926.783328	2608.759307
927.087438	2608.847527
927.391509	2608.552619
927.695541	2605.875767
927.999533	2602.415015
928.303486	2599.211361
928.607400	2598.520723
928.911275	2600.010384
929.215110	2597.890579
929.518906	2596.350507
929.822663	2596.728593
930.126381	2596.501741
930.430060	2596.728593
930.733699	2597.739344
931.037299	2597.262955
931.340861	2599.037442
931.644383	2599.186156
931.947866	2597.789756
932.251309	2598.092225
932.554714	2597.545260
932.858080	2592.168869
933.161407	2592.990578
933.464694	2592.244487
933.767943	2589.202150
934.071153	2591.531163
934.374323	2587.357088
934.677455	2591.168200
934.980548	2588.355237
935.283602	2588.965216
935.586617	2588.229208
935.889593	2586.979002
936.192530	2590.041502
936.495428	2587.099989
936.798287	2591.261462
937.101108	2595.730445
937.403890	2599.317226
937.706632	2599.823862
938.009336	2606.367279
938.312002	2616.247941
938.614628	2624.507871
938.917216	2631.399129
939.219765	2631.384005
939.522275	2631.517596
939.824747	2629.591875
940.127179	2625.132974
940.429573	2624.477624
940.731929	2621.831019
941.034246	2617.460338
941.336524	2615.360698
941.638763	2610.420367
941.940964	2609.013885
942.243126	2608.751745
942.545250	2608.892897
942.847335	2607.589759
943.149381	2602.299068
943.451389	2599.095415
943.753359	2593.398911
944.055290	2593.177100
944.357182	2594.119796
944.659036	2592.791452
944.960851	2594.250866
945.262628	2589.749116
945.564367	2591.926894
945.866067	2588.503951
946.167729	2592.113417
946.469352	2591.619384
946.770937	2590.986719
947.072484	2589.250041
947.373992	2588.448498
947.675462	2587.921697
947.976893	2584.269381
948.278286	2584.672674
948.579641	2581.083372
948.880958	2579.432394
949.182236	2582.073959
949.483476	2582.595718
949.784678	2582.900708
950.085841	2582.555389
950.386967	2582.678897
950.688054	2582.636047
950.989103	2584.740729
951.290114	2585.650657
951.591087	2587.024372
951.892021	2587.155442
952.192917	2591.755495
952.493776	2592.816658
952.794596	2596.945363
953.095378	2594.908737
953.396122	2592.965372
953.696828	2592.065526
953.997496	2589.751636
954.298126	2589.827253
954.598718	2588.108220
954.899272	2584.710482
955.199788	2581.673187
955.500266	2580.659915
955.800706	2579.525656
956.101108	2575.475088
956.401472	2574.330747
956.701798	2571.626167
957.002087	2568.147771
957.302337	2569.453430
957.602550	2569.221537
957.902724	2565.712894
958.202861	2563.620815
958.502960	2564.797925
958.803022	2568.341856
959.103045	2561.455640
959.403031	2560.366750
959.702979	2562.128634
960.002889	2562.098387
960.302762	2563.280537
960.602596	2559.141750
960.902393	2560.036555
961.202153	2557.836091
961.501875	2561.122923
961.801559	2560.570917
962.101205	2559.880279
962.400814	2558.317521
962.700385	2560.369271
962.999918	2556.482541
963.299414	2553.344423
963.598873	2558.004970
963.898293	2553.856100
964.197677	2558.612429
964.497022	2555.870041
964.796331	2557.352140
965.095601	2557.042109
965.394835	2557.032027
965.694030	2556.079249
965.993189	2557.957079
966.292309	2557.153015
966.591393	2560.908674
966.890439	2561.006977
967.189447	2557.183262
967.488419	2555.496996
967.787353	2556.888354
968.086249	2558.294836
968.385108	2556.878272
968.683930	2557.430278
968.982714	2555.796944
969.281462	2555.829712
969.580172	2558.647717
969.878844	2556.815257
970.177480	2558.234342
970.476078	2557.881462
970.774639	2558.536812
971.073162	2559.547563
971.371649	2557.853735
971.670098	2559.441699
971.968510	2558.499003
972.266885	2559.814744
972.565223	2556.759805
972.863524	2559.595454
973.161788	2558.733417
973.460014	2557.135371
973.758204	2557.271482
974.056356	2557.803324
974.354471	2555.093703
974.652550	2558.156204
974.950591	2559.363561
975.248595	2557.904147
975.546563	2559.537481
975.844493	2556.157387
976.142386	2555.171841
976.440243	2554.398024
976.738062	2556.086811
977.035845	2556.459856
977.333590	2556.875751
977.631299	2552.923487
977.928971	2555.096224
978.226606	2553.170503
978.524204	2554.690411
978.821765	2551.993394
979.119290	2557.886503
979.416777	2554.113199
979.714228	2553.846018
980.011642	2552.837787
980.309020	2556.520350
980.606360	2555.796944
980.903664	2556.253169
981.200931	2555.444064
981.498162	2555.524722
981.795356	2556.285936
982.092513	2558.370453
982.389633	2559.101421
982.686717	2564.440003
982.983764	2570.446537
983.280775	2570.131465
983.577749	2574.121539
983.874686	2572.100036
984.171587	2570.915365
984.468451	2568.087277
984.765279	2562.736093
985.062070	2562.325239
985.358824	2560.465053
985.655543	2558.967830
985.952224	2558.982954
986.248869	2558.746019
986.545478	2556.900957
986.842050	2554.208981
987.138586	2554.710576
987.435086	2556.537994
987.731549	2553.513302
988.027975	2555.098745
988.324366	2554.904660
988.620719	2554.234187
988.917037	2555.983467
989.213318	2553.896429
989.509563	2552.701676
989.805772	2555.194527
990.101944	2550.831408
990.398080	2554.690411
990.694180	2552.837787
990.990244	2552.996583
991.286271	2552.353836
991.582262	2552.638662
991.878217	2553.384752
992.174136	2553.220915
992.470019	2552.754608
992.765865	2551.499361
993.061676	2546.362425
993.357450	2550.153373
993.653188	2547.186654
993.948890	2552.971378
994.244556	2553.994732
994.540186	2552.678991
994.835780	2553.480534
995.131337	2554.982798
995.426859	2552.888199
995.722345	2556.187634
996.017795	2556.212840
996.313208	2559.189641
996.608586	2558.123437
996.903928	2557.153015
997.199234	2555.398693
997.494504	2557.521019
997.789738	2557.087480
998.084936	2557.672254
998.380099	2553.556152
998.675225	2556.167469
998.970316	2555.214691
999.265371	2555.658313
999.560390	2552.253013
999.855373	2553.505740
1000.150320	2552.989022
1000.445232	2553.848538
1000.740108	2555.068498
1001.034948	2550.912066
1001.329752	2553.924156
1001.624521	2551.327962
1001.919254	2552.172355
1002.213951	2554.604712
1002.508613	2551.191850
1002.803239	2553.263765
1003.097829	2551.811912
1003.392384	2553.130174
1003.686903	2550.934752
1003.981386	2552.847869
1004.275834	2551.126315
1004.570246	2551.685883
1004.864623	2551.622869
1005.158964	2550.085317
1005.453270	2552.545400
1005.747540	2552.502550
1006.041775	2550.281922
1006.335974	2551.953065
1006.630138	2552.323589
1006.924266	2554.032541
1007.218359	2549.170348
1007.512416	2550.269319
1007.806438	2546.367466
1008.100425	2549.765204
1008.394376	2545.928886
1008.688292	2550.808723
1008.982172	2551.383414
1009.276017	2550.266799
1009.569827	2550.239072
1009.863602	2548.583053
1010.157341	2550.355019
1010.451045	2550.191181
1010.744714	2549.530790
1011.038347	2550.355019
1011.331945	2549.472817
1011.625508	2550.221428
1011.919036	2551.345606
1012.212528	2551.839639
1012.505986	2549.240924
1012.799408	2548.240255
1013.092795	2549.555996
1013.386147	2552.946172
1013.679464	2549.634134
1013.972745	2551.128836
1014.265992	2552.348795
1014.559204	2550.733105
1014.852380	2550.355019
1015.145521	2550.138249
1015.438628	2549.664381
1015.731699	2550.155893
1016.024736	2549.341747
1016.317737	2550.639844
1016.610703	2552.484906
1016.903635	2551.068342
1017.196531	2550.828887
1017.489393	2549.392158
1017.782219	2550.468445
1018.075011	2549.205636
1018.367768	2550.332334
1018.660490	2550.614638
1018.953177	2550.614638
1019.245829	2550.614638
