Dividing Wavelength (nm)	Counts (n)	Blue Motor Position (mm): 48.500000	Red Motor Position (mm): 0.000000	
326.493990	2153.895995
326.888308	2153.895995
327.282561	2153.895995
327.676750	2127.409773
328.070874	2128.513786
328.464933	2134.301030
328.858929	2143.415436
329.252859	2156.983702
329.646726	2171.063645
330.040528	2185.067970
330.434265	2203.536237
330.827938	2222.261603
331.221547	2240.848337
331.615091	2260.208889
332.008571	2278.392331
332.401986	2303.283028
332.795338	2320.632159
333.188625	2341.603359
333.581847	2361.720083
333.975006	2381.027702
334.368100	2397.870197
334.761129	2416.706469
335.154095	2433.304468
335.546996	2458.958900
335.939833	2487.983343
336.332606	2501.102946
336.725315	2514.973681
337.117960	2522.984074
337.510540	2529.696370
337.903056	2537.472350
338.295508	2544.424101
338.687896	2551.733774
339.080220	2561.412790
339.472480	2568.740107
339.864676	2573.937537
340.256807	2574.234965
340.648875	2579.369380
341.040879	2577.259657
341.432818	2578.202353
341.824694	2580.304514
342.216506	2579.361818
342.608253	2579.071952
342.999937	2578.351067
343.391557	2576.087589
343.783113	2574.814697
344.174605	2575.827969
344.566033	2574.476940
344.957397	2571.633729
345.348697	2571.046435
345.739934	2568.674572
346.131106	2567.016032
346.522215	2566.637946
346.913260	2563.890517
347.304241	2562.688202
347.695159	2561.364899
348.086012	2563.217523
348.476802	2557.475649
348.867528	2555.645710
349.258191	2554.042623
349.648789	2551.796789
350.039324	2548.877961
350.429796	2550.725544
350.820203	2550.501212
351.210548	2548.915769
351.600828	2548.658671
351.991045	2550.105482
352.381198	2549.329144
352.771288	2547.232024
353.161314	2550.155893
353.551276	2549.689587
353.941175	2546.808567
354.331010	2549.820657
354.720782	2549.306459
355.110490	2548.744370
355.500135	2548.973743
355.889717	2551.441388
356.279235	2548.091541
356.668689	2552.157231
357.058080	2548.877961
357.447408	2547.892415
357.836672	2546.236396
358.225873	2548.920811
358.615010	2547.937786
359.004084	2551.872406
359.393095	2553.409958
359.782043	2554.052705
360.170927	2555.557490
360.559748	2552.565565
360.948505	2554.534135
361.337199	2556.454815
361.725830	2556.399362
362.114398	2556.543035
362.502903	2557.417675
362.891344	2557.581513
363.279722	2556.056564
363.668037	2559.056050
364.056289	2556.424568
364.444478	2558.065464
364.832603	2558.216698
365.220665	2558.257028
365.608665	2560.641493
365.996601	2557.757953
366.384474	2558.574620
366.772284	2561.185938
367.160031	2561.818603
367.547715	2562.005125
367.935336	2559.829868
368.322893	2561.929508
368.710388	2562.746175
369.097820	2565.380178
369.485189	2561.659806
369.872495	2563.774570
370.259738	2563.434292
370.646918	2565.102914
371.034035	2563.860270
371.421090	2563.257852
371.808081	2565.062585
372.195010	2567.424366
372.581875	2563.988819
372.968678	2566.983265
373.355418	2566.287586
373.742096	2568.777916
374.128710	2567.817576
374.515262	2568.115004
374.901751	2567.958728
375.288177	2569.632391
375.674540	2570.486867
376.060841	2573.148596
376.447079	2574.174471
376.833254	2574.774368
377.219367	2574.214800
377.605417	2575.601117
377.991404	2576.899214
378.377329	2578.106571
378.763191	2579.266036
379.148991	2586.187540
379.534727	2590.306163
379.920402	2591.395052
380.306013	2591.127871
380.691563	2598.377050
381.077049	2604.421394
381.462474	2607.249481
381.847835	2609.933896
382.233134	2613.056890
382.618371	2619.970833
383.003545	2622.204064
383.388657	2626.907461
383.773706	2634.002885
384.158693	2635.578245
384.543618	2645.756335
384.928480	2650.552993
385.313280	2656.398211
385.698017	2663.954900
386.082692	2673.026457
386.467305	2678.801098
386.851856	2687.318128
387.236344	2698.070909
387.620770	2703.825386
388.005133	2712.725543
388.389435	2722.354147
388.773674	2730.122565
389.157851	2736.277814
389.541965	2749.541090
389.926018	2751.663415
390.310008	2764.122627
390.693936	2774.943464
391.077802	2783.077366
391.461606	2794.165383
391.845348	2805.107208
392.229027	2813.586429
392.612645	2829.917247
392.996200	2839.152640
393.379694	2852.259640
393.763125	2870.080119
394.146494	2879.229813
394.529801	2891.757081
394.913047	2909.270049
395.296230	2914.878333
395.679351	2917.401430
396.062410	2938.080243
396.445408	2934.102773
396.828343	2950.647840
397.211217	2956.583799
397.594028	2952.623972
397.976778	2969.572332
398.359466	2981.998776
398.742092	2981.179588
399.124656	2998.115345
399.507158	3008.795029
399.889598	3014.980525
400.271977	3028.435364
400.654294	3038.026160
401.036549	3050.845814
401.418742	3055.168603
401.800874	3078.448652
402.182944	3086.683377
402.564952	3114.737398
402.946898	3106.913527
403.328783	3118.780403
403.710606	3130.453195
404.092367	3156.851197
404.474067	3182.213242
404.855705	3172.814011
405.237282	3172.589679
405.618797	3203.852395
406.000250	3226.272927
406.381642	3259.146291
406.762972	3260.283071
407.144240	3250.150352
407.525447	3273.926954
407.906593	3273.455606
408.287677	3293.456384
408.668700	3316.572595
409.049661	3310.482881
409.430560	3329.971982
409.811399	3331.285202
410.192176	3352.526104
410.572891	3362.772249
410.953545	3397.967065
411.334138	3368.496479
411.714669	3420.463214
412.095139	3364.009853
412.475547	3418.577822
412.855894	3409.357552
413.236180	3436.877211
413.616405	3418.678645
413.996568	3443.478602
414.376670	3446.588994
414.756711	3439.755710
415.136691	3465.198413
415.516609	3488.959892
415.896466	3493.968278
416.276262	3522.536497
416.655997	3551.036660
417.035670	3559.899009
417.415283	3627.916777
417.794834	3648.078872
418.174324	3631.644710
418.553753	3629.378712
418.933121	3673.889579
419.312428	3661.574041
419.691674	3661.011952
420.070859	3700.711038
420.449983	3680.823687
420.829045	3728.727251
421.208047	3713.636557
421.586988	3760.234463
421.965867	3791.774442
422.344686	3799.273158
422.723444	3836.038293
423.102141	3741.700660
423.480777	3842.516176
423.859352	3812.443172
424.237866	3909.566042
424.616319	3894.593815
424.994712	3952.078093
425.373044	3943.112401
425.751314	4008.458357
426.129524	3940.569138
426.507673	4042.728121
426.885762	4018.344060
427.263789	4042.193759
427.641756	4044.038821
428.019662	4076.080395
428.397508	4076.687854
428.775292	4117.107826
429.153016	4122.522025
429.530679	4134.194817
429.908282	4144.486332
430.285824	4121.110502
430.663305	4196.445505
431.040726	4155.004700
431.418086	4141.186897
431.795385	4217.540213
432.172624	4251.575563
432.549802	4216.889904
432.926920	4235.418665
433.303977	4228.348447
433.680974	4272.713121
434.057910	4291.559475
434.434786	4299.746309
434.811601	4296.502326
435.188355	4401.391094
435.565050	4370.478738
435.941683	4370.055282
436.318257	4457.418478
436.694770	4464.155980
437.071222	4521.907438
437.447614	4454.129125
437.823946	4455.802788
438.200218	4472.214264
438.576429	4455.729691
438.952580	4482.208352
439.328670	4484.592818
439.704700	4531.596536
440.080670	4495.738809
440.456580	4554.624527
440.832429	4587.933951
441.208218	4493.112368
441.583947	4546.089853
441.959616	4562.478644
442.335224	4585.390689
442.710773	4610.835913
443.086261	4664.519160
443.461689	4617.681800
443.837057	4625.661946
444.212365	4705.339903
444.587612	4704.959296
444.962800	4676.156664
445.337927	4712.684864
445.712995	4601.860138
446.088002	4791.163027
446.462949	4815.519362
446.837837	4833.360005
447.212664	4821.470444
447.587431	5048.077871
447.962139	5345.334549
448.336786	5687.757444
448.711374	5669.009393
449.085901	5308.942459
449.460369	5246.273355
449.834776	5183.763047
450.209124	5418.789201
450.583412	5435.639258
450.957640	5554.794491
451.331808	5414.927677
451.705917	5265.669194
452.079965	5257.731898
452.453954	5297.025171
452.827883	5264.265233
453.201752	5266.092651
453.575562	5297.713289
453.949311	5435.399803
454.323001	5435.273774
454.696632	5430.038536
455.070202	5585.311116
455.443713	5617.307319
455.817164	5712.005394
456.190556	5782.238750
456.563888	5758.086582
456.937160	5830.696841
457.310373	5672.633983
457.683526	5731.418878
458.056619	5728.404268
458.429653	5707.130598
458.802628	5755.545840
459.175542	5785.124810
459.548398	5920.658752
459.921194	6118.622343
460.293930	6172.628224
460.666607	6423.695330
461.039224	6640.664071
461.411782	6763.587566
461.784280	6679.213774
462.156719	6685.192583
462.529099	6645.047354
462.901419	6500.083934
463.273680	6376.910901
463.645882	6362.231061
464.018024	6366.347163
464.390106	6431.262102
464.762130	6691.925043
465.134094	7086.539005
465.505999	7720.668268
465.877845	8430.896268
466.249631	8773.137682
466.621358	8700.431641
466.993026	8505.006271
467.364634	8285.970657
467.736184	8006.058069
468.107674	7846.492947
468.479105	7766.073940
468.850477	7702.116822
469.221790	7528.312960
469.593043	7302.252498
469.964238	7198.477826
470.335373	7177.378077
470.706449	7336.116449
471.077467	7531.809001
471.448425	8189.424999
471.819324	8777.699927
472.190164	8806.744535
472.560945	8317.740009
472.931667	7846.780293
473.302330	7652.882393
473.672934	7539.116153
474.043479	7613.760518
474.413965	7517.116558
474.784393	7467.052859
475.154761	7617.969882
475.525070	7640.115670
475.895321	7583.599295
476.265513	7680.402051
476.635645	7842.581012
477.005719	7838.661515
477.375734	7923.738547
477.745691	8033.456740
478.115588	8236.456444
478.485427	8480.299576
478.855207	8952.643089
479.224928	9393.605418
479.594591	9770.764385
479.964194	9773.254715
480.333739	9858.387200
480.703226	9858.488023
481.072653	9958.723806
481.442022	10072.364016
481.811333	10226.467048
482.180584	10071.355786
482.549777	10008.633749
482.918912	9941.593965
483.287988	9932.151884
483.657005	9835.820475
484.025964	9755.343495
484.394864	9816.187701
484.763706	9772.919478
485.132489	9685.326909
485.501213	9674.029683
485.869879	9730.891378
486.238487	9673.003809
486.607036	9748.031301
486.975527	9695.124392
487.343959	9755.346016
487.712333	9799.423344
488.080648	9839.724849
488.448905	9940.210168
488.817104	9948.548237
489.185244	10113.734245
489.553326	10332.893368
489.921350	10807.528085
490.289315	11437.014445
490.657222	11734.555948
491.025070	11896.132490
491.392861	11820.167343
491.760593	11650.850109
492.128267	11395.956767
492.495883	11163.748618
492.863440	10924.319016
493.230939	10696.163955
493.598380	10522.932265
493.965763	10497.668522
494.333088	10368.647751
494.700354	10289.678076
495.067563	10268.301063
495.434713	10275.237691
495.801805	10312.726232
496.168839	10271.925653
496.535815	10243.644780
496.902733	10288.311924
497.269593	10243.057486
497.636395	10253.240616
498.003139	10357.985711
498.369825	10290.983735
498.736453	10387.499146
499.103023	10323.317696
499.469535	10331.315487
499.835989	10386.604341
500.202385	10356.160813
500.568723	10373.983813
500.935003	10437.169635
501.301226	10399.008100
501.667390	10577.893445
502.033497	10680.175936
502.399546	10593.649571
502.765537	10510.367189
503.131470	10609.072981
503.497345	10705.139729
503.863163	10475.457198
504.228923	10607.464853
504.594625	10726.189067
504.960269	10633.820005
505.325856	10782.234095
505.691385	10660.948975
506.056856	10728.447504
506.422270	10836.731489
506.787625	10770.704976
507.152924	10824.360497
507.518164	10884.725794
507.883347	10743.321429
508.248472	10821.678603
508.613540	10928.268760
508.978550	11000.485810
509.343503	10983.013171
509.708398	11029.585870
510.073236	11158.556230
510.438016	11182.209324
510.802738	11091.208935
511.167403	11230.584236
511.532010	11285.303440
511.896561	11376.387008
512.261053	11573.657440
512.625488	11492.658701
512.989866	11475.405352
513.354186	11455.984307
513.718449	11466.706841
514.082655	11606.424940
514.446803	11567.202243
514.810894	11676.527226
515.174927	11662.996769
515.538904	11649.494038
515.902822	11811.630149
516.266684	11686.261694
516.630488	11785.786674
516.994235	11771.588264
517.357925	11890.672921
517.721558	11952.555605
518.085133	12012.061385
518.448651	12042.399048
518.812112	12009.344203
519.175516	12016.880728
519.538863	12101.347781
519.902152	12110.258020
520.265385	12215.419010
520.628560	12240.624779
520.991678	12191.954960
521.354739	12241.995973
521.717743	12310.885861
522.080690	12282.040379
522.443580	12419.815113
522.806413	12432.314654
523.169189	12432.649891
523.531908	12483.666368
523.894569	12445.832508
524.257174	12466.985190
524.619722	12575.899319
524.982213	12547.225236
525.344647	12539.066128
525.707025	12548.588868
526.069345	12655.473932
526.431608	12633.663380
526.793815	12716.381153
527.155964	12606.912497
527.518057	12636.551961
527.880093	12591.103439
528.242072	12712.280174
528.603995	12636.851910
528.965860	12648.083601
529.327669	12678.748940
529.689421	12624.090229
530.051117	12642.739978
530.412755	12681.135926
530.774337	12681.246831
531.135862	12646.813230
531.497331	12705.462014
531.858743	12662.866784
532.220098	12749.375505
532.581396	12670.113443
532.942638	12593.719798
533.303824	12653.243222
533.664953	12643.140749
534.026025	12592.514962
534.387040	12697.320550
534.747999	12676.558558
535.108902	12718.034652
535.469748	12587.367944
535.830537	12616.374743
536.191270	12663.733863
536.551947	12589.780136
536.912567	12650.584013
537.273131	12679.457222
537.633638	12562.573029
537.994089	12615.522788
538.354483	12542.100903
538.714821	12672.024040
539.075103	12742.978281
539.435328	12678.650637
539.795497	12660.288234
540.155609	12657.813028
540.515665	12757.189293
540.875665	12610.181686
541.235609	12715.027603
541.595496	12672.727281
541.955328	12850.354858
542.315102	12695.987165
542.674821	12640.506747
543.034483	12647.660144
543.394090	12650.407573
543.753640	12617.965227
544.113134	12860.913554
544.472571	12625.234571
544.831953	12903.846541
545.191278	12723.438768
545.550548	12655.720949
545.909761	12774.011624
546.268918	12809.274495
546.628019	12874.549876
546.987064	12766.313782
547.346053	12617.388015
547.704986	12812.798262
548.063863	12689.940301
548.422684	12742.668250
548.781449	12702.601159
549.140158	12812.115185
549.498811	12754.968665
549.857408	12623.898665
550.215949	12824.408039
550.574434	12795.494501
550.932864	12733.531158
551.291237	12941.950103
551.649555	12818.683809
552.007817	12884.284344
552.366022	12807.270636
552.724173	12846.621883
553.082267	12929.553905
553.440305	13026.480170
553.798288	12849.880989
554.156215	12921.848502
554.514086	12967.639823
554.871902	12903.266808
555.229661	12934.809308
555.587365	12880.901729
555.945014	12894.490160
556.302606	12884.652348
556.660143	12933.138166
557.017625	12977.666677
557.375050	12932.238320
557.732421	13030.535778
558.089735	13029.887990
558.446994	13006.998631
558.804197	13120.805200
559.161345	13114.922173
559.518437	12931.935850
559.875474	13025.834903
560.232455	13049.288871
560.589381	13091.861415
560.946251	13027.763144
561.303065	13208.922048
561.659825	13159.117969
562.016528	13067.081623
562.373177	13014.237728
562.729770	13141.925114
563.086307	13020.720652
563.442789	13136.243733
563.799216	13174.168334
564.155587	13119.630611
564.511904	13135.553095
564.868164	13146.021051
565.224370	13213.577554
565.580520	13163.770954
565.936615	13221.605592
566.292654	13157.885407
566.648638	13231.579514
567.004567	13236.144279
567.360441	13230.296541
567.716260	13206.169578
568.072023	13278.396710
568.427732	13264.657045
568.783385	13157.257783
569.138982	13277.305300
569.494525	13275.654323
569.850013	13218.144839
570.205445	13208.917007
570.560823	13222.671796
570.916145	13185.311804
571.271412	13189.039738
571.626625	13151.089932
571.981782	13144.170948
572.336884	13096.504318
572.691931	13187.101414
573.046923	13079.636617
573.401860	13055.154253
573.756743	13052.245507
574.111570	13069.017426
574.466342	13043.788972
574.821059	13095.380140
575.175722	12965.641005
575.530330	12990.188904
575.884882	12927.431579
576.239380	12923.799428
576.593823	12902.104822
576.948211	12910.221080
577.302544	12773.610852
577.656823	12792.593317
578.011047	12864.580994
578.365216	12798.582208
578.719330	12729.160478
579.073389	12712.701111
579.427394	12725.614026
579.781344	12714.062222
580.135239	12641.499854
580.489080	12657.261021
580.842866	12532.684028
581.196597	12642.707210
581.550273	12628.337401
581.903895	12589.593613
582.257463	12694.071527
582.610975	12542.045450
582.964434	12605.402672
583.317837	12520.892769
583.671186	12484.823313
584.024481	12538.619986
584.377721	12430.139397
584.730906	12506.245696
585.084037	12511.521264
585.437113	12432.843976
585.790135	12453.169908
586.143103	12368.473482
586.496016	12384.159032
586.848874	12396.414077
587.201679	12392.726473
587.554428	12261.175043
587.907124	12312.831747
588.259765	12253.351172
588.612352	12322.755258
588.964884	12185.625791
589.317362	12232.145559
589.669786	12223.376472
590.022155	12176.675222
590.374470	12279.663475
590.726731	12173.867300
591.078937	12052.536809
591.431090	12074.254100
591.783188	12002.843635
592.135232	11929.656163
592.487222	11983.914102
592.839157	12001.280877
593.191038	11934.268819
593.542866	11890.637632
593.894639	11737.489899
594.246358	11793.418981
594.598022	11806.551186
594.949633	11705.045033
595.301190	11697.584125
595.652692	11653.942857
596.004141	11744.529871
596.355535	11523.510563
596.706876	11504.938952
597.058162	11473.184724
597.409395	11559.983311
597.760573	11597.035791
598.111698	11484.444141
598.462768	11487.488998
598.813785	11493.810605
599.164748	11376.540763
599.515657	11451.452309
599.866511	11325.519245
600.217312	11454.829883
600.568060	11223.927392
600.918753	11383.338759
601.269392	11386.731456
601.619978	11281.716659
601.970510	11321.216620
602.320988	11363.950482
602.671412	11433.911615
603.021783	11364.598270
603.372100	11288.834769
603.722363	11301.598970
604.072572	11299.522015
604.422728	11310.184055
604.772830	11257.839234
605.122878	11269.015472
605.472872	11238.264434
605.822813	11300.101747
606.172701	11260.558937
606.522534	11307.214816
606.872314	11352.791887
607.222041	11280.058120
607.571714	11361.205573
607.921333	11226.609286
608.270899	11283.743203
608.620411	11341.343427
608.969870	11286.415015
609.319276	11274.457398
609.668627	11280.242122
610.017926	11367.645647
610.367171	11393.040460
610.716362	11381.723069
611.065500	11361.634071
611.414585	11374.720907
611.763616	11433.341964
612.112594	11398.926007
612.461518	11420.958370
612.810389	11463.838424
613.159207	11410.598799
613.507971	11404.231821
613.856682	11509.314673
614.205340	11470.694394
614.553945	11604.801689
614.902496	11487.806590
615.250994	11551.264635
615.599439	11535.468179
615.947830	11576.520816
616.296169	11540.128726
616.644454	11564.046481
616.992686	11568.031513
617.340864	11666.013899
617.688990	11545.353882
618.037063	11688.464678
618.385082	11664.501553
618.733048	11697.919362
619.080961	11686.256653
619.428821	11661.401244
619.776628	11673.016062
620.124382	11611.002308
620.472083	11627.600307
620.819731	11656.536530
621.167326	11582.560118
621.514868	11558.604555
621.862357	11464.062756
622.209793	11458.182250
622.557176	11375.411545
622.904506	11322.519759
623.251783	11236.361398
623.599007	11180.432317
623.946179	11126.834769
624.293297	11111.655855
624.640363	10970.412807
624.987376	10953.900507
625.334336	10890.979345
625.681243	10806.892899
626.028097	10776.363672
626.374899	10738.524771
626.721647	10708.454288
627.068343	10677.864567
627.414987	10606.335635
627.761577	10540.432630
628.108115	10591.272667
628.454600	10464.921187
628.801032	10480.619340
629.147412	10463.547472
629.493739	10437.076374
629.840014	10359.165341
630.186236	10413.791284
630.532405	10306.656682
630.878521	10339.315798
631.224585	10296.846597
631.570597	10215.205111
631.916556	10218.915400
632.262462	10206.551970
632.608316	10187.589670
632.954117	10165.380867
633.299866	10151.759669
633.645562	10116.983269
633.991206	10020.215800
634.336797	9921.817518
634.682336	9912.425849
635.027823	9853.172127
635.373257	9819.139297
635.718639	9748.185057
636.063968	9721.587929
636.409245	9599.344989
636.754470	9592.496582
637.099642	9540.981031
637.444762	9444.432852
637.789829	9445.196587
638.134845	9369.670020
638.479808	9344.376031
638.824719	9321.380807
639.169577	9233.715142
639.514383	9235.013239
639.859137	9169.372375
640.203839	9205.277993
640.548489	9125.514336
640.893086	9127.659347
641.237632	9063.677023
641.582125	9071.737828
641.926566	9052.238645
642.270955	9036.961428
642.615292	9032.310963
642.959576	9013.870423
643.303809	8996.080191
643.647990	9015.811267
643.992118	8994.618256
644.336195	8978.176533
644.680219	8971.738979
645.024192	9015.213890
645.368112	9080.879960
645.711981	9059.162669
646.055797	9194.308442
646.399562	9152.361001
646.743274	9313.561978
647.086935	9382.656032
647.430544	9358.571920
647.774101	9382.398933
648.117606	9406.218385
648.461059	9474.079878
648.804460	9405.426924
649.147810	9293.384759
649.491108	9254.479655
649.834354	9192.470942
650.177548	9038.037714
650.520690	8951.077810
650.863781	8945.983724
651.206820	8920.800640
651.549807	8828.199685
651.892742	8737.627795
652.235626	8695.176238
652.578458	8653.047316
652.921238	8555.443015
653.263967	8592.218233
653.606644	8523.666102
653.949269	8504.968463
654.291843	8427.022142
654.634365	8493.124272
654.976836	8425.968541
655.319255	8419.165503
655.661622	8405.665293
656.003938	8358.878345
656.346203	8328.449940
656.688416	8355.185699
657.030577	8312.850089
657.372687	8271.462216
657.714746	8311.373031
658.056753	8325.057243
658.398708	8222.202582
658.740612	8216.102785
659.082465	8261.584075
659.424266	8217.539514
659.766016	8235.513748
660.107715	8204.571146
660.449362	8227.997388
660.790958	8217.673105
661.132503	8216.072538
661.473996	8213.115902
661.815438	8230.845640
662.156829	8265.120445
662.498168	8203.802370
662.839456	8197.790794
663.180693	8218.391469
663.521879	8238.074654
663.863013	8225.953200
664.204097	8221.186789
664.545129	8290.376626
664.886110	8285.310266
665.227040	8291.921739
665.567918	8301.764592
665.908746	8319.035585
666.249522	8334.653080
666.590248	8333.259201
666.930922	8351.775359
667.271545	8338.630550
667.612118	8360.075619
667.952639	8314.075090
668.293109	8314.193557
668.633528	8297.550188
668.973896	8286.976367
669.314213	8292.178838
669.654480	8246.785768
669.994695	8240.827124
670.334859	8219.072025
670.674973	8198.531844
671.015035	8224.186276
671.355047	8216.795944
671.695008	8195.885238
672.034918	8171.463368
672.374777	8178.382352
672.714585	8154.613311
673.054342	8187.277468
673.394049	8155.593816
673.733705	8190.339969
674.073310	8145.730798
674.412864	8155.878641
674.752368	8088.349865
675.091820	8143.905901
675.431223	8072.881084
675.770574	8028.821399
676.109875	8001.919282
676.449125	7962.767161
676.788324	7939.736649
677.127473	7854.052157
677.466571	7838.916093
677.805619	7782.205633
678.144616	7775.773120
678.483562	7756.455419
678.822458	7710.038995
679.161303	7695.790173
679.500098	7670.728077
679.838842	7653.051271
680.177535	7670.281935
680.516179	7705.433901
680.854771	7715.090231
681.193314	7833.781678
681.531805	7989.888568
681.870247	8107.171013
682.208638	8261.389991
682.546978	8340.704985
682.885268	8366.172894
683.223508	8299.889283
683.561697	8254.866738
683.899836	8220.307108
684.237925	8134.398284
684.575963	8109.119418
684.913951	8025.854680
685.251889	8040.363121
685.589776	8037.247688
685.927614	8017.695573
686.265401	8039.599386
686.603137	8041.094088
686.940824	8111.849203
687.278460	8167.599324
687.616046	8182.735388
687.953582	8299.818707
688.291068	8273.014892
688.628504	8335.174839
688.965889	8335.600817
689.303224	8302.644273
689.640510	8259.227336
689.977745	8150.489648
690.314930	8024.854011
690.652065	7952.561345
690.989150	7843.115374
691.326185	7688.505706
691.663170	7572.907007
692.000105	7452.108358
692.336990	7332.675862
692.673825	7260.514265
693.010610	7165.586818
693.347345	7070.775317
693.684030	6963.005530
694.020665	6911.245483
694.357251	6801.348329
694.693786	6790.550177
695.030272	6745.905719
695.366707	6653.264435
695.703093	6603.200736
696.039429	6597.771413
696.375716	6553.273148
696.711952	6541.328134
697.048139	6510.703124
697.384276	6479.314380
697.720363	6503.337999
698.056400	6475.878834
698.392388	6438.223935
698.728326	6441.820798
699.064214	6415.195944
699.400053	6409.423823
699.735842	6351.506007
700.071581	6303.894829
700.407270	6261.292038
700.742910	6227.153344
701.078501	6187.481984
701.414042	6146.870448
701.749533	6089.590338
702.084974	6031.365011
702.420366	6067.452111
702.755709	5996.447459
703.091002	5947.291168
703.426246	5954.142096
703.761440	5940.757832
704.096584	5890.832765
704.431679	5881.672989
704.766725	5860.759762
705.101721	5851.005129
705.436668	5868.477768
705.771565	5810.585158
706.106413	5871.840218
706.441212	5865.783272
706.775961	5882.129213
707.110661	5891.533486
707.445311	5950.131858
707.779913	5921.432569
708.114465	5961.050997
708.448967	6004.304097
708.783421	6119.726356
709.117825	6163.657491
709.452180	6194.622778
709.786485	6253.561428
710.120742	6386.161419
710.454949	6393.950001
710.789107	6469.705941
711.123216	6594.277893
711.457275	6623.090608
711.791286	6723.117183
712.125247	6748.234732
712.459159	6717.708025
712.793023	6843.419278
713.126837	6670.248082
713.460602	6733.086065
713.794318	6686.276431
714.127985	6633.170395
714.461602	6495.897256
714.795171	6489.300906
715.128691	6321.806049
715.462162	6231.319858
715.795584	6167.045146
716.128957	6119.628053
716.462281	6056.333846
716.795556	6016.909502
717.128782	5933.057470
717.461960	5830.631306
717.795088	5821.731149
718.128167	5757.491725
718.461198	5667.534856
718.794180	5643.319673
719.127113	5587.713226
719.459997	5552.891455
719.792833	5488.399974
720.125619	5483.746989
720.458357	5424.039563
720.791046	5397.631479
721.123686	5372.639958
721.456278	5324.854861
721.788821	5316.670548
722.121315	5278.125886
722.453761	5279.784425
722.786158	5268.618269
723.118506	5274.866780
723.450805	5246.744703
723.783056	5274.133292
724.115259	5259.844141
724.447412	5241.179269
724.779518	5286.698368
725.111574	5291.552999
725.443582	5326.888967
725.775542	5315.513603
726.107453	5404.550462
726.439315	5373.660792
726.771129	5445.134271
727.102895	5506.104507
727.434612	5553.423297
727.766281	5583.536630
728.097901	5636.481348
728.429473	5656.436755
728.760996	5664.195091
729.092471	5690.519997
729.423897	5674.713459
729.755276	5642.566021
730.086606	5655.645294
730.417887	5746.605354
730.749120	5836.103478
731.080305	5874.159149
731.411442	5948.460715
731.742530	5966.341688
732.073570	5993.657180
732.404562	6064.518159
732.735506	6055.625564
733.066401	6033.787285
733.397249	5968.337985
733.728048	5874.431371
734.058798	5726.828907
734.389501	5605.430361
734.720156	5513.953583
735.050762	5409.911729
735.381320	5336.825081
735.711831	5279.577738
736.042293	5199.163772
736.372707	5193.968863
736.703073	5152.273480
737.033391	5183.533675
737.363661	5166.290408
737.693883	5174.295760
738.024056	5203.199216
738.354182	5233.594853
738.684260	5279.683602
739.014290	5316.073171
739.344272	5355.789902
739.674207	5406.703035
740.004093	5443.881545
740.333931	5448.506803
740.663722	5467.413651
740.993464	5474.909847
741.323159	5456.113904
741.652806	5413.387605
741.982405	5384.285024
742.311956	5329.775027
742.641460	5323.123225
742.970915	5268.018372
743.300323	5205.230801
743.629683	5175.319115
743.958996	5118.656545
744.288260	5073.444957
744.617477	5013.011605
744.946647	4998.125078
745.275768	4947.358138
745.604842	4914.091563
745.933869	4879.587386
746.262847	4864.983163
746.591778	4857.189539
746.920662	4830.945292
747.249498	4829.773224
747.578286	4846.046069
747.907027	4870.490624
748.235720	4913.859670
748.564365	4921.113891
748.892963	4908.269031
749.221514	4928.332823
749.550017	4903.038834
749.878473	4898.441301
750.206881	4858.858161
750.535242	4850.308364
750.863555	4831.767001
751.191821	4809.096932
751.520039	4815.229495
751.848210	4796.851969
752.176334	4801.520077
752.504411	4779.086943
752.832440	4752.000823
753.160421	4767.827526
753.488356	4745.906068
753.816243	4728.725816
754.144082	4697.291701
754.471875	4680.855019
754.799620	4669.346065
755.127318	4663.231145
755.454969	4660.491278
755.782572	4652.274197
756.110129	4655.863499
756.437638	4636.213081
756.765100	4635.822392
757.092515	4633.553872
757.419882	4638.237104
757.747203	4635.703925
758.074477	4652.440555
758.401703	4641.647445
758.728882	4670.011497
759.056014	4682.213610
759.383099	4711.936253
759.710138	4733.509871
760.037129	4751.070730
760.364073	4766.232001
760.690970	4765.327113
761.017820	4765.201085
761.344623	4799.279285
761.671379	4862.318913
761.998088	4955.076144
762.324751	5175.997150
762.651366	5639.647192
762.977935	6330.451627
763.304456	6896.144706
763.630931	7199.549071
763.957359	7138.578836
764.283740	6844.321645
764.610074	6525.413211
764.936362	6117.246108
765.262602	5800.147449
765.588796	5453.426969
765.914943	5198.808371
766.241044	4973.123475
766.567097	4802.490500
766.893104	4655.288807
767.219064	4556.512439
767.544978	4459.644147
767.870845	4375.300602
768.196665	4330.240248
768.522438	4277.174543
768.848165	4236.994026
769.173846	4196.745453
769.499479	4170.014735
769.825066	4133.723469
770.150607	4093.943724
770.476101	4078.389243
770.801548	4057.420564
771.126949	4021.630892
771.452303	4002.555166
771.777611	3968.494610
772.102872	3968.880258
772.428087	3941.693316
772.753256	3912.323553
773.078378	3896.080956
773.403453	3863.734392
773.728482	3837.782532
774.053465	3822.679235
774.378401	3803.656441
774.703291	3782.788585
775.028135	3755.243720
775.352932	3748.249119
775.677683	3728.150039
776.002388	3705.663972
776.327046	3712.381310
776.651658	3689.721323
776.976224	3671.016122
777.300743	3669.639887
777.625216	3655.403668
777.949643	3643.861947
778.274024	3647.841937
778.598359	3630.679329
778.922647	3630.709576
779.246889	3616.463275
779.571086	3617.975622
779.895236	3619.616517
780.219339	3617.320272
780.543397	3620.070221
780.867409	3633.363744
781.191374	3630.460039
781.515294	3629.134216
781.839167	3643.095691
782.162995	3638.765340
782.486776	3633.154536
782.810511	3625.086169
783.134201	3612.768110
783.457844	3611.694344
783.781441	3601.365020
784.104993	3594.841767
784.428498	3587.897577
784.751958	3587.595108
785.075372	3578.994899
785.398739	3569.968713
785.722061	3577.679158
786.045337	3575.317378
786.368568	3602.879886
786.691752	3595.320676
787.014891	3645.553254
787.337983	3690.759801
787.661030	3774.727780
787.984031	3875.371896
788.306987	3950.633802
788.629897	3997.120802
788.952760	4007.039272
789.275579	3988.765090
789.598351	3938.388839
789.921078	3892.126171
790.243759	3828.216943
790.566395	3777.891104
790.888984	3729.155749
791.211529	3692.569575
791.534027	3651.184222
791.856480	3611.858181
792.178888	3594.919904
792.501249	3574.266297
792.823566	3543.069117
793.145836	3536.608878
793.468062	3525.639327
793.790241	3511.403109
794.112375	3517.427287
794.434464	3540.742624
794.756507	3541.282027
795.078505	3556.355077
795.400457	3594.410748
795.722364	3646.183398
796.044226	3693.217363
796.366042	3741.151175
796.687812	3734.065833
797.009538	3758.981736
797.331218	3747.908841
797.652852	3743.568408
797.974442	3719.539748
798.295986	3711.579766
798.617484	3682.293183
798.938938	3657.543638
799.260346	3646.319509
799.581709	3607.888273
799.903026	3592.454780
800.224299	3574.430135
800.545526	3545.115825
800.866708	3528.628731
801.187845	3511.244312
801.508936	3491.679594
801.829983	3484.087617
802.150984	3451.168882
802.471940	3444.111267
802.792851	3440.718570
803.113717	3429.607867
803.434538	3421.801640
803.755314	3408.707243
804.076045	3406.098446
804.396731	3396.963875
804.717372	3396.966396
805.037967	3391.053122
805.358518	3397.926736
805.679024	3414.796957
805.999485	3410.431318
806.319901	3411.366452
806.640272	3415.722009
806.960598	3429.307918
807.280879	3426.066456
807.601115	3440.496759
807.921306	3428.836570
808.241453	3432.798917
808.561554	3438.767643
808.881611	3434.661624
809.201623	3439.397788
809.521590	3423.906322
809.841513	3424.425561
810.161390	3435.112807
810.481223	3410.443921
810.801011	3409.014753
811.120755	3408.503076
811.440453	3391.804254
811.760107	3389.041702
812.079716	3381.119529
812.399281	3369.824823
812.718801	3369.718959
813.038276	3362.958772
813.357707	3356.087679
813.677093	3362.825181
813.996434	3347.419415
814.315731	3353.960312
814.634983	3355.611290
814.954191	3354.920652
815.273354	3371.097715
815.592473	3382.639437
815.911547	3403.174577
816.230577	3416.773089
816.549562	3439.806121
816.868502	3459.146508
817.187399	3475.905824
817.506250	3508.585104
817.825058	3514.692462
818.143821	3564.088207
818.462539	3609.347687
818.781213	3660.860717
819.099843	3749.383379
819.418429	3899.987850
819.736970	4052.996952
820.055466	4238.413111
820.373919	4478.621571
820.692327	4813.215554
821.010691	5329.384338
821.329011	6411.364667
821.647286	8146.166858
821.965517	10331.849849
822.283704	11960.825617
822.601847	13057.110221
822.919945	12642.800472
823.237999	11961.949795
823.556010	11069.542056
823.873976	10108.103277
824.191897	9132.871900
824.509775	8366.538378
824.827609	7553.974954
825.145398	7003.415419
825.463144	6617.875535
825.780845	6490.435165
826.098502	6548.047992
826.416116	6925.116217
826.733685	7437.945237
827.051210	7727.037766
827.368692	7635.719784
827.686129	7186.762184
828.003522	6642.960316
828.320872	6074.277833
828.638177	5608.991936
828.955439	5237.020317
829.272656	4897.917021
829.589830	4614.876398
829.906960	4351.035008
830.224046	4143.137823
830.541088	3973.152636
830.858086	3852.727033
831.175041	3757.698762
831.491952	3710.735373
831.808819	3690.359029
832.125642	3729.463259
832.442421	3830.286336
832.759157	4049.112742
833.075849	4429.223304
833.392497	4893.485847
833.709101	5283.829951
834.025662	5395.431015
834.342179	5267.302528
834.658653	4996.945448
834.975083	4726.729519
835.291469	4476.373216
835.607811	4251.482302
835.924110	4097.406996
836.240366	3936.553859
836.556578	3772.754168
836.872746	3637.371461
837.188871	3520.956095
837.504952	3424.118050
837.820990	3352.221114
838.136984	3294.058802
838.452935	3266.637445
838.768842	3255.312493
839.084706	3285.335085
839.400526	3420.014551
839.716303	3646.140548
840.032037	3855.255171
840.347727	3922.002569
840.663373	3835.282120
840.978977	3689.252496
841.294537	3552.244017
841.610054	3443.473561
841.925527	3372.413456
842.240957	3304.307468
842.556344	3240.420925
842.871687	3185.132070
843.186987	3120.698562
843.502244	3067.491704
843.817458	3027.964017
844.132629	2996.734068
844.447756	2973.554843
844.762840	2953.266719
845.077881	2935.307609
845.392879	2923.218922
845.707833	2909.675862
846.022745	2898.867628
846.337613	2893.541649
846.652438	2885.604352
846.967221	2882.902294
847.281960	2875.494318
847.596656	2872.704040
847.911309	2865.384284
848.225919	2859.362626
848.540485	2856.237111
848.855009	2854.928931
849.169490	2848.990452
849.483928	2845.796881
849.798323	2843.898887
850.112675	2838.482167
850.426984	2840.435614
850.741251	2837.494101
851.055474	2836.916889
851.369654	2838.492249
851.683792	2835.480160
851.997887	2835.341528
852.311938	2832.911692
852.625947	2835.583503
852.939914	2832.697443
853.253837	2835.533092
853.567718	2833.864470
853.881555	2830.461691
854.195350	2834.217351
854.509103	2833.133503
854.822812	2830.799448
855.136479	2830.955724
855.450103	2832.899089
855.763685	2830.864983
856.077224	2828.871207
856.390720	2832.654593
856.704173	2837.680623
857.017584	2836.821107
857.330953	2838.328412
857.644278	2843.465347
857.957561	2842.114318
858.270802	2845.179340
858.584000	2841.685820
858.897155	2844.730677
859.210268	2840.312106
859.523339	2836.110304
859.836367	2838.474605
860.149352	2836.178360
860.462295	2835.144923
860.775195	2829.733244
861.088054	2829.715600
861.400869	2830.628049
861.713642	2826.721155
862.026373	2831.243070
862.339062	2832.037052
862.651708	2834.822289
862.964312	2839.301354
863.276873	2844.065245
863.589392	2849.043384
863.901869	2854.986905
864.214303	2866.301774
864.526696	2868.625746
864.839045	2878.019937
865.151353	2883.161913
865.463619	2887.940927
865.775842	2887.416647
866.088023	2894.063409
866.400162	2893.642472
866.712258	2896.621794
867.024313	2896.682288
867.336325	2897.360323
867.648296	2897.967782
867.960224	2897.574572
868.272110	2901.264697
868.583954	2901.736045
868.895755	2904.354924
869.207515	2902.335942
869.519233	2909.108732
869.830909	2911.525966
870.142542	2912.148548
870.454134	2918.081986
870.765684	2921.078952
871.077191	2928.411310
871.388657	2932.356013
871.700081	2940.590738
872.011463	2945.654577
872.322803	2951.214970
872.634101	2955.699076
872.945357	2963.853143
873.256571	2975.551140
873.567744	2982.608755
873.878874	2986.049343
874.189963	2992.018069
874.501010	2995.040241
874.812015	2993.719458
875.122979	3003.970645
875.433900	3004.409225
875.744780	3009.619258
876.055618	3015.953467
876.366415	3014.768796
876.677169	3020.903881
876.987882	3024.508306
877.298554	3035.107332
877.609183	3050.533262
877.919771	3068.550346
878.230317	3096.198554
878.540822	3132.020994
878.851285	3181.847758
879.161707	3249.069024
879.472087	3356.521218
879.782425	3513.588449
880.092722	3792.603711
880.402977	4213.134245
880.713191	4761.858800
881.023363	5367.616449
881.333494	5805.594415
881.643583	6100.020485
881.953631	6172.852555
882.263637	6122.211644
882.573602	5977.170087
882.883526	5811.931146
883.193408	5608.787769
883.503248	5388.128904
883.813048	5168.861397
884.122806	4950.733190
884.432522	4701.695149
884.742197	4481.835306
885.051831	4269.683388
885.361424	4066.454312
885.670975	3902.112696
885.980485	3751.760283
886.289954	3631.574134
886.599382	3524.595808
886.908768	3440.751338
887.218113	3362.721838
887.527417	3297.242290
887.836680	3241.598034
888.145901	3190.258923
888.455082	3155.774911
888.764221	3123.350209
889.073319	3090.633121
889.382376	3071.501942
889.691392	3058.820919
890.000366	3048.756256
890.309300	3038.915923
890.618193	3036.962476
890.927044	3033.763864
891.235855	3033.983154
891.544625	3035.911396
891.853353	3038.706715
892.162041	3054.359498
892.470687	3082.993252
892.779293	3113.371245
893.087858	3162.330931
893.396381	3240.342787
893.704864	3346.338088
894.013306	3504.022859
894.321707	3693.928166
894.630068	3845.752596
894.938387	3922.763783
895.246665	3932.435237
895.554903	3870.665979
895.863100	3788.127167
896.171256	3712.552709
896.479371	3640.653252
896.787446	3559.967064
897.095480	3492.153463
897.403473	3435.954680
897.711425	3378.041904
898.019336	3327.506858
898.327207	3273.324536
898.635038	3223.326372
898.942827	3173.613033
899.250576	3131.723566
899.558284	3090.393666
899.865952	3064.310736
900.173579	3034.068854
900.481165	3013.964732
900.788711	2993.081753
901.096216	2974.847899
901.403681	2965.521764
901.711105	2959.159828
902.018489	2952.296297
902.325832	2961.304839
902.633135	2967.941518
902.940397	3005.281345
903.247619	3094.008173
903.554800	3276.606327
903.861941	3550.030950
904.169041	3818.323678
904.476101	3987.068742
904.783121	4006.580527
905.090100	3942.325981
905.397039	3834.919157
905.703938	3730.758836
906.010796	3624.156076
906.317614	3538.927809
906.624391	3455.655509
906.931129	3381.396792
907.237826	3313.288283
907.544483	3245.940988
907.851099	3177.643436
908.157675	3104.818927
908.464211	3031.276055
908.770707	2971.843371
909.077163	2927.566917
909.383578	2887.305742
909.689954	2859.828933
909.996289	2841.395954
910.302584	2829.120744
910.608839	2816.711944
910.915054	2808.283135
911.221229	2804.658545
911.527363	2804.401446
911.833458	2806.974955
912.139513	2809.896304
912.445527	2809.540903
912.751502	2823.270485
913.057436	2837.121055
913.363331	2858.563603
913.669186	2889.375136
913.975000	2925.721855
914.280775	2986.886174
914.586510	3068.142013
914.892205	3177.517407
915.197859	3323.725992
915.503475	3507.644928
915.809050	3681.741177
916.114585	3814.767144
916.420081	3894.674474
916.725536	3929.778549
917.030952	3888.609966
917.336328	3849.677135
917.641665	3804.924291
917.946961	3741.420876
918.252218	3684.266795
918.557435	3608.047069
918.862612	3539.212634
919.167750	3477.415649
919.472848	3405.851429
919.777906	3339.454392
920.082925	3269.815893
920.387904	3193.752443
920.692843	3136.739514
920.997743	3085.937286
921.302603	3035.850902
921.607423	3001.044255
921.912204	2968.543936
922.216946	2942.123249
922.521647	2915.115267
922.826310	2895.419479
923.130932	2875.373331
923.435516	2856.048067
923.740059	2842.384020
924.044564	2826.776608
924.349028	2812.207673
924.653454	2798.704942
924.957840	2785.998714
925.262186	2776.440687
925.566493	2763.684047
925.870761	2751.489496
926.174989	2746.944895
926.479178	2739.577249
926.783328	2733.888307
927.087438	2726.046792
927.391509	2719.662171
927.695541	2712.753269
927.999533	2706.361086
928.303486	2699.857998
928.607400	2700.788091
928.911275	2700.422607
929.215110	2693.934642
929.518906	2692.371884
929.822663	2691.119158
930.126381	2688.553210
930.430060	2689.306863
930.733699	2687.882737
931.037299	2689.765608
931.340861	2687.275278
931.644383	2689.924404
931.947866	2689.637058
932.251309	2689.596729
932.554714	2687.169414
932.858080	2692.949097
933.161407	2690.105886
933.464694	2688.827953
933.767943	2684.568178
934.071153	2684.784948
934.374323	2680.283197
934.677455	2681.460307
934.980548	2679.915193
935.283602	2678.700275
935.586617	2677.508042
935.889593	2679.040553
936.192530	2679.713547
936.495428	2680.076510
936.798287	2683.837211
937.101108	2684.913497
937.403890	2695.943542
937.706632	2704.142979
938.009336	2715.926676
938.312002	2726.664333
938.614628	2738.090109
938.917216	2747.456572
939.219765	2754.065525
939.522275	2764.896444
939.824747	2766.091198
940.127179	2762.411155
940.429573	2764.435179
940.731929	2767.474994
941.034246	2764.472987
941.336524	2767.545571
941.638763	2764.225971
941.940964	2763.752102
942.243126	2757.264137
942.545250	2756.812954
942.847335	2746.506315
943.149381	2739.743607
943.451389	2737.752351
943.753359	2729.610888
944.055290	2726.016545
944.357182	2721.179558
944.659036	2715.740153
944.960851	2714.575647
945.262628	2709.554657
945.564367	2710.499874
945.866067	2711.598845
946.167729	2706.986189
946.469352	2706.643391
946.770937	2704.863864
947.072484	2702.711291
947.373992	2704.969728
947.675462	2703.434697
947.976893	2700.450333
948.278286	2699.394212
948.579641	2697.712987
948.880958	2696.349355
949.182236	2698.295240
949.483476	2696.034283
949.784678	2694.348017
950.085841	2694.370702
950.386967	2695.971268
950.688054	2697.108048
950.989103	2699.605940
951.290114	2703.114583
951.591087	2706.134234
951.892021	2712.039946
952.192917	2716.629917
952.493776	2720.965309
952.794596	2726.596278
953.095378	2725.318345
953.396122	2726.971844
953.696828	2726.230794
953.997496	2726.235835
954.298126	2721.731564
954.598718	2716.811398
954.899272	2712.654967
955.199788	2709.685727
955.500266	2703.895962
955.800706	2694.950435
956.101108	2691.008252
956.401472	2685.427695
956.701798	2679.854699
957.002087	2670.720129
957.302337	2669.651404
957.602550	2662.331649
957.902724	2653.567603
958.202861	2653.050884
958.502960	2647.626603
958.803022	2642.497229
959.103045	2638.822228
959.403031	2635.769809
959.702979	2631.121865
960.002889	2628.939046
960.302762	2627.038531
960.602596	2624.802779
960.902393	2620.873199
961.202153	2620.752212
961.501875	2618.622324
961.801559	2616.507560
962.101205	2613.218207
962.400814	2612.517487
962.700385	2613.848352
962.999918	2613.326592
963.299414	2611.330295
963.598873	2612.267950
963.898293	2609.611262
964.197677	2608.958432
964.497022	2608.169492
964.796331	2609.800305
965.095601	2606.432814
965.394835	2607.093205
965.694030	2603.561877
965.993189	2606.553802
966.292309	2606.193359
966.591393	2602.760334
966.890439	2605.590942
967.189447	2602.034407
967.488419	2606.352156
967.787353	2603.972731
968.086249	2604.809563
968.385108	2605.308637
968.683930	2605.588421
968.982714	2607.390633
969.281462	2606.142948
969.580172	2605.774944
969.878844	2607.635129
970.177480	2609.323916
970.476078	2609.815428
970.774639	2613.266098
971.073162	2613.298866
971.371649	2612.076386
971.670098	2611.776437
971.968510	2614.934720
972.266885	2614.521346
972.565223	2617.891357
972.863524	2619.265071
973.161788	2619.459156
973.460014	2622.191461
973.758204	2621.384877
974.056356	2621.780607
974.354471	2621.127778
974.652550	2622.798920
974.950591	2620.064094
975.248595	2621.473097
975.546563	2622.468725
975.844493	2623.005607
976.142386	2620.890843
976.440243	2618.977726
976.738062	2621.168107
977.035845	2617.641820
977.333590	2615.043105
977.631299	2618.186264
977.928971	2617.273816
978.226606	2614.052518
978.524204	2613.301386
978.821765	2610.606890
979.119290	2609.477671
979.416777	2612.542693
979.714228	2613.019082
980.011642	2610.198556
980.309020	2616.900770
980.606360	2616.537807
980.903664	2618.556789
981.200931	2622.173817
981.498162	2630.340486
981.795356	2643.260964
982.092513	2657.199754
982.389633	2673.402022
982.686717	2695.013449
982.983764	2709.869729
983.280775	2723.576627
983.577749	2730.644324
983.874686	2730.966958
984.171587	2727.538974
984.468451	2723.357337
984.765279	2715.238558
985.062070	2707.487784
985.358824	2702.428986
985.655543	2688.429702
985.952224	2681.568692
986.248869	2666.107473
986.545478	2654.832932
986.842050	2643.215593
987.138586	2632.369551
987.435086	2622.292284
987.731549	2615.804319
988.027975	2612.295676
988.324366	2608.199739
988.620719	2602.228492
988.917037	2600.257401
989.213318	2597.772112
989.509563	2596.153902
989.805772	2598.372009
990.101944	2595.312029
990.398080	2594.535691
990.694180	2594.449992
990.990244	2595.319591
991.286271	2596.652976
991.582262	2593.585434
991.878217	2594.825557
992.174136	2592.841863
992.470019	2593.086359
992.765865	2598.402256
993.061676	2593.595516
993.357450	2600.872422
993.653188	2600.496856
993.948890	2602.374685
994.244556	2605.129676
994.540186	2610.364914
994.835780	2614.733074
995.131337	2621.969650
995.426859	2628.780249
995.722345	2636.374747
996.017795	2644.543937
996.313208	2655.095072
996.608586	2661.255362
996.903928	2667.017401
997.199234	2667.778615
997.494504	2666.757782
997.789738	2665.822648
998.084936	2665.416835
998.380099	2657.676143
998.675225	2654.621204
998.970316	2648.859165
999.265371	2638.698719
999.560390	2635.573204
999.855373	2629.564149
1000.150320	2619.764146
1000.445232	2617.369598
1000.740108	2610.236365
1001.034948	2606.410129
1001.329752	2601.943667
1001.624521	2601.308481
1001.919254	2594.923860
1002.213951	2593.779518
1002.508613	2592.307501
1002.803239	2591.480752
1003.097829	2585.302818
1003.392384	2591.939497
1003.686903	2587.508323
1003.981386	2586.588312
1004.275834	2588.077973
1004.570246	2587.762901
1004.864623	2582.983887
1005.158964	2582.850297
1005.453270	2586.553024
1005.747540	2586.144691
1006.041775	2584.415575
1006.335974	2584.682756
1006.630138	2582.326017
1006.924266	2582.119329
1007.218359	2582.673856
1007.512416	2582.951120
1007.806438	2582.431881
1008.100425	2582.421798
1008.394376	2581.068249
1008.688292	2582.373907
1008.982172	2579.016499
1009.276017	2581.837025
1009.569827	2580.549010
1009.863602	2580.143197
1010.157341	2581.595049
1010.451045	2580.551530
1010.744714	2579.104719
1011.038347	2580.044894
1011.331945	2581.448856
1011.625508	2583.440112
1011.919036	2577.289904
1012.212528	2581.181675
1012.505986	2578.406519
1012.799408	2582.240317
1013.092795	2575.845613
1013.386147	2579.676890
1013.679464	2579.273598
1013.972745	2579.477765
1014.265992	2580.445666
1014.559204	2581.897518
1014.852380	2577.121025
1015.145521	2580.276787
1015.438628	2581.970615
1015.731699	2580.488516
1016.024736	2579.069431
1016.317737	2581.078331
1016.610703	2580.496078
1016.903635	2574.736559
1017.196531	2573.544327
1017.489393	2578.134297
1017.782219	2579.250913
1018.075011	2577.204204
1018.367768	2582.348702
1018.660490	2582.169741
1018.953177	2582.169741
1019.245829	2582.169741
