Dividing Wavelength (nm)	Counts (n)	Blue Motor Position (mm): 48.300000	Red Motor Position (mm): 0.000000	
326.493990	2130.237860
326.888308	2130.237860
327.282561	2130.237860
327.676750	2097.971955
328.070874	2093.719742
328.464933	2096.988930
328.858929	2105.405136
329.252859	2115.560541
329.646726	2125.698301
330.040528	2137.545013
330.434265	2157.767601
330.827938	2174.811743
331.221547	2192.115503
331.615091	2211.745756
332.008571	2230.576986
332.401986	2252.236304
332.795338	2271.130548
333.188625	2288.484721
333.581847	2308.016671
333.975006	2323.203147
334.368100	2343.627382
334.761129	2361.926770
335.154095	2378.098792
335.546996	2403.861609
335.939833	2424.343817
336.332606	2438.106167
336.725315	2453.000256
337.117960	2462.540639
337.510540	2468.721094
337.903056	2483.511839
338.295508	2487.738847
338.687896	2494.879641
339.080220	2505.496311
339.472480	2513.209277
339.864676	2519.362005
340.256807	2521.305370
340.648875	2521.000380
341.040879	2528.703263
341.432818	2529.197296
341.824694	2529.645959
342.216506	2533.633512
342.608253	2533.121834
342.999937	2529.416586
343.391557	2530.376926
343.783113	2530.510517
344.174605	2526.104548
344.566033	2526.926256
344.957397	2524.032634
345.348697	2522.948786
345.739934	2526.202851
346.131106	2520.314783
346.522215	2519.999711
346.913260	2517.196829
347.304241	2515.475275
347.695159	2512.732888
348.086012	2511.303721
348.476802	2511.137362
348.867528	2508.750376
349.258191	2506.691065
349.648789	2508.226096
350.039324	2503.731908
350.429796	2505.624861
350.820203	2504.288955
351.210548	2503.671414
351.600828	2500.631598
351.991045	2499.792246
352.381198	2499.686382
352.771288	2499.913233
353.161314	2501.100425
353.551276	2497.579179
353.941175	2495.754282
354.331010	2499.104128
354.720782	2497.838799
355.110490	2501.879283
355.500135	2499.517503
355.889717	2500.654283
356.279235	2500.258553
356.668689	2499.998933
357.058080	2500.082112
357.447408	2500.553460
357.836672	2499.237719
358.225873	2499.623367
358.615010	2499.522544
359.004084	2503.227792
359.393095	2502.574963
359.782043	2504.601507
360.170927	2503.358862
360.559748	2504.127638
360.948505	2504.619151
361.337199	2507.467402
361.725830	2507.381703
362.114398	2508.447907
362.502903	2505.725684
362.891344	2507.968997
363.279722	2510.199708
363.668037	2509.970335
364.056289	2511.432270
364.444478	2512.276663
364.832603	2513.345388
365.220665	2512.614421
365.608665	2510.018226
365.996601	2514.283042
366.384474	2514.058711
366.772284	2514.330933
367.160031	2515.129956
367.547715	2514.454442
367.935336	2516.334792
368.322893	2516.153311
368.710388	2518.898219
369.097820	2521.847294
369.485189	2522.868127
369.872495	2524.962727
370.259738	2526.976668
370.646918	2532.219468
371.034035	2535.662576
371.421090	2544.161961
371.808081	2550.075235
372.195010	2558.617470
372.581875	2567.101732
372.968678	2572.243709
373.355418	2580.901891
373.742096	2595.576689
374.128710	2608.025819
374.515262	2619.086110
374.901751	2634.716208
375.288177	2647.092241
375.674540	2667.834068
376.060841	2682.319824
376.447079	2697.796166
376.833254	2721.179558
377.219367	2732.509551
377.605417	2766.890221
377.991404	2775.210645
378.377329	2800.088739
378.763191	2817.458035
379.148991	2853.000690
379.534727	2876.933568
379.920402	2911.462951
380.306013	2924.569951
380.691563	2974.419401
381.077049	2996.106445
381.462474	3017.712830
381.847835	3057.714386
382.233134	3079.174578
382.618371	3086.264961
383.003545	3155.472441
383.388657	3167.916530
383.773706	3203.897765
384.158693	3226.081363
384.543618	3253.651433
384.928480	3290.114099
385.313280	3336.739731
385.698017	3340.036645
386.082692	3398.413207
386.467305	3404.487797
386.851856	3440.191769
387.236344	3463.751602
387.620770	3497.708814
388.005133	3524.227804
388.389435	3556.037485
388.773674	3568.829413
389.157851	3612.339612
389.541965	3629.098927
389.926018	3596.664144
390.310008	3667.439423
390.693936	3684.972556
391.077802	3730.718507
391.461606	3716.782237
391.845348	3782.375210
392.229027	3779.416053
392.612645	3794.458856
392.996200	3871.243191
393.379694	3913.470416
393.763125	3977.097339
394.146494	3945.736321
394.529801	4008.171012
394.913047	4053.511149
395.296230	4017.776930
395.679351	4073.942946
396.062410	4096.839867
396.445408	4080.541816
396.828343	4115.681179
397.211217	4136.927122
397.594028	4060.203281
397.976778	4128.906646
398.359466	4152.577384
398.742092	4178.284748
399.124656	4105.155250
399.507158	4183.184750
399.889598	4207.881362
400.271977	4274.361579
400.654294	4241.399994
401.036549	4248.208073
401.418742	4221.303434
401.800874	4318.605265
402.182944	4342.341538
402.564952	4402.817740
402.946898	4395.681987
403.328783	4390.224938
403.710606	4302.965086
404.092367	4496.341227
404.474067	4459.061894
404.855705	4468.113286
405.237282	4400.092997
405.618797	4505.919419
406.000250	4540.302609
406.381642	4619.569712
406.762972	4581.428342
407.144240	4595.225980
407.525447	4596.052729
407.906593	4650.925689
408.287677	4696.434705
408.668700	4626.226555
409.049661	4673.235315
409.430560	4718.709043
409.811399	4645.594668
410.192176	4806.493176
410.572891	4742.430193
410.953545	4844.889124
411.334138	4730.147421
411.714669	4796.872134
412.095139	4687.831976
412.475547	4832.331610
412.855894	4811.982992
413.236180	4818.102953
413.616405	4775.517806
413.996568	4862.545765
414.376670	4805.444616
414.756711	4759.106330
415.136691	4792.743429
415.516609	4870.626735
415.896466	4907.507817
416.276262	4942.095173
416.655997	4920.173716
417.035670	5102.507209
417.415283	5192.481723
417.794834	5134.347137
418.174324	5091.882977
418.553753	5000.330582
418.933121	5182.500238
419.312428	5253.792236
419.691674	5188.836969
420.070859	5315.596782
420.449983	5227.147217
420.829045	5346.219271
421.208047	5252.224437
421.586988	5323.299665
421.965867	5338.949927
422.344686	5465.366942
422.723444	5319.329757
423.102141	5142.221419
423.480777	5440.496410
423.859352	5209.679619
424.237866	5468.225277
424.616319	5456.814625
424.994712	5567.699845
425.373044	5443.258962
425.751314	5587.995530
426.129524	5391.589656
426.507673	5585.641311
426.885762	5671.038457
427.263789	5597.561120
427.641756	5479.489735
428.019662	5599.635554
428.397508	5607.855156
428.775292	5552.016815
429.153016	5658.223844
429.530679	5581.747020
429.908282	5669.485782
430.285824	5535.015524
430.663305	5808.661958
431.040726	5546.330394
431.418086	5545.569179
431.795385	5652.814686
432.172624	5668.177603
432.549802	5659.191746
432.926920	5671.096431
433.303977	5682.870046
433.680974	5717.165015
434.057910	5735.885340
434.434786	5738.206791
434.811601	5713.709304
435.188355	5946.151867
435.565050	5813.776208
435.941683	5804.308921
436.318257	6018.366396
436.694770	5994.859495
437.071222	6035.617224
437.447614	5966.719775
437.823946	5879.215426
438.200218	6032.249733
438.576429	5897.769393
438.952580	6004.495661
439.328670	6038.959509
439.704700	5950.923319
440.080670	5934.093427
440.456580	6202.587801
440.832429	6087.631850
441.208218	5933.879178
441.583947	6089.585297
441.959616	6091.004382
442.335224	6022.928640
442.710773	6157.819835
443.086261	6183.864956
443.461689	5977.447350
443.837057	6129.430577
444.212365	6283.137878
444.587612	6174.748029
444.962800	6330.035732
445.337927	6310.173586
445.712995	5921.908958
446.088002	6500.320868
446.462949	6325.972562
446.837837	6258.685761
447.212664	6431.919972
447.587431	6577.057312
447.962139	7119.339272
448.336786	8043.632309
448.711374	7780.509284
449.085901	6854.726586
449.460369	6780.142715
449.834776	6716.732562
450.209124	7102.673218
450.583412	7253.925477
450.957640	7408.467089
451.331808	7159.827299
451.705917	6715.179886
452.079965	6640.230531
452.453954	6854.464446
452.827883	6726.678758
453.201752	6822.715259
453.575562	6619.554239
453.949311	6822.203582
454.323001	6717.387912
454.696632	6792.102853
455.070202	6927.636794
455.443713	7080.787048
455.817164	7184.168511
456.190556	7261.492249
456.563888	7342.964857
456.937160	7384.980354
457.310373	7042.585184
457.683526	7067.007054
458.056619	6953.195444
458.429653	6942.054494
458.802628	6879.934876
459.175542	6989.204406
459.548398	7348.946186
459.921194	7503.815473
460.293930	7510.956268
460.666607	8035.720218
461.039224	8345.040377
461.411782	8465.675189
461.784280	8492.244590
462.156719	8380.479689
462.529099	8254.433199
462.901419	7847.604522
463.273680	7739.675938
463.645882	7752.762774
464.018024	7620.213195
464.390106	7788.421375
464.762130	8173.512597
465.134094	8650.103282
465.505999	9664.058281
465.877845	10893.706610
466.249631	11541.837677
466.621358	11155.362659
466.993026	10527.733964
467.364634	10268.023800
467.736184	9904.228933
468.107674	9573.052851
468.479105	9607.040311
468.850477	9371.623467
469.221790	9141.388930
469.593043	8812.183940
469.964238	8676.584463
470.335373	8683.745422
470.706449	8743.969566
471.077467	8726.144046
471.448425	10040.367813
471.819324	11113.495876
472.190164	11128.175716
472.560945	9876.691630
472.931667	9094.090304
473.302330	8958.959654
473.672934	8605.078216
474.043479	8957.482596
474.413965	8902.886900
474.784393	8784.452552
475.154761	8939.059700
475.525070	9033.364565
475.895321	8855.568110
476.265513	9036.059061
476.635645	9202.749854
477.005719	9204.186583
477.375734	9319.656733
477.745691	9554.224142
478.115588	9684.797588
478.485427	9934.412841
478.855207	10466.834305
479.224928	11286.599017
479.594591	11915.561097
479.964194	11721.532127
480.333739	11658.890749
480.703226	11580.367216
481.072653	11671.097903
481.442022	11906.320662
481.811333	12093.201276
482.180584	11896.268601
482.549777	11609.288316
482.918912	11436.734661
483.287988	11452.057248
483.657005	11465.824639
484.025964	11153.028605
484.394864	11280.859663
484.763706	11250.017884
485.132489	11007.921512
485.501213	10971.978085
485.869879	11046.277131
486.238487	10890.296269
486.607036	11004.861531
486.975527	10780.981368
487.343959	10976.381533
487.712333	11022.195539
488.080648	10948.080495
488.448905	10992.228400
488.817104	10926.900087
489.185244	11201.360667
489.553326	11350.924140
489.921350	11893.667366
490.289315	12954.084160
490.657222	13301.898569
491.025070	13208.491030
491.392861	13080.760794
491.760593	12699.062269
492.128267	12346.678053
492.495883	12013.709842
492.863440	11678.054695
493.230939	11340.930052
493.598380	11277.232553
493.965763	11140.231636
494.333088	11045.974662
494.700354	10964.862496
495.067563	11029.051508
495.434713	10857.503563
495.801805	10987.358645
496.168839	10911.280072
496.535815	10846.362613
496.902733	10844.305823
497.269593	10782.304671
497.636395	10876.236491
498.003139	10868.626869
498.369825	10738.383618
498.736453	10890.820549
499.103023	10822.575929
499.469535	10846.720535
499.835989	10840.280461
500.202385	10801.682867
500.568723	10651.222068
500.935003	10874.950997
501.301226	10676.626963
501.667390	10936.818557
502.033497	11037.608867
502.399546	10897.086703
502.765537	10795.681373
503.131470	10875.823116
503.497345	11050.110928
503.863163	10657.208439
504.228923	10971.471449
504.594625	11031.123422
504.960269	10786.909765
505.325856	11003.858342
505.691385	10792.308841
506.056856	10947.861205
506.422270	10974.675102
506.787625	10862.269974
507.152924	10980.152316
507.518164	10959.334871
507.883347	10880.828982
508.248472	10801.380398
508.613540	11032.431602
508.978550	10911.781667
509.343503	10889.819880
509.708398	11012.269507
510.073236	11125.161106
510.438016	11131.588577
510.802738	11084.630229
511.167403	11132.616973
511.532010	11028.728874
511.896561	11256.813359
512.261053	11338.404434
512.625488	11204.697911
512.989866	11188.001609
513.354186	11175.222284
513.718449	11076.065309
514.082655	11270.217788
514.446803	11164.603094
514.810894	11282.359407
515.174927	11150.404684
515.538904	11174.503920
515.902822	11329.290028
516.266684	11212.567152
516.630488	11162.420274
516.994235	11209.055988
517.357925	11269.602767
517.721558	11361.790347
518.085133	11372.442305
518.448651	11382.930426
518.812112	11263.646643
519.175516	11286.236054
519.538863	11409.603171
519.902152	11318.527165
520.265385	11485.883390
520.628560	11389.990562
520.991678	11366.662622
521.354739	11435.600401
521.717743	11373.006914
522.080690	11348.519510
522.443580	11486.851292
522.806413	11439.577872
523.169189	11475.022224
523.531908	11519.701971
523.894569	11350.856084
524.257174	11349.084119
524.619722	11465.151645
524.982213	11417.404356
525.344647	11469.492078
525.707025	11419.143554
526.069345	11514.340704
526.431608	11437.826071
526.793815	11544.426310
527.155964	11334.316059
527.518057	11384.074768
527.880093	11328.054946
528.242072	11397.310317
528.603995	11301.845987
528.965860	11225.855634
529.327669	11282.886207
529.689421	11224.517207
530.051117	11195.414626
530.412755	11304.890844
530.774337	11191.606034
531.135862	11173.127685
531.497331	11199.036695
531.858743	11049.163191
532.220098	11208.728313
532.581396	11085.462020
532.942638	11064.087527
533.303824	11030.926817
533.664953	11046.622450
534.026025	10955.591814
534.387040	11054.814325
534.747999	11059.197608
535.108902	11119.066351
535.469748	10874.925791
535.830537	10977.021759
536.191270	10959.372680
536.551947	10982.176339
536.912567	10981.221040
537.273131	10910.901985
537.633638	10885.366021
537.994089	10872.395132
538.354483	10824.365538
538.714821	10975.395987
539.075103	10978.846657
539.435328	10936.027096
539.795497	10770.969637
540.155609	10927.835221
540.515665	11008.622232
540.875665	10743.155071
541.235609	10817.262553
541.595496	10814.900772
541.955328	10974.299536
542.315102	10852.618685
542.674821	10804.319390
543.034483	10797.435695
543.394090	10807.976747
543.753640	10734.204502
544.113134	10952.844385
544.472571	10806.126644
544.831953	10957.376383
545.191278	10757.000600
545.550548	10784.868098
545.909761	10926.043091
546.268918	10898.319265
546.628019	10983.822276
546.987064	10842.022180
547.346053	10765.615932
547.704986	10875.203054
548.063863	10851.497028
548.422684	10847.401091
548.781449	10762.684501
549.140158	10870.603002
549.498811	10741.932591
549.857408	10606.645666
550.215949	10830.785448
550.574434	10674.391212
550.932864	10779.216965
551.291237	10841.800369
551.649555	10786.362800
552.007817	10803.056581
552.366022	10763.034861
552.724173	10754.888356
553.082267	10736.871272
553.440305	10873.673064
553.798288	10674.081181
554.156215	10825.761938
554.514086	10805.012549
554.871902	10656.827832
555.229661	10691.415188
555.587365	10670.053299
555.945014	10558.099354
556.302606	10686.754641
556.660143	10582.455689
557.017625	10738.101314
557.375050	10636.378391
557.732421	10772.875193
558.089735	10676.329535
558.446994	10686.913438
558.804197	10722.219159
559.161345	10721.309230
559.518437	10562.666639
559.875474	10655.270115
560.232455	10686.769765
560.589381	10634.992074
560.946251	10630.139963
561.303065	10742.829916
561.659825	10674.862559
562.016528	10602.983267
562.373177	10486.598148
562.729770	10604.770356
563.086307	10509.797538
563.442789	10607.588361
563.799216	10493.643161
564.155587	10533.296877
564.511904	10495.205919
564.868164	10485.446245
565.224370	10492.733233
565.580520	10418.613148
565.936615	10427.261247
566.292654	10293.050608
566.648638	10429.071021
567.004567	10379.334997
567.360441	10369.524912
567.716260	10282.237333
568.072023	10374.283761
568.427732	10320.446759
568.783385	10235.034489
569.138982	10303.153081
569.494525	10321.404578
569.850013	10196.126864
570.205445	10277.375140
570.560823	10171.878914
570.916145	10094.290515
571.271412	10163.724847
571.626625	10104.564387
571.981782	10082.703423
572.336884	10053.008506
572.691931	10057.812726
573.046923	10005.604016
573.401860	9961.115833
573.756743	9903.765147
574.111570	9944.510273
574.466342	9923.201315
574.821059	9953.138207
575.175722	9845.741466
575.530330	9859.206388
575.884882	9842.938584
576.239380	9772.395198
576.593823	9754.872147
576.948211	9770.028376
577.302544	9645.859716
577.656823	9662.072067
578.011047	9666.833436
578.365216	9642.416608
578.719330	9560.296212
579.073389	9574.605527
579.427394	9524.125933
579.781344	9501.660031
580.135239	9448.536351
580.489080	9455.732598
580.842866	9358.791210
581.196597	9363.451757
581.550273	9403.133199
581.903895	9378.512204
582.257463	9441.466133
582.610975	9313.622472
582.964434	9340.983334
583.317837	9264.781253
583.671186	9247.719467
584.024481	9237.811079
584.377721	9159.123709
584.730906	9136.405749
585.084037	9167.451695
585.437113	9103.827293
585.790135	9123.598698
586.143103	9022.309314
586.496016	8991.094490
586.848874	9053.846773
587.201679	9042.852016
587.554428	8929.937732
587.907124	8975.169485
588.259765	8941.156820
588.612352	8946.558416
588.964884	8823.571906
589.317362	8833.578597
589.669786	8832.731683
590.022155	8885.207574
590.374470	8900.807424
590.726731	8840.583280
591.078937	8694.026855
591.431090	8801.945356
591.783188	8682.016306
592.135232	8670.497270
592.487222	8667.573400
592.839157	8728.788132
593.191038	8655.978747
593.542866	8594.660672
593.894639	8501.747165
594.246358	8547.939258
594.598022	8565.084222
594.949633	8465.559242
595.301190	8438.636960
595.652692	8469.239285
596.004141	8579.524607
596.355535	8357.562603
596.706876	8341.390582
597.058162	8274.000437
597.409395	8350.754525
597.760573	8416.884381
598.111698	8317.808064
598.462768	8303.387844
598.813785	8269.231506
599.164748	8241.192608
599.515657	8222.013538
599.866511	8137.463306
600.217312	8265.995085
600.568060	8122.967468
600.918753	8230.948983
601.269392	8194.897172
601.619978	8112.514636
601.970510	8170.750045
602.320988	8167.642173
602.671412	8226.807676
603.021783	8161.854929
603.372100	8134.146227
603.722363	8139.900704
604.072572	8109.797454
604.422728	8118.052343
604.772830	8049.124647
605.122878	8055.791572
605.472872	8055.947848
605.822813	8086.751819
606.172701	8029.746451
606.522534	8102.865867
606.872314	8102.097091
607.222041	8072.127432
607.571714	8124.220195
607.921333	8083.777538
608.270899	8091.482942
608.620411	8181.432250
608.969870	8087.288702
609.319276	8077.786127
609.668627	8097.991071
610.017926	8129.916699
610.367171	8176.665839
610.716362	8151.598701
611.065500	8147.036457
611.414585	8171.783481
611.763616	8161.832244
612.112594	8139.893142
612.461518	8160.947521
612.810389	8220.050009
613.159207	8159.997264
613.507971	8105.056248
613.856682	8224.125782
614.205340	8181.959050
614.553945	8263.454343
614.902496	8158.542891
615.250994	8218.487251
615.599439	8193.659568
615.947830	8207.701703
616.296169	8187.751336
616.644454	8192.401801
616.992686	8195.192079
617.340864	8253.931604
617.688990	8154.499885
618.037063	8247.027744
618.385082	8190.680247
618.733048	8279.626365
619.080961	8218.247796
619.428821	8237.053821
619.776628	8236.620282
620.124382	8187.209412
620.472083	8172.847165
620.819731	8201.564098
621.167326	8090.749454
621.514868	8101.237574
621.862357	7990.916964
622.209793	8007.847679
622.557176	7937.601721
622.904506	7909.766990
623.251783	7844.438677
623.599007	7801.359497
623.946179	7802.466030
624.293297	7758.923064
624.640363	7676.061618
624.987376	7658.410018
625.334336	7606.675176
625.681243	7558.229688
626.028097	7543.587657
626.374899	7522.969337
626.721647	7516.103286
627.068343	7442.719209
627.414987	7419.373626
627.761577	7369.869495
628.108115	7411.174189
628.454600	7306.149310
628.801032	7360.974379
629.147412	7312.304559
629.493739	7304.246275
629.840014	7239.621203
630.186236	7297.846530
630.532405	7179.084507
630.878521	7234.514514
631.224585	7186.003491
631.570597	7108.641944
631.916556	7150.677605
632.262462	7144.081255
632.608316	7094.682989
632.954117	7078.087510
633.299866	7067.768268
633.645562	7061.905407
633.991206	6979.106975
634.336797	6927.757782
634.682336	6881.825309
635.027823	6849.259455
635.373257	6840.366860
635.718639	6773.564009
636.063968	6782.806965
636.409245	6681.532705
636.754470	6673.638258
637.099642	6632.189891
637.444762	6577.276602
637.789829	6587.149702
638.134845	6527.245671
638.479808	6516.099680
638.824719	6514.531881
639.169577	6446.050326
639.514383	6465.746114
639.859137	6389.344907
640.203839	6397.193984
640.548489	6387.179732
640.893086	6365.606114
641.237632	6337.703327
641.582125	6359.448344
641.926566	6324.629095
642.270955	6341.050653
642.615292	6334.897925
642.959576	6357.386512
643.303809	6339.727351
643.647990	6346.535429
643.992118	6339.041754
644.336195	6286.071830
644.680219	6308.073946
645.024192	6299.430887
645.368112	6395.674076
645.711981	6414.810296
646.055797	6491.844168
646.399562	6451.910668
646.743274	6575.360964
647.086935	6628.661083
647.430544	6623.193952
647.774101	6652.389794
648.117606	6654.328118
648.461059	6645.682539
648.804460	6603.125118
649.147810	6512.611201
649.491108	6486.853426
649.834354	6459.023736
650.177548	6377.074739
650.520690	6291.617099
650.863781	6266.010558
651.206820	6289.714063
651.549807	6211.684563
651.892742	6151.969576
652.235626	6158.215565
652.578458	6144.614532
652.921238	6050.934770
653.263967	6092.143682
653.606644	6031.964908
653.949269	6035.765938
654.291843	5975.360312
654.634365	6019.495614
654.976836	5977.321321
655.319255	5978.410210
655.661622	5953.186797
656.003938	5948.485921
656.346203	5909.011166
656.688416	5943.021310
657.030577	5897.073714
657.372687	5862.907293
657.714746	5850.445561
658.056753	5896.801491
658.398708	5836.000135
658.740612	5826.845399
659.082465	5870.363160
659.424266	5867.237645
659.766016	5866.592377
660.107715	5837.613304
660.449362	5857.961922
660.790958	5852.041086
661.132503	5839.516340
661.473996	5874.335589
661.815438	5866.042891
662.156829	5857.314133
662.498168	5849.888514
662.839456	5826.616027
663.180693	5862.859403
663.521879	5862.277149
663.863013	5855.700964
664.204097	5870.411051
664.545129	5909.474952
664.886110	5903.733078
665.227040	5938.181803
665.567918	5906.246093
665.908746	5935.976298
666.249522	5936.056956
666.590248	5924.548002
666.930922	5950.167146
667.271545	5965.567871
667.612118	5972.454087
667.952639	5940.551145
668.293109	5959.221058
668.633528	5917.843268
668.973896	5925.982210
669.314213	5915.604995
669.654480	5895.611779
669.994695	5888.034925
670.334859	5881.519233
670.674973	5875.399273
671.015035	5876.762905
671.355047	5874.126381
671.695008	5860.099371
672.034918	5836.322769
672.374777	5849.613771
672.714585	5827.520914
673.054342	5834.003838
673.394049	5827.604093
673.733705	5858.569381
674.073310	5845.220405
674.412864	5803.588036
674.752368	5795.164268
675.091820	5801.097706
675.431223	5734.562037
675.770574	5737.196040
676.109875	5691.064441
676.449125	5690.464544
676.788324	5662.652498
677.127473	5606.604950
677.466571	5593.021561
677.805619	5584.572587
678.144616	5576.698304
678.483562	5551.353903
678.822458	5520.292834
679.161303	5512.753788
679.500098	5504.556872
679.838842	5484.495601
680.177535	5496.478423
680.516179	5505.605432
680.854771	5517.971383
681.193314	5597.823260
681.531805	5711.385332
681.870247	5859.343198
682.208638	5965.678776
682.546978	5973.941228
682.885268	5953.605213
683.223508	5865.674887
683.561697	5810.267565
683.899836	5783.113390
684.237925	5741.566720
684.575963	5702.376790
684.913951	5662.760883
685.251889	5719.539399
685.589776	5690.023443
685.927614	5667.101316
686.265401	5729.563733
686.603137	5718.526127
686.940824	5792.996572
687.278460	5816.241332
687.616046	5827.702396
687.953582	5896.834259
688.291068	5873.833994
688.628504	5942.333193
688.965889	5905.106792
689.303224	5846.977247
689.640510	5797.178209
689.977745	5719.393205
690.314930	5622.300582
690.652065	5566.540379
690.989150	5471.176872
691.326185	5395.597373
691.663170	5344.454867
692.000105	5269.991984
692.336990	5191.738153
692.673825	5167.623793
693.010610	5096.321713
693.347345	5025.627092
693.684030	5010.838868
694.020665	4972.891582
694.357251	4881.684506
694.693786	4890.771186
695.030272	4860.015106
695.366707	4824.490095
695.703093	4787.677069
696.039429	4812.028363
696.375716	4791.974653
696.711952	4766.973050
697.048139	4755.209518
697.384276	4736.680757
697.720363	4747.322632
698.056400	4759.106330
698.392388	4703.381415
698.728326	4686.974980
699.064214	4666.875899
699.400053	4657.332995
699.735842	4628.379128
700.071581	4600.897278
700.407270	4574.607661
700.742910	4557.545875
701.078501	4507.396477
701.414042	4503.950848
701.749533	4471.248883
702.084974	4408.622629
702.420366	4460.851503
702.755709	4406.217999
703.091002	4349.721788
703.426246	4394.610742
703.761440	4351.246737
704.096584	4319.290862
704.431679	4337.902802
704.766725	4321.622396
705.101721	4308.699398
705.436668	4340.241898
705.771565	4285.734422
706.106413	4314.935305
706.441212	4347.206252
706.775961	4357.943909
707.110661	4335.505734
707.445311	4365.150239
707.779913	4388.420205
708.114465	4400.140888
708.448967	4421.774999
708.783421	4485.099453
709.117825	4523.001369
709.452180	4531.334396
709.786485	4574.527002
710.120742	4662.850538
710.454949	4648.266480
710.789107	4713.856933
711.123216	4787.430052
711.457275	4777.050317
711.791286	4849.973128
712.125247	4867.407958
712.459159	4772.445223
712.793023	4844.432900
713.126837	4801.603257
713.460602	4797.267864
713.794318	4717.282397
714.127985	4729.212287
714.461602	4638.136281
714.795171	4612.108804
715.128691	4544.254873
715.462162	4485.958970
715.795584	4439.585396
716.128957	4418.949433
716.462281	4371.181979
716.795556	4341.209799
717.128782	4308.273421
717.461960	4231.461359
717.795088	4245.571549
718.128167	4206.442113
718.461198	4148.564626
718.794180	4140.594561
719.127113	4121.123105
719.459997	4100.030917
719.792833	4058.902663
720.125619	4049.266498
720.458357	4013.542361
720.791046	4017.114018
721.123686	3991.058815
721.456278	3945.827062
721.788821	3964.980926
722.121315	3938.789611
722.453761	3913.561157
722.786158	3923.227569
723.118506	3948.629943
723.450805	3903.161256
723.783056	3924.749998
724.115259	3939.709622
724.447412	3944.312195
724.779518	3939.273562
725.111574	3940.279272
725.443582	3972.136844
725.775542	3953.207311
726.107453	4008.992720
726.439315	4005.889889
726.771129	4023.423022
727.102895	4060.236048
727.434612	4109.256228
727.766281	4120.218218
728.097901	4117.828711
728.429473	4125.813898
728.760996	4128.808344
729.092471	4125.062766
729.423897	4110.821507
729.755276	4115.640850
730.086606	4117.586735
730.417887	4154.026716
730.749120	4220.091037
731.080305	4281.048669
731.411442	4309.523627
731.742530	4280.902476
732.073570	4283.735604
732.404562	4337.101259
732.735506	4330.882996
733.066401	4291.327582
733.397249	4227.735947
733.728048	4151.085203
734.058798	4066.721493
734.389501	3993.637365
734.720156	3932.505813
735.050762	3888.650295
735.381320	3882.512690
735.711831	3831.017304
736.042293	3802.038231
736.372707	3825.565296
736.703073	3797.612098
737.033391	3787.066004
737.363661	3805.239363
737.693883	3828.254751
738.024056	3839.909899
738.354182	3834.238601
738.684260	3897.006007
739.014290	3916.674069
739.344272	3913.820776
739.674207	3957.772076
740.004093	3961.563024
740.333931	3957.124288
740.663722	3957.701500
740.993464	3954.094554
741.323159	3932.304167
741.652806	3899.556831
741.982405	3875.351731
742.311956	3839.970393
742.641460	3830.321624
742.970915	3806.232471
743.300323	3767.350051
743.629683	3734.484249
743.958996	3718.871795
744.288260	3697.570400
744.617477	3667.671316
744.946647	3651.340498
745.275768	3626.845532
745.604842	3626.714462
745.933869	3575.584559
746.262847	3564.925039
746.591778	3603.938529
746.920662	3577.359045
747.249498	3544.029456
747.578286	3587.264912
747.907027	3606.048252
748.235720	3604.029269
748.564365	3629.562714
748.892963	3633.527581
749.221514	3612.813480
749.550017	3589.840942
749.878473	3586.417998
750.206881	3560.299780
750.535242	3553.300138
750.863555	3557.476734
751.191821	3551.092113
751.520039	3534.544525
751.848210	3511.629961
752.176334	3545.851833
752.504411	3550.441804
752.832440	3512.451669
753.160421	3492.856704
753.488356	3504.917664
753.816243	3516.068697
754.144082	3471.409115
754.471875	3453.754994
754.799620	3476.593941
755.127318	3468.853250
755.454969	3466.070533
755.782572	3474.128817
756.110129	3452.580405
756.437638	3438.180349
756.765100	3453.273564
757.092515	3463.393680
757.419882	3471.741831
757.747203	3443.755865
758.074477	3443.476081
758.401703	3462.186324
758.728882	3481.917400
759.056014	3489.816888
759.383099	3493.643124
759.710138	3490.240345
760.037129	3510.901514
760.364073	3536.956717
760.690970	3519.705889
761.017820	3498.815347
761.344623	3515.385620
761.671379	3564.151222
761.998088	3613.481433
762.324751	3740.949528
762.651366	3988.747446
762.977935	4465.519612
763.304456	4916.203807
763.630931	5004.693701
763.957359	4646.098784
764.283740	4299.075835
764.610074	4105.165332
764.936362	3910.806166
765.262602	3751.354470
765.588796	3637.900782
765.914943	3548.916855
766.241044	3463.512147
766.567097	3431.044596
766.893104	3383.879560
767.219064	3352.102647
767.544978	3323.415961
767.870845	3267.943104
768.196665	3251.813933
768.522438	3257.331475
768.848165	3257.969181
769.173846	3217.435784
769.499479	3202.571942
769.825066	3182.399765
770.150607	3169.406191
770.476101	3185.006041
770.801548	3179.160823
771.126949	3134.483597
771.452303	3112.695730
771.777611	3122.702421
772.102872	3126.997484
772.428087	3103.339349
772.753256	3093.604881
773.078378	3087.066504
773.403453	3051.644837
773.728482	3038.542878
774.053465	3061.437278
774.378401	3049.540155
774.703291	3019.015968
775.028135	3021.743233
775.352932	3010.521624
775.677683	2999.909995
776.002388	2997.548215
776.327046	2999.070643
776.651658	2991.892040
776.976224	2978.936275
777.300743	2975.498208
777.625216	2966.177114
777.949643	2961.559418
778.274024	2966.499748
778.598359	2954.277471
778.922647	2961.075467
779.246889	2958.542287
779.571086	2943.605348
779.895236	2936.557815
780.219339	2948.349074
780.543397	2962.471866
780.867409	2962.970941
781.191374	2957.423151
781.515294	2955.726803
781.839167	2954.592543
782.162995	2946.357818
782.486776	2954.942903
782.810511	2953.072635
783.134201	2939.070830
783.457844	2945.286573
783.781441	2936.212496
784.104993	2915.566450
784.428498	2915.299269
784.751958	2928.108841
785.075372	2924.645568
785.398739	2911.140317
785.722061	2924.743871
786.045337	2937.944132
786.368568	2920.836977
786.691752	2913.257602
787.014891	2962.350879
787.337983	2991.511433
787.661030	3018.015299
787.984031	3088.314190
788.306987	3133.964358
788.629897	3124.441619
788.952760	3109.539968
789.275579	3093.670416
789.598351	3035.256046
789.921078	2989.416834
790.243759	2982.162613
790.566395	2966.318267
790.888984	2940.154678
791.211529	2923.302101
791.534027	2913.154258
791.856480	2904.221334
792.178888	2887.088972
792.501249	2878.740822
792.823566	2877.528424
793.145836	2874.556664
793.468062	2870.601879
793.790241	2866.347145
794.112375	2874.695296
794.434464	2886.300032
794.756507	2890.050650
795.078505	2896.697412
795.400457	2913.444125
795.722364	2950.342850
796.044226	2972.634833
796.366042	2975.641881
796.687812	2966.111579
797.009538	2983.246461
797.331218	2970.779688
797.652852	2957.559262
797.974442	2937.601334
798.295986	2936.088988
798.617484	2928.960796
798.938938	2914.659043
799.260346	2897.193965
799.581709	2894.648183
799.903026	2885.203581
800.224299	2880.701830
800.545526	2870.737990
800.866708	2856.549662
801.187845	2848.783765
801.508936	2848.100688
801.829983	2852.471369
802.150984	2842.643639
802.471940	2826.365754
802.792851	2831.036383
803.113717	2827.948676
803.434538	2834.277845
803.755314	2825.546566
804.076045	2820.565906
804.396731	2821.163283
804.717372	2820.981801
805.037967	2814.715647
805.358518	2819.303097
805.679024	2834.156857
805.999485	2827.653768
806.319901	2834.693740
806.640272	2825.090342
806.960598	2829.105621
807.280879	2839.891169
807.601115	2846.043898
807.921306	2831.122082
808.241453	2830.005467
808.561554	2840.249091
808.881611	2841.693382
809.201623	2832.952021
809.521590	2832.188286
809.841513	2824.941628
810.161390	2832.851198
810.481223	2825.594457
810.801011	2816.941317
811.120755	2813.994762
811.440453	2814.634989
811.760107	2814.735812
812.079716	2815.008034
812.399281	2802.931950
812.718801	2795.846608
813.038276	2792.378294
813.357707	2799.423307
813.677093	2806.251550
813.996434	2800.103863
814.315731	2796.413738
814.634983	2789.267902
814.954191	2791.549025
815.273354	2807.277425
815.592473	2812.946202
815.911547	2814.476192
816.230577	2825.947338
816.549562	2831.968996
816.868502	2832.669717
817.187399	2839.555933
817.506250	2859.927235
817.825058	2852.612521
818.143821	2868.398894
818.462539	2880.132180
818.781213	2909.338105
819.099843	2946.181378
819.418429	3003.204389
819.736970	3065.500448
820.055466	3138.284627
820.373919	3245.111718
820.692327	3390.014645
821.010691	3559.399934
821.329011	4011.326774
821.647286	4919.662038
821.965517	6317.553835
822.283704	7080.532470
822.601847	7065.046045
822.919945	6422.722387
823.237999	5901.867851
823.556010	5310.535464
823.873976	4748.378754
824.191897	4326.769414
824.509775	4030.452912
824.827609	3756.960233
825.145398	3631.780821
825.463144	3623.152887
825.780845	3712.620764
826.098502	3822.109585
826.416116	4105.956793
826.733685	4426.221297
827.051210	4498.811392
827.368692	4379.933422
827.686129	4106.589458
828.003522	3774.440434
828.320872	3516.340919
828.638177	3316.464210
828.955439	3176.524300
829.272656	3094.260231
829.589830	3025.977802
829.906960	2976.025008
830.224046	2927.319901
830.541088	2895.404356
830.858086	2877.117570
831.175041	2860.244828
831.491952	2863.261959
831.808819	2876.018598
832.125642	2899.616240
832.442421	2945.788168
832.759157	3027.497710
833.075849	3208.281048
833.392497	3495.372239
833.709101	3699.077705
834.025662	3648.925786
834.342179	3489.431240
834.658653	3310.341729
834.975083	3157.756084
835.291469	3060.134140
835.607811	2973.418732
835.924110	2916.786410
836.240366	2861.540405
836.556578	2818.231852
836.872746	2797.989099
837.188871	2770.877773
837.504952	2758.325300
837.820990	2748.260637
838.136984	2733.356465
838.452935	2728.050651
838.768842	2727.244066
839.084706	2742.584297
839.400526	2821.934579
839.716303	2960.531022
840.032037	3040.062786
840.347727	3022.915301
840.663373	2961.866928
840.978977	2885.155690
841.294537	2813.389824
841.610054	2765.826537
841.925527	2742.044894
842.240957	2718.444732
842.556344	2696.031762
842.871687	2681.563651
843.186987	2673.654080
843.502244	2667.430776
843.817458	2663.773419
844.132629	2650.736995
844.447756	2643.250881
844.762840	2635.391722
845.077881	2640.616878
845.392879	2637.806435
845.707833	2631.799900
846.022745	2623.958386
846.337613	2630.673202
846.652438	2625.989971
846.967221	2624.596092
847.281960	2624.338993
847.596656	2622.609877
847.911309	2621.513426
848.225919	2619.307921
848.540485	2614.518825
848.855009	2617.384721
849.169490	2618.057715
849.483928	2617.230966
849.798323	2616.532766
850.112675	2613.006479
850.426984	2616.920935
850.741251	2614.327261
851.055474	2612.250306
851.369654	2614.919597
851.683792	2618.622324
851.997887	2611.809205
852.311938	2612.028495
852.625947	2615.922786
852.939914	2617.581326
853.253837	2617.881275
853.567718	2614.360029
853.881555	2614.274329
854.195350	2616.724330
854.509103	2617.777931
854.822812	2610.508587
855.136479	2614.120574
855.450103	2614.150821
855.763685	2616.585698
856.077224	2611.872219
856.390720	2610.279215
856.704173	2614.327261
857.017584	2619.292798
857.330953	2620.001080
857.644278	2623.398817
857.957561	2619.862448
858.270802	2620.074177
858.584000	2616.696603
858.897155	2620.822788
859.210268	2623.514764
859.523339	2616.114350
859.836367	2611.922631
860.149352	2613.540841
860.462295	2613.167796
860.775195	2611.166458
861.088054	2610.649739
861.400869	2609.638988
861.713642	2605.575818
862.026373	2607.055397
862.339062	2610.775768
862.651708	2614.289452
862.964312	2620.230452
863.276873	2615.552262
863.589392	2620.457304
863.901869	2620.759773
864.214303	2628.752523
864.526696	2628.510547
864.839045	2634.839716
865.151353	2633.511372
865.463619	2632.538429
865.775842	2633.496249
866.088023	2634.025570
866.400162	2635.976496
866.712258	2636.218472
867.024313	2632.210754
867.336325	2630.622791
867.648296	2634.023049
867.960224	2636.778040
868.272110	2632.959366
868.583954	2629.606998
868.895755	2631.411732
869.207515	2633.798718
869.519233	2642.898001
869.830909	2636.883904
870.142542	2633.949952
870.454134	2635.371558
870.765684	2640.632002
871.077191	2642.963536
871.388657	2646.356232
871.700081	2647.256078
872.011463	2643.596200
872.322803	2647.336737
872.634101	2649.355719
872.945357	2656.496513
873.256571	2662.974396
873.567744	2662.258552
873.878874	2659.848880
874.189963	2658.593633
874.501010	2663.450785
874.812015	2669.820283
875.122979	2669.555622
875.433900	2661.623367
875.744780	2660.163952
876.055618	2665.205106
876.366415	2672.590397
876.677169	2673.810356
876.987882	2664.229643
877.298554	2662.651762
877.609183	2677.026612
877.919771	2678.995183
878.230317	2689.420289
878.540822	2700.107535
878.851285	2711.079606
879.161707	2738.871487
879.472087	2779.155348
879.782425	2826.423727
880.092722	2944.603497
880.402977	3138.801346
880.713191	3405.632139
881.023363	3712.280487
881.333494	3909.477822
881.643583	4084.882250
881.953631	4085.948454
882.263637	3904.648397
882.573602	3678.981145
882.883526	3537.730535
883.193408	3419.886002
883.503248	3311.100422
883.813048	3195.302598
884.122806	3080.399578
884.432522	2989.686535
884.742197	2926.228491
885.051831	2884.684342
885.361424	2848.496419
885.670975	2813.808239
885.980485	2778.565533
886.289954	2763.099273
886.599382	2747.789289
886.908768	2737.898545
887.218113	2716.728219
887.527417	2701.826568
887.836680	2695.167204
888.145901	2688.633869
888.455082	2679.055677
888.764221	2670.347083
889.073319	2661.512461
889.382376	2658.964158
889.691392	2658.964158
890.000366	2662.772750
890.309300	2657.648417
890.618193	2662.573624
890.927044	2663.402894
891.235855	2664.723676
891.544625	2663.753254
891.853353	2664.277534
892.162041	2669.848009
892.470687	2691.414065
892.779293	2705.821683
893.087858	2713.960626
893.396381	2737.699419
893.704864	2781.265071
894.013306	2855.276771
894.321707	2949.758076
894.630068	3002.836385
894.938387	3025.236752
895.246665	3019.520084
895.554903	2974.943681
895.863100	2924.721186
896.171256	2866.332021
896.479371	2803.189049
896.787446	2765.335025
897.095480	2743.345512
897.403473	2737.331415
897.711425	2721.330793
898.019336	2700.568801
898.327207	2687.645803
898.635038	2685.450380
898.942827	2684.064063
899.250576	2674.725325
899.558284	2660.448778
899.865952	2657.658499
900.173579	2656.574651
900.481165	2652.077942
900.788711	2643.931437
901.096216	2638.179481
901.403681	2633.667648
901.711105	2637.650159
902.018489	2631.878038
902.325832	2640.511014
902.633135	2637.960190
902.940397	2653.776811
903.247619	2692.155115
903.554800	2765.773605
903.861941	2898.096332
904.169041	3028.750437
904.476101	3093.811568
904.783121	3089.443408
905.090100	3027.580889
905.397039	2948.790175
905.703938	2872.046169
906.010796	2803.158802
906.317614	2751.408837
906.624391	2714.767210
906.931129	2687.970957
907.237826	2663.546567
907.544483	2644.992600
907.851099	2631.704118
908.157675	2623.189610
908.464211	2613.913887
908.770707	2602.808225
909.077163	2600.128851
909.383578	2596.090887
909.689954	2595.236412
909.996289	2589.970926
910.302584	2593.124168
910.608839	2588.587130
910.915054	2590.878334
911.221229	2593.577872
911.527363	2592.917481
911.833458	2593.406473
912.139513	2595.349837
912.445527	2594.437389
912.751502	2602.450303
913.057436	2605.439707
913.363331	2614.972529
913.669186	2625.924436
913.975000	2639.966570
914.280775	2656.123468
914.586510	2674.586694
914.892205	2713.196891
915.197859	2782.727005
915.503475	2872.419215
915.809050	2941.969494
916.114585	2959.064046
916.420081	2969.516879
916.725536	2981.902994
917.030952	2954.784107
917.336328	2904.339801
917.641665	2853.454394
917.946961	2803.325160
918.252218	2767.074223
918.557435	2738.821076
918.862612	2713.998434
919.167750	2697.433203
919.472848	2680.134483
919.777906	2663.959941
920.082925	2648.302117
920.387904	2637.267032
920.692843	2633.271917
920.997743	2628.442492
921.302603	2621.672222
921.607423	2616.689042
921.912204	2611.388268
922.216946	2605.880808
922.521647	2601.673965
922.826310	2594.805393
923.130932	2595.044848
923.435516	2589.446646
923.740059	2586.847932
924.044564	2586.001018
924.349028	2585.229721
924.653454	2572.810839
924.957840	2575.026426
925.262186	2569.710529
925.566493	2572.079871
925.870761	2564.281206
926.174989	2567.542833
926.479178	2565.251628
926.783328	2564.606361
927.087438	2565.128120
927.391509	2564.145095
927.695541	2559.512275
927.999533	2562.526885
928.303486	2557.263920
928.607400	2559.943293
928.911275	2557.571431
929.215110	2556.018755
929.518906	2557.037068
929.822663	2558.025134
930.126381	2556.916081
930.430060	2556.175031
930.733699	2557.150494
931.037299	2555.741492
931.340861	2558.262069
931.644383	2559.797100
931.947866	2559.986143
932.251309	2558.899775
932.554714	2558.196534
932.858080	2558.430947
933.161407	2556.028838
933.464694	2554.703014
933.767943	2555.285267
934.071153	2556.548076
934.374323	2554.309804
934.677455	2556.001111
934.980548	2554.342572
935.283602	2554.531615
935.586617	2551.751418
935.889593	2552.316028
936.192530	2553.508261
936.495428	2553.898950
936.798287	2552.552962
937.101108	2557.226112
937.403890	2559.965979
937.706632	2563.845147
938.009336	2565.458316
938.312002	2568.835889
938.614628	2572.818400
938.917216	2579.480285
939.219765	2577.090778
939.522275	2580.755697
939.824747	2578.648495
940.127179	2572.173133
940.429573	2570.076013
940.731929	2569.713050
941.034246	2565.433110
941.336524	2569.743297
941.638763	2571.091805
941.940964	2570.282700
942.243126	2565.085270
942.545250	2564.762637
942.847335	2563.915723
943.149381	2562.156360
943.451389	2562.337842
943.753359	2561.800959
944.055290	2558.710731
944.357182	2558.531770
944.659036	2559.978582
944.960851	2559.376164
945.262628	2558.385577
945.564367	2559.799621
945.866067	2557.384908
946.167729	2558.292316
946.469352	2557.654610
946.770937	2558.287274
947.072484	2557.440361
947.373992	2557.969682
947.675462	2555.164280
947.976893	2557.614280
948.278286	2555.186965
948.579641	2555.996070
948.880958	2553.546069
949.182236	2554.854249
949.483476	2553.994732
949.784678	2555.078580
950.085841	2551.706048
950.386967	2554.874413
950.688054	2553.810730
950.989103	2554.458518
951.290114	2556.785011
951.591087	2558.647717
951.892021	2559.277861
952.192917	2561.448078
952.493776	2561.415310
952.794596	2564.684499
953.095378	2562.350444
953.396122	2563.855229
953.696828	2561.259035
953.997496	2558.771225
954.298126	2557.697459
954.598718	2557.349620
954.899272	2553.566234
955.199788	2554.357695
955.500266	2552.270657
955.800706	2549.981973
956.101108	2545.606252
956.401472	2548.106664
956.701798	2544.076262
957.002087	2543.935109
957.302337	2546.727909
957.602550	2545.197918
957.902724	2546.120450
958.202861	2545.719678
958.502960	2543.690613
958.803022	2543.801519
959.103045	2541.260777
959.403031	2542.004348
959.702979	2538.735159
960.002889	2541.270860
960.302762	2541.243133
960.602596	2542.601724
960.902393	2539.231713
961.202153	2539.524100
961.501875	2537.991589
961.801559	2540.779347
962.101205	2541.903524
962.400814	2539.844213
962.700385	2536.607792
962.999918	2539.410674
963.299414	2537.487474
963.598873	2538.394881
963.898293	2537.265663
964.197677	2539.090561
964.497022	2538.102494
964.796331	2535.690302
965.095601	2538.024357
965.394835	2539.203987
965.694030	2537.411856
965.993189	2540.214738
966.292309	2536.552340
966.591393	2539.330015
966.890439	2537.847916
967.189447	2537.237937
967.488419	2534.281300
967.787353	2537.303472
968.086249	2538.384799
968.385108	2538.886394
968.683930	2535.614685
968.982714	2538.551157
969.281462	2535.581918
969.580172	2537.890766
969.878844	2535.158461
970.177480	2536.227185
970.476078	2538.783050
970.774639	2537.132072
971.073162	2537.948739
971.371649	2535.637370
971.670098	2534.916485
971.968510	2537.336239
972.266885	2533.257946
972.565223	2542.054759
972.863524	2539.007382
973.161788	2537.875642
973.460014	2538.646939
973.758204	2537.464788
974.056356	2537.830272
974.354471	2541.820345
974.652550	2538.868750
974.950591	2538.510828
975.248595	2536.743903
975.546563	2539.839172
975.844493	2538.268852
976.142386	2539.927392
976.440243	2536.653163
976.738062	2538.195756
977.035845	2537.056455
977.333590	2538.626774
977.631299	2537.321116
977.928971	2539.612320
978.226606	2536.716177
978.524204	2536.867412
978.821765	2537.565612
979.119290	2536.270035
979.416777	2535.662576
979.714228	2537.076620
980.011642	2537.510159
980.309020	2540.358411
980.606360	2537.086702
980.903664	2537.084181
981.200931	2539.413194
981.498162	2537.817669
981.795356	2541.865716
982.092513	2545.452497
982.389633	2543.630120
982.686717	2549.939124
982.983764	2554.655123
983.280775	2554.450956
983.577749	2555.958261
983.874686	2551.597663
984.171587	2548.512477
984.468451	2545.944009
984.765279	2545.807898
985.062070	2541.351518
985.358824	2540.812115
985.655543	2539.019984
985.952224	2537.479912
986.248869	2535.801208
986.545478	2530.845753
986.842050	2535.612164
987.138586	2531.531350
987.435086	2536.328008
987.731549	2530.712163
988.027975	2538.714995
988.324366	2536.096115
988.620719	2533.164684
988.917037	2534.984541
989.213318	2535.460930
989.509563	2534.649304
989.805772	2537.936136
990.101944	2532.796680
990.398080	2534.845909
990.694180	2532.267359
990.990244	2534.538399
991.286271	2533.000847
991.582262	2534.533357
991.878217	2533.220137
992.174136	2535.521424
992.470019	2535.977648
992.765865	2534.545960
993.061676	2534.412370
993.357450	2533.751979
993.653188	2534.520755
993.948890	2535.828934
994.244556	2531.717873
994.540186	2532.993285
994.835780	2533.290713
995.131337	2536.640560
995.426859	2535.685261
995.722345	2533.986392
996.017795	2536.625436
996.313208	2537.119469
996.608586	2536.408667
996.903928	2539.783719
997.199234	2536.519572
997.494504	2540.043339
997.789738	2538.024357
998.084936	2537.885725
998.380099	2534.639222
998.675225	2533.946063
998.970316	2535.818852
999.265371	2537.258101
999.560390	2534.661907
999.855373	2534.644263
1000.150320	2531.732997
1000.445232	2533.411701
1000.740108	2534.724921
1001.034948	2534.223327
1001.329752	2531.528830
1001.624521	2533.439427
1001.919254	2527.417769
1002.213951	2532.373223
1002.508613	2530.417255
1002.803239	2529.945907
1003.097829	2526.129754
1003.392384	2534.578728
1003.686903	2533.028573
1003.981386	2535.644932
1004.275834	2534.268697
1004.570246	2532.922709
1004.864623	2530.467667
1005.158964	2534.732483
1005.453270	2531.485980
1005.747540	2531.947246
1006.041775	2530.760054
1006.335974	2534.868594
1006.630138	2530.417255
1006.924266	2533.129396
1007.218359	2533.290713
1007.512416	2531.859025
1007.806438	2531.775846
1008.100425	2533.386495
1008.394376	2530.291227
1008.688292	2534.603934
1008.982172	2531.382636
1009.276017	2534.004036
1009.569827	2534.296423
1009.863602	2532.345497
1010.157341	2531.624612
1010.451045	2531.675023
1010.744714	2530.092101
1011.038347	2531.566638
1011.331945	2529.409025
1011.625508	2530.497914
1011.919036	2531.637215
1012.212528	2531.780888
1012.505986	2531.107893
1012.799408	2530.457585
1013.092795	2532.269879
1013.386147	2530.729807
1013.679464	2533.658717
1013.972745	2532.443799
1014.265992	2532.133768
1014.559204	2530.729807
1014.852380	2532.438758
1015.145521	2531.344828
1015.438628	2529.774508
1015.731699	2534.235929
1016.024736	2531.460774
1016.317737	2529.741741
1016.610703	2531.430527
1016.903635	2528.375588
1017.196531	2526.575896
1017.489393	2530.152595
1017.782219	2526.648993
1018.075011	2530.606299
1018.367768	2528.345341
1018.660490	2531.700229
1018.953177	2531.700229
1019.245829	2531.700229
