Dividing Wavelength (nm)	Counts (n)	Blue Motor Position (mm): 19.700000	Red Motor Position (mm): 0.000000	
326.493990	2134.870681
326.888308	2134.870681
327.282561	2134.870681
327.676750	2104.810280
328.070874	2102.302306
328.464933	2101.664600
328.858929	2109.226331
329.252859	2118.943155
329.646726	2133.449075
330.040528	2142.472741
330.434265	2159.758857
330.827938	2177.649912
331.221547	2196.193797
331.615091	2217.036447
332.008571	2234.506566
332.401986	2255.482807
332.795338	2273.436876
333.188625	2293.679630
333.581847	2311.419450
333.975006	2330.674137
334.368100	2346.425222
334.761129	2366.569673
335.154095	2382.945861
335.546996	2403.264232
335.939833	2423.164187
336.332606	2438.259922
336.725315	2451.455142
337.117960	2459.039558
337.510540	2469.550364
337.903056	2481.084524
338.295508	2487.436378
338.687896	2495.048520
339.080220	2500.692092
339.472480	2508.331960
339.864676	2513.612569
340.256807	2519.251100
340.648875	2521.779238
341.040879	2524.942562
341.432818	2524.282171
341.824694	2527.301822
342.216506	2525.855011
342.608253	2530.634025
342.999937	2529.242667
343.391557	2530.573531
343.783113	2527.997502
344.174605	2526.742254
344.566033	2522.847963
344.957397	2520.095493
345.348697	2524.017511
345.739934	2519.853518
346.131106	2515.263547
346.522215	2519.419978
346.913260	2511.170130
347.304241	2513.116015
347.695159	2510.920593
348.086012	2509.118380
348.476802	2505.481188
348.867528	2504.538492
349.258191	2505.244254
349.648789	2502.723677
350.039324	2500.503048
350.429796	2499.971207
350.820203	2499.399036
351.210548	2497.347286
351.600828	2496.959117
351.991045	2496.722183
352.381198	2498.446258
352.771288	2496.228150
353.161314	2494.264621
353.551276	2496.941473
353.941175	2493.261431
354.331010	2495.759323
354.720782	2494.466267
355.110490	2496.051710
355.500135	2493.568941
355.889717	2491.872593
356.279235	2497.674961
356.668689	2495.628253
357.058080	2495.020794
357.447408	2492.664054
357.836672	2493.795793
358.225873	2494.035248
358.615010	2492.958962
359.004084	2500.104797
359.393095	2497.415342
359.782043	2497.327122
360.170927	2497.042296
360.559748	2500.140085
360.948505	2499.338542
361.337199	2501.869201
361.725830	2499.366268
362.114398	2500.087153
362.502903	2500.737462
362.891344	2503.343739
363.279722	2502.892555
363.668037	2500.682009
364.056289	2503.101763
364.444478	2502.159068
364.832603	2506.285252
365.220665	2501.226454
365.608665	2503.132010
365.996601	2506.955725
366.384474	2503.525220
366.772284	2505.455982
367.160031	2505.471106
367.547715	2507.169974
367.935336	2508.304234
368.322893	2506.272649
368.710388	2508.198370
369.097820	2508.944461
369.485189	2507.374141
369.872495	2508.853720
370.259738	2507.694254
370.646918	2509.130983
371.034035	2507.371621
371.421090	2510.287928
371.808081	2507.694254
372.195010	2508.906652
372.581875	2509.511590
372.968678	2510.476971
373.355418	2510.940758
373.742096	2509.778772
374.128710	2513.015192
374.515262	2513.307579
374.901751	2510.136693
375.288177	2513.579802
375.674540	2510.572753
376.060841	2512.304390
376.447079	2514.255316
376.833254	2512.702641
377.219367	2508.321878
377.605417	2510.489574
377.991404	2508.384892
378.377329	2512.354801
378.763191	2507.348935
379.148991	2513.915038
379.534727	2514.996366
379.920402	2513.158865
380.306013	2514.628362
380.691563	2515.805471
381.077049	2514.930831
381.462474	2514.225069
381.847835	2515.689524
382.233134	2515.228259
382.618371	2516.964936
383.003545	2514.293125
383.388657	2516.448218
383.773706	2515.596263
384.158693	2516.324710
384.543618	2516.201202
384.928480	2516.937210
385.313280	2519.425019
385.698017	2517.693383
386.082692	2516.594412
386.467305	2520.473579
386.851856	2519.195647
387.236344	2516.302025
387.620770	2518.177334
388.005133	2516.060049
388.389435	2519.777900
388.773674	2517.267406
389.157851	2517.222035
389.541965	2519.304032
389.926018	2518.716737
390.310008	2517.794206
390.693936	2517.915194
391.077802	2519.908970
391.461606	2521.242355
391.845348	2519.422499
392.229027	2522.827798
392.612645	2521.121368
392.996200	2521.504495
393.379694	2519.508198
393.763125	2520.798734
394.146494	2520.052643
394.529801	2523.193282
394.913047	2526.923736
395.296230	2523.541122
395.679351	2523.712521
396.062410	2526.598581
396.445408	2525.708818
396.828343	2524.330062
397.211217	2518.885616
397.594028	2521.249917
397.976778	2521.590195
398.359466	2522.842922
398.742092	2518.971316
399.124656	2523.311749
399.507158	2523.074815
399.889598	2524.846780
400.271977	2524.871986
400.654294	2524.912315
401.036549	2524.927439
401.418742	2526.354085
401.800874	2525.192099
402.182944	2527.337110
402.564952	2525.683612
402.946898	2524.705628
403.328783	2525.431554
403.710606	2526.490197
404.092367	2526.238139
404.474067	2526.986750
404.855705	2525.270237
405.237282	2527.364837
405.618797	2528.894827
406.000250	2528.272244
406.381642	2525.671009
406.762972	2527.135464
407.144240	2529.106555
407.525447	2530.691998
407.906593	2526.752337
408.287677	2531.175949
408.668700	2527.596730
409.049661	2528.463808
409.430560	2529.293078
409.811399	2529.681247
410.192176	2530.903727
410.572891	2530.331556
410.953545	2530.593696
411.334138	2529.845084
411.714669	2528.930115
412.095139	2530.694519
412.475547	2530.019004
412.855894	2530.122348
413.236180	2529.126720
413.616405	2532.658048
413.996568	2532.088398
414.376670	2531.866587
414.756711	2529.469518
415.136691	2533.023532
415.516609	2532.194262
415.896466	2531.743079
416.276262	2534.919006
416.655997	2530.792821
417.035670	2527.916843
417.415283	2529.966072
417.794834	2526.654034
418.174324	2532.758871
418.553753	2530.230733
418.933121	2534.203162
419.312428	2533.305837
419.691674	2533.250384
420.070859	2532.388347
420.449983	2533.714170
420.829045	2534.679551
421.208047	2536.096115
421.586988	2531.480939
421.965867	2535.733152
422.344686	2533.411701
422.723444	2537.094264
423.102141	2536.932947
423.480777	2535.864222
423.859352	2534.046886
424.237866	2534.616537
424.616319	2536.728780
424.994712	2534.460261
425.373044	2535.206352
425.751314	2535.627288
426.129524	2533.744417
426.507673	2533.378933
426.885762	2535.057637
427.263789	2536.721218
427.641756	2534.735004
428.019662	2537.363965
428.397508	2532.630322
428.775292	2539.813966
429.153016	2535.586959
429.530679	2535.828934
429.908282	2536.103677
430.285824	2536.814480
430.663305	2535.627288
431.040726	2536.514531
431.418086	2534.601413
431.795385	2538.324305
432.172624	2535.415559
432.549802	2534.881197
432.926920	2536.494366
433.303977	2540.857485
433.680974	2537.817669
434.057910	2537.094264
434.434786	2533.699047
434.811601	2539.342618
435.188355	2537.575694
435.565050	2537.154757
435.941683	2538.165509
436.318257	2536.630477
436.694770	2532.673172
437.071222	2534.896321
437.447614	2534.246012
437.823946	2534.931609
438.200218	2540.015612
438.576429	2541.192722
438.952580	2542.591642
439.328670	2539.932433
439.704700	2539.819007
440.080670	2539.304810
440.456580	2537.202648
440.832429	2541.913607
441.208218	2539.909748
441.583947	2540.814635
441.959616	2538.737680
442.335224	2540.751621
442.710773	2539.451003
443.086261	2540.471837
443.461689	2540.355890
443.837057	2538.052083
444.212365	2540.623071
444.587612	2542.301776
444.962800	2542.763041
445.337927	2540.970911
445.712995	2540.812115
446.088002	2541.230530
446.462949	2542.226158
446.837837	2542.450490
447.212664	2541.041487
447.587431	2542.211035
447.962139	2544.701365
448.336786	2544.073741
448.711374	2541.021323
449.085901	2542.624409
449.460369	2541.855633
449.834776	2542.997455
450.209124	2544.875285
450.583412	2541.205325
450.957640	2544.177085
451.331808	2543.927548
451.705917	2542.190870
452.079965	2544.242620
452.453954	2543.226827
452.827883	2545.752445
453.201752	2544.535007
453.575562	2542.914276
453.949311	2543.657846
454.323001	2544.880326
454.696632	2544.603062
455.070202	2548.283105
455.443713	2545.649102
455.817164	2541.391847
456.190556	2543.425953
456.563888	2543.546941
456.937160	2540.106353
457.310373	2544.386293
457.683526	2543.312527
458.056619	2545.707075
458.429653	2544.696324
458.802628	2543.378062
459.175542	2544.744215
459.548398	2543.388144
459.921194	2546.662374
460.293930	2546.780841
460.666607	2548.293187
461.039224	2545.336550
461.411782	2547.158927
461.784280	2549.573640
462.156719	2547.741181
462.529099	2548.028526
462.901419	2547.516849
463.273680	2549.863506
463.645882	2545.689431
464.018024	2546.659853
464.390106	2548.099102
464.762130	2546.927034
465.134094	2550.173537
465.505999	2549.097251
465.877845	2551.804351
466.249631	2552.018600
466.621358	2549.833259
466.993026	2552.195040
467.364634	2557.145453
467.736184	2550.826367
468.107674	2551.123795
468.479105	2547.300080
468.850477	2548.469627
469.221790	2552.512633
469.593043	2548.409133
469.964238	2549.780327
470.335373	2552.331151
470.706449	2551.396017
471.077467	2550.153373
471.448425	2547.905018
471.819324	2555.053374
472.190164	2554.715617
472.560945	2551.408620
472.931667	2551.779145
473.302330	2551.121274
473.672934	2547.758825
474.043479	2552.721841
474.413965	2551.731254
474.784393	2549.750080
475.154761	2550.796120
475.525070	2550.642365
475.895321	2550.506253
476.265513	2546.969884
476.635645	2552.547921
477.005719	2555.575134
477.375734	2555.176883
477.745691	2555.093703
478.115588	2557.720145
478.485427	2556.999260
478.855207	2557.021945
479.224928	2557.200906
479.594591	2559.469425
479.964194	2555.549928
480.333739	2558.617470
480.703226	2559.151832
481.072653	2559.456822
481.442022	2557.891544
481.811333	2562.786504
482.180584	2560.467573
482.549777	2559.897923
482.918912	2561.974878
483.287988	2563.507389
483.657005	2561.677450
484.025964	2562.902451
484.394864	2562.897410
484.763706	2562.211813
485.132489	2563.187276
485.501213	2565.599468
485.869879	2565.281875
486.238487	2563.298181
486.607036	2567.799932
486.975527	2567.220199
487.343959	2568.084757
487.712333	2570.096177
488.080648	2572.526013
488.448905	2571.149778
488.817104	2577.370562
489.185244	2577.632702
489.553326	2580.591860
489.921350	2582.608321
490.289315	2588.715679
490.657222	2597.187338
491.025070	2597.419231
491.392861	2603.236723
491.760593	2601.280755
492.128267	2602.611620
492.495883	2606.836107
492.863440	2606.281580
493.230939	2608.245109
493.598380	2611.020264
493.965763	2612.598145
494.333088	2615.597632
494.700354	2621.866307
495.067563	2626.610032
495.434713	2627.557769
495.801805	2641.083185
496.168839	2646.663742
496.535815	2653.491985
496.902733	2657.655978
497.269593	2666.871208
497.636395	2670.697443
498.003139	2683.723785
498.369825	2688.596060
498.736453	2700.299099
499.103023	2703.222968
499.469535	2714.598332
499.835989	2722.918756
500.202385	2733.863101
500.568723	2741.550861
500.935003	2754.395721
501.301226	2765.473656
501.667390	2781.920421
502.033497	2798.828451
502.399546	2805.787764
502.765537	2817.458035
503.131470	2831.381702
503.497345	2853.633355
503.863163	2854.749970
504.228923	2880.510267
504.594625	2899.709501
504.960269	2904.629667
505.325856	2930.395004
505.691385	2942.949998
506.056856	2966.693833
506.422270	2989.043788
506.787625	3001.255983
507.152924	3028.301774
507.518164	3047.679969
507.883347	3065.944070
508.248472	3082.030392
508.613540	3118.581277
508.978550	3136.414359
509.343503	3155.911022
509.708398	3193.989377
510.073236	3225.894840
510.438016	3251.357708
510.802738	3274.902417
511.167403	3310.296358
511.532010	3335.121520
511.896561	3374.934033
512.261053	3417.637647
512.625488	3434.255811
512.989866	3459.418730
513.354186	3497.292919
513.718449	3526.496323
514.082655	3578.601689
514.446803	3606.693519
514.810894	3660.674195
515.174927	3684.896939
515.538904	3718.478585
515.902822	3783.572484
516.266684	3803.797593
516.630488	3841.321422
516.994235	3885.096282
517.357925	3947.770427
517.721558	3995.948734
518.085133	4046.312382
518.448651	4089.240327
518.812112	4118.655460
519.175516	4169.883665
519.538863	4240.618615
519.902152	4262.961009
520.265385	4353.076675
520.628560	4378.277403
520.991678	4435.781845
521.354739	4486.853775
521.717743	4526.005896
522.080690	4570.017690
522.443580	4665.716434
522.806413	4707.376529
523.169189	4761.331999
523.531908	4831.212474
523.894569	4847.331563
524.257174	4899.159666
524.619722	4995.541486
524.982213	5019.295403
525.344647	5107.049289
525.707025	5138.927025
526.069345	5229.597218
526.431608	5276.671513
526.793815	5360.959605
527.155964	5361.254512
527.518057	5430.207415
527.880093	5478.436134
528.242072	5556.332043
528.603995	5595.519452
528.965860	5621.980469
529.327669	5702.230597
529.689421	5737.233849
530.051117	5785.636487
530.412755	5896.675463
530.774337	5893.910390
531.135862	5965.981246
531.497331	6024.103229
531.858743	6034.460279
532.220098	6162.571122
532.581396	6165.232851
532.942638	6214.099276
533.303824	6255.242653
533.664953	6330.257543
534.026025	6357.575556
534.387040	6456.798066
534.747999	6511.986098
535.108902	6600.057576
535.469748	6542.008690
535.830537	6648.523229
536.191270	6701.336878
536.551947	6774.960409
536.912567	6831.053328
537.273131	6843.308373
537.633638	6894.420632
537.994089	6948.353416
538.354483	6983.180227
538.714821	7109.153621
539.075103	7178.161976
539.435328	7218.334931
539.795497	7167.570512
540.155609	7326.797877
540.515665	7424.719769
540.875665	7332.824576
541.235609	7431.442148
541.595496	7478.836556
541.955328	7634.348590
542.315102	7614.667926
542.674821	7644.440980
543.034483	7696.669855
543.394090	7750.400993
543.753640	7765.088395
544.113134	7963.367058
544.472571	7917.081704
544.831953	8068.563336
545.191278	7991.189186
545.550548	8056.842653
545.909761	8199.797173
546.268918	8233.363696
546.628019	8339.227927
546.987064	8301.507493
547.346053	8278.577805
547.704986	8410.499760
548.063863	8449.777910
548.422684	8478.756983
548.781449	8480.763362
549.140158	8590.519364
549.498811	8559.445692
549.857408	8489.396338
550.215949	8707.141417
550.574434	8635.312536
550.932864	8760.917926
551.291237	8839.728804
551.649555	8854.199436
552.007817	8901.099811
552.366022	8896.119151
552.724173	8941.381151
553.082267	8963.226991
553.440305	9118.807081
553.798288	8994.293102
554.156215	9159.340479
554.514086	9179.618520
554.871902	9088.550076
555.229661	9154.034664
555.587365	9171.532509
555.945014	9119.477555
556.302606	9257.932845
556.660143	9202.666675
557.017625	9368.593734
557.375050	9314.192122
557.732421	9459.541190
558.089735	9415.388244
558.446994	9447.230693
558.804197	9510.897945
559.161345	9545.510507
559.518437	9435.941028
559.875474	9547.917658
560.232455	9601.129558
560.589381	9585.496940
560.946251	9618.420715
561.303065	9722.928876
561.659825	9705.017656
562.016528	9669.958952
562.373177	9582.930992
562.729770	9715.929234
563.086307	9664.010390
563.442789	9760.233414
563.799216	9684.404378
564.155587	9748.679090
564.511904	9729.936080
564.868164	9735.322552
565.224370	9772.286813
565.580520	9730.820802
565.936615	9745.188091
566.292654	9657.734154
566.648638	9787.846334
567.004567	9767.049054
567.360441	9769.189024
567.716260	9699.535401
568.072023	9806.198655
568.427732	9779.339387
568.783385	9710.348676
569.138982	9795.239187
569.494525	9816.911107
569.850013	9716.498884
570.205445	9813.004213
570.560823	9723.248989
570.916145	9658.830605
571.271412	9728.832067
571.626625	9695.109268
571.981782	9687.411426
572.336884	9677.503038
572.691931	9685.500829
573.046923	9648.869285
573.401860	9613.382082
573.756743	9567.505062
574.111570	9621.483216
574.466342	9607.945198
574.821059	9643.336618
575.175722	9548.368842
575.530330	9570.514630
575.884882	9565.730575
576.239380	9509.529272
576.593823	9489.755346
576.948211	9517.335498
577.302544	9403.102952
577.656823	9426.715717
578.011047	9436.072098
578.365216	9420.739429
578.719330	9347.017595
579.073389	9364.225574
579.427394	9312.226072
579.781344	9301.127972
580.135239	9252.997555
580.489080	9270.097149
580.842866	9175.961163
581.196597	9186.053553
581.550273	9228.893278
581.903895	9199.352117
582.257463	9269.086398
582.610975	9156.063729
582.964434	9186.769397
583.317837	9118.121484
583.671186	9095.569882
584.024481	9094.012166
584.377721	9014.651802
584.730906	8999.649328
585.084037	9031.330459
585.437113	8974.625040
585.790135	8996.281837
586.143103	8902.160974
586.496016	8873.728866
586.848874	8936.644987
587.201679	8925.289788
587.554428	8819.937234
587.907124	8864.430458
588.259765	8835.423659
588.612352	8840.162343
588.964884	8718.577274
589.317362	8735.369358
589.669786	8737.569822
590.022155	8786.514384
590.374470	8796.954614
590.726731	8741.940502
591.078937	8591.086494
591.431090	8707.882467
591.783188	8581.006707
592.135232	8578.607117
592.487222	8577.218279
592.839157	8630.168039
593.191038	8565.343842
593.542866	8511.363166
593.894639	8414.452025
594.246358	8466.222154
594.598022	8485.249989
594.949633	8382.113023
595.301190	8362.515537
595.652692	8389.125268
596.004141	8495.712904
596.355535	8279.591077
596.706876	8256.948734
597.058162	8192.008591
597.409395	8266.398377
597.760573	8336.931681
598.111698	8244.315603
598.462768	8233.671207
598.813785	8199.071247
599.164748	8165.177049
599.515657	8155.019124
599.866511	8075.462155
600.217312	8190.728138
600.568060	8055.708393
600.918753	8155.765215
601.269392	8129.730176
601.619978	8043.660036
601.970510	8106.596321
602.320988	8105.686393
602.671412	8159.702356
603.021783	8095.341945
603.372100	8066.854385
603.722363	8073.652381
604.072572	8048.441570
604.422728	8064.180053
604.772830	7987.743557
605.122878	7995.053230
605.472872	7990.748085
605.822813	8024.392746
606.172701	7964.448385
606.522534	8042.006537
606.872314	8041.177267
607.222041	8014.698607
607.571714	8065.654590
607.921333	8025.635390
608.270899	8032.614868
608.620411	8128.001060
608.969870	8030.270731
609.319276	8018.071139
609.668627	8034.205352
610.017926	8072.634067
610.367171	8117.432281
610.716362	8095.803211
611.065500	8089.625277
611.414585	8110.725026
611.763616	8109.736960
612.112594	8088.841377
612.461518	8102.371834
612.810389	8158.414341
613.159207	8099.074919
613.507971	8048.600367
613.856682	8168.630240
614.205340	8119.247097
614.553945	8198.572173
614.902496	8097.852440
615.250994	8152.584247
615.599439	8135.378789
615.947830	8149.816653
616.296169	8119.269782
616.644454	8134.196638
616.992686	8135.524982
617.340864	8193.518416
617.688990	8090.983867
618.037063	8185.785286
618.385082	8130.614898
618.733048	8225.436482
619.080961	8163.803335
619.428821	8180.527363
619.776628	8179.531735
620.124382	8132.026422
620.472083	8114.629400
620.819731	8144.573853
621.167326	8033.212244
621.514868	8046.334368
621.862357	7935.212214
622.209793	7949.776107
622.557176	7886.774287
622.904506	7859.249587
623.251783	7793.772560
623.599007	7748.853359
623.946179	7752.964420
624.293297	7708.824077
624.640363	7627.301057
624.987376	7613.999973
625.334336	7559.179945
625.681243	7505.804208
626.028097	7497.708115
626.374899	7477.730023
626.721647	7465.684186
627.068343	7395.781026
627.414987	7371.785133
627.761577	7326.492887
628.108115	7370.882767
628.454600	7256.899758
628.801032	7313.582492
629.147412	7271.262005
629.493739	7262.107270
629.840014	7195.405243
630.186236	7251.344406
630.532405	7135.120604
630.878521	7186.810075
631.224585	7141.227962
631.570597	7073.618528
631.916556	7096.835562
632.262462	7100.974349
632.608316	7060.478760
632.954117	7034.473968
633.299866	7019.766402
633.645562	7016.255238
633.991206	6936.289935
634.336797	6881.656430
634.682336	6839.701427
635.027823	6800.259440
635.373257	6799.725077
635.718639	6728.770837
636.063968	6739.984884
636.409245	6637.692310
636.754470	6632.290714
637.099642	6595.971721
637.444762	6537.002824
637.789829	6545.081273
638.134845	6486.533312
638.479808	6475.694832
638.824719	6476.655171
639.169577	6408.854173
639.514383	6434.160765
639.859137	6357.646132
640.203839	6365.250712
640.548489	6354.069433
640.893086	6327.389127
641.237632	6301.540610
641.582125	6319.477036
641.926566	6292.774044
642.270955	6304.121681
642.615292	6302.571526
642.959576	6313.346992
643.303809	6308.394059
643.647990	6309.142670
643.992118	6302.334592
644.336195	6247.081025
644.680219	6273.552124
645.024192	6266.610455
645.368112	6361.056472
645.711981	6376.449636
646.055797	6452.750020
646.399562	6410.757208
646.743274	6539.979625
647.086935	6590.275217
647.430544	6588.916626
647.774101	6609.071159
648.117606	6616.370750
648.461059	6609.295491
648.804460	6566.385189
649.147810	6479.400080
649.491108	6445.707528
649.834354	6422.898827
650.177548	6337.287432
650.520690	6253.848774
650.863781	6234.523511
651.206820	6250.388022
651.549807	6178.743144
651.892742	6120.623681
652.235626	6120.101922
652.578458	6106.417709
652.921238	6016.294482
653.263967	6056.459875
653.606644	5995.111553
653.949269	5999.996431
654.291843	5939.900836
654.634365	5992.124669
654.976836	5945.350323
655.319255	5940.644406
655.661622	5925.057159
656.003938	5918.060037
656.346203	5876.273913
656.688416	5910.427730
657.030577	5861.982242
657.372687	5829.035781
657.714746	5819.142516
658.056753	5858.720615
658.398708	5801.634589
658.740612	5795.421367
659.082465	5844.751578
659.424266	5827.780533
659.766016	5830.283466
660.107715	5809.753367
660.449362	5822.757024
660.790958	5818.638401
661.132503	5803.404034
661.473996	5844.139078
661.815438	5832.471327
662.156829	5823.704761
662.498168	5817.662938
662.839456	5794.642509
663.180693	5830.144835
663.521879	5830.081820
663.863013	5814.335776
664.204097	5832.509136
664.545129	5878.086208
664.886110	5877.337596
665.227040	5910.163070
665.567918	5874.809458
665.908746	5903.259209
666.249522	5902.865999
666.590248	5892.660183
666.930922	5920.288227
667.271545	5929.997489
667.612118	5935.341113
667.952639	5908.819602
668.293109	5928.870792
668.633528	5892.314864
668.973896	5885.418566
669.314213	5884.241457
669.654480	5864.273446
669.994695	5857.145255
670.334859	5847.239387
670.674973	5835.274209
671.015035	5842.483059
671.355047	5841.157235
671.695008	5831.087530
672.034918	5804.729858
672.374777	5817.010108
672.714585	5800.986801
673.054342	5796.888343
673.394049	5791.438855
673.733705	5828.972766
674.073310	5812.697401
674.412864	5774.288850
674.752368	5765.466831
675.091820	5768.489003
675.431223	5705.028437
675.770574	5701.875196
676.109875	5655.983052
676.449125	5661.684597
676.788324	5627.687055
677.127473	5572.730916
677.466571	5564.624741
677.805619	5554.035797
678.144616	5539.131626
678.483562	5516.038100
678.822458	5492.526159
679.161303	5481.158357
679.500098	5473.705011
679.838842	5458.435356
680.177535	5462.473320
680.516179	5477.831195
680.854771	5488.473071
681.193314	5567.276388
681.531805	5677.942318
681.870247	5827.714998
682.208638	5923.449031
682.546978	5937.105516
682.885268	5914.649697
683.223508	5829.305483
683.561697	5780.391167
683.899836	5746.159212
684.237925	5704.410896
684.575963	5668.144835
684.913951	5628.914576
685.251889	5692.864133
685.589776	5658.922044
685.927614	5629.764010
686.265401	5701.487027
686.603137	5683.114542
686.940824	5759.666983
687.278460	5781.596003
687.616046	5792.958763
687.953582	5855.867322
688.291068	5840.234704
688.628504	5905.537811
688.965889	5863.066090
689.303224	5808.576258
689.640510	5761.746459
689.977745	5688.884142
690.314930	5590.508545
690.652065	5532.041243
690.989150	5444.622594
691.326185	5365.279874
691.663170	5316.441175
692.000105	5240.576851
692.336990	5165.909801
692.673825	5138.632117
693.010610	5069.280964
693.347345	4996.159028
693.684030	4986.782481
694.020665	4945.608857
694.357251	4857.330692
694.693786	4864.980643
695.030272	4831.610725
695.366707	4800.842042
695.703093	4762.166310
696.039429	4786.817552
696.375716	4772.414976
696.711952	4744.582765
697.048139	4734.654213
697.384276	4710.454154
697.720363	4724.803798
698.056400	4733.552721
698.392388	4681.157488
698.728326	4662.840456
699.064214	4644.334380
699.400053	4635.608143
699.735842	4604.511785
700.071581	4576.901386
700.407270	4554.609403
700.742910	4534.109551
701.078501	4478.223320
701.414042	4480.267508
701.749533	4448.969504
702.084974	4382.731263
702.420366	4440.452474
702.755709	4384.561202
703.091002	4327.326462
703.426246	4377.574163
703.761440	4329.544569
704.096584	4295.789003
704.431679	4317.609638
704.766725	4301.087256
705.101721	4289.701810
705.436668	4318.360769
705.771565	4265.821864
706.106413	4293.785144
706.441212	4326.303107
706.775961	4334.225281
707.110661	4316.082168
707.445311	4341.504707
707.779913	4367.108727
708.114465	4379.353690
708.448967	4399.573758
708.783421	4458.794713
709.117825	4501.689891
709.452180	4506.925129
709.786485	4550.326943
710.120742	4635.565293
710.454949	4623.229589
710.789107	4690.027398
711.123216	4760.535497
711.457275	4749.432355
711.791286	4827.655940
712.125247	4839.124565
712.459159	4739.690326
712.793023	4814.443075
713.126837	4779.812869
713.460602	4773.488742
713.794318	4692.626113
714.127985	4702.660530
714.461602	4614.652066
714.795171	4582.587807
715.128691	4518.981048
715.462162	4462.187409
715.795584	4415.465995
716.128957	4395.651740
716.462281	4346.762630
716.795556	4318.872447
717.128782	4282.802991
717.461960	4215.874112
717.795088	4222.329309
718.128167	4186.562323
718.461198	4124.611583
718.794180	4120.238382
719.127113	4100.721555
719.459997	4078.361517
719.792833	4038.208727
720.125619	4027.231614
720.458357	3992.062004
720.791046	3997.345134
721.123686	3972.164570
721.456278	3929.471038
721.788821	3947.122638
722.121315	3923.499792
722.453761	3895.617170
722.786158	3907.786515
723.118506	3931.331224
723.450805	3881.151579
723.783056	3904.517327
724.115259	3919.522321
724.447412	3924.928959
724.779518	3920.041560
725.111574	3922.249585
725.443582	3948.650108
725.775542	3933.861883
726.107453	3988.210563
726.439315	3987.149400
726.771129	4003.349148
727.102895	4036.411555
727.434612	4085.230089
727.766281	4093.391717
728.097901	4096.819702
728.429473	4103.209364
728.760996	4108.565590
729.092471	4104.121813
729.423897	4089.260492
729.755276	4094.291563
730.086606	4094.994804
730.417887	4130.789517
730.749120	4195.336451
731.080305	4261.274743
731.411442	4289.696769
731.742530	4257.083024
732.073570	4258.194598
732.404562	4310.594872
732.735506	4303.464160
733.066401	4271.472998
733.397249	4202.152091
733.728048	4128.538642
734.058798	4044.628636
734.389501	3972.300681
734.720156	3911.481681
735.050762	3866.340669
735.381320	3860.560986
735.711831	3812.874191
736.042293	3786.733288
736.372707	3806.204744
736.703073	3778.007050
737.033391	3769.837861
737.363661	3783.882515
737.693883	3813.249757
738.024056	3819.813339
738.354182	3816.715550
738.684260	3879.974469
739.014290	3898.004156
739.344272	3893.605749
739.674207	3935.399435
740.004093	3942.986372
740.333931	3935.124692
740.663722	3934.915484
740.993464	3930.363322
741.323159	3910.188625
741.652806	3880.997823
741.982405	3853.669728
742.311956	3826.137467
742.641460	3810.484684
742.970915	3790.380563
743.300323	3748.574274
743.629683	3712.348542
743.958996	3702.961914
744.288260	3681.234541
744.617477	3648.172133
744.946647	3633.209988
745.275768	3608.268880
745.604842	3605.241667
745.933869	3556.155952
746.262847	3553.088410
746.591778	3590.277002
746.920662	3557.610325
747.249498	3528.878268
747.578286	3574.470464
747.907027	3589.931683
748.235720	3587.955550
748.564365	3611.354066
748.892963	3615.981845
749.221514	3598.983074
749.550017	3574.147830
749.878473	3573.242943
750.206881	3542.426369
750.535242	3536.989485
750.863555	3538.506872
751.191821	3534.695760
751.520039	3518.916948
751.848210	3492.886951
752.176334	3528.048999
752.504411	3535.875390
752.832440	3493.832167
753.160421	3476.616627
753.488356	3487.409737
753.816243	3496.330059
754.144082	3452.406485
754.471875	3438.850823
754.799620	3460.109368
755.127318	3451.095785
755.454969	3452.333388
755.782572	3457.276240
756.110129	3433.517282
756.437638	3424.110489
756.765100	3436.592386
757.092515	3446.425156
757.419882	3456.063842
757.747203	3429.133998
758.074477	3428.017383
758.401703	3444.471709
758.728882	3466.327632
759.056014	3475.197542
759.383099	3476.039414
759.710138	3473.360041
760.037129	3489.746312
760.364073	3521.631610
760.690970	3503.980010
761.017820	3480.773058
761.344623	3501.300636
761.671379	3545.980383
761.998088	3595.129112
762.324751	3723.567630
762.651366	3965.585864
762.977935	4439.461888
763.304456	4870.596488
763.630931	4958.849448
763.957359	4604.443730
764.283740	4266.759519
764.610074	4076.788677
764.936362	3883.404974
765.262602	3726.388156
765.588796	3616.254067
765.914943	3530.632590
766.241044	3441.575566
766.567097	3416.828542
766.893104	3368.050337
767.219064	3339.406501
767.544978	3311.251657
767.870845	3255.083121
768.196665	3238.734659
768.522438	3246.336719
768.848165	3241.303127
769.173846	3205.001778
769.499479	3190.599201
769.825066	3171.137827
770.150607	3155.147287
770.476101	3172.433403
770.801548	3166.631035
771.126949	3121.910960
771.452303	3104.692899
771.777611	3115.967439
772.102872	3117.492388
772.428087	3093.821650
772.753256	3085.392841
773.078378	3077.586614
773.403453	3039.646891
773.728482	3032.100283
774.053465	3053.774724
774.378401	3040.062786
774.703291	3009.528517
775.028135	3008.490039
775.352932	3005.258660
775.677683	2992.191989
776.002388	2990.858604
776.327046	2989.472286
776.651658	2981.915597
776.976224	2967.165181
777.300743	2970.573001
777.625216	2960.042030
777.949643	2955.240331
778.274024	2956.475414
778.598359	2948.215483
778.922647	2952.775207
779.246889	2950.181533
779.571086	2937.069492
779.895236	2928.764191
780.219339	2941.820780
780.543397	2952.218159
780.867409	2955.358798
781.191374	2948.109619
781.515294	2948.013837
781.839167	2946.617438
782.162995	2936.895572
782.486776	2946.045267
782.810511	2943.837241
783.134201	2931.932556
783.457844	2936.862805
783.781441	2928.358378
784.104993	2909.985893
784.428498	2908.150913
784.751958	2923.375198
785.075372	2919.738005
785.398739	2902.870304
785.722061	2918.490320
786.045337	2930.735282
786.368568	2914.162489
786.691752	2907.253588
787.014891	2954.932821
787.337983	2982.535659
787.661030	3008.096829
787.984031	3076.502766
788.306987	3122.790641
788.629897	3114.394599
788.952760	3098.731734
789.275579	3082.552151
789.598351	3024.881351
789.921078	2977.428970
790.243759	2970.734318
790.566395	2955.328551
790.888984	2931.004984
791.211529	2915.911769
791.534027	2900.672361
791.856480	2895.706825
792.178888	2883.955895
792.501249	2870.793443
792.823566	2871.068185
793.145836	2866.256404
793.468062	2864.509644
793.790241	2861.449664
794.112375	2868.320757
794.434464	2879.885163
794.756507	2883.459342
795.078505	2890.600136
795.400457	2905.312743
795.722364	2942.173660
796.044226	2963.243163
796.366042	2966.033442
796.687812	2953.060032
797.009538	2973.396047
797.331218	2962.136630
797.652852	2946.337653
797.974442	2930.321908
798.295986	2925.134560
798.617484	2922.084662
798.938938	2907.354411
799.260346	2891.600805
799.581709	2888.858417
799.903026	2876.242930
800.224299	2876.280738
800.545526	2864.260107
800.866708	2849.119002
801.187845	2840.435614
801.508936	2839.137517
801.829983	2848.191429
802.150984	2834.960921
802.471940	2825.153356
802.792851	2821.251503
803.113717	2821.458190
803.434538	2827.724345
803.755314	2819.187151
804.076045	2814.607262
804.396731	2814.314875
804.717372	2815.411326
805.037967	2807.269863
805.358518	2818.100782
805.679024	2825.506237
805.999485	2821.962306
806.319901	2829.156032
806.640272	2820.328972
806.960598	2823.048674
807.280879	2833.375478
807.601115	2843.535924
807.921306	2828.941783
808.241453	2822.791576
808.561554	2829.536639
808.881611	2832.150478
809.201623	2826.453974
809.521590	2824.069508
809.841513	2821.644713
810.161390	2824.561021
810.481223	2819.371153
810.801011	2809.916469
811.120755	2804.217444
811.440453	2809.525779
811.760107	2806.727939
812.079716	2806.458237
812.399281	2794.296453
812.718801	2788.657923
813.038276	2785.517284
813.357707	2790.883592
813.677093	2802.750468
813.996434	2792.353089
814.315731	2787.682460
814.634983	2785.134156
814.954191	2785.035854
815.273354	2801.311219
815.592473	2807.484112
815.911547	2810.647436
816.230577	2819.973571
816.549562	2826.078408
816.868502	2822.547080
817.187399	2833.816579
817.506250	2853.383818
817.825058	2842.910821
818.143821	2852.957840
818.462539	2871.491642
818.781213	2896.387381
819.099843	2934.392639
819.418429	2989.071515
819.736970	3049.426729
820.055466	3119.849128
820.373919	3226.761918
820.692327	3358.404089
821.010691	3524.547917
821.329011	3961.484886
821.647286	4846.603116
821.965517	6197.259302
822.283704	6914.494506
822.601847	6891.612709
822.919945	6266.010558
823.237999	5773.124343
823.556010	5205.240883
823.873976	4668.599974
824.191897	4266.827574
824.509775	3977.316629
824.827609	3716.275601
825.145398	3595.789503
825.463144	3589.331785
825.780845	3676.377389
826.098502	3779.156433
826.416116	4056.692117
826.733685	4363.975650
827.051210	4424.376235
827.368692	4311.320798
827.686129	4050.057959
828.003522	3731.169690
828.320872	3479.389261
828.638177	3288.843728
828.955439	3151.237872
829.272656	3076.790112
829.589830	3008.353928
829.906960	2962.066053
830.224046	2918.573499
830.541088	2883.837428
830.858086	2868.164481
831.175041	2851.069928
831.491952	2850.989270
831.808819	2863.824047
832.125642	2888.656771
832.442421	2932.809717
832.759157	3011.532376
833.075849	3184.088551
833.392497	3463.665902
833.709101	3660.144873
834.025662	3607.779888
834.342179	3453.976805
834.658653	3281.670166
834.975083	3134.581900
835.291469	3037.577497
835.607811	2957.534056
835.924110	2901.438617
836.240366	2850.578416
836.556578	2809.298927
836.872746	2788.471400
837.188871	2764.906527
837.504952	2749.410020
837.820990	2740.330902
838.136984	2728.426217
838.452935	2722.555793
838.768842	2719.762994
839.084706	2734.483163
839.400526	2815.174392
839.716303	2943.058383
840.032037	3019.746936
840.347727	3007.086078
840.663373	2948.901080
840.978977	2872.779657
841.294537	2804.837506
841.610054	2758.569796
841.925527	2736.686147
842.240957	2714.651264
842.556344	2693.796010
842.871687	2677.719771
843.186987	2671.032680
843.502244	2665.394150
843.817458	2661.023469
844.132629	2647.782879
844.447756	2641.005047
844.762840	2631.479787
845.077881	2637.594707
845.392879	2631.961217
845.707833	2631.124386
846.022745	2620.842952
846.337613	2626.579786
846.652438	2623.182048
846.967221	2623.970988
847.281960	2620.023765
847.596656	2624.243211
847.911309	2624.160032
848.225919	2617.782972
848.540485	2614.975049
848.855009	2616.835235
849.169490	2615.632920
849.483928	2615.088475
849.798323	2616.116871
850.112675	2615.151490
850.426984	2613.414812
850.741251	2609.749893
851.055474	2610.314503
851.369654	2615.658126
851.683792	2617.001593
851.997887	2611.494133
852.311938	2611.519338
852.625947	2615.741305
852.939914	2614.705348
853.253837	2616.068980
853.567718	2611.723505
853.881555	2610.659822
854.195350	2618.740791
854.509103	2615.746346
854.822812	2609.046652
855.136479	2612.509925
855.450103	2613.629061
855.763685	2615.380862
856.077224	2614.632251
856.390720	2611.461365
856.704173	2614.531428
857.017584	2614.607045
857.330953	2617.467900
857.644278	2620.956378
857.957561	2621.483179
858.270802	2613.757611
858.584000	2616.744494
858.897155	2616.958743
859.210268	2617.800616
859.523339	2613.349277
859.836367	2609.165120
860.149352	2611.491612
860.462295	2612.658639
860.775195	2611.249637
861.088054	2608.928185
861.400869	2606.594131
861.713642	2603.231682
862.026373	2606.810901
862.339062	2610.284256
862.651708	2616.991511
862.964312	2616.459669
863.276873	2614.508743
863.589392	2616.568054
863.901869	2624.051647
864.214303	2628.626494
864.526696	2629.937194
864.839045	2629.627163
865.151353	2633.891979
865.463619	2631.978861
865.775842	2631.394087
866.088023	2631.048768
866.400162	2631.162194
866.712258	2634.627988
867.024313	2631.812503
867.336325	2626.531895
867.648296	2629.256638
867.960224	2636.904069
868.272110	2633.559263
868.583954	2627.683798
868.895755	2630.317801
869.207515	2632.919037
869.519233	2640.165695
869.830909	2636.730149
870.142542	2630.343007
870.454134	2631.371402
870.765684	2636.110087
871.077191	2638.577732
871.388657	2639.931282
871.700081	2640.047228
872.011463	2642.373721
872.322803	2641.993113
872.634101	2645.423619
872.945357	2654.853097
873.256571	2658.744868
873.567744	2654.669095
873.878874	2655.198416
874.189963	2653.887716
874.501010	2659.589261
874.812015	2665.989006
875.122979	2662.127482
875.433900	2654.107006
875.744780	2653.993580
876.055618	2660.272337
876.366415	2664.385919
876.677169	2665.288285
876.987882	2658.422234
877.298554	2655.319404
877.609183	2667.531599
877.919771	2674.430418
878.230317	2682.125739
878.540822	2692.752492
878.851285	2703.212886
879.161707	2727.561659
879.472087	2764.581372
879.782425	2809.654329
880.092722	2919.579209
880.402977	3102.089143
880.713191	3352.752956
881.023363	3637.406749
881.333494	3817.963236
881.643583	3990.257271
881.953631	3985.765603
882.263637	3814.033656
882.573602	3598.967951
882.883526	3471.227633
883.193408	3362.444574
883.503248	3264.477311
883.813048	3155.066628
884.122806	3040.645039
884.432522	2960.321814
884.742197	2899.134809
885.051831	2862.238604
885.361424	2828.409942
885.670975	2795.181176
885.980485	2766.615478
886.289954	2746.251737
886.599382	2733.573235
886.908768	2726.376988
887.218113	2705.131045
887.527417	2690.342820
887.836680	2684.432067
888.145901	2680.522652
888.455082	2674.387568
888.764221	2663.029848
889.073319	2655.304280
889.382376	2653.360915
889.691392	2655.505926
890.000366	2655.455515
890.309300	2652.574495
890.618193	2656.562048
890.927044	2659.135557
891.235855	2659.019611
891.544625	2655.279074
891.853353	2658.190341
892.162041	2664.537153
892.470687	2684.505164
892.779293	2695.441947
893.087858	2703.210365
893.396381	2725.358675
893.704864	2768.556322
894.013306	2833.899758
894.321707	2922.046854
894.630068	2973.133907
894.938387	2990.984633
895.246665	2981.671101
895.554903	2938.455809
895.863100	2898.751682
896.171256	2842.505008
896.479371	2783.566357
896.787446	2748.119484
897.095480	2730.510734
897.403473	2722.659137
897.711425	2711.949205
898.019336	2687.975998
898.327207	2677.066941
898.635038	2678.483506
898.942827	2672.454286
899.250576	2663.516320
899.558284	2654.941317
899.865952	2649.769093
900.173579	2646.832621
900.481165	2645.373207
900.788711	2637.105715
901.096216	2633.506331
901.403681	2629.876700
901.711105	2628.525671
902.018489	2628.772687
902.325832	2632.737555
902.633135	2633.040024
902.940397	2647.765235
903.247619	2683.023065
903.554800	2749.417581
903.861941	2870.301930
904.169041	2990.624190
904.476101	3045.678631
904.783121	3040.665204
905.090100	2988.133860
905.397039	2914.016296
905.703938	2844.934844
906.010796	2785.550052
906.317614	2736.494583
906.624391	2700.596527
906.931129	2678.175995
907.237826	2654.797644
907.544483	2637.975314
907.851099	2623.867645
908.157675	2617.543517
908.464211	2610.102774
908.770707	2596.889910
909.077163	2594.946545
909.383578	2592.597367
909.689954	2590.228025
909.996289	2590.165011
910.302584	2589.250041
910.608839	2584.720565
910.915054	2584.463466
911.221229	2588.882037
911.527363	2589.018148
911.833458	2588.158632
912.139513	2589.562593
912.445527	2592.350351
912.751502	2594.858325
913.057436	2601.863008
913.363331	2608.575305
913.669186	2618.776079
913.975000	2631.179838
914.280775	2645.290028
914.586510	2662.450116
914.892205	2698.201979
915.197859	2763.419386
915.503475	2841.307734
915.809050	2906.515059
916.114585	2916.410844
916.420081	2926.800662
916.725536	2940.184925
917.030952	2914.810277
917.336328	2869.956611
917.641665	2827.048830
917.946961	2777.832045
918.252218	2744.225193
918.557435	2721.315669
918.862612	2699.205168
919.167750	2680.678928
919.472848	2667.944973
919.777906	2649.232210
920.082925	2641.189049
920.387904	2630.421145
920.692843	2627.134312
920.997743	2623.214815
921.302603	2614.062601
921.607423	2608.534975
921.912204	2603.599686
922.216946	2600.940477
922.521647	2599.413007
922.826310	2595.208685
923.130932	2589.953282
923.435516	2587.362129
923.740059	2582.757035
924.044564	2584.352560
924.349028	2582.525142
924.653454	2574.204718
924.957840	2570.943091
925.262186	2566.915209
925.566493	2570.988462
925.870761	2565.062585
926.174989	2568.210786
926.479178	2566.426217
926.783328	2564.760116
927.087438	2560.838098
927.391509	2561.942111
927.695541	2561.503531
927.999533	2559.383725
928.303486	2558.206616
928.607400	2556.656461
928.911275	2557.437840
929.215110	2556.124619
929.518906	2556.885834
929.822663	2556.951369
930.126381	2557.243756
930.430060	2557.997408
930.733699	2556.081770
931.037299	2556.905998
931.340861	2560.485218
931.644383	2559.010680
931.947866	2557.500854
932.251309	2558.672923
932.554714	2558.287274
932.858080	2558.264589
933.161407	2556.777449
933.464694	2559.116544
933.767943	2555.368446
934.071153	2555.459187
934.374323	2554.947510
934.677455	2554.345092
934.980548	2554.700493
935.283602	2554.345092
935.586617	2554.463559
935.889593	2553.515822
936.192530	2554.355174
936.495428	2557.344579
936.798287	2554.408107
937.101108	2558.952707
937.403890	2557.914229
937.706632	2560.780125
938.009336	2566.670713
938.312002	2569.854202
938.614628	2570.887638
938.917216	2576.364852
939.219765	2576.017012
939.522275	2577.967939
939.824747	2575.500294
940.127179	2569.307237
940.429573	2566.968141
940.731929	2568.117524
941.034246	2564.152657
941.336524	2566.360682
941.638763	2564.684499
941.940964	2564.916392
942.243126	2563.514951
942.545250	2562.610064
942.847335	2561.006977
943.149381	2561.977399
943.451389	2560.734755
943.753359	2559.045968
944.055290	2559.958417
944.357182	2557.543704
944.659036	2556.888354
944.960851	2556.729558
945.262628	2558.194013
945.564367	2559.696277
945.866067	2557.168138
946.167729	2559.315670
946.469352	2556.941286
946.770937	2557.422717
947.072484	2560.008828
947.373992	2556.744681
947.675462	2558.357851
947.976893	2557.636966
948.278286	2555.749053
948.579641	2554.476162
948.880958	2553.886347
949.182236	2555.827191
949.483476	2553.755277
949.784678	2553.651933
950.085841	2555.461708
950.386967	2555.290308
950.688054	2554.405586
950.989103	2555.582695
951.290114	2555.617983
951.591087	2558.025134
951.892021	2556.984136
952.192917	2558.909857
952.493776	2559.610577
952.794596	2562.426062
953.095378	2560.974209
953.396122	2563.439334
953.696828	2559.250135
953.997496	2559.358520
954.298126	2559.018242
954.598718	2556.260731
954.899272	2554.662685
955.199788	2557.578992
955.500266	2552.195040
955.800706	2550.140770
956.101108	2546.150697
956.401472	2546.697662
956.701798	2545.316386
957.002087	2544.040974
957.302337	2548.814946
957.602550	2546.110367
957.902724	2544.809750
958.202861	2545.591128
958.502960	2546.271684
958.803022	2544.351005
959.103045	2543.476364
959.403031	2545.124822
959.702979	2540.970911
960.002889	2543.678011
960.302762	2547.103475
960.602596	2542.085006
960.902393	2545.339071
961.202153	2542.828576
961.501875	2542.367311
961.801559	2541.328833
962.101205	2539.947557
962.400814	2543.257074
962.700385	2540.615510
962.999918	2541.475026
963.299414	2540.151723
963.598873	2543.930068
963.898293	2540.131559
964.197677	2539.811446
964.497022	2541.469985
964.796331	2542.246323
965.095601	2542.243802
965.394835	2541.185160
965.694030	2542.337064
965.993189	2539.539223
966.292309	2539.584594
966.591393	2541.205325
966.890439	2540.537372
967.189447	2541.230530
967.488419	2540.073586
967.787353	2541.719522
968.086249	2538.563760
968.385108	2543.284801
968.683930	2542.205994
968.982714	2541.137269
969.281462	2540.628112
969.580172	2538.982176
969.878844	2540.358411
970.177480	2543.385624
970.476078	2541.807742
970.774639	2541.742208
971.073162	2543.670449
971.371649	2537.507638
971.670098	2540.759183
971.968510	2537.573173
972.266885	2537.570653
972.565223	2540.592824
972.863524	2542.553833
973.161788	2541.908566
973.460014	2540.746580
973.758204	2539.997968
974.056356	2542.135418
974.354471	2543.194060
974.652550	2541.558205
974.950591	2541.235572
975.248595	2542.125335
975.546563	2540.638195
975.844493	2542.057280
976.142386	2538.344470
976.440243	2541.656508
976.738062	2541.613658
977.035845	2542.321940
977.333590	2539.604758
977.631299	2540.880170
977.928971	2540.202135
978.226606	2538.311702
978.524204	2540.214738
978.821765	2540.355890
979.119290	2539.299768
979.416777	2538.891435
979.714228	2539.267001
980.011642	2540.018133
980.309020	2543.262115
980.606360	2540.978473
980.903664	2541.389327
981.200931	2541.530479
981.498162	2542.533669
981.795356	2543.201622
982.092513	2546.672456
982.389633	2548.459545
982.686717	2551.464073
982.983764	2554.297201
983.280775	2556.918601
983.577749	2552.442057
983.874686	2553.435164
984.171587	2551.506922
984.468451	2545.502908
984.765279	2548.426777
985.062070	2545.182795
985.358824	2542.468134
985.655543	2542.510983
985.952224	2543.269677
986.248869	2542.500901
986.545478	2537.215251
986.842050	2540.791950
987.138586	2538.268852
987.435086	2535.292051
987.731549	2534.145189
988.027975	2539.871939
988.324366	2537.593338
988.620719	2539.133410
988.917037	2536.514531
989.213318	2538.155427
989.509563	2537.739531
989.805772	2536.169212
990.101944	2535.261804
990.398080	2536.285158
990.694180	2537.421939
990.990244	2535.375230
991.286271	2533.096629
991.582262	2538.213400
991.878217	2536.325488
992.174136	2536.771630
992.470019	2537.109387
992.765865	2537.386651
993.061676	2537.558050
993.357450	2537.739531
993.653188	2535.894469
993.948890	2537.391692
994.244556	2537.205169
994.540186	2539.138452
994.835780	2539.498894
995.131337	2537.865560
995.426859	2537.721887
995.722345	2540.638195
996.017795	2539.125849
996.313208	2541.525438
996.608586	2541.291024
996.903928	2539.897145
997.199234	2541.424615
997.494504	2538.248688
997.789738	2539.902186
998.084936	2539.718184
998.380099	2538.435211
998.675225	2538.362114
998.970316	2540.822197
999.265371	2538.752803
999.560390	2540.464275
999.855373	2539.047711
1000.150320	2536.995961
1000.445232	2537.863040
1000.740108	2537.303472
1001.034948	2538.324305
1001.329752	2535.302133
1001.624521	2536.149047
1001.919254	2531.198634
1002.213951	2533.215096
1002.508613	2531.853984
1002.803239	2532.945394
1003.097829	2531.916999
1003.392384	2537.943698
1003.686903	2533.729293
1003.981386	2538.732639
1004.275834	2537.101825
1004.570246	2536.524613
1004.864623	2535.705426
1005.158964	2534.372041
1005.453270	2534.455220
1005.747540	2533.880528
1006.041775	2536.748945
1006.335974	2533.966228
1006.630138	2534.845909
1006.924266	2536.698533
1007.218359	2534.868594
1007.512416	2536.801877
1007.806438	2533.462112
1008.100425	2534.072092
1008.394376	2534.054448
1008.688292	2535.609644
1008.982172	2536.038142
1009.276017	2534.482946
1009.569827	2533.878008
1009.863602	2536.068389
1010.157341	2535.284489
1010.451045	2533.381454
1010.744714	2533.830117
1011.038347	2532.602596
1011.331945	2536.509490
1011.625508	2536.993441
1011.919036	2534.372041
1012.212528	2535.513862
1012.505986	2535.788605
1012.799408	2535.599562
1013.092795	2535.294572
1013.386147	2533.905734
1013.679464	2536.572504
1013.972745	2533.900693
1014.265992	2537.031249
1014.559204	2534.218285
1014.852380	2538.357073
1015.145521	2534.737524
1015.438628	2534.273738
1015.731699	2533.351207
1016.024736	2535.007226
1016.317737	2536.426311
1016.610703	2536.567463
1016.903635	2529.829961
1017.196531	2530.482790
1017.489393	2534.177956
1017.782219	2528.998171
1018.075011	2532.980682
1018.367768	2534.430014
1018.660490	2534.850950
1018.953177	2534.850950
1019.245829	2534.850950
