Dividing Wavelength (nm)	Counts (n)	Blue Motor Position (mm): 23.300000	Red Motor Position (mm): 0.000000	
326.493990	2192.730524
326.888308	2192.730524
327.282561	2192.730524
327.676750	2155.678043
328.070874	2149.079173
328.464933	2148.801909
328.858929	2153.691828
329.252859	2157.392035
329.646726	2168.321257
330.040528	2178.605211
330.434265	2194.265555
330.827938	2209.487319
331.221547	2228.527757
331.615091	2245.617269
332.008571	2264.924888
332.401986	2283.292332
332.795338	2299.386216
333.188625	2319.555872
333.581847	2336.937771
333.975006	2357.422499
334.368100	2373.765920
334.761129	2393.229815
335.154095	2410.878895
335.546996	2438.469130
335.939833	2468.912658
336.332606	2486.120637
336.725315	2496.936432
337.117960	2511.853206
337.510540	2520.339989
337.903056	2534.475384
338.295508	2540.807073
338.687896	2551.932900
339.080220	2556.028837
339.472480	2566.234653
339.864676	2571.996692
340.256807	2577.040367
340.648875	2578.666139
341.040879	2582.802406
341.432818	2585.209557
341.824694	2590.013776
342.216506	2588.624938
342.608253	2588.357757
342.999937	2590.449836
343.391557	2590.369177
343.783113	2589.928077
344.174605	2587.730133
344.566033	2587.684763
344.957397	2588.544280
345.348697	2587.906574
345.739934	2583.707293
346.131106	2582.537745
346.522215	2582.000862
346.913260	2579.465162
347.304241	2576.281673
347.695159	2576.112794
348.086012	2571.295972
348.476802	2571.169943
348.867528	2568.467885
349.258191	2563.588048
349.648789	2562.688202
350.039324	2555.454146
350.429796	2561.778273
350.820203	2559.494631
351.210548	2559.764333
351.600828	2554.642520
351.991045	2556.580844
352.381198	2554.375339
352.771288	2557.485731
353.161314	2558.025134
353.551276	2555.186965
353.941175	2553.183106
354.331010	2554.710576
354.720782	2553.014227
355.110490	2552.071532
355.500135	2553.846018
355.889717	2550.470965
356.279235	2554.589588
356.668689	2554.677808
357.058080	2553.636810
357.447408	2554.430792
357.836672	2556.106975
358.225873	2556.109496
358.615010	2558.342727
359.004084	2554.226625
359.393095	2555.917932
359.782043	2556.545556
360.170927	2558.085628
360.559748	2557.755433
360.948505	2556.999260
361.337199	2559.741647
361.725830	2561.553942
362.114398	2560.850701
362.502903	2561.311967
362.891344	2562.990671
363.279722	2563.552760
363.668037	2564.744992
364.056289	2562.022769
364.444478	2564.351783
364.832603	2565.173491
365.220665	2565.468398
365.608665	2564.505538
365.996601	2562.824313
366.384474	2565.667524
366.772284	2567.194993
367.160031	2565.075188
367.547715	2569.975190
367.935336	2565.720456
368.322893	2564.387071
368.710388	2565.173491
369.097820	2564.644169
369.485189	2563.083932
369.872495	2570.496949
370.259738	2571.424521
370.646918	2568.896383
371.034035	2569.221537
371.421090	2575.041549
371.808081	2570.867474
372.195010	2569.319840
372.581875	2568.452761
372.968678	2570.668348
373.355418	2570.620457
373.742096	2570.063410
374.128710	2573.224213
374.515262	2570.731363
374.901751	2570.300344
375.288177	2572.105077
375.674540	2571.847978
376.060841	2571.676579
376.447079	2571.379151
376.833254	2573.325036
377.219367	2574.681107
377.605417	2573.314954
377.991404	2574.449214
378.377329	2575.333936
378.763191	2571.336301
379.148991	2576.382496
379.534727	2572.919223
379.920402	2576.783268
380.306013	2574.663463
380.691563	2577.736046
381.077049	2578.247723
381.462474	2576.914338
381.847835	2579.513053
382.233134	2577.499112
382.618371	2577.254616
383.003545	2577.214287
383.388657	2575.606158
383.773706	2578.136818
384.158693	2578.472054
384.543618	2578.116653
384.928480	2578.635892
385.313280	2578.545151
385.698017	2578.474575
386.082692	2579.765110
386.467305	2581.998342
386.851856	2579.192939
387.236344	2578.446849
387.620770	2576.269070
388.005133	2578.519945
388.389435	2577.625141
388.773674	2576.412743
389.157851	2582.631006
389.541965	2580.216294
389.926018	2581.940368
390.310008	2580.796026
390.693936	2580.049936
391.077802	2582.999011
391.461606	2581.358115
391.845348	2580.725450
392.229027	2584.085379
392.612645	2583.442632
392.996200	2583.672005
393.379694	2584.740729
393.763125	2586.512695
394.146494	2586.091758
394.529801	2586.812643
394.913047	2583.767787
395.296230	2585.262489
395.679351	2586.139649
396.062410	2584.773497
396.445408	2587.525967
396.828343	2586.313569
397.211217	2585.060842
397.594028	2586.946234
397.976778	2586.116964
398.359466	2587.334403
398.742092	2587.941862
399.124656	2586.454722
399.507158	2585.068404
399.889598	2588.997984
400.271977	2586.878178
400.654294	2587.964547
401.036549	2588.166193
401.418742	2589.204671
401.800874	2588.350195
402.182944	2589.323138
402.564952	2589.807089
402.946898	2590.588468
403.328783	2590.394383
403.710606	2589.446646
404.092367	2590.878334
404.474067	2591.286668
404.855705	2593.356061
405.237282	2593.056112
405.618797	2588.556883
406.000250	2594.157605
406.381642	2592.559559
406.762972	2591.153077
407.144240	2590.187696
407.525447	2589.590319
407.906593	2586.744588
408.287677	2592.703232
408.668700	2593.724065
409.049661	2593.913109
409.430560	2595.357399
409.811399	2596.206834
410.192176	2592.985536
410.572891	2595.017121
410.953545	2596.776484
411.334138	2596.915116
411.714669	2595.959817
412.095139	2597.663727
412.475547	2595.284302
412.855894	2595.947214
413.236180	2595.808582
413.616405	2595.962338
413.996568	2596.428644
414.376670	2596.844540
414.756711	2598.379571
415.136691	2597.797318
415.516609	2597.325970
415.896466	2596.380753
416.276262	2598.122472
416.655997	2598.634149
417.035670	2596.330342
417.415283	2598.558532
417.794834	2602.256218
418.174324	2599.392843
418.553753	2599.521392
418.933121	2599.140785
419.312428	2598.956783
419.691674	2600.617843
420.070859	2602.561208
420.449983	2602.536002
420.829045	2601.706732
421.208047	2600.446444
421.586988	2604.149172
421.965867	2602.941815
422.344686	2600.103646
422.723444	2601.278234
423.102141	2603.723194
423.480777	2601.469798
423.859352	2603.849223
424.237866	2602.019284
424.616319	2604.106322
424.994712	2601.691609
425.373044	2602.178080
425.751314	2601.404263
426.129524	2599.831423
426.507673	2601.772268
426.885762	2598.956783
427.263789	2604.698657
427.641756	2605.381734
428.019662	2607.761158
428.397508	2604.610437
428.775292	2605.651435
429.153016	2605.621188
429.530679	2606.571446
429.908282	2607.627568
430.285824	2607.738473
430.663305	2607.304934
431.040726	2607.544389
431.418086	2606.387444
431.795385	2604.920468
432.172624	2606.195880
432.549802	2607.577156
432.926920	2608.126642
433.303977	2611.347939
433.680974	2609.848196
434.057910	2610.107815
434.434786	2609.215531
434.811601	2610.054883
435.188355	2610.891715
435.565050	2610.876591
435.941683	2609.255860
436.318257	2612.973711
436.694770	2612.872888
437.071222	2611.985645
437.447614	2613.119905
437.823946	2611.211828
438.200218	2611.453803
438.576429	2612.462034
438.952580	2614.586881
439.328670	2615.232148
439.704700	2615.345574
440.080670	2615.597632
440.456580	2613.099740
440.832429	2616.384052
441.208218	2614.977570
441.583947	2615.199381
441.959616	2615.746346
442.335224	2616.898250
442.710773	2614.498660
443.086261	2617.230966
443.461689	2615.544700
443.837057	2617.959412
444.212365	2619.476800
444.587612	2616.530245
444.962800	2616.510081
445.337927	2614.798609
445.712995	2611.342898
446.088002	2619.275154
446.462949	2618.866820
446.837837	2621.452932
447.212664	2620.616101
447.587431	2619.673405
447.962139	2621.268930
448.336786	2626.675567
448.711374	2627.434261
449.085901	2624.298663
449.460369	2624.359157
449.834776	2624.190279
450.209124	2626.226905
450.583412	2630.297637
450.957640	2628.699591
451.331808	2630.970631
451.705917	2629.438120
452.079965	2630.708491
452.453954	2628.455095
452.827883	2630.466515
453.201752	2630.330404
453.575562	2633.539098
453.949311	2636.367186
454.323001	2632.750158
454.696632	2635.046403
455.070202	2636.475571
455.443713	2639.558236
455.817164	2642.345994
456.190556	2641.345325
456.563888	2644.513690
456.937160	2646.134421
457.310373	2648.642395
457.683526	2647.243475
458.056619	2649.910246
458.429653	2649.552324
458.802628	2651.969557
459.175542	2655.899136
459.548398	2662.399704
459.921194	2668.915396
460.293930	2672.736590
460.666607	2681.672035
461.039224	2693.695187
461.411782	2702.512165
461.784280	2709.501725
462.156719	2716.125801
462.529099	2720.312480
462.901419	2717.504557
463.273680	2723.516133
463.645882	2729.741958
464.018024	2740.729153
464.390106	2751.325658
464.762130	2775.215686
465.134094	2806.332208
465.505999	2864.784387
465.877845	2964.150571
466.249631	3036.770912
466.621358	3050.883623
466.993026	3041.678476
467.364634	3058.256310
467.736184	3058.369736
468.107674	3072.545461
468.479105	3123.030096
468.850477	3148.709733
469.221790	3173.494566
469.593043	3193.397042
469.964238	3214.847151
470.335373	3252.605394
470.706449	3315.410609
471.077467	3345.039991
471.448425	3497.527333
471.819324	3808.085095
472.190164	4013.741487
472.560945	3877.325343
472.931667	3792.936428
473.302330	3823.077486
473.672934	3862.423692
474.043479	3976.384016
474.413965	4042.503790
474.784393	4097.580916
475.154761	4249.112960
475.525070	4338.961445
475.895321	4392.402717
476.265513	4557.994538
476.635645	4722.643664
477.005719	4801.973781
477.375734	4942.327066
477.745691	5127.591991
478.115588	5303.649248
478.485427	5516.388460
478.855207	5802.955371
479.224928	6241.079532
479.594591	6823.395815
479.964194	6972.225800
480.333739	7196.168977
480.703226	7220.744602
481.072653	7348.202616
481.442022	7681.758122
481.811333	8062.811379
482.180584	8256.542922
482.549777	8187.332920
482.918912	8328.180238
483.287988	8545.242241
483.657005	8668.195983
484.025964	8766.430427
484.394864	8943.747973
484.763706	9053.957678
485.132489	9132.692939
485.501213	9327.455398
485.869879	9536.736379
486.238487	9599.637376
486.607036	9923.924721
486.975527	10000.615794
487.343959	10304.700715
487.712333	10536.603874
488.080648	10563.168234
488.448905	10982.569549
488.817104	11088.315313
489.185244	11546.956969
489.553326	11794.470061
489.921350	12349.080163
490.289315	13556.620512
490.657222	14605.702271
491.025070	15090.031127
491.392861	15261.808444
491.760593	15123.388442
492.128267	15041.741914
492.495883	14758.504685
492.863440	14603.695892
493.230939	14393.625970
493.598380	14544.691707
493.965763	14550.189085
494.333088	14545.470565
494.700354	14719.397934
495.067563	14900.377878
495.434713	14970.409587
495.801805	15204.737541
496.168839	15369.621081
496.535815	15481.378420
496.902733	15789.884433
497.269593	15750.573515
497.636395	16115.386696
498.003139	16294.483768
498.369825	16383.450051
498.736453	16653.686144
499.103023	16758.726147
499.469535	16967.553424
499.835989	17300.428374
500.202385	17543.674130
500.568723	17364.748456
500.935003	17698.477882
501.301226	17628.481461
501.667390	18347.256738
502.033497	18755.507020
502.399546	18687.668213
502.765537	18633.990007
503.131470	19052.672957
503.497345	19326.629422
503.863163	18875.206698
504.228923	19547.132012
504.594625	19848.855152
504.960269	19598.967676
505.325856	20167.461116
505.691385	19853.366984
506.056856	20453.322265
506.422270	20621.359047
506.787625	20394.214737
507.152924	20911.666494
507.518164	21034.889938
507.883347	20989.270016
508.248472	20861.716221
508.613540	21645.204790
508.978550	21601.374478
509.343503	21700.256710
509.708398	22068.817989
510.073236	22311.264721
510.438016	22592.112443
510.802738	22443.899999
511.167403	22748.978027
511.532010	22565.308628
511.896561	23385.290110
512.261053	23469.477379
512.625488	23402.525815
512.989866	23411.715838
513.354186	23358.151058
513.718449	23529.686400
514.082655	23963.356701
514.446803	23809.669564
514.810894	24295.667042
515.174927	23882.025245
515.538904	23984.766481
515.902822	24505.142108
516.266684	24359.901424
516.630488	24311.738240
516.994235	24379.239290
517.357925	24705.838004
517.721558	24936.707727
518.085133	25067.752521
518.448651	25049.488420
518.812112	24816.017462
519.175516	25017.829974
519.538863	25252.339410
519.902152	25071.190588
520.265385	25414.157928
520.628560	25227.443672
520.991678	25283.897033
521.354739	25393.141358
521.717743	25482.979760
522.080690	25300.484950
522.443580	25660.120865
522.806413	25684.676326
523.169189	25796.342924
523.531908	25876.562806
523.894569	25516.384966
524.257174	25608.002896
524.619722	25831.207544
524.982213	25522.741861
525.344647	25625.790608
525.707025	25732.975621
526.069345	25768.324191
526.431608	25721.650668
526.793815	25939.685613
527.155964	25386.524843
527.518057	25563.343314
527.880093	25513.279615
528.242072	25761.886638
528.603995	25461.554856
528.965860	25282.152794
529.327669	25350.278947
529.689421	25339.228738
530.051117	25172.868140
530.412755	25354.437899
530.774337	25178.713358
531.135862	25044.074221
531.497331	25255.091880
531.858743	24795.215141
532.220098	25294.944722
532.581396	24969.203004
532.942638	24924.891262
533.303824	25007.971998
533.664953	25045.828543
534.026025	24715.317894
534.387040	24946.298522
534.747999	25019.929615
535.108902	25183.555386
535.469748	24680.652399
535.830537	24876.481062
536.191270	24990.161601
536.551947	24881.681012
536.912567	24564.287445
537.273131	24852.936353
537.633638	24582.801082
537.994089	24789.266579
538.354483	24358.321022
538.714821	24841.334137
539.075103	24887.634614
539.435328	24687.881414
539.795497	24217.292223
540.155609	24642.639579
540.515665	24925.743217
540.875665	24176.020296
541.235609	24443.627428
541.595496	24428.251908
541.955328	24781.956906
542.315102	24696.532034
542.674821	24267.512197
543.034483	24141.132991
543.394090	24312.146574
543.753640	24089.060393
544.113134	24727.172167
544.472571	24330.405633
544.831953	24616.443223
545.191278	24227.971907
545.550548	24163.929089
545.909761	24383.488983
546.268918	24611.712100
546.628019	24552.317225
546.987064	24267.313072
547.346053	24037.194481
547.704986	24165.968236
548.063863	24326.934798
548.422684	24304.214318
548.781449	23877.329410
549.140158	24265.843576
549.498811	23841.204502
549.857408	23588.350307
550.215949	24027.626371
550.574434	23706.754408
550.932864	23926.452934
551.291237	24057.840527
551.649555	23936.976343
552.007817	23986.566173
552.366022	23858.006668
552.724173	23903.051898
553.082267	23828.919210
553.440305	24303.243896
553.798288	23584.047682
554.156215	24101.391055
554.514086	24196.633574
554.871902	23552.424524
555.229661	23851.148178
555.587365	23712.483680
555.945014	23560.286204
556.302606	23837.363143
556.660143	23758.179219
557.017625	24024.155537
557.375050	23552.931160
557.732421	23943.302991
558.089735	23740.903184
558.446994	23826.007944
558.804197	23838.615869
559.161345	23794.853613
559.518437	23536.428943
559.875474	23743.751436
560.232455	23907.911570
560.589381	23745.732610
560.946251	23711.253638
561.303065	24044.536922
561.659825	24126.594303
562.016528	23730.735177
562.373177	23472.121464
562.729770	23821.433097
563.086307	23701.458676
563.442789	23870.909501
563.799216	23695.195042
564.155587	23708.896899
564.511904	23693.314692
564.868164	23618.720739
565.224370	23608.197330
565.580520	23508.571527
565.936615	23644.765860
566.292654	23314.663544
566.648638	23629.770948
567.004567	23449.743782
567.360441	23404.680908
567.716260	23131.057160
568.072023	23461.444300
568.427732	23215.844326
568.783385	23004.032686
569.138982	23239.280650
569.494525	23260.143466
569.850013	23020.633205
570.205445	23121.284883
570.560823	22916.495570
570.916145	22691.042567
571.271412	22874.026369
571.626625	22616.831741
571.981782	22737.451429
572.336884	22539.986912
572.691931	22673.441378
573.046923	22405.188979
573.401860	22286.220269
573.756743	22285.385958
574.111570	22208.019370
574.466342	22138.554790
574.821059	22230.061815
575.175722	21928.542842
575.530330	21917.785019
575.884882	21939.736724
576.239380	21835.067247
576.593823	21747.303279
576.948211	21730.387687
577.302544	21564.581616
577.656823	21439.624015
578.011047	21525.573168
578.365216	21406.586814
578.719330	21292.074483
579.073389	21196.176614
579.427394	21341.712205
579.781344	21106.872573
580.135239	21006.339363
580.489080	20971.076492
580.842866	20739.932026
581.196597	20904.843292
581.550273	20902.315153
581.903895	20798.500152
582.257463	21111.848192
582.610975	20639.918054
582.964434	20938.956780
583.317837	20652.284005
583.671186	20743.803632
584.024481	20706.320133
584.377721	20486.669498
584.730906	20530.910664
585.084037	20577.569064
585.437113	20468.433124
585.790135	20678.311482
586.143103	20153.398817
586.496016	20156.181534
586.848874	20396.168184
587.201679	20342.346305
587.554428	19994.148767
587.907124	20331.147381
588.259765	20116.986563
588.612352	20187.255207
588.964884	19750.209853
589.317362	19935.726835
589.669786	19983.849690
590.022155	20035.007319
590.374470	20205.136179
590.726731	20018.195071
591.078937	19770.036711
591.431090	19866.942812
591.783188	19614.154152
592.135232	19589.790256
592.487222	19691.709783
592.839157	19714.021930
593.191038	19603.875239
593.542866	19488.044648
593.894639	19205.487974
594.246358	19428.211192
594.598022	19331.771399
594.949633	19087.880376
595.301190	19053.988698
595.652692	19215.189675
596.004141	19456.968455
596.355535	18786.046330
596.706876	18798.593762
597.058162	18690.944963
597.409395	18912.145753
597.760573	18996.103649
598.111698	18781.403428
598.462768	18715.969251
598.813785	18659.621754
599.164748	18499.434049
599.515657	18522.336011
599.866511	18320.137851
600.217312	18677.659002
600.568060	18208.710707
600.918753	18518.356020
601.269392	18423.529396
601.619978	18188.687244
601.970510	18410.495492
602.320988	18344.670626
602.671412	18567.504749
603.021783	18468.607393
603.372100	18207.810861
603.722363	18335.820880
604.072572	18272.897198
604.422728	18407.748063
604.772830	18169.755190
605.122878	18125.927399
605.472872	18118.589999
605.822813	18104.230273
606.172701	18062.393737
606.522534	18271.394934
606.872314	18284.338097
607.222041	18117.833826
607.571714	18339.150563
607.921333	18172.865582
608.270899	18239.237414
608.620411	18430.428215
608.969870	18185.241615
609.319276	18189.274538
609.668627	18221.921050
610.017926	18365.972022
610.367171	18475.622159
610.716362	18506.894957
611.065500	18339.175768
611.414585	18463.873750
611.763616	18451.260783
612.112594	18410.082118
612.461518	18361.349283
612.810389	18552.847595
613.159207	18412.151511
613.507971	18324.316967
613.856682	18598.817877
614.205340	18531.843627
614.553945	18676.146656
614.902496	18419.284744
615.250994	18663.957146
615.599439	18601.275439
615.947830	18581.035206
616.296169	18622.660014
616.644454	18596.957691
616.992686	18564.442248
617.340864	18776.276574
617.688990	18539.785965
618.037063	18718.782215
618.385082	18556.615857
618.733048	18839.787551
619.080961	18701.070121
619.428821	18747.884796
619.776628	18633.871540
620.124382	18559.025529
620.472083	18592.529037
620.819731	18616.464436
621.167326	18312.666861
621.514868	18355.007512
621.862357	18119.197458
622.209793	18125.274569
622.557176	17963.947564
622.904506	17790.993137
623.251783	17692.826748
623.599007	17459.103733
623.946179	17411.157318
624.293297	17346.416300
624.640363	17111.594313
624.987376	17128.693907
625.334336	16916.776402
625.681243	16759.522649
626.028097	16770.444309
626.374899	16699.585850
626.721647	16572.689926
627.068343	16407.244298
627.414987	16333.187227
627.761577	16311.797611
628.108115	16345.404463
628.454600	16069.106383
628.801032	16163.640620
629.147412	16099.002946
629.493739	16127.127543
629.840014	15922.950730
630.186236	16033.593974
630.532405	15786.680780
630.878521	15990.900442
631.224585	15879.178391
631.570597	15707.958121
631.916556	15735.142543
632.262462	15719.656119
632.608316	15637.394570
632.954117	15577.626650
633.299866	15573.271093
633.645562	15496.617828
633.991206	15252.089099
634.336797	15117.066835
634.682336	15091.162866
635.027823	14976.806811
635.373257	14868.835378
635.718639	14755.467390
636.063968	14707.687334
636.409245	14460.617863
636.754470	14486.925125
637.099642	14339.665459
637.444762	14100.465230
637.789829	14151.864834
638.134845	13989.794259
638.479808	14009.764790
638.824719	13970.247185
639.169577	13818.669771
639.514383	13864.650135
639.859137	13685.447198
640.203839	13771.507256
640.548489	13609.960960
640.893086	13603.236061
641.237632	13468.579280
641.582125	13616.443884
641.926566	13448.422227
642.270955	13456.170480
642.615292	13420.211930
642.959576	13428.126541
643.303809	13464.548878
643.647990	13396.405081
643.992118	13455.983957
644.336195	13225.825037
644.680219	13423.476077
645.024192	13356.161549
645.368112	13592.624432
645.711981	13653.486283
646.055797	13822.133043
646.399562	13791.205565
646.743274	14057.426379
647.086935	14333.638760
647.430544	14300.044510
647.774101	14331.735724
648.117606	14483.482017
648.461059	14450.316265
648.804460	14447.528507
649.147810	14185.524618
649.491108	14074.165530
649.834354	14095.875259
650.177548	13797.098673
650.520690	13602.368983
650.863781	13526.408877
651.206820	13563.368096
651.549807	13392.011715
651.892742	13205.221842
652.235626	13139.848158
652.578458	13142.361174
652.921238	12828.430880
653.263967	13022.089325
653.606644	12855.015404
653.949269	12828.909789
654.291843	12632.992907
654.634365	12791.358234
654.976836	12632.818987
655.319255	12650.095021
655.661622	12602.763628
656.003938	12517.225329
656.346203	12459.940177
656.688416	12525.306299
657.030577	12479.890544
657.372687	12403.010427
657.714746	12375.684853
658.056753	12557.242008
658.398708	12380.365564
658.740612	12382.109803
659.082465	12479.124288
659.424266	12444.965430
659.766016	12472.553144
660.107715	12379.271634
660.449362	12454.609157
660.790958	12413.692632
661.132503	12358.494518
661.473996	12420.031883
661.815438	12439.294132
662.156829	12449.721759
662.498168	12425.062955
662.839456	12431.346753
663.180693	12450.087242
663.521879	12537.954554
663.863013	12515.619722
664.204097	12479.134371
664.545129	12615.346348
664.886110	12581.489958
665.227040	12671.524966
665.567918	12677.024865
665.908746	12706.883619
666.249522	12686.242615
666.590248	12734.972928
666.930922	12849.026514
667.271545	12836.905059
667.612118	12918.654931
667.952639	12818.898058
668.293109	12830.109584
668.633528	12792.585755
668.973896	12761.993513
669.314213	12852.333511
669.654480	12590.374992
669.994695	12646.329279
670.334859	12674.718537
670.674973	12623.399591
671.015035	12654.198520
671.355047	12599.471754
671.695008	12570.822877
672.034918	12580.542222
672.374777	12619.049075
672.714585	12539.527394
673.054342	12563.256105
673.394049	12503.856189
673.733705	12610.378291
674.073310	12518.893951
674.412864	12535.295345
674.752368	12416.656831
675.091820	12415.280596
675.431223	12412.986871
675.770574	12284.495421
676.109875	12209.493134
676.449125	12161.778613
676.788324	12102.366094
677.127473	11939.191506
677.466571	11933.656319
677.805619	11834.275012
678.144616	11751.408525
678.483562	11721.630429
678.822458	11590.018505
679.161303	11567.857593
679.500098	11563.423898
679.838842	11516.347083
680.177535	11538.001359
680.516179	11594.285842
680.854771	11539.828778
681.193314	11755.257446
681.531805	11902.673387
681.870247	12307.404944
682.208638	12715.110782
682.546978	13036.688507
682.885268	13099.347528
683.223508	12783.088221
683.561697	12626.575518
683.899836	12527.874767
684.237925	12326.979745
684.575963	12249.822365
684.913951	12179.397445
685.251889	12117.701284
685.589776	12218.814227
685.927614	12146.806386
686.265401	12109.353133
686.603137	12142.045016
686.940824	12294.260136
687.278460	12417.521388
687.616046	12474.272178
687.953582	12641.998928
688.291068	12566.235427
688.628504	12789.576186
688.965889	12801.198567
689.303224	12768.940223
689.640510	12667.131601
689.977745	12364.919469
690.314930	12138.672484
690.652065	12059.052500
690.989150	11767.414188
691.326185	11541.784745
691.663170	11331.475368
692.000105	11088.287586
692.336990	10982.912347
692.673825	10734.985881
693.010610	10619.992120
693.347345	10409.791128
693.684030	10209.662362
694.020665	10150.511983
694.357251	9957.241707
694.693786	9906.494931
695.030272	9740.023428
695.366707	9611.625240
695.703093	9546.508656
696.039429	9549.387155
696.375716	9481.109767
696.711952	9337.809928
697.048139	9381.557061
697.384276	9334.263476
697.720363	9347.269653
698.056400	9286.395200
698.392388	9240.987006
698.728326	9203.926964
699.064214	9129.416189
699.400053	9184.006844
699.735842	8996.337290
700.071581	8955.519067
700.407270	8880.605000
700.742910	8804.276890
701.078501	8713.095020
701.414042	8590.844518
701.749533	8527.646093
702.084974	8386.728199
702.420366	8497.729366
702.755709	8389.125268
703.091002	8252.275585
703.426246	8279.016385
703.761440	8225.086122
704.096584	8185.674381
704.431679	8120.078887
704.766725	8105.593131
705.101721	8051.062970
705.436668	8099.773119
705.771565	7991.100966
706.106413	8072.810508
706.441212	8116.603011
706.775961	8071.199859
707.110661	8098.291020
707.445311	8254.675174
707.779913	8138.826938
708.114465	8283.253475
708.448967	8314.773290
708.783421	8453.178168
709.117825	8634.405129
709.452180	8669.431066
709.786485	8751.533818
710.120742	9039.968476
710.454949	9035.965800
710.789107	9140.214341
711.123216	9348.557668
711.457275	9514.237709
711.791286	9674.185959
712.125247	9663.833950
712.459159	9664.781687
712.793023	9902.640969
713.126837	9495.469494
713.460602	9637.113314
713.794318	9463.256521
714.127985	9491.822219
714.461602	9178.209518
714.795171	9119.593501
715.128691	8880.874702
715.462162	8625.381463
715.795584	8573.250891
716.128957	8432.146475
716.462281	8260.974096
716.795556	8308.963360
717.128782	8109.346270
717.461960	7835.901483
717.795088	7911.977536
718.128167	7822.063516
718.461198	7657.235429
718.794180	7591.380316
719.127113	7583.097700
719.459997	7439.208046
719.792833	7201.510080
720.125619	7269.374093
720.458357	7126.044007
720.791046	7112.576564
721.123686	7113.912470
721.456278	6960.530323
721.788821	6977.539176
722.121315	6867.389965
722.453761	6931.032012
722.786158	6883.514095
723.118506	6891.254787
723.450805	6857.975610
723.783056	6927.006650
724.115259	6825.712225
724.447412	6827.133831
724.779518	6871.569081
725.111574	6875.523867
725.443582	6953.986906
725.775542	6930.106960
726.107453	7123.336907
726.439315	7037.208794
726.771129	7093.899089
727.102895	7257.706342
727.434612	7370.340843
727.766281	7404.131697
728.097901	7486.821744
728.429473	7486.060529
728.760996	7454.119779
729.092471	7431.321160
729.423897	7379.114971
729.755276	7392.007722
730.086606	7314.772204
730.417887	7415.980929
730.749120	7597.986748
731.080305	7788.323073
731.411442	7919.519102
731.742530	7913.033657
732.073570	8021.650358
732.404562	8105.898121
732.735506	7949.065304
733.066401	8099.349662
733.397249	8030.144702
733.728048	7792.537478
734.058798	7459.450799
734.389501	7246.525063
734.720156	7066.586118
735.050762	6833.626837
735.381320	6731.588842
735.711831	6682.830802
736.042293	6577.621921
736.372707	6597.279901
736.703073	6465.413398
737.033391	6497.225600
737.363661	6504.562999
737.693883	6539.268823
738.024056	6619.637418
738.354182	6662.575446
738.684260	6701.283946
739.014290	6804.584750
739.344272	6918.335866
739.674207	6948.355937
740.004093	7011.612335
740.333931	7031.088833
740.663722	7033.538834
740.993464	7113.995649
741.323159	7116.213757
741.652806	6859.767740
741.982405	6865.058431
742.311956	6928.365241
742.641460	6770.161231
742.970915	6573.359626
743.300323	6566.763276
743.629683	6516.157653
743.958996	6384.029011
744.288260	6289.146933
744.617477	6239.128605
744.946647	6246.713021
745.275768	6080.813689
745.604842	6042.979829
745.933869	6021.312950
746.262847	5972.151618
746.591778	5967.065094
746.920662	5927.928096
747.249498	5916.351086
747.578286	5957.688548
747.907027	6037.636206
748.235720	6097.020999
748.564365	6066.761473
748.892963	6092.060503
749.221514	6244.452063
749.550017	6090.994299
749.878473	5960.836748
750.206881	6014.371281
750.535242	5957.640657
750.863555	5886.202465
751.191821	5908.922946
751.520039	5907.506382
751.848210	5813.516589
752.176334	5832.448642
752.504411	5885.423607
752.832440	5812.957021
753.160421	5736.641513
753.488356	5787.179080
753.816243	5819.321477
754.144082	5671.673643
754.471875	5638.555783
754.799620	5689.869688
755.127318	5696.597107
755.454969	5648.360827
755.782572	5614.370847
756.110129	5658.695192
756.437638	5651.292258
756.765100	5587.433442
757.092515	5584.824644
757.419882	5636.188961
757.747203	5612.760198
758.074477	5674.388304
758.401703	5669.566441
758.728882	5618.890242
759.056014	5664.293394
759.383099	5802.499147
759.710138	5814.650848
760.037129	5790.672600
760.364073	5798.320030
760.690970	5885.937805
761.017820	5863.978539
761.344623	5817.499100
761.671379	5919.343011
761.998088	6033.474734
762.324751	6265.887050
762.651366	6848.573858
762.977935	8136.268553
763.304456	9750.491384
763.630931	10668.540952
763.957359	10295.162852
764.283740	9368.119865
764.610074	8547.977067
764.936362	7561.957621
765.262602	6966.282280
765.588796	6429.371669
765.914943	6082.782260
766.241044	5927.955822
766.567097	5735.035906
766.893104	5469.815761
767.219064	5291.731960
767.544978	5227.263164
767.870845	5153.984952
768.196665	5052.241864
768.522438	4978.353672
768.848165	4948.192449
769.173846	4879.884814
769.499479	4837.997867
769.825066	4785.889980
770.150607	4724.148448
770.476101	4697.258934
770.801548	4697.057287
771.126949	4623.897542
771.452303	4565.853697
771.777611	4528.909601
772.102872	4542.803021
772.428087	4506.368082
772.753256	4468.816527
773.078378	4424.464455
773.403453	4356.091285
773.728482	4339.236188
774.053465	4296.255310
774.378401	4282.782826
774.703291	4285.356335
775.028135	4214.124831
775.352932	4160.842356
775.677683	4150.444976
776.002388	4165.018952
776.327046	4185.407898
776.651658	4108.888224
776.976224	4044.742062
777.300743	4048.691806
777.625216	4070.222574
777.949643	4068.082604
778.274024	4026.724978
778.598359	3978.521465
778.922647	4002.106503
779.246889	3993.024865
779.571086	3990.295080
779.895236	3977.382164
780.219339	3957.267961
780.543397	3951.931899
780.867409	4004.191021
781.191374	4017.010675
781.515294	3954.981797
781.839167	3948.060293
782.162995	3969.994353
782.486776	3958.621510
782.810511	3968.799600
783.134201	3961.641162
783.457844	3923.207405
783.781441	3865.075339
784.104993	3871.157491
784.428498	3889.840007
784.751958	3888.025192
785.075372	3864.271275
785.398739	3827.130574
785.722061	3836.900330
786.045337	3879.301475
786.368568	3912.842792
786.691752	3826.903722
787.014891	3873.483984
787.337983	3993.637365
787.661030	4153.678876
787.984031	4314.597548
788.306987	4488.698837
788.629897	4568.454932
788.952760	4525.647974
789.275579	4456.846307
789.598351	4397.302718
789.921078	4260.606790
790.243759	4062.156728
790.566395	4036.719066
790.888984	4038.546484
791.211529	3930.658230
791.534027	3872.014487
791.856480	3862.443857
792.178888	3799.628559
792.501249	3745.826845
792.823566	3758.863269
793.145836	3789.871406
793.468062	3738.108838
793.790241	3691.339533
794.112375	3719.282649
794.434464	3783.002834
794.756507	3810.202379
795.078505	3790.088176
795.400457	3820.972805
795.722364	3954.694452
796.044226	4060.707396
796.366042	4135.689519
796.687812	4116.732260
797.009538	4123.711737
797.331218	4081.502156
797.652852	4053.380079
797.974442	4033.107079
798.295986	4032.983571
798.617484	3958.555975
798.938938	3867.240515
799.260346	3908.225095
799.581709	3905.767533
799.903026	3829.734330
800.224299	3793.919453
800.545526	3787.161786
800.866708	3748.901949
801.187845	3688.962629
801.508936	3725.692476
801.829983	3723.383628
802.150984	3643.940084
802.471940	3634.167808
802.792851	3646.616937
803.113717	3647.582318
803.434538	3651.032988
803.755314	3590.072835
804.076045	3562.462435
804.396731	3583.922627
804.717372	3610.494549
805.037967	3598.637755
805.358518	3588.215170
805.679024	3612.143007
805.999485	3625.988536
806.319901	3628.935090
806.640272	3641.994199
806.960598	3658.340140
807.280879	3630.964154
807.601115	3640.068478
807.921306	3657.299142
808.241453	3702.172973
808.561554	3677.710774
808.881611	3612.697533
809.201623	3648.025940
809.521590	3659.144204
809.841513	3631.732930
810.161390	3658.987929
810.481223	3644.655928
810.801011	3585.387082
811.120755	3576.255032
811.440453	3609.871967
811.760107	3614.159468
812.079716	3572.373344
812.399281	3539.552912
812.718801	3564.544432
813.038276	3536.770195
813.357707	3533.004453
813.677093	3553.728636
813.996434	3501.875328
814.315731	3507.808766
814.634983	3512.005527
814.954191	3526.496323
815.273354	3556.224008
815.592473	3553.085889
815.911547	3558.104358
816.230577	3595.295470
816.549562	3644.986124
816.868502	3686.802495
817.187399	3713.860888
817.506250	3710.359807
817.825058	3680.553985
818.143821	3772.882718
818.462539	3871.454919
818.781213	3917.095006
819.099843	3975.887462
819.418429	4211.581569
819.736970	4449.398002
820.055466	4690.019837
820.373919	5054.593562
820.692327	5458.901662
821.010691	5882.048555
821.329011	7212.656071
821.647286	9887.237724
821.965517	14353.137943
822.283704	18368.144759
822.601847	20583.207594
822.919945	18825.795828
823.237999	16291.655681
823.556010	13829.341893
823.873976	11763.358580
824.191897	9691.958547
824.509775	8340.704985
824.827609	7219.585137
825.145398	6670.031312
825.463144	6557.422018
825.780845	6666.477299
826.098502	6840.394586
826.416116	7691.666510
826.733685	8992.004418
827.051210	10103.760323
827.368692	10181.532723
827.686129	8964.152043
828.003522	7452.824202
828.320872	6443.542352
828.638177	5749.622484
828.955439	5193.270663
829.272656	4700.281105
829.589830	4416.506994
829.906960	4242.806476
830.224046	4060.672108
830.541088	3934.771812
830.858086	3887.906725
831.175041	3812.584325
831.491952	3793.634627
831.808819	3805.652738
832.125642	3874.653531
832.442421	4017.834903
832.759157	4286.097385
833.075849	4822.067821
833.392497	5672.245814
833.709101	6437.631599
834.025662	6789.486494
834.342179	6445.795748
834.658653	5788.298217
834.975083	5145.848529
835.291469	4578.083536
835.607811	4170.523892
835.924110	4030.586502
836.240366	3836.040813
836.556578	3633.207468
836.872746	3519.481558
837.188871	3485.325220
837.504952	3418.403903
837.820990	3337.891634
838.136984	3291.170221
838.452935	3314.740135
838.768842	3311.470947
839.084706	3331.161694
839.400526	3482.328254
839.716303	3811.281186
840.032037	4323.706913
840.347727	4599.175724
840.663373	4333.789221
840.978977	3955.256540
841.294537	3651.776558
841.610054	3424.004624
841.925527	3313.873057
842.240957	3246.976945
842.556344	3196.603216
842.871687	3138.806387
843.186987	3088.382245
843.502244	3050.245917
843.817458	3016.271060
844.132629	2986.044302
844.447756	2994.168121
844.762840	2980.272181
845.077881	2948.651543
845.392879	2932.814758
845.707833	2927.982812
846.022745	2926.576330
846.337613	2927.675302
846.652438	2916.327665
846.967221	2914.989238
847.281960	2900.967269
847.596656	2895.580796
847.911309	2893.367729
848.225919	2888.813047
848.540485	2884.238200
848.855009	2881.979763
849.169490	2876.018598
849.483928	2863.647607
849.798323	2862.853625
850.112675	2861.878162
850.426984	2874.770913
850.741251	2871.940305
851.055474	2858.523274
851.369654	2851.049763
851.683792	2859.851618
851.997887	2869.412166
852.311938	2869.911241
852.625947	2860.005373
852.939914	2862.876310
853.253837	2867.743544
853.567718	2851.412727
853.881555	2848.133456
854.195350	2863.904706
854.509103	2859.566793
854.822812	2852.914990
855.136479	2850.016327
855.450103	2852.597398
855.763685	2846.795030
856.077224	2840.498628
856.390720	2853.219980
856.704173	2864.665920
857.017584	2856.726103
857.330953	2852.615042
857.644278	2863.030066
857.957561	2871.060624
858.270802	2872.905686
858.584000	2875.912734
858.897155	2861.429499
859.210268	2860.958151
859.523339	2857.071422
859.836367	2859.949921
860.149352	2852.920032
860.462295	2849.353415
860.775195	2854.308869
861.088054	2856.718541
861.400869	2839.991992
861.713642	2836.069975
862.026373	2852.899867
862.339062	2854.984384
862.651708	2860.824561
862.964312	2865.744727
863.276873	2857.237780
863.589392	2865.457381
863.901869	2875.408619
864.214303	2897.287227
864.526696	2915.473189
864.839045	2910.179978
865.151353	2912.753487
865.463619	2909.348187
865.775842	2909.479257
866.088023	2925.694128
866.400162	2935.708381
866.712258	2907.533372
867.024313	2892.641803
867.336325	2905.897517
867.648296	2924.348140
867.960224	2916.335226
868.272110	2905.005233
868.583954	2908.125707
868.895755	2922.737492
869.207515	2908.125707
869.519233	2914.490164
869.830909	2925.028696
870.142542	2933.931374
870.454134	2935.907506
870.765684	2935.342897
871.077191	2936.076385
871.388657	2943.562498
871.700081	2955.928449
872.011463	2964.596713
872.322803	2967.606282
872.634101	2968.866570
872.945357	2982.215545
873.256571	3008.550533
873.567744	3001.145078
873.878874	2996.197186
874.189963	3017.223838
874.501010	3021.256761
874.812015	3010.642612
875.122979	3011.081192
875.433900	3007.653208
875.744780	3012.724608
876.055618	3018.542100
876.366415	3014.965401
876.677169	3027.301105
876.987882	3027.253214
877.298554	3016.659229
877.609183	3038.787374
877.919771	3060.970971
878.230317	3087.547934
878.540822	3139.018115
878.851285	3178.444979
879.161707	3216.505691
879.472087	3314.309117
879.782425	3537.080226
880.092722	3961.021100
880.402977	4478.833299
880.713191	5092.868523
881.023363	6217.096242
881.333494	7482.133471
881.643583	8046.667084
881.953631	7758.560101
882.263637	7149.916391
882.573602	6575.928093
882.883526	6006.318038
883.193408	5438.046409
883.503248	4976.105318
883.813048	4673.870500
884.122806	4387.321233
884.432522	4071.409766
884.742197	3840.439220
885.051831	3646.795898
885.361424	3515.183974
885.670975	3445.855506
885.980485	3359.137577
886.289954	3283.616052
886.599382	3241.313209
886.908768	3198.786035
887.218113	3159.444871
887.527417	3101.738783
887.836680	3049.835063
888.145901	3047.682490
888.455082	3041.071017
888.764221	2989.197543
889.073319	2958.627987
889.382376	2956.508181
889.691392	2958.212091
890.000366	2957.362657
890.309300	2948.674228
890.618193	2956.490537
890.927044	2977.741521
891.235855	2974.613485
891.544625	2959.321145
891.853353	2969.930253
892.162041	2989.046309
892.470687	3026.943183
892.779293	3081.092737
893.087858	3126.475724
893.396381	3192.908050
893.704864	3309.368786
894.013306	3546.550033
894.321707	3837.406966
894.630068	4046.972773
894.938387	4046.211558
895.246665	4000.828571
895.554903	3883.077299
895.863100	3690.167465
896.171256	3524.005993
896.479371	3386.528687
896.787446	3267.333125
897.095480	3162.925787
897.403473	3101.612754
897.711425	3062.614387
898.019336	3052.557286
898.327207	3030.839995
898.635038	2992.779283
898.942827	2977.451655
899.250576	2966.078812
899.558284	2937.767692
899.865952	2915.826070
900.173579	2894.191958
900.481165	2887.267933
900.788711	2879.582694
901.096216	2853.708972
901.403681	2842.522652
901.711105	2849.555061
902.018489	2848.239320
902.325832	2844.453414
902.633135	2855.806092
902.940397	2888.520660
903.247619	2964.369861
903.554800	3150.244765
903.861941	3483.596104
904.169041	3904.580341
904.476101	4203.261145
904.783121	4167.368129
905.090100	3929.382818
905.397039	3658.375428
905.703938	3414.749066
906.010796	3230.731827
906.317614	3120.179323
906.624391	3028.253883
906.931129	2959.535394
907.237826	2896.221023
907.544483	2850.447346
907.851099	2824.682008
908.157675	2802.301806
908.464211	2781.035698
908.770707	2769.085643
909.077163	2756.336565
909.383578	2740.204873
909.689954	2729.762122
909.996289	2728.290106
910.302584	2729.331104
910.608839	2729.358830
910.915054	2724.300032
911.221229	2718.013713
911.527363	2718.139742
911.833458	2725.827502
912.139513	2730.543501
912.445527	2732.184397
912.751502	2744.769637
913.057436	2751.071080
913.363331	2762.002822
913.669186	2784.282201
913.975000	2816.175061
914.280775	2874.854092
914.586510	2946.027623
914.892205	3022.300280
915.197859	3146.244609
915.503475	3333.848629
915.809050	3542.817059
916.114585	3685.907690
916.420081	3711.930126
916.725536	3654.758401
917.030952	3540.009136
917.336328	3412.175557
917.641665	3283.134621
917.946961	3186.588963
918.252218	3115.662449
918.557435	3040.072868
918.862612	2983.271667
919.167750	2933.165118
919.472848	2894.507030
919.777906	2865.280941
920.082925	2842.852847
920.387904	2813.553661
920.692843	2793.638583
920.997743	2784.400668
921.302603	2773.904986
921.607423	2762.580034
921.912204	2749.394896
922.216946	2741.152610
922.521647	2729.938563
922.826310	2721.741647
923.130932	2716.854248
923.435516	2708.674976
923.740059	2698.809438
924.044564	2693.284333
924.349028	2688.896009
924.653454	2681.077179
924.957840	2676.149451
925.262186	2670.694923
925.566493	2667.161074
925.870761	2662.150167
926.174989	2658.233191
926.479178	2654.764877
926.783328	2649.181799
927.087438	2649.229690
927.391509	2646.925882
927.695541	2644.276756
927.999533	2641.569657
928.303486	2640.047228
928.607400	2634.617905
928.911275	2636.694861
929.215110	2635.827782
929.518906	2634.499438
929.822663	2633.710498
930.126381	2632.757720
930.430060	2634.451547
930.733699	2634.685961
931.037299	2636.848616
931.340861	2637.947587
931.644383	2637.440952
931.947866	2634.126393
932.251309	2637.055303
932.554714	2633.085395
932.858080	2632.974489
933.161407	2630.060702
933.464694	2630.562297
933.767943	2626.088273
934.071153	2628.679426
934.374323	2628.775208
934.677455	2626.751185
934.980548	2624.180196
935.283602	2626.915022
935.586617	2623.855042
935.889593	2625.266565
936.192530	2624.966616
936.495428	2625.180865
936.798287	2624.691873
937.101108	2632.946763
937.403890	2634.832154
937.706632	2638.996147
938.009336	2646.310862
938.312002	2656.393169
938.614628	2661.628408
938.917216	2668.655776
939.219765	2670.541168
939.522275	2667.327432
939.824747	2665.714263
940.127179	2663.909530
940.429573	2661.149498
940.731929	2657.187151
941.034246	2657.562717
941.336524	2652.632469
941.638763	2648.201294
941.940964	2647.447642
942.243126	2648.559216
942.545250	2646.154586
942.847335	2643.003865
943.149381	2639.553195
943.451389	2633.559263
943.753359	2633.327370
944.055290	2632.593882
944.357182	2629.498614
944.659036	2630.665641
944.960851	2628.452574
945.262628	2626.302522
945.564367	2629.791001
945.866067	2630.375774
946.167729	2628.611371
946.469352	2628.102214
946.770937	2629.745630
947.072484	2626.514251
947.373992	2627.068777
947.675462	2628.452574
947.976893	2618.186264
948.278286	2619.653240
948.579641	2619.597787
948.880958	2615.461521
949.182236	2619.852366
949.483476	2618.342540
949.784678	2617.909001
950.085841	2616.124432
950.386967	2618.246758
950.688054	2622.037706
950.989103	2621.659619
951.290114	2623.008128
951.591087	2625.601802
951.892021	2626.335290
952.192917	2630.446351
952.493776	2629.468367
952.794596	2629.228912
953.095378	2633.130765
953.396122	2629.032307
953.696828	2631.189921
953.997496	2628.649179
954.298126	2626.317646
954.598718	2624.248252
954.899272	2620.774897
955.199788	2618.584516
955.500266	2615.801799
955.800706	2615.811881
956.101108	2613.006479
956.401472	2611.688217
956.701798	2609.989348
957.002087	2607.375510
957.302337	2603.680344
957.602550	2604.935592
957.902724	2600.658172
958.202861	2601.336208
958.502960	2598.782863
958.803022	2596.035434
959.103045	2599.476022
959.403031	2599.158429
959.702979	2597.189859
960.002889	2597.946032
960.302762	2597.449478
960.602596	2597.106680
960.902393	2596.418562
961.202153	2593.048551
961.501875	2594.460074
961.801559	2592.856987
962.101205	2594.306319
962.400814	2595.324632
962.700385	2597.048706
962.999918	2592.836822
963.299414	2592.095773
963.598873	2590.235587
963.898293	2587.853642
964.197677	2593.116606
964.497022	2592.622573
964.796331	2591.944538
965.095601	2592.284816
965.394835	2593.633325
965.694030	2591.344641
965.993189	2591.412696
966.292309	2590.432192
966.591393	2593.837491
966.890439	2591.223653
967.189447	2591.216091
967.488419	2589.388673
967.787353	2593.139292
968.086249	2591.450505
968.385108	2591.175762
968.683930	2592.622573
968.982714	2591.750454
969.281462	2594.215578
969.580172	2592.224322
969.878844	2589.930597
970.177480	2591.291709
970.476078	2592.546956
970.774639	2592.451174
971.073162	2592.567121
971.371649	2592.642738
971.670098	2595.589292
971.968510	2590.727099
972.266885	2591.006883
972.565223	2592.307501
972.863524	2590.165011
973.161788	2591.392532
973.460014	2590.394383
973.758204	2592.597367
974.056356	2591.785742
974.354471	2591.203488
974.652550	2591.402614
974.950591	2592.748602
975.248595	2591.659713
975.546563	2592.294898
975.844493	2591.894127
976.142386	2589.358426
976.440243	2590.527974
976.738062	2594.263469
977.035845	2588.017479
977.333590	2589.993612
977.631299	2589.408838
977.928971	2583.389700
978.226606	2583.029257
978.524204	2587.155442
978.821765	2584.052612
979.119290	2591.173242
979.416777	2590.031420
979.714228	2590.641400
980.011642	2588.912284
980.309020	2588.861873
980.606360	2590.245669
980.903664	2591.931935
981.200931	2590.427151
981.498162	2590.643920
981.795356	2589.401276
982.092513	2593.260279
982.389633	2595.611977
982.686717	2599.841506
982.983764	2600.385950
983.280775	2605.485077
983.577749	2607.667897
983.874686	2607.027670
984.171587	2601.240426
984.468451	2601.860488
984.765279	2600.184304
985.062070	2596.330342
985.358824	2596.897472
985.655543	2595.319591
985.952224	2592.531832
986.248869	2589.187027
986.545478	2591.493355
986.842050	2588.773652
987.138586	2588.453539
987.435086	2588.612335
987.731549	2585.196954
988.027975	2588.637541
988.324366	2588.612335
988.620719	2588.360278
988.917037	2587.561255
989.213318	2588.143508
989.509563	2584.844073
989.805772	2585.766604
990.101944	2585.020513
990.398080	2586.789958
990.694180	2590.326328
990.990244	2587.951944
991.286271	2586.295925
991.582262	2584.040009
991.878217	2585.776686
992.174136	2584.060173
992.470019	2586.250555
992.765865	2581.713516
993.061676	2579.200501
993.357450	2586.008579
993.653188	2581.486664
993.948890	2586.442119
994.244556	2585.504464
994.540186	2585.534711
994.835780	2586.051429
995.131337	2586.391707
995.426859	2586.956316
995.722345	2588.788776
996.017795	2588.438416
996.313208	2588.173755
996.608586	2591.770618
996.903928	2591.828592
997.199234	2592.088211
997.494504	2590.233066
997.789738	2590.291040
998.084936	2590.427151
998.380099	2587.531008
998.675225	2589.522264
998.970316	2587.379773
999.265371	2588.264496
999.560390	2588.546800
999.855373	2590.361616
1000.150320	2584.735688
1000.445232	2587.707448
1000.740108	2583.273753
1001.034948	2583.727457
1001.329752	2585.857345
1001.624521	2585.512026
1001.919254	2582.835173
1002.213951	2584.811305
1002.508613	2585.849783
1002.803239	2585.106213
1003.097829	2583.951789
1003.392384	2585.554876
1003.686903	2583.815677
1003.981386	2583.374577
1004.275834	2584.675194
1004.570246	2583.523291
1004.864623	2585.007910
1005.158964	2585.060842
1005.453270	2584.642427
1005.747540	2585.207036
1006.041775	2582.459607
1006.335974	2583.956830
1006.630138	2582.245358
1006.924266	2584.173599
1007.218359	2583.722416
1007.512416	2580.475913
1007.806438	2579.986921
1008.100425	2581.418609
1008.394376	2578.625810
1008.688292	2580.901891
1008.982172	2581.877354
1009.276017	2584.304669
1009.569827	2581.849627
1009.863602	2585.338106
1010.157341	2584.539083
1010.451045	2585.343147
1010.744714	2582.494895
1011.038347	2582.184864
1011.331945	2582.366346
1011.625508	2583.412385
1011.919036	2582.749473
1012.212528	2580.357446
1012.505986	2581.398444
1012.799408	2583.520770
1013.092795	2579.490368
1013.386147	2586.328693
1013.679464	2583.104875
1013.972745	2585.396079
1014.265992	2582.162179
1014.559204	2580.082703
1014.852380	2584.841552
1015.145521	2586.789958
1015.438628	2582.290728
1015.731699	2580.347364
1016.024736	2582.951120
1016.317737	2581.219483
1016.610703	2580.735532
1016.903635	2585.486820
1017.196531	2581.579926
1017.489393	2580.410378
1017.782219	2580.120512
1018.075011	2584.498754
1018.367768	2579.407188
1018.660490	2580.896849
1018.953177	2580.896849
1019.245829	2580.896849
