Dividing Wavelength (nm)	Counts (n)	Blue Motor Position (mm): 16.500000	Red Motor Position (mm): 0.000000	
326.493990	2159.474032
326.888308	2159.474032
327.282561	2159.474032
327.676750	2136.738428
328.070874	2132.771040
328.464933	2137.557616
328.858929	2146.452732
329.252859	2161.578714
329.646726	2175.872905
330.040528	2188.148115
330.434265	2206.611341
330.827938	2225.346789
331.221547	2244.598956
331.615091	2264.100659
332.008571	2285.369288
332.401986	2304.381999
332.795338	2322.356233
333.188625	2345.575788
333.581847	2363.988602
333.975006	2388.803682
334.368100	2402.865981
334.761129	2421.767787
335.154095	2436.515683
335.546996	2461.192131
335.939833	2485.659371
336.332606	2497.180928
336.725315	2513.080727
337.117960	2517.975688
337.510540	2525.865093
337.903056	2536.025539
338.295508	2544.177085
338.687896	2548.378887
339.080220	2555.204609
339.472480	2563.215002
339.864676	2565.780950
340.256807	2568.679613
340.648875	2574.524831
341.040879	2573.675397
341.432818	2574.764286
341.824694	2575.938875
342.216506	2576.679924
342.608253	2575.459965
342.999937	2576.400140
343.391557	2574.222362
343.783113	2573.214131
344.174605	2575.515418
344.566033	2571.553071
344.957397	2568.558625
345.348697	2565.992678
345.739934	2564.306412
346.131106	2562.700805
346.522215	2561.508572
346.913260	2560.081925
347.304241	2556.429609
347.695159	2555.025648
348.086012	2557.823488
348.476802	2551.973229
348.867528	2553.712427
349.258191	2550.806202
349.648789	2549.684545
350.039324	2546.115408
350.429796	2548.547765
350.820203	2544.038453
351.210548	2546.997610
351.600828	2542.251364
351.991045	2547.690769
352.381198	2543.244471
352.771288	2542.468134
353.161314	2543.002496
353.551276	2545.573484
353.941175	2542.571477
354.331010	2544.015768
354.720782	2544.295552
355.110490	2543.259595
355.500135	2544.567774
355.889717	2543.080634
356.279235	2544.935778
356.668689	2542.944523
357.058080	2544.159441
357.447408	2544.277908
357.836672	2544.471992
358.225873	2543.317568
358.615010	2543.433515
359.004084	2549.261088
359.393095	2546.407795
359.782043	2548.071376
360.170927	2551.474155
360.559748	2549.208156
360.948505	2550.791079
361.337199	2551.393497
361.725830	2549.422405
362.114398	2553.490617
362.502903	2549.283774
362.891344	2553.596481
363.279722	2552.651264
363.668037	2553.256203
364.056289	2553.362067
364.444478	2552.910884
364.832603	2555.055895
365.220665	2555.365926
365.608665	2553.505740
365.996601	2553.755277
366.384474	2556.918601
366.772284	2555.784342
367.160031	2556.109496
367.547715	2558.047820
367.935336	2556.202757
368.322893	2557.805844
368.710388	2559.126627
369.097820	2560.767522
369.485189	2554.919784
369.872495	2557.392470
370.259738	2557.914229
370.646918	2558.257027
371.034035	2558.463715
371.421090	2559.267779
371.808081	2558.045299
372.195010	2559.963458
372.581875	2558.927501
372.968678	2560.122254
373.355418	2558.345248
373.742096	2562.284909
374.128710	2560.946483
374.515262	2562.151319
374.901751	2559.277861
375.288177	2562.564693
375.674540	2561.173335
376.060841	2561.899261
376.447079	2561.964796
376.833254	2562.758778
377.219367	2557.967161
377.605417	2558.942624
377.991404	2560.223078
378.377329	2559.625701
378.763191	2558.814075
379.148991	2564.626525
379.534727	2563.363716
379.920402	2565.773388
380.306013	2564.228274
380.691563	2564.135013
381.077049	2566.887483
381.462474	2566.118707
381.847835	2565.619633
382.233134	2566.017884
382.618371	2563.056206
383.003545	2566.340518
383.388657	2563.545198
383.773706	2564.994530
384.158693	2568.629202
384.543618	2567.076526
384.928480	2567.096691
385.313280	2567.613409
385.698017	2569.269428
386.082692	2569.549212
386.467305	2568.004098
386.851856	2569.239181
387.236344	2568.969479
387.620770	2569.564336
388.005133	2568.858574
388.389435	2569.811352
388.773674	2568.629202
389.157851	2567.056362
389.541965	2568.498132
389.926018	2574.345870
390.310008	2569.216496
390.693936	2570.370920
391.077802	2568.087277
391.461606	2572.445355
391.845348	2571.106929
392.229027	2571.510221
392.612645	2571.195149
392.996200	2574.489543
393.379694	2573.085582
393.763125	2572.004254
394.146494	2572.369738
394.529801	2571.641291
394.913047	2571.888308
395.296230	2573.952660
395.679351	2572.158009
396.062410	2574.650860
396.445408	2573.768658
396.828343	2573.872002
397.211217	2569.912175
397.594028	2569.982751
397.976778	2572.402505
398.359466	2574.209759
398.742092	2568.409911
399.124656	2571.913513
399.507158	2575.361662
399.889598	2571.580797
400.271977	2573.186405
400.654294	2576.473237
401.036549	2576.130438
401.418742	2576.604307
401.800874	2575.744790
402.182944	2574.363514
402.564952	2577.327713
402.946898	2576.737898
403.328783	2574.693710
403.710606	2577.869637
404.092367	2578.441807
404.474067	2578.091447
404.855705	2577.594894
405.237282	2577.178998
405.618797	2577.239492
406.000250	2577.254616
406.381642	2576.848803
406.762972	2578.663618
407.144240	2579.623958
407.525447	2581.912642
407.906593	2578.850141
408.287677	2579.049267
408.668700	2579.147569
409.049661	2578.532548
409.430560	2579.525656
409.811399	2579.840728
410.192176	2578.159503
410.572891	2583.029257
410.953545	2579.455079
411.334138	2579.024061
411.714669	2579.444997
412.095139	2578.855182
412.475547	2579.200501
412.855894	2580.334761
413.236180	2579.838207
413.616405	2582.510019
413.996568	2580.430543
414.376670	2580.160841
414.756711	2580.785944
415.136691	2579.969277
415.516609	2582.144535
415.896466	2583.856007
416.276262	2585.481779
416.655997	2578.363670
417.035670	2580.609504
417.415283	2578.439287
417.794834	2577.962898
418.174324	2578.809812
418.553753	2581.741243
418.933121	2578.928279
419.312428	2585.045719
419.691674	2582.696541
420.070859	2582.154617
420.449983	2583.656881
420.829045	2584.589495
421.208047	2584.465986
421.586988	2582.366346
421.965867	2584.677715
422.344686	2583.682087
422.723444	2585.144022
423.102141	2582.981367
423.480777	2585.665781
423.859352	2585.116295
424.237866	2585.577561
424.616319	2585.443970
424.994712	2586.636203
425.373044	2584.523960
425.751314	2583.616552
426.129524	2583.488002
426.507673	2585.254927
426.885762	2585.789289
427.263789	2586.573189
427.641756	2587.911615
428.019662	2586.043867
428.397508	2585.401120
428.775292	2585.317941
429.153016	2585.267530
429.530679	2585.822057
429.908282	2587.135277
430.285824	2589.497058
430.663305	2585.817016
431.040726	2587.281471
431.418086	2586.810123
431.795385	2588.705597
432.172624	2586.910946
432.549802	2584.750812
432.926920	2584.513877
433.303977	2586.064032
433.680974	2585.915318
434.057910	2586.023703
434.434786	2585.892633
434.811601	2586.747108
435.188355	2588.667788
435.565050	2590.159970
435.941683	2585.411203
436.318257	2586.275761
436.694770	2586.129567
437.071222	2584.924731
437.447614	2583.798033
437.823946	2586.754670
438.200218	2589.492017
438.576429	2588.990422
438.952580	2590.018817
439.328670	2590.845567
439.704700	2587.241142
440.080670	2590.704414
440.456580	2587.546131
440.832429	2588.700556
441.208218	2589.492017
441.583947	2591.707604
441.959616	2590.013776
442.335224	2591.422779
442.710773	2589.842377
443.086261	2592.347830
443.461689	2590.056626
443.837057	2592.370516
444.212365	2588.768611
444.587612	2588.140988
444.962800	2590.081832
445.337927	2590.016297
445.712995	2593.030907
446.088002	2589.660895
446.462949	2593.114086
446.837837	2589.217274
447.212664	2591.286667
447.587431	2592.108376
447.962139	2591.944538
448.336786	2592.831781
448.711374	2591.135433
449.085901	2592.612491
449.460369	2593.479569
449.834776	2591.528643
450.209124	2592.869590
450.583412	2591.687439
450.957640	2593.119127
451.331808	2593.784559
451.705917	2589.423961
452.079965	2594.563417
452.453954	2595.377564
452.827883	2594.011411
453.201752	2591.752974
453.575562	2593.434199
453.949311	2591.889085
454.323001	2593.963520
454.696632	2594.195413
455.070202	2593.605598
455.443713	2593.182141
455.817164	2591.664754
456.190556	2595.533840
456.563888	2591.437902
456.937160	2588.839187
457.310373	2593.207347
457.683526	2592.647779
458.056619	2596.269848
458.429653	2595.498552
458.802628	2597.547781
459.175542	2594.276072
459.548398	2597.759509
459.921194	2594.772625
460.293930	2594.760022
460.666607	2594.772625
461.039224	2595.468305
461.411782	2596.453850
461.784280	2597.315887
462.156719	2594.581062
462.529099	2596.796649
462.901419	2595.065012
463.273680	2595.858994
463.645882	2594.792790
464.018024	2594.364292
464.390106	2597.169694
464.762130	2598.492997
465.134094	2594.906216
465.505999	2597.492328
465.877845	2599.723038
466.249631	2597.857812
466.621358	2597.865373
466.993026	2600.958121
467.364634	2602.125148
467.736184	2599.912082
468.107674	2600.577514
468.479105	2598.170363
468.850477	2599.070209
469.221790	2600.015425
469.593043	2595.861515
469.964238	2598.097266
470.335373	2595.674992
470.706449	2600.212030
471.077467	2600.380909
471.448425	2599.493666
471.819324	2598.384612
472.190164	2601.457195
472.560945	2601.240426
472.931667	2599.844026
473.302330	2599.070209
473.672934	2598.639190
474.043479	2600.287648
474.413965	2601.842844
474.784393	2595.090218
475.154761	2597.832606
475.525070	2596.448809
475.895321	2596.471494
476.265513	2599.634818
476.635645	2601.857967
477.005719	2601.048862
477.375734	2601.661362
477.745691	2603.166147
478.115588	2603.685385
478.485427	2603.720673
478.855207	2603.156064
479.224928	2605.631271
479.594591	2607.831734
479.964194	2605.749738
480.333739	2608.199739
480.703226	2605.633791
481.072653	2609.535644
481.442022	2609.702002
481.811333	2611.398351
482.180584	2605.782505
482.549777	2609.603700
482.918912	2608.635798
483.287988	2610.319544
483.657005	2612.426746
484.025964	2609.442383
484.394864	2612.681324
484.763706	2611.055552
485.132489	2610.954729
485.501213	2612.421705
485.869879	2611.360542
486.238487	2608.802157
486.607036	2611.511777
486.975527	2609.684358
487.343959	2610.314503
487.712333	2612.348608
488.080648	2612.444390
488.448905	2611.451283
488.817104	2614.236520
489.185244	2615.033023
489.553326	2616.847838
489.921350	2617.767849
490.289315	2618.166100
490.657222	2618.176182
491.025070	2623.270268
491.392861	2622.861935
491.760593	2620.890843
492.128267	2620.749691
492.495883	2619.401182
492.863440	2617.790534
493.230939	2618.884464
493.598380	2618.524022
493.965763	2613.921448
494.333088	2615.567385
494.700354	2618.675256
495.067563	2617.646861
495.434713	2617.508229
495.801805	2623.083745
496.168839	2619.396141
496.535815	2621.594084
496.902733	2620.353961
497.269593	2621.241204
497.636395	2622.072994
498.003139	2624.482666
498.369825	2622.768673
498.736453	2625.420320
499.103023	2624.275978
499.469535	2625.354785
499.835989	2626.030300
500.202385	2625.130454
500.568723	2626.141205
500.935003	2626.612553
501.301226	2626.526853
501.667390	2624.893520
502.033497	2628.102214
502.399546	2627.449385
502.765537	2625.750516
503.131470	2628.427368
503.497345	2630.499283
503.863163	2631.353758
504.228923	2628.704632
504.594625	2632.472894
504.960269	2630.930301
505.325856	2630.499283
505.691385	2632.621608
506.056856	2633.856691
506.422270	2631.497431
506.787625	2633.241670
507.152924	2631.270579
507.518164	2635.172432
507.883347	2638.136631
508.248472	2637.095632
508.613540	2635.560601
508.978550	2637.035139
509.343503	2638.938174
509.708398	2640.836169
510.073236	2641.602424
510.438016	2640.737866
510.802738	2641.962867
511.167403	2641.673000
511.532010	2645.204328
511.896561	2646.215080
512.261053	2649.625420
512.625488	2646.638537
512.989866	2646.948568
513.354186	2648.314720
513.718449	2649.138949
514.082655	2650.555513
514.446803	2653.199598
514.810894	2655.689928
515.174927	2658.044147
515.538904	2657.015752
515.902822	2659.193530
516.266684	2661.278047
516.630488	2660.428613
516.994235	2666.944304
517.357925	2668.083605
517.721558	2667.791218
518.085133	2673.061745
518.448651	2675.385717
518.812112	2676.396468
519.175516	2674.211128
519.538863	2676.943433
519.902152	2683.373425
520.265385	2683.741429
520.628560	2686.382994
520.991678	2689.700073
521.354739	2692.157635
521.717743	2695.424303
522.080690	2697.387832
522.443580	2701.987885
522.806413	2703.311188
523.169189	2707.187836
523.531908	2711.344267
523.894569	2711.540872
524.257174	2716.040102
524.619722	2720.095710
524.982213	2721.524877
525.344647	2726.069477
525.707025	2728.436299
526.069345	2733.729511
526.431608	2738.745459
526.793815	2743.315265
527.155964	2748.497571
527.518057	2749.863723
527.880093	2754.592326
528.242072	2760.709766
528.603995	2767.021291
528.965860	2770.083792
529.327669	2776.241561
529.689421	2779.155348
530.051117	2785.570216
530.412755	2793.857873
530.774337	2797.737041
531.135862	2805.225675
531.497331	2810.145841
531.858743	2812.280770
532.220098	2824.074549
532.581396	2827.089159
532.942638	2832.611743
533.303824	2844.700430
533.664953	2851.526152
534.026025	2858.561083
534.387040	2869.840664
534.747999	2879.106305
535.108902	2891.154663
535.469748	2899.417114
535.830537	2907.288876
536.191270	2917.030906
536.551947	2927.793769
536.912567	2939.612754
537.273131	2948.142387
537.633638	2956.208233
537.994089	2970.298258
538.354483	2981.643374
538.714821	2998.564007
539.075103	3012.704444
539.435328	3022.237266
539.795497	3034.366282
540.155609	3050.412275
540.515665	3069.266190
540.875665	3075.456727
541.235609	3095.538163
541.595496	3108.589711
541.955328	3132.555356
542.315102	3142.514155
542.674821	3154.764159
543.034483	3172.803928
543.394090	3185.651309
543.753640	3204.492621
544.113134	3236.577045
544.472571	3243.029722
544.831953	3274.032818
545.191278	3282.706123
545.550548	3299.377219
545.909761	3326.047443
546.268918	3348.694827
546.628019	3377.225237
546.987064	3392.182341
547.346053	3400.245666
547.704986	3434.039041
548.063863	3456.658698
548.422684	3477.024960
548.781449	3501.005729
549.140158	3531.280378
549.498811	3552.115467
549.857408	3564.279771
550.215949	3606.741410
550.574434	3628.257055
550.932864	3651.978204
551.291237	3693.466900
551.649555	3717.813153
552.007817	3750.918410
552.366022	3772.486987
552.724173	3803.119558
553.082267	3841.704550
553.440305	3886.444790
553.798288	3894.881161
554.156215	3942.000826
554.514086	3974.856546
554.871902	4000.115248
555.229661	4038.070095
555.587365	4067.525557
555.945014	4102.652317
556.302606	4136.002070
556.660143	4176.807690
557.017625	4219.740677
557.375050	4249.337291
557.732421	4306.206548
558.089735	4341.078729
558.446994	4375.151888
558.804197	4432.230353
559.161345	4472.403307
559.518437	4478.273731
559.875474	4533.371022
560.232455	4584.959670
560.589381	4629.301659
560.946251	4661.756608
561.303065	4734.593719
561.659825	4768.440026
562.016528	4793.469355
562.373177	4823.693593
562.729770	4893.997524
563.086307	4915.326646
563.442789	4979.765195
563.799216	5031.983987
564.155587	5066.699893
564.511904	5114.124548
564.868164	5164.760418
565.224370	5228.105037
565.580520	5264.050984
565.936615	5326.047094
566.292654	5354.892576
566.648638	5422.930509
567.004567	5467.708558
567.360441	5518.777967
567.716260	5564.637344
568.072023	5636.103261
568.427732	5676.863511
568.783385	5703.871493
569.138982	5784.701353
569.494525	5832.486451
569.850013	5870.567327
570.205445	5925.611686
570.560823	5980.494727
570.916145	6022.754720
571.271412	6076.004428
571.626625	6115.438854
571.981782	6163.710423
572.336884	6196.659404
572.691931	6280.559328
573.046923	6297.779909
573.401860	6338.174675
573.756743	6393.710547
574.111570	6451.832530
574.466342	6499.683162
574.821059	6572.873154
575.175722	6579.378763
575.530330	6634.415560
575.884882	6668.614748
576.239380	6718.743982
576.593823	6762.539006
576.948211	6815.322407
577.302544	6821.540671
577.656823	6876.864813
578.011047	6957.891279
578.365216	6989.983265
578.719330	7019.373192
579.073389	7054.384005
579.427394	7115.394569
579.781344	7159.189593
580.135239	7188.312339
580.489080	7242.562716
580.842866	7243.487768
581.196597	7343.635330
581.550273	7383.024386
581.903895	7419.111486
582.257463	7519.359871
582.610975	7504.191039
582.964434	7586.326559
583.317837	7594.309226
583.671186	7628.137889
584.024481	7702.194959
584.377721	7698.575411
584.730906	7789.056561
585.084037	7848.464038
585.437113	7854.004266
585.790135	7921.386849
586.143103	7923.829288
586.496016	7979.234090
586.848874	8032.040176
587.201679	8084.001869
587.554428	8060.205103
587.907124	8131.240002
588.259765	8148.773135
588.612352	8239.070282
588.964884	8208.909059
589.317362	8284.596943
589.669786	8325.248807
590.022155	8342.635747
590.374470	8452.661450
590.726731	8430.109848
591.078937	8402.960714
591.431090	8466.275086
591.783188	8462.032955
592.135232	8463.704098
592.487222	8551.253817
592.839157	8607.220707
593.191038	8601.257022
593.542866	8608.934699
593.894639	8559.274292
594.246358	8638.433011
594.598022	8684.501595
594.949633	8668.642125
595.301190	8700.114048
595.652692	8718.887305
596.004141	8816.204260
596.355535	8707.186787
596.706876	8739.888752
597.058162	8749.754290
597.409395	8862.388791
597.760573	8918.229652
598.111698	8876.118373
598.462768	8916.001462
598.813785	8963.179100
599.164748	8905.694823
599.515657	9005.151747
599.866511	8950.303993
600.217312	9086.301721
600.568060	8947.395248
600.918753	9102.630018
601.269392	9135.145461
601.619978	9093.782793
601.970510	9162.239142
602.320988	9223.411023
602.671412	9310.159199
603.021783	9281.961505
603.372100	9268.373075
603.722363	9306.133837
604.072572	9342.921658
604.422728	9384.511177
604.772830	9374.370896
605.122878	9408.063448
605.472872	9418.231455
605.822813	9494.935131
606.172701	9494.902364
606.522534	9555.645747
606.872314	9626.340368
607.222041	9601.842881
607.571714	9688.074338
607.921333	9614.607082
608.270899	9681.142752
608.620411	9756.596222
608.969870	9744.066434
609.319276	9757.967416
609.668627	9795.438312
610.017926	9889.085307
610.367171	9943.872567
610.716362	9954.479154
611.065500	9958.985946
611.414585	9994.422737
611.763616	10081.624616
612.112594	10070.087935
612.461518	10121.986614
612.810389	10179.823772
613.159207	10146.123659
613.507971	10169.267596
613.856682	10275.686354
614.205340	10258.831256
614.553945	10388.933354
614.902496	10311.531478
615.250994	10384.290452
615.599439	10398.214119
615.947830	10447.924937
616.296169	10432.307442
616.644454	10468.437392
616.992686	10502.122382
617.340864	10600.618966
617.688990	10516.179639
618.037063	10645.951542
618.385082	10628.287339
618.733048	10686.923520
619.080961	10701.938597
619.428821	10705.346417
619.776628	10722.594725
620.124382	10697.744357
620.472083	10731.383976
620.819731	10765.615932
621.167326	10718.450896
621.514868	10724.228058
621.862357	10649.939095
622.209793	10658.594756
622.557176	10610.759247
622.904506	10573.462270
623.251783	10516.179639
623.599007	10478.209668
623.946179	10441.318505
624.293297	10442.316653
624.640363	10332.106948
624.987376	10336.298667
625.334336	10291.896184
625.681243	10225.718437
626.028097	10206.846877
626.374899	10184.512045
626.721647	10178.860912
627.068343	10149.254215
627.414987	10104.231670
627.761577	10051.571777
628.108115	10102.618501
628.454600	9993.578343
628.801032	10020.293938
629.147412	10004.162246
629.493739	10001.278706
629.840014	9925.646275
630.186236	9975.901538
630.532405	9887.464576
630.878521	9935.093397
631.224585	9902.351103
631.570597	9829.196399
631.916556	9846.033853
632.262462	9834.081277
632.608316	9824.803033
632.954117	9810.218975
633.299866	9795.546697
633.645562	9785.449266
633.991206	9699.061533
634.336797	9608.661042
634.682336	9617.651939
635.027823	9566.703518
635.373257	9537.968941
635.718639	9483.635385
636.063968	9464.690729
636.409245	9354.881795
636.754470	9349.765024
637.099642	9302.675606
637.444762	9211.312254
637.789829	9226.077794
638.134845	9162.861725
638.479808	9133.002970
638.824719	9114.653170
639.169577	9034.985296
639.514383	9040.233137
639.859137	8976.991862
640.203839	9017.981484
640.548489	8941.134134
640.893086	8950.361967
641.237632	8892.602946
641.582125	8899.537053
641.926566	8892.328203
642.270955	8880.242037
642.615292	8874.016212
642.959576	8859.202782
643.303809	8850.524435
643.647990	8874.598465
643.992118	8848.679373
644.336195	8828.842432
644.680219	8835.007764
645.024192	8867.250984
645.368112	8944.234444
645.711981	8922.950692
646.055797	9060.375067
646.399562	9022.137915
646.743274	9176.394702
647.086935	9247.480013
647.430544	9225.460253
647.774101	9252.165765
648.117606	9274.351883
648.461059	9346.654632
648.804460	9279.443448
649.147810	9166.030090
649.491108	9143.483529
649.834354	9076.905010
650.177548	8936.627343
650.520690	8850.965536
650.863781	8843.655863
651.206820	8819.037388
651.549807	8728.452895
651.892742	8643.169175
652.235626	8606.174667
652.578458	8565.878204
652.921238	8473.226837
653.263967	8510.833845
653.606644	8447.857231
653.949269	8424.128519
654.291843	8353.963220
654.634365	8410.955984
654.976836	8338.126435
655.319255	8333.750713
655.661622	8330.317688
656.003938	8280.564020
656.346203	8257.843539
656.688416	8282.497302
657.030577	8248.146880
657.372687	8213.410809
657.714746	8247.857013
658.056753	8271.308461
658.398708	8173.842793
658.740612	8164.627563
659.082465	8205.977628
659.424266	8159.404928
659.766016	8178.959564
660.107715	8151.770101
660.449362	8179.025099
660.790958	8166.550764
661.132503	8162.290989
661.473996	8153.736151
661.815438	8168.978079
662.156829	8200.772637
662.498168	8147.936303
662.839456	8143.154769
663.180693	8170.934047
663.521879	8184.850152
663.863013	8171.460847
664.204097	8169.794746
664.545129	8243.287208
664.886110	8237.865447
665.227040	8242.384841
665.567918	8252.109227
665.908746	8265.248994
666.249522	8291.024414
666.590248	8288.274464
666.930922	8302.170405
667.271545	8289.935525
667.612118	8311.163823
667.952639	8270.683358
668.293109	8279.265923
668.633528	8254.350020
668.973896	8243.045232
669.314213	8242.394923
669.654480	8205.821352
669.994695	8198.985547
670.334859	8180.005603
670.674973	8161.587748
671.015035	8192.376595
671.355047	8177.996703
671.695008	8154.751943
672.034918	8135.882904
672.374777	8140.810632
672.714585	8114.813402
673.054342	8144.311713
673.394049	8113.323741
673.733705	8155.596336
674.073310	8108.343081
674.412864	8113.782486
674.752368	8049.689256
675.091820	8107.685210
675.431223	8036.118470
675.770574	7992.756985
676.109875	7957.733568
676.449125	7910.576095
676.788324	7901.701143
677.127473	7813.972464
677.466571	7806.418295
677.805619	7749.559120
678.144616	7751.043740
678.483562	7729.601192
678.822458	7678.531783
679.161303	7664.146851
679.500098	7646.802761
679.838842	7623.794935
680.177535	7640.279508
680.516179	7668.225144
680.854771	7687.288268
681.193314	7814.216960
681.531805	7960.017211
681.870247	8085.496572
682.208638	8235.312102
682.546978	8312.724061
682.885268	8340.891508
683.223508	8270.963142
683.561697	8221.091007
683.899836	8189.926594
684.237925	8102.462575
684.575963	8078.905263
684.913951	7990.241449
685.251889	8008.835745
685.589776	8002.927513
685.927614	7986.846232
686.265401	8010.290118
686.603137	8015.784976
686.940824	8090.061336
687.278460	8142.204511
687.616046	8155.747571
687.953582	8269.365096
688.291068	8241.162361
688.628504	8302.616547
688.965889	8300.345507
689.303224	8261.601719
689.640510	8219.820636
689.977745	8118.412786
690.314930	7995.169177
690.652065	7923.040348
690.989150	7807.325702
691.326185	7657.913464
691.663170	7549.158132
692.000105	7427.111797
692.336990	7311.669374
692.673825	7241.398210
693.010610	7147.637789
693.347345	7047.979219
693.684030	6937.784637
694.020665	6890.952318
694.357251	6774.375635
694.693786	6762.352483
695.030272	6726.598100
695.366707	6631.879860
695.703093	6577.042188
696.039429	6574.113278
696.375716	6526.613006
696.711952	6517.221336
697.048139	6487.027345
697.384276	6452.739937
697.720363	6477.139122
698.056400	6450.920081
698.392388	6414.013794
698.728326	6417.900523
699.064214	6388.815586
699.400053	6390.358179
699.735842	6330.774261
700.071581	6286.487725
700.407270	6239.952834
700.742910	6214.505089
701.078501	6173.563358
701.414042	6128.591225
701.749533	6073.879582
702.084974	6021.164236
702.420366	6051.998454
702.755709	5981.008925
703.091002	5930.022695
703.426246	5934.153921
703.761440	5920.278145
704.096584	5879.747268
704.431679	5864.570874
704.766725	5848.943297
705.101721	5837.903170
705.436668	5852.746848
705.771565	5797.508405
706.106413	5852.714080
706.441212	5848.683678
706.775961	5865.097675
707.110661	5876.261310
707.445311	5937.473521
707.779913	5901.262913
708.114465	5942.824705
708.448967	5985.883721
708.783421	6102.621721
709.117825	6149.080994
709.452180	6179.345562
709.786485	6237.240693
710.120742	6368.673656
710.454949	6370.125508
710.789107	6450.501665
711.123216	6571.416261
711.457275	6605.005469
711.791286	6705.682352
712.125247	6727.230764
712.459159	6697.407298
712.793023	6818.682336
713.126837	6657.877090
713.460602	6711.489762
713.794318	6671.301683
714.127985	6618.921574
714.461602	6472.231559
714.795171	6474.807588
715.128691	6311.842208
715.462162	6220.057920
715.795584	6149.880017
716.128957	6102.896463
716.462281	6039.698038
716.795556	6002.872409
717.128782	5918.985089
717.461960	5820.632177
717.795088	5814.222350
718.128167	5737.881637
718.461198	5654.090098
718.794180	5636.199043
719.127113	5578.331638
719.459997	5542.090783
719.792833	5479.993850
720.125619	5479.519982
720.458357	5414.922636
720.791046	5386.208224
721.123686	5358.486919
721.456278	5315.334642
721.788821	5305.340555
722.121315	5260.897742
722.453761	5272.852839
722.786158	5259.854223
723.118506	5258.709882
723.450805	5239.452674
723.783056	5263.022589
724.115259	5239.984516
724.447412	5226.532197
724.779518	5272.933497
725.111574	5279.791987
725.443582	5317.565353
725.775542	5310.621163
726.107453	5394.594183
726.439315	5369.516964
726.771129	5432.785965
727.102895	5495.896170
727.434612	5539.552562
727.766281	5566.406789
728.097901	5628.533969
728.429473	5643.753212
728.760996	5648.688502
729.092471	5674.078273
729.423897	5662.206356
729.755276	5634.653930
730.086606	5644.232122
730.417887	5731.630606
730.749120	5824.309699
731.080305	5858.035018
731.411442	5936.762718
731.742530	5963.861440
732.073570	5980.411548
732.404562	6046.498555
732.735506	6044.499737
733.066401	6023.851171
733.397249	5954.696623
733.728048	5861.044587
734.058798	5714.044541
734.389501	5590.246405
734.720156	5504.952603
735.050762	5400.628445
735.381320	5328.323175
735.711831	5272.058857
736.042293	5189.041135
736.372707	5190.631619
736.703073	5141.762674
737.033391	5176.196275
737.363661	5159.492412
737.693883	5168.642106
738.024056	5194.573802
738.354182	5219.446855
738.684260	5269.273619
739.014290	5306.124454
739.344272	5337.419937
739.674207	5395.607455
740.004093	5422.859933
740.333931	5437.176810
740.663722	5449.096618
740.993464	5458.432835
741.323159	5442.860711
741.652806	5398.990070
741.982405	5368.677612
742.311956	5313.787008
742.641460	5305.133867
742.970915	5254.785343
743.300323	5191.319737
743.629683	5156.165251
743.958996	5110.996512
744.288260	5060.768976
744.617477	5000.880068
744.946647	4986.149817
745.275768	4931.581847
745.604842	4894.869644
745.933869	4866.573647
746.262847	4860.458728
746.591778	4845.325184
746.920662	4824.099406
747.249498	4816.976255
747.578286	4833.259182
747.907027	4854.880691
748.235720	4898.975664
748.564365	4911.286161
748.892963	4893.737905
749.221514	4912.828754
749.550017	4890.146083
749.878473	4888.094333
750.206881	4847.898693
750.535242	4835.114327
750.863555	4816.416687
751.191821	4799.254079
751.520039	4808.323115
751.848210	4787.561122
752.176334	4792.057832
752.504411	4768.238380
752.832440	4747.073095
753.160421	4754.559209
753.488356	4732.058019
753.816243	4720.662490
754.144082	4686.203683
754.471875	4673.847815
754.799620	4665.867669
755.127318	4657.879960
755.454969	4650.771933
755.782572	4642.499400
756.110129	4649.118435
756.437638	4631.902895
756.765100	4626.360146
757.092515	4631.713851
757.419882	4633.873986
757.747203	4627.257471
758.074477	4643.303464
758.401703	4636.099655
758.728882	4664.667874
759.056014	4678.044576
759.383099	4698.373029
759.710138	4724.239189
760.037129	4748.356069
760.364073	4761.568933
760.690970	4754.841513
761.017820	4757.422584
761.344623	4791.594046
761.671379	4851.268704
761.998088	4937.076704
762.324751	5167.286036
762.651366	5630.583198
762.977935	6314.445964
763.304456	6871.254009
763.630931	7173.572005
763.957359	7109.728312
764.283740	6817.527912
764.610074	6498.092678
764.936362	6095.213745
765.262602	5781.280930
765.588796	5440.355258
765.914943	5189.842679
766.241044	4962.080828
766.567097	4792.428357
766.893104	4643.608454
767.219064	4545.600861
767.544978	4449.690389
767.870845	4367.375908
768.196665	4320.427643
768.522438	4270.487452
768.848165	4233.545877
769.173846	4190.254968
769.499479	4159.501409
769.825066	4123.091675
770.150607	4086.263526
770.476101	4064.775607
770.801548	4043.592679
771.126949	4016.801467
771.452303	3998.776821
771.777611	3957.880461
772.102872	3957.177220
772.428087	3932.929270
772.753256	3905.772574
773.078378	3890.339082
773.403453	3850.803832
773.728482	3828.894978
774.053465	3817.812001
774.378401	3794.567241
774.703291	3771.735855
775.028135	3748.906990
775.352932	3742.512286
775.677683	3721.904049
776.002388	3703.546688
776.327046	3706.866287
776.651658	3683.077082
776.976224	3663.766942
777.300743	3665.339782
777.625216	3650.286897
777.949643	3638.669558
778.274024	3645.827997
778.598359	3624.493833
778.922647	3622.827732
779.246889	3612.498408
779.571086	3615.202987
779.895236	3616.067545
780.219339	3614.071248
780.543397	3612.606793
780.867409	3626.313690
781.191374	3629.177065
781.515294	3622.489975
781.839167	3639.065289
782.162995	3631.785862
782.486776	3627.820995
782.810511	3619.084675
783.134201	3609.425825
783.457844	3603.820062
783.781441	3596.016355
784.104993	3589.407403
784.428498	3580.628233
784.751958	3581.066814
785.075372	3577.971545
785.398739	3565.756829
785.722061	3571.286975
786.045337	3571.428127
786.368568	3597.117847
786.691752	3594.861931
787.014891	3637.016060
787.337983	3681.973070
787.661030	3770.772995
787.984031	3866.517109
788.306987	3940.415383
788.629897	3987.751818
788.952760	3995.852952
789.275579	3981.410046
789.598351	3934.038324
789.921078	3882.285838
790.243759	3820.078000
790.566395	3773.308695
790.888984	3724.177610
791.211529	3692.322558
791.534027	3644.781957
791.856480	3602.834516
792.178888	3587.978236
792.501249	3564.297415
792.823566	3531.343393
793.145836	3532.916233
793.468062	3522.365098
793.790241	3507.763396
794.112375	3515.491484
794.434464	3535.827499
794.756507	3531.978578
795.078505	3551.394582
795.400457	3589.072166
795.722364	3638.430103
796.044226	3687.301569
796.366042	3729.985019
796.687812	3727.398907
797.009538	3755.815891
797.331218	3742.451792
797.652852	3735.789908
797.974442	3710.589179
798.295986	3700.229608
798.617484	3671.202644
798.938938	3648.048625
799.260346	3634.054382
799.581709	3600.944083
799.903026	3587.438832
800.224299	3567.430492
800.545526	3538.113662
800.866708	3521.561034
801.187845	3506.906399
801.508936	3485.894870
801.829983	3479.548058
802.150984	3449.641412
802.471940	3440.007767
802.792851	3430.724482
803.113717	3424.226435
803.434538	3415.379210
803.755314	3409.758324
804.076045	3403.908065
804.396731	3391.794172
804.717372	3393.959348
805.037967	3390.889285
805.358518	3390.974984
805.679024	3403.973600
805.999485	3402.562077
806.319901	3407.129362
806.640272	3410.149013
806.960598	3423.059408
807.280879	3420.080086
807.601115	3429.812034
807.921306	3421.673091
808.241453	3426.920932
808.561554	3431.147939
808.881611	3427.924122
809.201623	3428.415634
809.521590	3418.600508
809.841513	3421.189140
810.161390	3423.591250
810.481223	3405.357396
810.801011	3404.881007
811.120755	3402.020153
811.440453	3390.707803
811.760107	3383.027605
812.079716	3375.957387
812.399281	3365.496993
812.718801	3365.985985
813.038276	3358.036085
813.357707	3353.776310
813.677093	3360.055067
813.996434	3346.222141
814.315731	3350.552492
814.634983	3351.028881
814.954191	3352.755477
815.273354	3367.561345
815.592473	3377.058879
815.911547	3397.657034
816.230577	3411.245464
816.549562	3440.108590
816.868502	3457.571147
817.187399	3478.970845
817.506250	3504.413549
817.825058	3509.525279
818.143821	3555.888771
818.462539	3603.613374
818.781213	3656.333761
819.099843	3740.591607
819.418429	3891.856469
819.736970	4041.258625
820.055466	4228.862645
820.373919	4466.018686
820.692327	4803.249193
821.010691	5314.835568
821.329011	6386.917592
821.647286	8108.879964
821.965517	10263.073387
822.283704	11870.334385
822.601847	12939.263168
822.919945	12537.586550
823.237999	11865.588139
823.556010	10976.084105
823.873976	10032.375063
824.191897	9064.808762
824.509775	8300.930281
824.827609	7506.383941
825.145398	6960.341280
825.463144	6579.023362
825.780845	6454.269928
826.098502	6512.248238
826.416116	6894.367700
826.733685	7388.801548
827.051210	7663.965369
827.368692	7579.682318
827.686129	7146.561503
828.003522	6600.339881
828.320872	6032.796699
828.638177	5579.690229
828.955439	5212.394281
829.272656	4878.311974
829.589830	4595.621710
829.906960	4334.394159
830.224046	4129.887151
830.541088	3957.288125
830.858086	3843.960466
831.175041	3750.240375
831.491952	3701.729352
831.808819	3688.299718
832.125642	3722.924883
832.442421	3823.256447
832.759157	4037.611350
833.075849	4412.849637
833.392497	4870.601529
833.709101	5252.254684
834.025662	5361.771231
834.342179	5235.520574
834.658653	4971.754802
834.975083	4700.460066
835.291469	4459.669353
835.607811	4236.978902
835.924110	4078.767330
836.240366	3921.811005
836.556578	3760.509205
836.872746	3628.226808
837.188871	3515.020137
837.504952	3419.114705
837.820990	3348.087368
838.136984	3290.782052
838.452935	3261.931528
838.768842	3247.990217
839.084706	3282.443983
839.400526	3418.219900
839.716303	3639.561842
840.032037	3849.246116
840.347727	3915.933020
840.663373	3826.974298
840.978977	3676.725228
841.294537	3545.251936
841.610054	3442.326698
841.925527	3363.611601
842.240957	3298.419400
842.556344	3237.481932
842.871687	3179.680062
843.186987	3116.257306
843.502244	3064.300653
843.817458	3027.356558
844.132629	2994.021928
844.447756	2969.468988
844.762840	2948.674228
845.077881	2934.266611
845.392879	2918.233221
845.707833	2909.451531
846.022745	2896.616753
846.337613	2895.812689
846.652438	2885.974877
846.967221	2878.725698
847.281960	2875.196890
847.596656	2868.852598
847.911309	2862.556197
848.225919	2858.389683
848.540485	2854.334075
848.855009	2854.071935
849.169490	2847.911645
849.483928	2846.348887
849.798323	2843.714885
850.112675	2840.115501
850.426984	2840.213803
850.741251	2837.857064
851.055474	2832.727690
851.369654	2834.668534
851.683792	2831.641321
851.997887	2834.391271
852.311938	2831.941270
852.625947	2832.677278
852.939914	2829.778615
853.253837	2834.159377
853.567718	2834.227433
853.881555	2831.827844
854.195350	2831.774912
854.509103	2831.275837
854.822812	2830.927998
855.136479	2831.222905
855.450103	2830.446568
855.763685	2828.717452
856.077224	2829.702997
856.390720	2829.735765
856.704173	2835.097032
857.017584	2836.654749
857.330953	2837.715912
857.644278	2838.759430
857.957561	2843.551047
858.270802	2841.133814
858.584000	2840.599452
858.897155	2843.825790
859.210268	2840.352435
859.523339	2836.614419
859.836367	2837.746158
860.149352	2834.353462
860.462295	2835.510407
860.775195	2828.851042
861.088054	2827.734427
861.400869	2828.886331
861.713642	2825.533963
862.026373	2827.893223
862.339062	2832.253821
862.651708	2834.224912
862.964312	2839.074502
863.276873	2839.313957
863.589392	2849.474403
863.901869	2854.623942
864.214303	2861.096783
864.526696	2869.931405
864.839045	2874.082795
865.151353	2877.742673
865.463619	2883.419012
865.775842	2887.706514
866.088023	2890.285064
866.400162	2887.817419
866.712258	2889.841442
867.024313	2889.120557
867.336325	2892.402348
867.648296	2894.617936
867.960224	2894.358316
868.272110	2898.885272
868.583954	2896.460477
868.895755	2902.330901
869.207515	2899.379305
869.519233	2909.557395
869.830909	2908.090419
870.142542	2914.192736
870.454134	2914.744742
870.765684	2920.060639
871.077191	2927.362750
871.388657	2930.004315
871.700081	2935.786518
872.011463	2941.064607
872.322803	2947.534928
872.634101	2953.150773
872.945357	2962.378605
873.256571	2974.419401
873.567744	2975.810759
873.878874	2980.627582
874.189963	2987.602018
874.501010	2992.890189
874.812015	2990.362050
875.122979	3001.941580
875.433900	3001.157681
875.744780	3000.502331
876.055618	3009.563805
876.366415	3012.885925
876.677169	3014.178981
876.987882	3021.821371
877.298554	3031.301260
877.609183	3046.870864
877.919771	3065.724779
878.230317	3086.794282
878.540822	3122.911629
878.851285	3173.275276
879.161707	3240.541912
879.472087	3342.479084
879.782425	3506.571163
880.092722	3780.225158
880.402977	4197.758725
880.713191	4736.456425
881.023363	5324.975849
881.333494	5759.936685
881.643583	6045.689450
881.953631	6122.685513
882.263637	6070.693573
882.573602	5925.047076
882.883526	5760.173619
883.193408	5563.566099
883.503248	5342.781204
883.813048	5128.146518
884.122806	4910.829937
884.432522	4669.202392
884.742197	4450.708702
885.051831	4246.506683
885.361424	4051.197260
885.670975	3884.176271
885.980485	3738.769229
886.289954	3614.628295
886.599382	3514.647091
886.908768	3426.908329
887.218113	3347.963860
887.527417	3291.656692
887.836680	3231.903895
888.145901	3185.394210
888.455082	3148.598828
888.764221	3118.031792
889.073319	3085.226483
889.382376	3067.610171
889.691392	3048.947819
890.000366	3043.347097
890.309300	3034.212527
890.618193	3031.258411
890.927044	3030.396373
891.235855	3026.179448
891.544625	3033.471477
891.853353	3035.576159
892.162041	3051.571740
892.470687	3077.213569
892.779293	3107.163064
893.087858	3154.718789
893.396381	3234.986561
893.704864	3338.418435
894.013306	3492.463494
894.321707	3679.452493
894.630068	3830.190554
894.938387	3903.559508
895.246665	3914.450920
895.554903	3853.238710
895.863100	3768.212088
896.171256	3695.339689
896.479371	3623.783031
896.787446	3544.583983
897.095480	3474.176708
897.403473	3422.933379
897.711425	3365.756612
898.019336	3316.567554
898.327207	3262.690222
898.635038	3217.206411
898.942827	3162.996363
899.250576	3122.289046
899.558284	3083.701534
899.865952	3058.256310
900.173579	3029.274717
900.481165	3007.353259
900.788711	2989.699138
901.096216	2976.844196
901.403681	2959.875672
901.711105	2953.022223
902.018489	2947.184567
902.325832	2956.908953
902.633135	2963.822896
902.940397	3000.477125
903.247619	3089.816454
903.554800	3266.428238
903.861941	3537.309598
904.169041	3798.690905
904.476101	3967.420844
904.783121	3987.439266
905.090100	3924.689504
905.397039	3816.322340
905.703938	3712.605641
906.010796	3608.604117
906.317614	3522.874254
906.624391	3439.614557
906.931129	3367.914226
907.237826	3304.088177
907.544483	3237.391191
907.851099	3168.503824
908.157675	3096.201075
908.464211	3024.841022
908.770707	2965.083184
909.077163	2918.573499
909.383578	2884.792727
909.689954	2859.239118
909.996289	2838.489729
910.302584	2824.941628
910.608839	2814.622386
910.915054	2807.809266
911.221229	2800.502114
911.527363	2801.555715
911.833458	2801.162505
912.139513	2805.361786
912.445527	2806.158288
912.751502	2819.164465
913.057436	2834.371106
913.363331	2855.120495
913.669186	2882.143600
913.975000	2920.138777
914.280775	2978.976604
914.586510	3057.784962
914.892205	3168.032476
915.197859	3310.838282
915.503475	3493.292763
915.809050	3668.293899
916.114585	3795.777118
916.420081	3868.843602
916.725536	3901.565731
917.030952	3861.914536
917.336328	3826.626459
917.641665	3779.025363
917.946961	3720.744584
918.252218	3659.766787
918.557435	3587.660643
918.862612	3523.393493
919.167750	3464.785038
919.472848	3388.739233
919.777906	3324.643482
920.082925	3253.094386
920.387904	3183.902028
920.692843	3128.109058
920.997743	3074.498908
921.302603	3030.935777
921.607423	2994.455467
921.912204	2960.636886
922.216946	2935.148813
922.521647	2911.208373
922.826310	2887.446894
923.130932	2871.703371
923.435516	2855.715351
923.740059	2836.705160
924.044564	2822.368119
924.349028	2812.268167
924.653454	2795.423151
924.957840	2784.115843
925.262186	2773.962959
925.566493	2763.197575
925.870761	2748.663929
926.174989	2748.001017
926.479178	2738.054821
926.783328	2728.229612
927.087438	2725.404045
927.391509	2722.954044
927.695541	2712.249154
927.999533	2708.498536
928.303486	2700.775488
928.607400	2697.564273
928.911275	2695.172245
929.215110	2690.153777
929.518906	2688.217974
929.822663	2689.064887
930.126381	2689.400124
930.430060	2687.008097
930.733699	2685.999866
931.037299	2685.838549
931.340861	2686.990453
931.644383	2692.112265
931.947866	2689.039682
932.251309	2686.665298
932.554714	2687.381142
932.858080	2687.731502
933.161407	2686.080524
933.464694	2685.102541
933.767943	2684.643796
934.071153	2682.970132
934.374323	2682.801254
934.677455	2682.607169
934.980548	2679.678259
935.283602	2678.662467
935.586617	2679.194308
935.889593	2678.985100
936.192530	2678.228927
936.495428	2680.676407
936.798287	2684.053981
937.101108	2687.126564
937.403890	2696.240970
937.706632	2705.932588
938.009336	2714.492467
938.312002	2726.016545
938.614628	2735.824110
938.917216	2748.157293
939.219765	2750.980339
939.522275	2759.983840
939.824747	2765.350148
940.127179	2759.900661
940.429573	2760.447626
940.731929	2763.036258
941.034246	2762.106166
941.336524	2759.704056
941.638763	2760.742533
941.940964	2759.986360
942.243126	2755.101482
942.545250	2751.620566
942.847335	2743.426170
943.149381	2736.222361
943.451389	2736.819738
943.753359	2728.983264
944.055290	2724.312635
944.357182	2719.480689
944.659036	2716.287118
944.960851	2714.673949
945.262628	2709.289997
945.564367	2708.349822
945.866067	2707.533155
946.167729	2704.954604
946.469352	2705.529296
946.770937	2705.741024
947.072484	2702.769264
947.373992	2701.332535
947.675462	2701.592155
947.976893	2700.437731
948.278286	2697.234077
948.579641	2695.946062
948.880958	2693.019673
949.182236	2696.389684
949.483476	2695.318439
949.784678	2692.959179
950.085841	2692.888603
950.386967	2696.296423
950.688054	2694.403469
950.989103	2698.764067
951.290114	2701.466126
951.591087	2703.943853
951.892021	2710.071376
952.192917	2715.188147
952.493776	2718.333827
952.794596	2721.986143
953.095378	2723.687532
953.396122	2724.171483
953.696828	2722.664178
953.997496	2718.999259
954.298126	2718.437170
954.598718	2714.835266
954.899272	2711.177909
955.199788	2707.376879
955.500266	2702.897814
955.800706	2696.182997
956.101108	2687.623117
956.401472	2683.426357
956.701798	2675.932682
957.002087	2666.266269
957.302337	2666.697288
957.602550	2660.804179
957.902724	2655.778149
958.202861	2652.864362
958.502960	2644.251550
958.803022	2645.471510
959.103045	2638.643267
959.403031	2633.203862
959.702979	2630.156484
960.002889	2629.163377
960.302762	2627.381329
960.602596	2624.933849
960.902393	2621.992336
961.202153	2620.749691
961.501875	2620.071656
961.801559	2615.925307
962.101205	2615.375821
962.400814	2614.062601
962.700385	2615.090996
962.999918	2613.679473
963.299414	2610.773248
963.598873	2612.061262
963.898293	2608.562702
964.197677	2613.742487
964.497022	2608.058586
964.796331	2608.358535
965.095601	2607.861981
965.394835	2606.934409
965.694030	2605.858123
965.993189	2607.882146
966.292309	2604.633122
966.591393	2604.433997
966.890439	2605.449789
967.189447	2603.786208
967.488419	2606.037084
967.787353	2606.546240
968.086249	2608.275356
968.385108	2606.077413
968.683930	2608.141765
968.982714	2605.732094
969.281462	2607.186467
969.580172	2607.735952
969.878844	2608.663525
970.177480	2610.899277
970.476078	2612.719133
970.774639	2613.445059
971.073162	2613.046808
971.371649	2612.741818
971.670098	2613.709720
971.968510	2612.099071
972.266885	2614.886829
972.565223	2622.791358
972.863524	2619.738940
973.161788	2622.637603
973.460014	2623.237501
973.758204	2619.323045
974.056356	2621.677263
974.354471	2623.655916
974.652550	2623.292953
974.950591	2624.288581
975.248595	2624.054167
975.546563	2625.052316
975.844493	2622.141050
976.142386	2619.446553
976.440243	2619.607870
976.738062	2619.829681
977.035845	2618.609721
977.333590	2617.117540
977.631299	2615.365739
977.928971	2613.719802
978.226606	2613.603856
978.524204	2616.298352
978.821765	2613.941613
979.119290	2612.071345
979.416777	2613.124946
979.714228	2614.057559
980.011642	2612.530090
980.309020	2616.331120
980.606360	2615.978239
980.903664	2617.694752
981.200931	2626.126082
981.498162	2629.843933
981.795356	2644.574184
982.092513	2658.144970
982.389633	2676.938392
982.686717	2692.802903
982.983764	2709.287476
983.280775	2722.129816
983.577749	2728.055692
983.874686	2725.988819
984.171587	2725.668706
984.468451	2718.573282
984.765279	2712.513815
985.062070	2705.153730
985.358824	2696.800538
985.655543	2691.300639
985.952224	2679.905111
986.248869	2670.299192
986.545478	2652.922335
986.842050	2641.927578
987.138586	2631.966258
987.435086	2622.425875
987.731549	2612.845162
988.027975	2612.247785
988.324366	2607.214193
988.620719	2604.479367
988.917037	2603.241764
989.213318	2600.413677
989.509563	2600.590117
989.805772	2597.673809
990.101944	2596.350507
990.398080	2595.039807
990.694180	2595.241453
990.990244	2594.535691
991.286271	2594.596185
991.582262	2597.073912
991.878217	2592.877152
992.174136	2597.993923
992.470019	2597.462081
992.765865	2596.290013
993.061676	2599.223964
993.357450	2599.644901
993.653188	2600.953080
993.948890	2602.573811
994.244556	2604.769233
994.540186	2610.231324
994.835780	2616.860441
995.131337	2622.002418
995.426859	2628.505506
995.722345	2636.992289
996.017795	2647.757673
996.313208	2656.962820
996.608586	2661.754437
996.903928	2665.575631
997.199234	2669.953873
997.494504	2669.482525
997.789738	2666.810714
998.084936	2662.180414
998.380099	2657.474497
998.675225	2653.315545
998.970316	2649.534680
999.265371	2640.848772
999.560390	2633.110600
999.855373	2627.030969
1000.150320	2621.445370
1000.445232	2616.563013
1000.740108	2611.738629
1001.034948	2609.253340
1001.329752	2605.001127
1001.624521	2602.614140
1001.919254	2596.118613
1002.213951	2594.392018
1002.508613	2593.729107
1002.803239	2591.571493
1003.097829	2585.925400
1003.392384	2591.357244
1003.686903	2593.900506
1003.981386	2590.089393
1004.275834	2588.007397
1004.570246	2591.374888
1004.864623	2589.343303
1005.158964	2589.348344
1005.453270	2587.324321
1005.747540	2586.041347
1006.041775	2581.887436
1006.335974	2586.782397
1006.630138	2585.663260
1006.924266	2583.331727
1007.218359	2584.289546
1007.512416	2584.723085
1007.806438	2585.010431
1008.100425	2585.310380
1008.394376	2583.639237
1008.688292	2585.358271
1008.982172	2584.914649
1009.276017	2584.781058
1009.569827	2583.709813
1009.863602	2587.077304
1010.157341	2583.172930
1010.451045	2585.144022
1010.744714	2585.091089
1011.038347	2583.586305
1011.331945	2583.838363
1011.625508	2583.077148
1011.919036	2583.588826
1012.212528	2583.021696
1012.505986	2580.047415
1012.799408	2582.857858
1013.092795	2583.334247
1013.386147	2583.538414
1013.679464	2579.621438
1013.972745	2579.964236
1014.265992	2581.418609
1014.559204	2582.293249
1014.852380	2580.223855
1015.145521	2581.413568
1015.438628	2584.859196
1015.731699	2581.975656
1016.024736	2581.025399
1016.317737	2583.465317
1016.610703	2584.216449
1016.903635	2578.981211
1017.196531	2579.971798
1017.489393	2582.653692
1017.782219	2580.859041
1018.075011	2579.465162
1018.367768	2582.131932
1018.660490	2585.501943
1018.953177	2585.501943
1019.245829	2585.501943
