Dividing Wavelength (nm)	Counts (n)	Blue Motor Position (mm): 40.300000	Red Motor Position (mm): 0.000000	
326.493990	2250.272774
326.888308	2250.272774
327.282561	2250.272774
327.676750	2209.028574
328.070874	2204.400795
328.464933	2207.864068
328.858929	2211.261805
329.252859	2217.323793
329.646726	2224.767057
330.040528	2239.837586
330.434265	2247.802609
330.827938	2268.287338
331.221547	2285.502878
331.615091	2299.592903
332.008571	2320.203661
332.401986	2340.385920
332.795338	2361.455423
333.188625	2378.812115
333.581847	2396.138561
333.975006	2417.409710
334.368100	2435.711619
334.761129	2455.626697
335.154095	2472.892649
335.546996	2497.359889
335.939833	2537.837834
336.332606	2554.299722
336.725315	2566.159036
337.117960	2580.359967
337.510540	2590.412027
337.903056	2600.839654
338.295508	2609.044132
338.687896	2617.420009
339.080220	2623.784466
339.472480	2632.500621
339.864676	2636.208389
340.256807	2643.119811
340.648875	2648.186171
341.040879	2647.679535
341.432818	2650.847900
341.824694	2655.251348
342.216506	2655.904177
342.608253	2655.561379
342.999937	2655.311842
343.391557	2655.863848
343.783113	2657.797131
344.174605	2654.364105
344.566033	2654.243117
344.957397	2653.877634
345.348697	2652.602222
345.739934	2650.825215
346.131106	2648.574340
346.522215	2646.134421
346.913260	2645.663073
347.304241	2643.694503
347.695159	2640.110242
348.086012	2638.605458
348.476802	2639.230561
348.867528	2631.227729
349.258191	2633.264356
349.648789	2629.060033
350.039324	2628.225722
350.429796	2632.246042
350.820203	2631.197483
351.210548	2628.785290
351.600828	2625.090125
351.991045	2626.657923
352.381198	2625.259003
352.771288	2623.749178
353.161314	2623.792028
353.551276	2622.072994
353.941175	2622.647686
354.331010	2622.987963
354.720782	2621.813375
355.110490	2621.601646
355.500135	2622.695577
355.889717	2625.347223
356.279235	2623.355968
356.668689	2620.961420
357.058080	2621.790689
357.447408	2623.960906
357.836672	2622.642644
358.225873	2623.585340
358.615010	2625.395114
359.004084	2621.944445
359.393095	2627.328397
359.782043	2628.674385
360.170927	2628.550877
360.559748	2627.769498
360.948505	2630.219499
361.337199	2629.254118
361.725830	2629.796042
362.114398	2630.317801
362.502903	2630.527009
362.891344	2628.611371
363.279722	2629.417955
363.668037	2632.452730
364.056289	2632.929119
364.444478	2635.994140
364.832603	2634.088584
365.220665	2632.465333
365.608665	2634.499438
365.996601	2636.578914
366.384474	2636.893986
366.772284	2636.639408
367.160031	2638.386168
367.547715	2637.705612
367.935336	2636.430200
368.322893	2634.317957
368.710388	2634.055817
369.097820	2637.529172
369.485189	2636.011784
369.872495	2641.577218
370.259738	2641.615027
370.646918	2643.225676
371.034035	2641.783906
371.421090	2643.339102
371.808081	2644.702734
372.195010	2641.378093
372.581875	2646.230203
372.968678	2644.460758
373.355418	2645.766417
373.742096	2647.659370
374.128710	2645.337919
374.515262	2649.055770
374.901751	2645.902528
375.288177	2648.498722
375.674540	2648.438229
376.060841	2645.658032
376.447079	2649.396048
376.833254	2650.915956
377.219367	2650.946203
377.605417	2652.216573
377.991404	2652.453508
378.377329	2650.704227
378.763191	2652.496357
379.148991	2652.836635
379.534727	2655.609270
379.920402	2654.076759
380.306013	2654.868220
380.691563	2655.747902
381.077049	2655.652120
381.462474	2655.321924
381.847835	2656.327634
382.233134	2658.349137
382.618371	2657.877789
383.003545	2660.315187
383.388657	2660.264776
383.773706	2661.154539
384.158693	2663.813748
384.543618	2661.681340
384.928480	2664.048162
385.313280	2664.136382
385.698017	2666.684685
386.082692	2668.804490
386.467305	2670.188287
386.851856	2674.629543
387.236344	2677.445028
387.620770	2678.894360
388.005133	2686.889630
388.389435	2700.135261
388.773674	2709.317723
389.157851	2725.633417
389.541965	2750.350195
389.926018	2770.648401
390.310008	2802.891621
390.693936	2837.352948
391.077802	2875.766541
391.461606	2912.118301
391.845348	2960.951958
392.229027	3015.134280
392.612645	3061.412072
392.996200	3131.952938
393.379694	3199.726210
393.763125	3280.853499
394.146494	3345.302131
394.529801	3424.942279
394.913047	3517.754963
395.296230	3556.135787
395.679351	3660.926252
396.062410	3750.537803
396.445408	3799.104279
396.828343	3897.537849
397.211217	3993.213908
397.594028	3989.949761
397.976778	4121.879278
398.359466	4215.639698
398.742092	4292.081234
399.124656	4292.968478
399.507158	4430.019807
399.889598	4537.557700
400.271977	4686.428015
400.654294	4731.289243
401.036549	4818.289476
401.418742	4809.875790
401.800874	5022.819170
402.182944	5117.043376
402.564952	5255.980097
402.946898	5347.628274
403.328783	5254.775261
403.710606	5300.352333
404.092367	5625.471468
404.474067	5681.251835
404.855705	5624.979955
405.237282	5593.291262
405.618797	5851.912537
406.000250	5864.749835
406.381642	6071.384211
406.762972	6112.575479
407.144240	6188.344021
407.525447	6192.283683
407.906593	6236.920580
408.287677	6400.130456
408.668700	6322.743703
409.049661	6449.274144
409.430560	6490.969528
409.811399	6359.864240
410.192176	6636.583257
410.572891	6638.025027
410.953545	6848.657037
411.334138	6587.646256
411.714669	6760.421721
412.095139	6558.183232
412.475547	6807.982487
412.855894	6872.257199
413.236180	7056.977679
413.616405	6743.881696
413.996568	6960.616023
414.376670	6992.743296
414.756711	6889.750003
415.136691	6988.158367
415.516609	7185.441402
415.896466	7186.510127
416.276262	7378.373922
416.655997	7362.703495
417.035670	7552.570993
417.415283	7891.245790
417.794834	7935.751617
418.174324	7797.654249
418.553753	7717.623411
418.933121	8035.321967
419.312428	8136.757544
419.691674	7914.856034
420.070859	8390.317501
420.449983	8072.598779
420.829045	8433.500024
421.208047	8216.947179
421.586988	8508.411571
421.965867	8527.961165
422.344686	8639.108525
422.723444	8673.032970
423.102141	8043.491157
423.480777	8796.211044
423.859352	8316.865368
424.237866	8937.232281
424.616319	8809.360893
424.994712	9220.668636
425.373044	8787.066391
425.751314	9245.168643
426.129524	9114.799364
426.507673	9233.763033
426.885762	9384.359942
427.263789	9300.795256
427.641756	9222.367505
428.019662	9322.149583
428.397508	9567.794928
428.775292	9254.222556
429.153016	9627.378846
429.530679	9460.501530
429.908282	9502.771605
430.285824	9222.231393
430.663305	9898.174507
431.040726	9349.926341
431.418086	9337.714146
431.795385	9659.490996
432.172624	9744.988965
432.549802	9664.406121
432.926920	9753.637064
433.303977	9620.754770
433.680974	9831.162449
434.057910	9914.381817
434.434786	9984.645419
434.811601	9818.226848
435.188355	10384.030832
435.565050	10122.442839
435.941683	10045.676148
436.318257	10537.536488
436.694770	10677.184011
437.071222	10737.813968
437.447614	10576.595348
437.823946	10478.847374
438.200218	10608.427713
438.576429	10433.030848
438.952580	10671.427013
439.328670	10718.322347
439.704700	10513.286017
440.080670	10501.565334
440.456580	11047.610516
440.832429	10814.142078
441.208218	10407.358772
441.583947	10732.404810
441.959616	10888.262163
442.335224	10693.605569
442.710773	10832.012969
443.086261	11037.419823
443.461689	10317.129680
443.837057	10977.699794
444.212365	11242.380536
444.587612	10878.066430
444.962800	11105.850966
445.337927	10863.522701
445.712995	10485.111008
446.088002	11555.113556
446.462949	11214.510517
446.837837	11191.293483
447.212664	11156.232258
447.587431	11697.959691
447.962139	12428.460692
448.336786	14703.256160
448.711374	15232.325256
449.085901	13077.136205
449.460369	12696.224099
449.834776	12143.194399
450.209124	13034.230944
450.583412	13456.009163
450.957640	14404.028391
451.331808	13502.670083
451.705917	12518.231039
452.079965	11800.602625
452.453954	12709.578116
452.827883	12352.346831
453.201752	12643.400369
453.575562	12174.220180
453.949311	12584.058426
454.323001	12557.579766
454.696632	12789.424952
455.070202	13072.001789
455.443713	13289.903144
455.817164	13765.498201
456.190556	13753.051592
456.563888	14113.897384
456.937160	14276.056180
457.310373	13616.116209
457.683526	13718.857445
458.056619	13251.774377
458.429653	13424.844750
458.802628	12826.144716
459.175542	13211.989591
459.548398	14165.707843
459.921194	14516.357901
460.293930	14580.496502
460.666607	15447.499346
461.039224	16501.954975
461.411782	17207.981174
461.784280	17044.783901
462.156719	17114.757637
462.529099	16802.685008
462.901419	15733.831843
463.273680	15518.904770
463.645882	15402.151647
464.018024	15129.974709
464.390106	15353.605335
464.762130	16065.998511
465.134094	16845.781832
465.505999	18863.904431
465.877845	22125.694807
466.249631	24961.600944
466.621358	24610.237562
466.993026	23165.992356
467.364634	22613.870063
467.736184	21151.179275
468.107674	20339.619040
468.479105	20479.899228
468.850477	19946.754359
469.221790	19533.203304
469.593043	18854.096866
469.964238	18271.641951
470.335373	17935.946475
470.706449	18409.116737
471.077467	17970.639696
471.448425	19814.386262
471.819324	23895.593511
472.190164	25830.214437
472.560945	22222.933623
472.931667	19884.425533
473.302330	19265.056769
473.672934	18844.813581
474.043479	19119.480849
474.413965	18927.974976
474.784393	18541.663795
475.154761	19272.038767
475.525070	19217.674964
475.895321	18910.451925
476.265513	19507.112812
476.635645	20095.849005
477.005719	19866.484067
477.375734	20054.947603
477.745691	20541.033301
478.115588	21071.813869
478.485427	21617.065069
478.855207	22692.554913
479.224928	24463.126611
479.594591	26708.643057
479.964194	26683.893512
480.333739	26906.536071
480.703226	26478.141338
481.072653	26177.887694
481.442022	26773.323581
481.811333	27686.362242
482.180584	27589.967819
482.549777	26635.385009
482.918912	26295.490252
483.287988	26419.056494
483.657005	26065.472484
484.025964	25838.093761
484.394864	25732.141310
484.763706	25396.440793
485.132489	24845.561144
485.501213	25023.539081
485.869879	24933.259577
486.238487	24767.476192
486.607036	24901.822942
486.975527	24624.713236
487.343959	24943.546052
487.712333	24865.680389
488.080648	24524.321177
488.448905	25020.716035
488.817104	24790.105932
489.185244	25470.817977
489.553326	25427.574959
489.921350	26437.814628
490.289315	28760.748073
490.657222	30519.556239
491.025070	31019.553001
491.392861	30770.449424
491.760593	29920.780588
492.128267	29020.433031
492.495883	27957.460373
492.863440	27093.595647
493.230939	26230.988688
493.598380	26056.022841
493.965763	25680.575347
494.333088	25199.616502
494.700354	25153.489945
495.067563	25008.834035
495.434713	24760.622743
495.801805	24932.037098
496.168839	24720.691764
496.535815	24573.180040
496.902733	24792.084584
497.269593	24464.366735
497.636395	24637.956347
498.003139	24599.946047
498.369825	24337.826211
498.736453	24554.898296
499.103023	24418.698922
499.469535	24429.643267
499.835989	24645.245855
500.202385	24665.901983
500.568723	24175.155738
500.935003	24406.600153
501.301226	24049.744434
501.667390	24891.211313
502.033497	25104.784837
502.399546	24838.669887
502.765537	24395.111363
503.131470	24772.328303
503.497345	24914.420785
503.863163	24151.139682
504.228923	24723.240067
504.594625	24940.168479
504.960269	24482.661082
505.325856	24961.779905
505.691385	24373.946079
506.056856	24981.649613
506.422270	24951.470746
506.787625	24494.432176
507.152924	24924.298926
507.518164	24953.154491
507.883347	24768.071048
508.248472	24455.842143
508.613540	25228.988785
508.978550	25024.885069
509.343503	25037.447624
509.708398	25259.094556
510.073236	25418.919298
510.438016	25637.972556
510.802738	25302.115763
511.167403	25556.479783
511.532010	25288.451716
511.896561	26037.378134
512.261053	26005.031570
512.625488	25825.137995
512.989866	25721.655710
513.354186	25558.642438
513.718449	25678.029564
514.082655	26060.012915
514.446803	25783.404803
514.810894	26277.873940
515.174927	25747.015234
515.538904	25792.862008
515.902822	26273.757838
516.266684	26032.495776
516.630488	25944.628465
516.994235	25898.406125
517.357925	26227.689253
517.721558	26396.600675
518.085133	26507.816090
518.448651	26393.765026
518.812112	26147.592880
519.175516	26364.995161
519.538863	26508.219382
519.902152	26296.831199
520.265385	26568.972848
520.628560	26371.258794
520.991678	26366.711673
521.354739	26419.709324
521.717743	26514.813212
522.080690	26287.741998
522.443580	26614.582688
522.806413	26592.270541
523.169189	26713.374179
523.531908	26754.860355
523.894569	26374.280966
524.257174	26461.802958
524.619722	26616.674766
524.982213	26316.075804
525.344647	26347.499836
525.707025	26511.370104
526.069345	26462.599461
526.431608	26436.768588
526.793815	26617.665353
527.155964	26101.819203
527.518057	26277.200946
527.880093	26191.153491
528.242072	26421.652689
528.603995	26139.403526
528.965860	25931.443327
529.327669	25969.942619
529.689421	25952.159949
530.051117	25791.788242
530.412755	25971.165099
530.774337	25760.386895
531.135862	25637.909541
531.497331	25836.651991
531.858743	25413.313535
532.220098	25879.527004
532.581396	25574.753966
532.942638	25479.690407
533.303824	25595.778098
533.664953	25585.549597
534.026025	25256.168166
534.387040	25500.933830
534.747999	25549.109616
535.108902	25723.702418
535.469748	25210.235693
535.830537	25382.960747
536.191270	25519.472673
536.551947	25353.225501
536.912567	24995.109494
537.273131	25397.083540
537.633638	25075.021865
537.994089	25294.559073
538.354483	24804.137983
538.714821	25313.481044
539.075103	25356.653486
539.435328	25126.376099
539.795497	24716.817637
540.155609	25067.833179
540.515665	25387.442333
540.875665	24604.031902
541.235609	24931.109525
541.595496	24884.599840
541.955328	25232.106739
542.315102	25166.705330
542.674821	24668.107488
543.034483	24561.441714
543.394090	24732.591407
543.753640	24530.519276
544.113134	25166.324723
544.472571	24749.542287
544.831953	25056.808176
545.191278	24703.655184
545.550548	24597.344811
545.909761	24798.333095
546.268918	25024.378433
546.628019	25021.139492
546.987064	24693.020870
547.346053	24442.485606
547.704986	24534.078331
548.063863	24703.496388
548.422684	24715.859818
548.781449	24231.268822
549.140158	24643.582274
549.498811	24227.162802
549.857408	23977.595440
550.215949	24380.247521
550.574434	24068.016096
550.932864	24272.984370
551.291237	24449.328973
551.649555	24281.251862
552.007817	24356.551577
552.366022	24203.242527
552.724173	24235.178237
553.082267	24195.368245
553.440305	24681.700959
553.798288	23933.286218
554.156215	24432.990593
554.514086	24551.845877
554.871902	23938.113123
555.229661	24208.152611
555.587365	24052.570000
555.945014	23954.464105
556.302606	24177.013404
556.660143	24156.027080
557.017625	24396.411981
557.375050	23920.453961
557.732421	24297.602845
558.089735	24120.040803
558.446994	24173.943341
558.804197	24203.933165
559.161345	24121.822851
559.518437	23899.152565
559.875474	24076.828033
560.232455	24265.596559
560.589381	24065.951743
560.946251	24070.448452
561.303065	24380.292891
561.659825	24471.996521
562.016528	24070.246806
562.373177	23810.483710
562.729770	24177.804865
563.086307	24025.834241
563.442789	24204.233114
563.799216	24027.795250
564.155587	24039.210943
564.511904	24016.578682
564.868164	23972.939934
565.224370	23926.173150
565.580520	23863.269632
565.936615	23970.777279
566.292654	23669.719572
566.648638	23926.505866
567.004567	23760.709878
567.360441	23711.069636
567.716260	23435.782307
568.072023	23755.948508
568.427732	23540.729048
568.783385	23304.475373
569.138982	23542.082597
569.494525	23573.181475
569.850013	23338.364529
570.205445	23438.786834
570.560823	23250.910592
570.916145	23018.427700
571.271412	23199.158107
571.626625	22940.839302
571.981782	23057.262229
572.336884	22864.281819
572.691931	23006.805320
573.046923	22736.551583
573.401860	22616.383078
573.756743	22641.551039
574.111570	22536.790821
574.466342	22463.961271
574.821059	22548.554353
575.175722	22253.036874
575.530330	22216.806101
575.884882	22238.684709
576.239380	22155.331750
576.593823	22045.626160
576.948211	22018.388806
577.302544	21863.995908
577.656823	21733.934139
578.011047	21839.873987
578.365216	21714.205583
578.719330	21589.638672
579.073389	21476.648770
579.427394	21624.760390
579.781344	21381.849872
580.135239	21262.122468
580.489080	21215.249819
580.842866	20998.243270
581.196597	21216.789892
581.550273	21168.750216
581.903895	21061.668547
582.257463	21365.662727
582.610975	20895.807024
582.964434	21220.013710
583.317837	20900.707025
583.671186	20986.227680
584.024481	20975.215279
584.377721	20737.509752
584.730906	20820.910601
585.084037	20817.023871
585.437113	20744.239692
585.790135	20944.449117
586.143103	20392.251207
586.496016	20421.237842
586.848874	20653.057822
587.201679	20571.058413
587.554428	20261.150960
587.907124	20595.790314
588.259765	20361.480004
588.612352	20430.218657
588.964884	19997.211268
589.317362	20167.680406
589.669786	20232.970910
590.022155	20244.721840
590.374470	20464.780808
590.726731	20241.782847
591.078937	20030.344252
591.431090	20109.971798
591.783188	19874.280211
592.135232	19835.861578
592.487222	19933.062586
592.839157	19940.470561
593.191038	19832.191618
593.542866	19712.680983
593.894639	19419.064019
594.246358	19641.041146
594.598022	19524.048568
594.949633	19291.353948
595.301190	19262.571480
595.652692	19444.864644
596.004141	19662.609723
596.355535	18989.116610
596.706876	19023.930819
597.058162	18900.961953
597.409395	19146.314911
597.760573	19198.805925
598.111698	18974.444332
598.462768	18905.309948
598.813785	18887.275220
599.164748	18685.321556
599.515657	18744.494620
599.866511	18533.786992
600.217312	18892.863339
600.568060	18404.244462
600.918753	18725.975941
601.269392	18619.625239
601.619978	18420.466895
601.970510	18594.583307
602.320988	18556.434376
602.671412	18738.435153
603.021783	18677.495165
603.372100	18391.170229
603.722363	18539.634730
604.072572	18479.975195
604.422728	18622.700343
604.772830	18381.322335
605.122878	18334.842897
605.472872	18327.132452
605.822813	18306.917425
606.172701	18296.492319
606.522534	18469.287949
606.872314	18495.496908
607.222041	18333.801898
607.571714	18554.236432
607.921333	18382.680926
608.270899	18459.452658
608.620411	18613.255741
608.969870	18410.452643
609.319276	18396.329850
609.668627	18433.891487
610.017926	18558.276917
610.367171	18675.214042
610.716362	18723.898986
611.065500	18534.780099
611.414585	18678.712603
611.763616	18663.720212
612.112594	18608.789279
612.461518	18578.839784
612.810389	18764.538247
613.159207	18627.144120
613.507971	18530.487557
613.856682	18799.241551
614.205340	18712.621925
614.553945	18867.460965
614.902496	18614.037120
615.250994	18827.489656
615.599439	18772.334392
615.947830	18770.837169
616.296169	18834.685903
616.644454	18797.943453
616.992686	18765.793495
617.340864	18990.661724
617.688990	18730.475171
618.037063	18907.122243
618.385082	18763.870295
618.733048	19036.314413
619.080961	18918.134643
619.428821	18941.850752
619.776628	18834.355708
620.124382	18759.255118
620.472083	18817.649324
620.819731	18825.044697
621.167326	18517.990536
621.514868	18551.425989
621.862357	18336.471189
622.209793	18336.035129
622.557176	18162.750507
622.904506	17988.692068
623.251783	17926.206966
623.599007	17665.181061
623.946179	17611.707021
624.293297	17539.953758
624.640363	17280.518337
624.987376	17312.690981
625.334336	17117.981455
625.681243	16960.316848
626.028097	16971.644320
626.374899	16898.000624
626.721647	16756.636588
627.068343	16591.493429
627.414987	16529.625869
627.761577	16494.834346
628.108115	16531.443205
628.454600	16253.184115
628.801032	16359.955754
629.147412	16297.621887
629.493739	16304.619008
629.840014	16108.452588
630.186236	16208.537136
630.532405	15977.029708
630.878521	16175.870459
631.224585	16083.466109
631.570597	15888.927983
631.916556	15919.394196
632.262462	15895.436112
632.608316	15823.556820
632.954117	15756.431336
633.299866	15751.259112
633.645562	15667.969168
633.991206	15429.928404
634.336797	15307.072964
634.682336	15270.378406
635.027823	15148.286701
635.373257	15019.114695
635.718639	14928.222691
636.063968	14871.247570
636.409245	14628.604233
636.754470	14663.126054
637.099642	14502.038504
637.444762	14281.351912
637.789829	14317.796934
638.134845	14148.154545
638.479808	14178.066231
638.824719	14103.252988
639.169577	13969.029746
639.514383	14010.422660
639.859137	13839.666177
640.203839	13936.221917
640.548489	13769.001802
640.893086	13759.733641
641.237632	13644.197957
641.582125	13787.326397
641.926566	13605.328140
642.270955	13627.473929
642.615292	13583.915839
642.959576	13593.504114
643.303809	13620.333134
643.647990	13551.637331
643.992118	13612.962967
644.336195	13379.088717
644.680219	13612.168986
645.024192	13520.593906
645.368112	13756.950924
645.711981	13809.988904
646.055797	13988.261748
646.399562	13970.773985
646.743274	14237.224172
647.086935	14501.539430
647.430544	14470.889214
647.774101	14509.499412
648.117606	14648.484023
648.461059	14622.905208
648.804460	14607.953146
649.147810	14333.452237
649.491108	14244.647271
649.834354	14259.460701
650.177548	13938.860961
650.520690	13746.120005
650.863781	13665.532120
651.206820	13718.093710
651.549807	13547.269171
651.892742	13336.680010
652.235626	13281.325621
652.578458	13282.810240
652.921238	12988.424500
653.263967	13176.547758
653.606644	13005.345133
653.949269	12994.241991
654.291843	12786.647276
654.634365	12951.573665
654.976836	12800.606231
655.319255	12798.085654
655.661622	12756.276845
656.003938	12682.060978
656.346203	12595.448913
656.688416	12682.812110
657.030577	12640.965492
657.372687	12543.532591
657.714746	12536.411961
658.056753	12716.973489
658.398708	12526.758151
658.740612	12532.293338
659.082465	12644.789207
659.424266	12612.218312
659.766016	12632.125828
660.107715	12545.223898
660.449362	12623.329015
660.790958	12576.204309
661.132503	12516.539732
661.473996	12585.931215
661.815438	12601.924276
662.156829	12631.455355
662.498168	12601.105088
662.839456	12605.148093
663.180693	12607.817384
663.521879	12718.017007
663.863013	12678.766584
664.204097	12655.388233
664.545129	12784.219960
664.886110	12760.014860
665.227040	12851.594982
665.567918	12845.790093
665.908746	12872.936706
666.249522	12864.162578
666.590248	12911.932552
666.930922	13038.689845
667.271545	13009.919980
667.612118	13091.158174
667.952639	12989.415087
668.293109	13014.247810
668.633528	12960.085653
668.973896	12948.216257
669.314213	13008.132891
669.654480	12745.889547
669.994695	12831.899193
670.334859	12854.642359
670.674973	12797.553812
671.015035	12827.873832
671.355047	12777.527829
671.695008	12751.384405
672.034918	12759.334304
672.374777	12801.158237
672.714585	12720.600599
673.054342	12752.685022
673.394049	12702.644009
673.733705	12801.183443
674.073310	12702.212990
674.412864	12721.109755
674.752368	12569.791961
675.091820	12610.806789
675.431223	12589.835589
675.770574	12455.009929
676.109875	12370.525232
676.449125	12327.262049
676.788324	12276.837908
677.127473	12106.025972
677.466571	12103.621341
677.805619	11992.796615
678.144616	11926.414701
678.483562	11899.051318
678.822458	11771.195054
679.161303	11747.196641
679.500098	11734.666853
679.838842	11684.419152
680.177535	11721.980789
680.516179	11787.886314
680.854771	11727.407592
681.193314	11938.788213
681.531805	12100.730240
681.870247	12533.977083
682.208638	12954.240436
682.546978	13252.144902
682.885268	13280.367801
683.223508	12986.889468
683.561697	12831.132938
683.899836	12733.319430
684.237925	12530.460879
684.575963	12447.652365
684.913951	12361.746062
685.251889	12313.988691
685.589776	12415.756985
685.927614	12337.135149
686.265401	12306.149697
686.603137	12360.475692
686.940824	12511.778363
687.278460	12639.732929
687.616046	12673.475893
687.953582	12833.179647
688.291068	12769.860234
688.628504	13002.383455
688.965889	13013.209333
689.303224	12962.525572
689.640510	12856.331146
689.977745	12544.583671
690.314930	12319.196203
690.652065	12226.282697
690.989150	11935.995414
691.326185	11712.483256
691.663170	11499.973415
692.000105	11269.272571
692.336990	11147.906792
692.673825	10891.659901
693.010610	10777.024063
693.347345	10566.616383
693.684030	10377.018587
694.020665	10317.205297
694.357251	10115.793557
694.693786	10041.615498
695.030272	9888.621520
695.366707	9774.557853
695.703093	9710.648625
696.039429	9709.264828
696.375716	9613.545920
696.711952	9488.427002
697.048139	9538.795690
697.384276	9495.335903
697.720363	9513.431125
698.056400	9447.737328
698.392388	9396.120954
698.728326	9355.746353
699.064214	9294.808885
699.400053	9332.743568
699.735842	9153.235641
700.071581	9109.503632
700.407270	9036.333804
700.742910	8956.764232
701.078501	8863.694450
701.414042	8735.018998
701.749533	8678.973970
702.084974	8540.768217
702.420366	8653.518663
702.755709	8532.525930
703.091002	8391.872697
703.426246	8426.931401
703.761440	8374.891570
704.096584	8335.873039
704.431679	8267.434334
704.766725	8254.707942
705.101721	8207.497536
705.436668	8254.546625
705.771565	8147.805233
706.106413	8229.600475
706.441212	8266.388295
706.775961	8231.584169
707.110661	8271.074048
707.445311	8402.537258
707.779913	8305.542937
708.114465	8430.384591
708.448967	8466.277607
708.783421	8623.589333
709.117825	8797.950242
709.452180	8834.758227
709.786485	8924.949510
710.120742	9209.263025
710.454949	9210.974497
710.789107	9317.536927
711.123216	9545.003871
711.457275	9708.564108
711.791286	9857.593218
712.125247	9855.261685
712.459159	9847.841106
712.793023	10077.778216
713.126837	9658.003855
713.460602	9812.598400
713.794318	9639.144899
714.127985	9671.332666
714.461602	9333.393877
714.795171	9286.448132
715.128691	9032.003453
715.462162	8789.670147
715.795584	8726.328048
716.128957	8565.646311
716.462281	8403.558091
716.795556	8450.695400
717.128782	8246.843742
717.461960	7985.631314
717.795088	8057.855925
718.128167	7964.435782
718.461198	7804.558109
718.794180	7745.463183
719.127113	7736.333653
719.459997	7572.291987
719.792833	7346.629776
720.125619	7414.733244
720.458357	7266.775378
720.791046	7262.936540
721.123686	7253.749037
721.456278	7083.753767
721.788821	7108.553724
722.121315	7008.280132
722.453761	7074.311686
722.786158	7016.595516
723.118506	7023.413676
723.450805	6994.842937
723.783056	7047.149949
724.115259	6962.617361
724.447412	6968.684390
724.779518	7019.252204
725.111574	7015.433530
725.443582	7090.859274
725.775542	7071.604587
726.107453	7268.640605
726.439315	7178.335896
726.771129	7250.686536
727.102895	7427.094153
727.434612	7528.459154
727.766281	7570.338539
728.097901	7639.596432
728.429473	7648.675550
728.760996	7634.018395
729.092471	7605.036801
729.423897	7541.823253
729.755276	7546.204015
730.086606	7460.779143
730.417887	7567.976759
730.749120	7780.647916
731.080305	7970.790157
731.411442	8079.240500
731.742530	8063.189466
732.073570	8179.877054
732.404562	8266.736135
732.735506	8119.300029
733.066401	8254.087880
733.397249	8176.892691
733.728048	7934.501411
734.058798	7602.498580
734.389501	7372.410237
734.720156	7200.350615
735.050762	6976.157900
735.381320	6885.260855
735.711831	6823.020249
736.042293	6719.111986
736.372707	6733.668318
736.703073	6599.238389
737.033391	6639.111395
737.363661	6648.384598
737.693883	6683.692839
738.024056	6765.485560
738.354182	6801.562578
738.684260	6835.759245
739.014290	6962.297248
739.344272	7070.636685
739.674207	7102.068279
740.004093	7174.108888
740.333931	7186.321083
740.663722	7192.693102
740.993464	7269.772344
741.323159	7248.392811
741.652806	7005.197467
741.982405	7032.810387
742.311956	7076.915442
742.641460	6903.439256
742.970915	6709.362395
743.300323	6698.672628
743.629683	6656.626884
743.958996	6523.066554
744.288260	6433.054232
744.617477	6377.868721
744.946647	6372.522577
745.275768	6211.989553
745.604842	6166.301576
745.933869	6148.397918
746.262847	6112.847701
746.591778	6092.075627
746.920662	6055.534823
747.249498	6049.518206
747.578286	6101.288335
747.907027	6175.473955
748.235720	6235.612400
748.564365	6208.478390
748.892963	6248.500110
749.221514	6386.912551
749.550017	6201.468665
749.878473	6088.113280
750.206881	6154.974103
750.535242	6100.320434
750.863555	6028.078179
751.191821	6036.277615
751.520039	6038.909098
751.848210	5945.241939
752.176334	5968.842100
752.504411	6016.879255
752.832440	5941.554335
753.160421	5874.103696
753.488356	5916.855201
753.816243	5947.956600
754.144082	5803.104085
754.471875	5777.058964
754.799620	5817.000026
755.127318	5826.822714
755.454969	5784.814779
755.782572	5756.246560
756.110129	5799.071162
756.437638	5773.830105
756.765100	5717.104521
757.092515	5718.833637
757.419882	5773.134426
757.747203	5754.308237
758.074477	5812.470549
758.401703	5796.573271
758.728882	5755.001395
759.056014	5817.909954
759.383099	5937.440753
759.710138	5947.891065
760.037129	5931.323313
760.364073	5936.130053
760.690970	6019.659452
761.017820	5999.230176
761.344623	5957.312982
761.671379	6066.332975
761.998088	6187.353434
762.324751	6443.875068
762.651366	7079.022644
762.977935	8432.527082
763.304456	10085.413043
763.630931	10947.193252
763.957359	10510.541109
764.283740	9555.328154
764.610074	8687.410341
764.936362	7688.354472
765.262602	7100.845799
765.588796	6567.789151
765.914943	6236.066104
766.241044	6061.432973
766.567097	5848.708884
766.893104	5593.155151
767.219064	5422.459161
767.544978	5361.020099
767.870845	5277.021873
768.196665	5170.305687
768.522438	5096.752732
768.848165	5063.493719
769.173846	4992.045446
769.499479	4950.468530
769.825066	4902.292743
770.150607	4838.277651
770.476101	4816.797294
770.801548	4811.400739
771.126949	4728.284715
771.452303	4680.174463
771.777611	4633.873986
772.102872	4657.025485
772.428087	4618.881594
772.753256	4576.795521
773.078378	4527.427502
773.403453	4458.908139
773.728482	4443.746868
774.053465	4398.071494
774.378401	4384.732601
774.703291	4381.758320
775.028135	4307.819717
775.352932	4261.206688
775.677683	4250.151437
776.002388	4267.291360
776.327046	4273.491980
776.651658	4203.001525
776.976224	4140.057678
777.300743	4147.107732
777.625216	4166.916946
777.949643	4161.527953
778.274024	4120.044298
778.598359	4080.821600
778.922647	4103.219447
779.246889	4094.286522
779.571086	4084.602466
779.895236	4074.071495
780.219339	4057.352508
780.543397	4053.251530
780.867409	4110.050210
781.191374	4118.199235
781.515294	4054.267322
781.839167	4047.726425
782.162995	4071.916402
782.486776	4055.943506
782.810511	4067.003797
783.134201	4058.796799
783.457844	4010.626053
783.781441	3960.602684
784.104993	3962.346923
784.428498	3986.365501
784.751958	3979.229747
785.075372	3956.257209
785.398739	3922.685645
785.722061	3932.117644
786.045337	3978.304696
786.368568	4009.927854
786.691752	3919.275305
787.014891	3977.893842
787.337983	4105.921505
787.661030	4268.551649
787.984031	4429.172893
788.306987	4595.349488
788.629897	4680.335780
788.952760	4635.673678
789.275579	4569.906785
789.598351	4499.141588
789.921078	4350.117518
790.243759	4151.508659
790.566395	4141.239829
790.888984	4134.782111
791.211529	4023.806150
791.534027	3965.863128
791.856480	3951.573977
792.178888	3889.719020
792.501249	3843.042976
792.823566	3853.465562
793.145836	3881.086044
793.468062	3827.843897
793.790241	3785.969553
794.112375	3815.057011
794.434464	3882.268194
794.756507	3902.357192
795.078505	3879.712329
795.400457	3920.165068
795.722364	4065.567069
796.044226	4168.893078
796.366042	4244.802773
796.687812	4214.359245
797.009538	4216.552147
797.331218	4178.171322
797.652852	4154.233403
797.974442	4132.997543
798.295986	4130.091317
798.617484	4045.485632
798.938938	3961.835246
799.260346	4005.118593
799.581709	3995.192561
799.903026	3920.749842
800.224299	3888.088206
800.545526	3881.073441
800.866708	3843.481557
801.187845	3785.493164
801.508936	3822.112105
801.829983	3809.194149
802.150984	3732.266141
802.471940	3725.183320
802.792851	3733.864187
803.113717	3734.219588
803.434538	3734.832088
803.755314	3676.979807
804.076045	3651.842093
804.396731	3674.761699
804.717372	3699.652396
805.037967	3684.808719
805.358518	3671.555525
805.679024	3701.184907
805.999485	3719.116291
806.319901	3722.153586
806.640272	3729.422930
806.960598	3745.738625
807.280879	3720.709296
807.601115	3736.349476
807.921306	3752.324892
808.241453	3789.095068
808.561554	3762.399638
808.881611	3699.352448
809.201623	3739.207810
809.521590	3747.828183
809.841513	3718.602093
810.161390	3749.592587
810.481223	3728.245821
810.801011	3672.011750
811.120755	3670.857325
811.440453	3699.869166
811.760107	3704.585165
812.079716	3659.108916
812.399281	3630.588588
812.718801	3656.021210
813.038276	3625.832260
813.357707	3623.193216
813.677093	3641.308602
813.996434	3587.743822
814.315731	3599.900564
814.634983	3599.020883
814.954191	3619.697176
815.273354	3644.923109
815.592473	3640.587717
815.911547	3649.044253
816.230577	3696.864638
816.549562	3745.095878
816.868502	3782.400416
817.187399	3804.362203
817.506250	3804.102583
817.825058	3781.399747
818.143821	3880.012278
818.462539	3979.885097
818.781213	4024.859751
819.099843	4085.469544
819.418429	4345.686344
819.736970	4588.067541
820.055466	4839.043906
820.373919	5212.880752
820.692327	5628.581860
821.010691	6104.466783
821.329011	7561.723207
821.647286	10422.588098
821.965517	15120.530108
822.283704	19143.953130
822.601847	21169.849188
822.919945	19265.810421
823.237999	16632.563710
823.556010	14120.317293
823.873976	11984.584576
824.191897	9863.657727
824.509775	8527.978809
824.827609	7393.802373
825.145398	6864.042639
825.463144	6751.917295
825.780845	6857.418563
826.098502	7074.987201
826.416116	8005.523707
826.733685	9367.068785
827.051210	10462.665271
827.368692	10427.707389
827.686129	9115.111915
828.003522	7606.604600
828.320872	6583.179793
828.638177	5873.720568
828.955439	5303.883661
829.272656	4802.366991
829.589830	4526.754508
829.906960	4353.061552
830.224046	4161.727078
830.541088	4035.814179
830.858086	3988.238289
831.175041	3907.481525
831.491952	3898.016759
831.808819	3905.911206
832.125642	3988.392044
832.442421	4142.464829
832.759157	4430.317235
833.075849	5006.478269
833.392497	5891.745214
833.709101	6679.904412
834.025662	6995.420149
834.342179	6590.935608
834.658653	5914.140540
834.975083	5256.859778
835.291469	4676.196993
835.607811	4274.686733
835.924110	4128.087459
836.240366	3925.859052
836.556578	3718.491188
836.872746	3613.075620
837.188871	3566.323959
837.504952	3501.406501
837.820990	3419.853234
838.136984	3376.171636
838.452935	3402.665420
838.768842	3394.370202
839.084706	3420.271650
839.400526	3584.832556
839.716303	3944.551650
840.032037	4487.388137
840.347727	4732.010128
840.663373	4428.152059
840.978977	4038.125548
841.294537	3729.246490
841.610054	3500.373064
841.925527	3396.852970
842.240957	3327.889985
842.556344	3273.231275
842.871687	3208.374310
843.186987	3159.742299
843.502244	3124.915487
843.817458	3089.660178
844.132629	3057.580795
844.447756	3067.544636
844.762840	3049.439332
845.077881	3018.285001
845.392879	2999.597444
845.707833	2997.394460
846.022745	2996.739110
846.337613	2996.623163
846.652438	2981.524907
846.967221	2980.551965
847.281960	2970.008391
847.596656	2961.801393
847.911309	2964.959676
848.225919	2960.672174
848.540485	2951.177161
848.855009	2953.004579
849.169490	2941.669545
849.483928	2930.294181
849.798323	2935.252156
850.112675	2931.067998
850.426984	2941.367076
850.741251	2936.235181
851.055474	2929.180086
851.369654	2921.835125
851.683792	2927.677823
851.997887	2938.791046
852.311938	2939.358176
852.625947	2927.176228
852.939914	2930.115220
853.253837	2933.447423
853.567718	2919.498550
853.881555	2918.253385
854.195350	2934.972372
854.509103	2927.607246
854.822812	2921.409148
855.136479	2917.371183
855.450103	2919.702717
855.763685	2913.053435
856.077224	2906.883063
856.390720	2923.453336
856.704173	2931.146136
857.017584	2925.729417
857.330953	2920.111051
857.644278	2932.640838
857.957561	2942.045111
858.270802	2943.749021
858.584000	2945.004268
858.897155	2930.147988
859.210268	2928.179417
859.523339	2928.242432
859.836367	2926.939293
860.149352	2921.905701
860.462295	2916.211718
860.775195	2923.803696
861.088054	2923.685229
861.400869	2907.850964
861.713642	2906.885583
862.026373	2921.366298
862.339062	2923.798655
862.651708	2927.793769
862.964312	2931.463729
863.276873	2923.970054
863.589392	2935.640325
863.901869	2946.561985
864.214303	2973.161633
864.526696	2986.019096
864.839045	2978.729588
865.151353	2981.091368
865.463619	2979.440390
865.775842	2981.419043
866.088023	3002.070130
866.400162	3004.129441
866.712258	2975.951912
867.024313	2966.555201
867.336325	2976.566933
867.648296	2997.102073
867.960224	2991.017400
868.272110	2976.955101
868.583954	2981.716471
868.895755	2994.515961
869.207515	2983.972388
869.519233	2988.176710
869.830909	2998.437978
870.142542	3005.147754
870.454134	3004.187414
870.765684	3010.007427
871.077191	3007.169257
871.388657	3017.596884
871.700081	3031.850746
872.011463	3042.427087
872.322803	3039.064637
872.634101	3042.106974
872.945357	3058.520971
873.256571	3083.736822
873.567744	3075.101326
873.878874	3070.884400
874.189963	3093.143615
874.501010	3094.524891
874.812015	3086.630444
875.122979	3085.599528
875.433900	3084.913932
875.744780	3091.538008
876.055618	3092.883996
876.366415	3094.444233
876.677169	3105.663321
876.987882	3102.192486
877.298554	3097.441199
877.609183	3119.420630
877.919771	3144.712098
878.230317	3172.927437
878.540822	3225.113461
878.851285	3264.404214
879.161707	3310.371976
879.472087	3420.017072
879.782425	3664.644103
880.092722	4118.771406
880.402977	4657.748890
880.713191	5313.686185
881.023363	6523.192583
881.333494	7819.807599
881.643583	8342.068617
881.953631	8026.220164
882.263637	7362.274997
882.573602	6748.433858
882.883526	6158.742366
883.193408	5589.422177
883.503248	5133.412003
883.813048	4820.842820
884.122806	4498.672760
884.432522	4176.989172
884.742197	3938.232564
885.051831	3743.737287
885.361424	3616.065024
885.670975	3541.269425
885.980485	3447.435908
886.289954	3368.526726
886.599382	3324.386383
886.908768	3285.899694
887.218113	3242.845720
887.527417	3183.029909
887.836680	3133.568628
888.145901	3130.516209
888.455082	3114.243365
888.764221	3061.374264
889.073319	3034.288144
889.382376	3032.561549
889.691392	3037.448948
890.000366	3035.646735
890.309300	3022.164169
890.618193	3037.645553
890.927044	3053.114333
891.235855	3047.881615
891.544625	3036.619678
891.853353	3051.589384
892.162041	3070.985223
892.470687	3109.058538
892.779293	3163.044254
893.087858	3212.185422
893.396381	3284.253757
893.704864	3412.505753
894.013306	3667.479752
894.321707	3974.049962
894.630068	4174.854243
894.938387	4164.897964
895.246665	4121.652426
895.554903	3992.361953
895.863100	3787.108854
896.171256	3619.326651
896.479371	3474.378354
896.787446	3349.889581
897.095480	3245.305803
897.403473	3180.736184
897.711425	3149.869199
898.019336	3137.409987
898.327207	3104.340018
898.635038	3067.317784
898.942827	3053.714230
899.250576	3041.728887
899.558284	3010.723270
899.865952	2991.287102
900.173579	2968.886735
900.481165	2965.080663
900.788711	2948.981739
901.096216	2921.746905
901.403681	2914.573343
901.711105	2921.295722
902.018489	2920.181627
902.325832	2917.408992
902.633135	2928.204623
902.940397	2963.069243
903.247619	3051.506205
903.554800	3257.452463
903.861941	3623.301601
904.169041	4065.937593
904.476101	4359.849466
904.783121	4291.478817
905.090100	4034.629507
905.397039	3749.345570
905.703938	3498.618743
906.010796	3315.748366
906.317614	3199.416179
906.624391	3102.131992
906.931129	3030.784542
907.237826	2967.853298
907.544483	2919.967378
907.851099	2891.626011
908.157675	2869.848226
908.464211	2848.861903
908.770707	2832.722649
909.077163	2821.259065
909.383578	2805.984369
909.689954	2795.387863
909.996289	2793.426854
910.302584	2793.081535
910.608839	2793.845270
910.915054	2789.058695
911.221229	2780.461007
911.527363	2785.431584
911.833458	2791.228911
912.139513	2798.329377
912.445527	2799.062864
912.751502	2807.779019
913.057436	2818.700679
913.363331	2829.937411
913.669186	2852.655371
913.975000	2890.211967
914.280775	2955.066411
914.586510	3025.153573
914.892205	3108.975359
915.197859	3244.844537
915.503475	3451.337761
915.809050	3672.684744
916.114585	3817.607834
916.420081	3828.489165
916.725536	3764.703445
917.030952	3641.908499
917.336328	3507.539064
917.641665	3373.482181
917.946961	3273.248919
918.252218	3200.936087
918.557435	3118.314096
918.862612	3057.754715
919.167750	3005.989627
919.472848	2966.225005
919.777906	2939.063268
920.082925	2912.811460
920.387904	2882.935062
920.692843	2862.536032
920.997743	2855.463294
921.302603	2838.164574
921.607423	2826.582523
921.912204	2815.587767
922.216946	2803.133596
922.521647	2794.692184
922.826310	2784.478806
923.130932	2777.133845
923.435516	2771.054214
923.740059	2762.159098
924.044564	2754.325145
924.349028	2747.496902
924.653454	2741.656725
924.957840	2736.681106
925.262186	2731.362689
925.566493	2728.711042
925.870761	2721.950855
926.174989	2720.123436
926.479178	2713.116232
926.783328	2709.042980
927.087438	2707.109698
927.391509	2707.676827
927.695541	2702.426466
927.999533	2698.428831
928.303486	2695.641073
928.607400	2697.188707
928.911275	2696.926567
929.215110	2696.987061
929.518906	2693.518747
929.822663	2694.852132
930.126381	2694.441278
930.430060	2691.676205
930.733699	2696.213244
931.037299	2696.361958
931.340861	2698.948070
931.644383	2699.169880
931.947866	2698.098635
932.251309	2694.723583
932.554714	2697.828933
932.858080	2693.203675
933.161407	2689.528674
933.464694	2690.995649
933.767943	2686.322500
934.071153	2688.306194
934.374323	2687.018179
934.677455	2687.020700
934.980548	2685.188240
935.283602	2686.854342
935.586617	2687.368539
935.889593	2686.294773
936.192530	2685.367201
936.495428	2687.466842
936.798287	2688.018848
937.101108	2691.409024
937.403890	2696.563604
937.706632	2703.369162
938.009336	2706.174564
938.312002	2715.712427
938.614628	2726.258521
938.917216	2729.265569
939.219765	2729.215157
939.522275	2730.142730
939.824747	2728.038048
940.127179	2724.544528
940.429573	2721.345916
940.731929	2719.226111
941.034246	2718.558158
941.336524	2715.404916
941.638763	2710.252857
941.940964	2711.286294
942.243126	2708.153217
942.545250	2707.036601
942.847335	2703.923688
943.149381	2700.503266
943.451389	2695.570497
943.753359	2693.919519
944.055290	2691.998839
944.357182	2687.408868
944.659036	2691.507327
944.960851	2689.604291
945.262628	2688.328879
945.564367	2685.525997
945.866067	2688.414579
946.167729	2692.180321
946.469352	2689.654702
946.770937	2685.873837
947.072484	2689.143025
947.373992	2686.138498
947.675462	2685.238652
947.976893	2680.837724
948.278286	2682.352591
948.579641	2680.575584
948.880958	2675.620130
949.182236	2675.915038
949.483476	2677.192970
949.784678	2679.920234
950.085841	2676.814884
950.386967	2680.439473
950.688054	2680.068948
950.989103	2683.123888
951.290114	2680.731860
951.591087	2683.300328
951.892021	2685.828467
952.192917	2688.611184
952.493776	2689.087573
952.794596	2690.141174
953.095378	2691.280475
953.396122	2690.035310
953.696828	2689.412727
953.997496	2689.916842
954.298126	2683.128929
954.598718	2685.324351
954.899272	2680.073990
955.199788	2677.392096
955.500266	2675.451252
955.800706	2672.078720
956.101108	2668.544871
956.401472	2671.110818
956.701798	2669.011177
957.002087	2663.402894
957.302337	2662.694612
957.602550	2663.546567
957.902724	2660.705877
958.202861	2658.371822
958.502960	2658.681853
958.803022	2658.694456
959.103045	2659.238901
959.403031	2658.243273
959.702979	2656.730927
960.002889	2656.572130
960.302762	2652.375370
960.602596	2653.968374
960.902393	2652.766059
961.202153	2653.784372
961.501875	2654.744712
961.801559	2655.059784
962.101205	2652.551810
962.400814	2653.008035
962.700385	2654.656492
962.999918	2648.586943
963.299414	2648.271871
963.598873	2648.944865
963.898293	2647.152734
964.197677	2650.477375
964.497022	2650.961326
964.796331	2652.854279
965.095601	2654.217912
965.394835	2652.448467
965.694030	2649.600215
965.993189	2649.312869
966.292309	2649.280101
966.591393	2650.174906
966.890439	2651.868734
967.189447	2651.732623
967.488419	2650.815133
967.787353	2650.726912
968.086249	2650.976450
968.385108	2650.502581
968.683930	2649.264978
968.982714	2650.197591
969.281462	2649.585091
969.580172	2651.014258
969.878844	2649.189361
970.177480	2650.805050
970.476078	2652.203971
970.774639	2652.410658
971.073162	2649.902684
971.371649	2650.426964
971.670098	2650.069042
971.968510	2650.270688
972.266885	2649.522077
972.565223	2651.934269
972.863524	2649.930410
973.161788	2651.304125
973.460014	2653.396203
973.758204	2648.770945
974.056356	2650.099289
974.354471	2649.007879
974.652550	2649.549803
974.950591	2650.472334
975.248595	2651.525935
975.546563	2650.555513
975.844493	2651.898981
976.142386	2650.190030
976.440243	2649.302787
976.738062	2649.247334
977.035845	2649.539721
977.333590	2647.578712
977.631299	2649.418733
977.928971	2645.206849
978.226606	2647.561068
978.524204	2645.532003
978.821765	2648.569299
979.119290	2649.726243
979.416777	2649.143990
979.714228	2650.006027
980.011642	2649.791778
980.309020	2647.780358
980.606360	2648.687766
980.903664	2647.006541
981.200931	2649.391007
981.498162	2650.542910
981.795356	2649.622900
982.092513	2652.642551
982.389633	2654.837973
982.686717	2656.592295
982.983764	2661.414159
983.280775	2663.901968
983.577749	2665.494973
983.874686	2664.310302
984.171587	2664.542195
984.468451	2661.615805
984.765279	2656.887202
985.062070	2656.405772
985.358824	2653.749084
985.655543	2652.072901
985.952224	2651.795637
986.248869	2647.704741
986.545478	2650.139618
986.842050	2646.371356
987.138586	2646.562919
987.435086	2649.249854
987.731549	2646.250368
988.027975	2646.802374
988.324366	2646.273053
988.620719	2645.395892
988.917037	2645.557209
989.213318	2644.778351
989.509563	2644.851448
989.805772	2645.204328
990.101944	2642.875315
990.398080	2644.480923
990.694180	2646.031078
990.990244	2643.951602
991.286271	2644.294400
991.582262	2645.985707
991.878217	2643.018988
992.174136	2645.259781
992.470019	2645.302631
992.765865	2642.799698
993.061676	2640.987403
993.357450	2641.252064
993.653188	2642.151910
993.948890	2644.561581
994.244556	2644.836324
994.540186	2647.203146
994.835780	2644.586787
995.131337	2648.090389
995.426859	2645.824390
995.722345	2646.598207
996.017795	2648.662560
996.313208	2650.492499
996.608586	2648.826397
996.903928	2648.574340
997.199234	2650.900832
997.494504	2649.753970
997.789738	2649.479227
998.084936	2649.272540
998.380099	2649.640544
998.675225	2648.871768
998.970316	2648.907056
999.265371	2646.331026
999.560390	2646.542755
999.855373	2646.729277
1000.150320	2645.595018
1000.445232	2645.718526
1000.740108	2643.001344
1001.034948	2642.275418
1001.329752	2642.976138
1001.624521	2645.085861
1001.919254	2643.669297
1002.213951	2646.262971
1002.508613	2642.388844
1002.803239	2642.955974
1003.097829	2643.283649
1003.392384	2643.271046
1003.686903	2640.344656
1003.981386	2642.749287
1004.275834	2643.301293
1004.570246	2642.048566
1004.864623	2642.892959
1005.158964	2641.970428
1005.453270	2642.091416
1005.747540	2643.513021
1006.041775	2641.907414
1006.335974	2643.520583
1006.630138	2644.695172
1006.924266	2642.000675
1007.218359	2641.294914
1007.512416	2639.197794
1007.806438	2639.996817
1008.100425	2640.629481
1008.394376	2638.179481
1008.688292	2643.656694
1008.982172	2644.276756
1009.276017	2643.170223
1009.569827	2642.245171
1009.863602	2641.937661
1010.157341	2641.892290
1010.451045	2643.429842
1010.744714	2643.807929
1011.038347	2643.288690
1011.331945	2640.453041
1011.625508	2641.347846
1011.919036	2641.304996
1012.212528	2640.969759
1012.505986	2640.886580
1012.799408	2643.018988
1013.092795	2641.773823
1013.386147	2641.390696
1013.679464	2640.916827
1013.972745	2641.592342
1014.265992	2640.145531
1014.559204	2642.305665
1014.852380	2642.345994
1015.145521	2642.976138
1015.438628	2642.777013
1015.731699	2639.265849
1016.024736	2642.149389
1016.317737	2641.725932
1016.610703	2642.877836
1016.903635	2643.177785
1017.196531	2640.591673
1017.489393	2642.345994
1017.782219	2642.015799
1018.075011	2642.335912
1018.367768	2641.153761
1018.660490	2639.459934
1018.953177	2639.459934
1019.245829	2639.459934
