Dividing Wavelength (nm)	Counts (n)	Blue Motor Position (mm): 37.300000	Red Motor Position (mm): 0.000000	
326.493990	2129.665689
326.888308	2129.665689
327.282561	2129.665689
327.676750	2095.879876
328.070874	2094.034814
328.464933	2097.883735
328.858929	2105.810949
329.252859	2112.644233
329.646726	2125.693260
330.040528	2138.470064
330.434265	2155.733496
330.827938	2170.499035
331.221547	2193.227078
331.615091	2209.860365
332.008571	2228.752089
332.401986	2250.010634
332.795338	2267.125352
333.188625	2286.095214
333.581847	2306.458955
333.975006	2324.312201
334.368100	2344.030674
334.761129	2359.854856
335.154095	2375.371528
335.546996	2396.022614
335.939833	2424.764753
336.332606	2439.615992
336.725315	2449.652930
337.117960	2460.766153
337.510540	2468.698409
337.903056	2480.109061
338.295508	2487.549804
338.687896	2496.669251
339.080220	2505.844151
339.472480	2510.368587
339.864676	2515.818074
340.256807	2519.992149
340.648875	2520.670184
341.040879	2526.964065
341.432818	2524.652696
341.824694	2528.158818
342.216506	2528.604961
342.608253	2528.743592
342.999937	2530.898686
343.391557	2528.426000
343.783113	2527.919364
344.174605	2525.393746
344.566033	2524.206554
344.957397	2524.710669
345.348697	2520.735719
345.739934	2517.932838
346.131106	2517.259844
346.522215	2515.245903
346.913260	2512.758093
347.304241	2515.538290
347.695159	2508.205932
348.086012	2512.140552
348.476802	2506.691065
348.867528	2503.973883
349.258191	2508.939419
349.648789	2504.465395
350.039324	2502.769047
350.429796	2500.934067
350.820203	2498.499190
351.210548	2496.518016
351.600828	2496.759992
351.991045	2497.324601
352.381198	2496.225629
352.771288	2494.816627
353.161314	2495.451812
353.551276	2495.267810
353.941175	2495.678664
354.331010	2497.944663
354.720782	2494.887203
355.110490	2495.552635
355.500135	2495.595485
355.889717	2495.313181
356.279235	2498.993223
356.668689	2497.793428
357.058080	2496.243273
357.447408	2494.088180
357.836672	2493.032058
358.225873	2494.965341
358.615010	2493.541215
359.004084	2495.829899
359.393095	2498.352996
359.782043	2497.498521
360.170927	2500.533295
360.559748	2495.764364
360.948505	2498.950373
361.337199	2501.357524
361.725830	2498.700836
362.114398	2504.107473
362.502903	2503.774757
362.891344	2501.680158
363.279722	2502.819459
363.668037	2504.808194
364.056289	2506.980931
364.444478	2505.219048
364.832603	2505.496311
365.220665	2508.442866
365.608665	2505.345077
365.996601	2505.781137
366.384474	2507.043946
366.772284	2506.071003
367.160031	2509.206601
367.547715	2508.967146
367.935336	2508.150479
368.322893	2508.447907
368.710388	2508.372290
369.097820	2513.012672
369.485189	2510.378669
369.872495	2509.095695
370.259738	2510.865140
370.646918	2512.808505
371.034035	2508.682321
371.421090	2510.464368
371.808081	2511.888494
372.195010	2511.951509
372.581875	2510.764317
372.968678	2514.658608
373.355418	2512.024606
373.742096	2512.047291
374.128710	2513.272291
374.515262	2512.019564
374.901751	2512.836231
375.288177	2515.293794
375.674540	2513.284894
376.060841	2515.593743
376.447079	2513.894874
376.833254	2514.545183
377.219367	2510.721467
377.605417	2515.079545
377.991404	2511.230624
378.377329	2512.382528
378.763191	2511.744822
379.148991	2515.636592
379.534727	2517.043074
379.920402	2518.719258
380.306013	2518.956192
380.691563	2521.980884
381.077049	2518.865451
381.462474	2521.688498
381.847835	2516.647344
382.233134	2516.586850
382.618371	2521.963240
383.003545	2518.137005
383.388657	2522.797551
383.773706	2520.718075
384.158693	2523.294105
384.543618	2523.263858
384.928480	2525.524816
385.313280	2523.944414
385.698017	2522.631193
386.082692	2526.984230
386.467305	2523.659589
386.851856	2526.603623
387.236344	2525.958355
387.620770	2527.463139
388.005133	2528.080681
388.389435	2527.954652
388.773674	2526.260824
389.157851	2527.369878
389.541965	2530.064375
389.926018	2527.926925
390.310008	2532.514375
390.693936	2528.552028
391.077802	2532.436238
391.461606	2525.126564
391.845348	2528.642769
392.229027	2531.813655
392.612645	2531.879190
392.996200	2531.619571
393.379694	2536.015457
393.763125	2533.618388
394.146494	2534.563604
394.529801	2534.976979
394.913047	2538.092412
395.296230	2540.358411
395.679351	2539.589635
396.062410	2547.872251
396.445408	2547.547096
396.828343	2555.562531
397.211217	2554.692932
397.594028	2562.342883
397.976778	2570.416291
398.359466	2580.992631
398.742092	2587.440267
399.124656	2598.911413
399.507158	2617.062087
399.889598	2630.375774
400.271977	2646.106695
400.654294	2660.905002
401.036549	2678.680111
401.418742	2694.287523
401.800874	2720.244424
402.182944	2741.606313
402.564952	2772.891714
402.946898	2792.960548
403.328783	2812.190029
403.710606	2829.652586
404.092367	2884.901112
404.474067	2906.447003
404.855705	2935.226950
405.237282	2947.665998
405.618797	3004.880573
406.000250	3045.603014
406.381642	3097.196703
406.762972	3124.169397
407.144240	3158.436640
407.525447	3193.170190
407.906593	3252.749067
408.287677	3301.713794
408.668700	3315.355156
409.049661	3375.914537
409.430560	3433.625667
409.811399	3447.148562
410.192176	3555.566137
410.572891	3568.831933
410.953545	3658.902229
411.334138	3644.610558
411.714669	3716.855334
412.095139	3702.694733
412.475547	3826.704597
412.855894	3855.784493
413.236180	3903.675454
413.616405	3918.340171
413.996568	4010.943646
414.376670	4016.902290
414.756711	4025.623486
415.136691	4082.381837
415.516609	4171.300229
415.896466	4231.872213
416.276262	4294.004435
416.655997	4321.496367
417.035670	4490.606914
417.415283	4598.096917
417.794834	4590.010906
418.174324	4588.859003
418.553753	4544.958114
418.933121	4728.811516
419.312428	4819.212007
419.691674	4796.292401
420.070859	4936.232311
420.449983	4887.539806
420.829045	5012.890617
421.208047	4958.872133
421.586988	5042.993867
421.965867	5074.473353
422.344686	5222.910128
422.723444	5108.052478
423.102141	4952.739569
423.480777	5251.773254
423.859352	5052.937543
424.237866	5314.646525
424.616319	5319.702802
424.994712	5433.083393
425.373044	5329.550696
425.751314	5480.802955
426.129524	5300.987518
426.507673	5495.689483
426.885762	5586.878915
427.263789	5529.185429
427.641756	5416.132513
428.019662	5545.755702
428.397508	5558.802208
428.775292	5512.163973
429.153016	5617.322443
429.530679	5541.453077
429.908282	5630.610924
430.285824	5506.527963
430.663305	5784.081291
431.040726	5520.867526
431.418086	5522.846178
431.795385	5630.694103
432.172624	5646.525847
432.549802	5636.995546
432.926920	5657.187887
433.303977	5665.200801
433.680974	5706.094641
434.057910	5715.125868
434.434786	5725.165326
434.811601	5690.693916
435.188355	5931.860196
435.565050	5805.428057
435.941683	5785.704543
436.318257	6001.667574
436.694770	5986.667620
437.071222	6019.790522
437.447614	5954.074040
437.823946	5869.301997
438.200218	6020.135841
438.576429	5885.678185
438.952580	5984.618391
439.328670	6030.447521
439.704700	5940.480569
440.080670	5926.340132
440.456580	6197.985228
440.832429	6078.615746
441.208218	5921.588845
441.583947	6080.576755
441.959616	6084.975162
442.335224	6011.863307
442.710773	6146.240304
443.086261	6174.148132
443.461689	5972.612883
443.837057	6113.182938
444.212365	6276.589419
444.587612	6168.358367
444.962800	6323.220092
445.337927	6298.982225
445.712995	5912.214819
446.088002	6487.544064
446.462949	6321.266645
446.837837	6248.084215
447.212664	6422.203148
447.587431	6570.092958
447.962139	7105.254288
448.336786	8035.662245
448.711374	7774.714478
449.085901	6850.542429
449.460369	6769.641992
449.834776	6704.250665
450.209124	7095.396312
450.583412	7247.850887
450.957640	7389.789614
451.331808	7156.885786
451.705917	6708.591098
452.079965	6631.670652
452.453954	6846.990936
452.827883	6720.571400
453.201752	6809.572971
453.575562	6610.212981
453.949311	6820.905485
454.323001	6708.265944
454.696632	6780.843436
455.070202	6919.848212
455.443713	7076.270174
455.817164	7171.616038
456.190556	7254.817761
456.563888	7332.794329
456.937160	7375.432408
457.310373	7029.523555
457.683526	7052.680095
458.056619	6946.563807
458.429653	6931.591580
458.802628	6870.618824
459.175542	6972.336706
459.548398	7333.973959
459.921194	7494.166705
460.293930	7493.831468
460.666607	8025.728652
461.039224	8336.135179
461.411782	8456.742264
461.784280	8477.335378
462.156719	8366.535857
462.529099	8244.318123
462.901419	7837.111360
463.273680	7726.052220
463.645882	7740.323727
464.018024	7605.712316
464.390106	7769.809435
464.762130	8164.486411
465.134094	8631.940004
465.505999	9653.270212
465.877845	10877.990812
466.249631	11511.890703
466.621358	11131.303752
466.993026	10510.392395
467.364634	10248.723742
467.736184	9885.775789
468.107674	9553.846055
468.479105	9590.606149
468.850477	9352.078914
469.221790	9123.137432
469.593043	8795.291033
469.964238	8650.665370
470.335373	8669.920057
470.706449	8732.720232
471.077467	8708.005975
471.448425	10019.978866
471.819324	11083.168295
472.190164	11107.592685
472.560945	9861.308549
472.931667	9074.691944
473.302330	8942.679248
473.672934	8582.594670
474.043479	8943.689999
474.413965	8883.455773
474.784393	8766.594265
475.154761	8924.064787
475.525070	9005.638218
475.895321	8833.896189
476.265513	9015.470989
476.635645	9182.456690
477.005719	9187.659160
477.375734	9297.921798
477.745691	9531.690184
478.115588	9667.609774
478.485427	9912.599769
478.855207	10446.657087
479.224928	11255.805129
479.594591	11888.051521
479.964194	11702.877337
480.333739	11637.964919
480.703226	11551.950232
481.072653	11641.702935
481.442022	11882.518854
481.811333	12066.914180
482.180584	11873.800179
482.549777	11585.383164
482.918912	11406.782645
483.287988	11434.425812
483.657005	11448.848553
484.025964	11126.998607
484.394864	11255.253122
484.763706	11231.226983
485.132489	10984.175157
485.501213	10950.585948
485.869879	11025.409274
486.238487	10863.805006
486.607036	10977.319187
486.975527	10766.041909
487.343959	10951.321957
487.712333	11001.123516
488.080648	10926.549727
488.448905	10970.806017
488.817104	10912.815103
489.185244	11177.079950
489.553326	11337.063487
489.921350	11875.763708
490.289315	12933.884256
490.657222	13279.961988
491.025070	13178.914580
491.392861	13059.575345
491.760593	12676.228363
492.128267	12321.719301
492.495883	12001.474962
492.863440	11663.526090
493.230939	11327.248361
493.598380	11258.716395
493.965763	11128.626899
494.333088	11028.872547
494.700354	10949.008067
495.067563	11002.988743
495.434713	10841.790287
495.801805	10968.708897
496.168839	10891.884233
496.535815	10826.145066
496.902733	10827.009624
497.269593	10758.830538
497.636395	10857.916938
498.003139	10846.927222
498.369825	10716.512573
498.736453	10872.627025
499.103023	10796.107351
499.469535	10832.738895
499.835989	10818.598458
500.202385	10784.981524
500.568723	10633.656168
500.935003	10855.983655
501.301226	10659.159365
501.667390	10918.115877
502.033497	11015.442913
502.399546	10873.496624
502.765537	10787.308017
503.131470	10862.549758
503.497345	11031.032682
503.863163	10641.573300
504.228923	10952.912441
504.594625	11013.416369
504.960269	10761.545200
505.325856	10985.715229
505.691385	10776.588003
506.056856	10928.314131
506.422270	10956.708430
506.787625	10845.840854
507.152924	10960.960643
507.518164	10949.655856
507.883347	10863.915911
508.248472	10780.477253
508.613540	11016.990548
508.978550	10897.134594
509.343503	10874.882941
509.708398	11001.408341
510.073236	11111.224836
510.438016	11107.383477
510.802738	11065.080635
511.167403	11116.923861
511.532010	11013.086174
511.896561	11246.758778
512.261053	11313.382667
512.625488	11185.279386
512.989866	11169.666933
513.354186	11152.398460
513.718449	11057.342463
514.082655	11247.698953
514.446803	11142.124589
514.810894	11268.478589
515.174927	11136.554114
515.538904	11157.353915
515.902822	11309.926956
516.266684	11192.979749
516.630488	11140.183745
516.994235	11192.125273
517.357925	11255.278328
517.721558	11341.814775
518.085133	11359.547034
518.448651	11368.086748
518.812112	11246.478994
519.175516	11255.779923
519.538863	11389.874615
519.902152	11307.343365
520.265385	11464.012344
520.628560	11372.825433
520.991678	11357.449914
521.354739	11420.562639
521.717743	11351.713081
522.080690	11328.445635
522.443580	11471.226235
522.806413	11423.090778
523.169189	11456.206118
523.531908	11508.152687
523.894569	11332.145842
524.257174	11337.917963
524.619722	11451.464912
524.982213	11396.566747
525.344647	11454.514810
525.707025	11400.559341
526.069345	11495.322951
526.431608	11415.236660
526.793815	11522.472085
527.155964	11309.138016
527.518057	11362.634740
527.880093	11309.947121
528.242072	11381.939839
528.603995	11283.962493
528.965860	11207.077336
529.327669	11256.589028
529.689421	11209.706297
530.051117	11174.108189
530.412755	11280.010229
530.774337	11168.963692
531.135862	11147.526185
531.497331	11181.309478
531.858743	11031.025120
532.220098	11193.582167
532.581396	11065.302445
532.942638	11055.149562
533.303824	11011.709939
533.664953	11029.797599
534.026025	10939.203023
534.387040	11041.742613
534.747999	11044.116996
535.108902	11099.153793
535.469748	10864.455314
535.830537	10963.299738
536.191270	10943.571183
536.551947	10961.621034
536.912567	10966.495830
537.273131	10889.151927
537.633638	10867.467404
537.994089	10856.250837
538.354483	10812.619650
538.714821	10948.927409
539.075103	10961.253030
539.435328	10928.707341
539.795497	10753.776782
540.155609	10910.075236
540.515665	10999.389359
540.875665	10727.335930
541.235609	10800.084821
541.595496	10798.111209
541.955328	10958.288832
542.315102	10830.402320
542.674821	10780.746955
543.034483	10788.003696
543.394090	10785.846082
543.753640	10719.562471
544.113134	10933.095665
544.472571	10791.575353
544.831953	10932.190778
545.191278	10743.218085
545.550548	10773.762436
545.909761	10908.199927
546.268918	10882.830320
546.628019	10969.092024
546.987064	10829.986425
547.346053	10755.084961
547.704986	10848.590803
548.063863	10841.475215
548.422684	10823.937040
548.781449	10749.680844
549.140158	10852.532986
549.498811	10726.068080
549.857408	10582.236399
550.215949	10809.700822
550.574434	10667.825109
550.932864	10764.350602
551.291237	10822.951495
551.649555	10771.584658
552.007817	10781.548498
552.366022	10747.011553
552.724173	10736.102496
553.082267	10722.128418
553.440305	10859.121774
553.798288	10662.670529
554.156215	10813.227109
554.514086	10783.804415
554.871902	10640.373505
555.229661	10677.196614
555.587365	10657.213480
555.945014	10539.777280
556.302606	10665.453246
556.660143	10570.480428
557.017625	10716.729342
557.375050	10618.631009
557.732421	10752.733263
558.089735	10663.202371
558.446994	10662.395786
558.804197	10701.741992
559.161345	10703.390449
559.518437	10551.581142
559.875474	10642.815944
560.232455	10675.424648
560.589381	10619.687131
560.946251	10615.354259
561.303065	10720.764786
561.659825	10664.931486
562.016528	10594.010013
562.373177	10469.748092
562.729770	10585.641698
563.086307	10501.580458
563.442789	10596.563358
563.799216	10474.055758
564.155587	10522.821359
564.511904	10478.290327
564.868164	10466.884716
565.224370	10485.272325
565.580520	10406.766436
565.936615	10414.499566
566.292654	10280.896386
566.648638	10403.973637
567.004567	10368.085663
567.360441	10355.492860
567.716260	10265.785528
568.072023	10357.537048
568.427732	10308.484101
568.783385	10212.014060
569.138982	10289.811667
569.494525	10299.586464
569.850013	10182.167909
570.205445	10262.546586
570.560823	10160.226287
570.916145	10081.546478
571.271412	10146.169029
571.626625	10093.655330
571.981782	10064.177183
572.336884	10038.830261
572.691931	10044.733452
573.046923	9994.195885
573.401860	9945.284090
573.756743	9885.816118
574.111570	9932.729096
574.466342	9910.449717
574.821059	9940.056413
575.175722	9832.032048
575.530330	9838.134365
575.884882	9830.151697
576.239380	9754.395758
576.593823	9740.222554
576.948211	9759.187375
577.302544	9633.105597
577.656823	9646.245364
578.011047	9650.091764
578.365216	9628.429926
578.719330	9550.723060
579.073389	9563.288136
579.427394	9505.773612
579.781344	9486.153441
580.135239	9433.196120
580.489080	9448.158265
580.842866	9345.543058
581.196597	9354.599491
581.550273	9386.648626
581.903895	9358.639975
582.257463	9424.921066
582.610975	9306.834558
582.964434	9327.127723
583.317837	9244.644363
583.671186	9231.791942
584.024481	9228.626097
584.377721	9142.462696
584.730906	9125.012742
585.084037	9153.742277
585.437113	9092.401517
585.790135	9111.623437
586.143103	9007.374896
586.496016	8985.803799
586.848874	9038.375472
587.201679	9026.453143
587.554428	8913.710257
587.907124	8960.958472
588.259765	8933.781612
588.612352	8936.511396
588.964884	8810.822828
589.317362	8825.404366
589.669786	8824.544849
590.022155	8872.327426
590.374470	8888.554900
590.726731	8825.825302
591.078937	8677.585132
591.431090	8797.196589
591.783188	8662.675919
592.135232	8658.436309
592.487222	8653.586719
592.839157	8710.234165
593.191038	8641.563567
593.542866	8589.793438
593.894639	8490.651586
594.246358	8545.585039
594.598022	8556.758757
594.949633	8456.482645
595.301190	8428.244622
595.652692	8451.131460
596.004141	8564.799397
596.355535	8347.087086
596.706876	8328.581010
597.058162	8265.155733
597.409395	8333.357503
597.760573	8400.828306
598.111698	8305.663925
598.462768	8291.594064
598.813785	8254.912108
599.164748	8227.009322
599.515657	8213.872075
599.866511	8121.518136
600.217312	8249.800378
600.568060	8113.278370
600.918753	8214.499698
601.269392	8187.239659
601.619978	8103.569108
601.970510	8164.229312
602.320988	8158.220257
602.671412	8217.610090
603.021783	8149.793968
603.372100	8123.648024
603.722363	8122.027293
604.072572	8105.409129
604.422728	8116.262733
604.772830	8042.583749
605.122878	8045.144656
605.472872	8045.789923
605.822813	8069.901762
606.172701	8014.796909
606.522534	8091.631656
606.872314	8090.686439
607.222041	8060.752068
607.571714	8116.242569
607.921333	8069.420332
608.270899	8077.846621
608.620411	8165.275352
608.969870	8077.879388
609.319276	8068.472595
609.668627	8084.881551
610.017926	8120.499823
610.367171	8172.053183
610.716362	8146.975963
611.065500	8133.468192
611.414585	8164.499014
611.763616	8148.831108
612.112594	8133.206052
612.461518	8144.281467
612.810389	8210.106333
613.159207	8139.938512
613.507971	8091.626615
613.856682	8214.318217
614.205340	8168.799118
614.553945	8251.915142
614.902496	8144.770458
615.250994	8200.737348
615.599439	8179.914863
615.947830	8198.136113
616.296169	8172.458996
616.644454	8184.872837
616.992686	8177.908483
617.340864	8239.113132
617.688990	8138.955487
618.037063	8236.408553
618.385082	8178.810850
618.733048	8269.924664
619.080961	8207.152217
619.428821	8222.983960
619.776628	8225.464208
620.124382	8175.831528
620.472083	8162.797625
620.819731	8190.975154
621.167326	8078.564985
621.514868	8091.145184
621.862357	7976.572360
622.209793	8000.417018
622.557176	7928.237777
622.904506	7901.577635
623.251783	7834.580701
623.599007	7790.841129
623.946179	7792.224926
624.293297	7750.761436
624.640363	7665.712129
624.987376	7655.682753
625.334336	7602.702747
625.681243	7548.470014
626.028097	7534.085082
626.374899	7512.438367
626.721647	7505.932758
627.068343	7438.698889
627.414987	7408.406596
627.761577	7365.266922
628.108115	7410.390290
628.454600	7299.336191
628.801032	7345.558531
629.147412	7306.227448
629.493739	7293.740510
629.840014	7233.440748
630.186236	7282.297091
630.532405	7170.176788
630.878521	7223.905406
631.224585	7181.537028
631.570597	7102.945440
631.916556	7134.175388
632.262462	7131.425439
632.608316	7090.783656
632.954117	7068.942857
633.299866	7057.615385
633.645562	7048.238838
633.991206	6969.170861
634.336797	6910.489310
634.682336	6869.754266
635.027823	6836.593556
635.373257	6830.045097
635.718639	6760.184787
636.063968	6773.591736
636.409245	6666.631054
636.754470	6660.959756
637.099642	6627.181505
637.444762	6571.862403
637.789829	6578.695687
638.134845	6518.403487
638.479808	6502.102916
638.824719	6512.417117
639.169577	6439.370797
639.514383	6458.305371
639.859137	6385.647221
640.203839	6396.616772
640.548489	6380.003649
640.893086	6357.925916
641.237632	6327.316030
641.582125	6353.398960
641.926566	6323.799825
642.270955	6330.416339
642.615292	6322.710936
642.959576	6344.763463
643.303809	6333.257030
643.647990	6340.417989
643.992118	6334.184602
644.336195	6278.273165
644.680219	6301.613707
645.024192	6289.293127
645.368112	6389.957407
645.711981	6410.280819
646.055797	6486.039279
646.399562	6441.609070
646.743274	6569.987094
647.086935	6626.732842
647.430544	6616.978209
647.774101	6639.618031
648.117606	6646.718496
648.461059	6635.141487
648.804460	6602.590756
649.147810	6509.473083
649.491108	6475.556200
649.834354	6455.691533
650.177548	6370.972422
650.520690	6280.453464
650.863781	6263.868068
651.206820	6280.645027
651.549807	6205.148708
651.892742	6144.188555
652.235626	6145.133771
652.578458	6138.129088
652.921238	6048.187341
653.263967	6086.900882
653.606644	6023.004257
653.949269	6026.492736
654.291843	5966.535773
654.634365	6017.821951
654.976836	5970.215815
655.319255	5967.906966
655.661622	5942.020641
656.003938	5946.025838
656.346203	5909.386732
656.688416	5936.054436
657.030577	5890.273197
657.372687	5855.486715
657.714746	5845.510272
658.056753	5890.184977
658.398708	5828.826573
658.740612	5821.469009
659.082465	5862.967787
659.424266	5858.992838
659.766016	5860.366552
660.107715	5836.927707
660.449362	5848.996229
660.790958	5844.323080
661.132503	5830.795143
661.473996	5870.506833
661.815438	5857.349421
662.156829	5850.385067
662.498168	5844.993553
662.839456	5819.765099
663.180693	5853.976889
663.521879	5853.084605
663.863013	5849.333987
664.204097	5859.688517
664.545129	5904.060753
664.886110	5902.117388
665.227040	5937.707934
665.567918	5902.745012
665.908746	5928.096974
666.249522	5929.954640
666.590248	5917.114821
666.930922	5945.209171
667.271545	5955.780471
667.612118	5964.967974
667.952639	5935.746925
668.293109	5952.607064
668.633528	5914.364871
668.973896	5915.960397
669.314213	5908.746505
669.654480	5894.354011
669.994695	5882.482094
670.334859	5872.402307
670.674973	5868.132449
671.015035	5872.122523
671.355047	5865.138004
671.695008	5859.272622
672.034918	5831.304300
672.374777	5836.010217
672.714585	5825.847251
673.054342	5826.913455
673.394049	5824.884391
673.733705	5856.000913
674.073310	5837.018448
674.412864	5799.461852
674.752368	5789.689575
675.091820	5793.271315
675.431223	5731.872582
675.770574	5730.171192
676.109875	5683.316188
676.449125	5684.440365
676.788324	5651.176311
677.127473	5599.580102
677.466571	5589.328915
677.805619	5580.670734
678.144616	5569.060956
678.483562	5545.632194
678.822458	5514.049365
679.161303	5507.871431
679.500098	5495.921376
679.838842	5480.223223
680.177535	5487.358976
680.516179	5504.622407
680.854771	5514.119941
681.193314	5594.049956
681.531805	5700.882088
681.870247	5853.601323
682.208638	5956.133352
682.546978	5966.402182
682.885268	5946.209840
683.223508	5858.831521
683.561697	5804.346730
683.899836	5780.968379
684.237925	5731.716306
684.575963	5692.029822
684.913951	5652.126569
685.251889	5718.654676
685.589776	5682.433986
685.927614	5656.779554
686.265401	5726.954936
686.603137	5715.176280
686.940824	5784.451816
687.278460	5813.670344
687.616046	5822.149565
687.953582	5888.168515
688.291068	5870.937852
688.628504	5935.424292
688.965889	5893.554988
689.303224	5840.776628
689.640510	5795.721316
689.977745	5716.131579
690.314930	5614.653152
690.652065	5561.690789
690.989150	5470.037571
691.326185	5396.441766
691.663170	5339.753991
692.000105	5262.929327
692.336990	5188.037946
692.673825	5163.603473
693.010610	5091.709058
693.347345	5025.193553
693.684030	5009.366851
694.020665	4963.051250
694.357251	4878.395153
694.693786	4891.449221
695.030272	4854.701730
695.366707	4819.549764
695.703093	4782.305720
696.039429	4807.219102
696.375716	4789.259991
696.711952	4767.666209
697.048139	4751.859671
697.384276	4731.158173
697.720363	4745.089401
698.056400	4753.228344
698.392388	4702.055592
698.728326	4682.798384
699.064214	4662.648892
699.400053	4652.962315
699.735842	4622.569198
700.071581	4595.528449
700.407270	4572.182866
700.742910	4552.328281
701.078501	4502.080580
701.414042	4497.074714
701.749533	4472.133606
702.084974	4401.708687
702.420366	4459.994507
702.755709	4400.357657
703.091002	4345.739276
703.426246	4394.227614
703.761440	4350.034339
704.096584	4311.643432
704.431679	4330.847708
704.766725	4319.127025
705.101721	4306.635046
705.436668	4337.713759
705.771565	4282.893732
706.106413	4307.134120
706.441212	4343.669882
706.775961	4351.163558
707.110661	4330.943489
707.445311	4361.835680
707.779913	4384.936768
708.114465	4395.198036
708.448967	4420.849948
708.783421	4478.858505
709.117825	4521.058004
709.452180	4523.187891
709.786485	4570.796548
710.120742	4656.851565
710.454949	4642.683402
710.789107	4706.123803
711.123216	4785.801760
711.457275	4772.941776
711.791286	4848.992623
712.125247	4867.047516
712.459159	4765.773256
712.793023	4839.023742
713.126837	4803.017300
713.460602	4795.553872
713.794318	4713.985482
714.127985	4722.540320
714.461602	4635.719048
714.795171	4610.097384
715.128691	4541.472156
715.462162	4487.428467
715.795584	4435.779325
716.128957	4418.359618
716.462281	4365.903891
716.795556	4340.229295
717.128782	4299.229591
717.461960	4233.475300
717.795088	4241.626846
718.128167	4201.330383
718.461198	4143.110097
718.794180	4141.812000
719.127113	4118.680666
719.459997	4095.128395
719.792833	4051.585428
720.125619	4043.602761
720.458357	4008.985158
720.791046	4013.960777
721.123686	3986.980521
721.456278	3945.771609
721.788821	3962.614104
722.121315	3937.176442
722.453761	3911.254829
722.786158	3924.588681
723.118506	3944.954942
723.450805	3899.284609
723.783056	3917.916714
724.115259	3936.279117
724.447412	3939.795321
724.779518	3933.614867
725.111574	3936.382460
725.443582	3967.821616
725.775542	3955.604380
726.107453	4006.094056
726.439315	4004.511134
726.771129	4018.626365
727.102895	4054.443763
727.434612	4106.050055
727.766281	4112.553143
728.097901	4117.924493
728.429473	4119.141931
728.760996	4125.299701
729.092471	4123.041264
729.423897	4106.702884
729.755276	4113.243781
730.086606	4113.788226
730.417887	4151.642250
730.749120	4215.052404
731.080305	4275.737814
731.411442	4305.397442
731.742530	4274.933750
732.073570	4277.257722
732.404562	4334.391639
732.735506	4325.730936
733.066401	4288.756593
733.397249	4219.947364
733.728048	4145.895335
734.058798	4061.221594
734.389501	3989.831294
734.720156	3931.243004
735.050762	3885.459245
735.381320	3880.294582
735.711831	3828.005214
736.042293	3801.844146
736.372707	3821.194615
736.703073	3790.980460
737.033391	3783.247330
737.363661	3802.529743
737.693883	3826.838187
738.024056	3835.609795
738.354182	3829.494875
738.684260	3897.225298
739.014290	3914.604676
739.344272	3909.220723
739.674207	3952.700675
740.004093	3960.655616
740.333931	3953.318217
740.663722	3955.632106
740.993464	3951.415181
741.323159	3925.206222
741.652806	3895.654978
741.982405	3871.031462
742.311956	3839.078109
742.641460	3832.433868
742.970915	3808.536278
743.300323	3764.060698
743.629683	3731.015935
743.958996	3720.681569
744.288260	3695.301880
744.617477	3661.402641
744.946647	3647.738594
745.275768	3622.744553
745.604842	3619.533338
745.933869	3573.353848
746.262847	3564.468815
746.591778	3602.080863
746.920662	3571.987696
747.249498	3542.383520
747.578286	3588.295828
747.907027	3604.699743
748.235720	3602.811831
748.564365	3630.444916
748.892963	3626.704379
749.221514	3612.337091
749.550017	3585.646702
749.878473	3587.597628
750.206881	3554.910787
750.535242	3549.032802
750.863555	3555.495561
751.191821	3548.964746
751.520039	3530.221736
751.848210	3507.544105
752.176334	3541.937377
752.504411	3545.463665
752.832440	3505.187366
753.160421	3487.901249
753.488356	3500.920029
753.816243	3511.617358
754.144082	3469.377530
754.471875	3454.712813
754.799620	3471.290648
755.127318	3463.736478
755.454969	3462.012404
755.782572	3470.894917
756.110129	3446.435238
756.437638	3434.283537
756.765100	3448.983542
757.092515	3460.800006
757.419882	3469.884166
757.747203	3442.896348
758.074477	3441.041204
758.401703	3456.444449
758.728882	3479.795074
759.056014	3488.397803
759.383099	3487.187926
759.710138	3485.405878
760.037129	3506.422449
760.364073	3535.174670
760.690970	3522.415509
761.017820	3497.434071
761.344623	3513.994262
761.671379	3559.669636
761.998088	3612.115280
762.324751	3737.067840
762.651366	3985.057321
762.977935	4461.060711
763.304456	4903.293412
763.630931	4999.516436
763.957359	4640.510665
764.283740	4297.611380
764.610074	4102.112913
764.936362	3905.349117
765.262602	3747.707195
765.588796	3633.371305
765.914943	3545.299827
766.241044	3458.135757
766.567097	3429.650717
766.893104	3379.660115
767.219064	3353.972915
767.544978	3319.740960
767.870845	3267.572579
768.196665	3252.028182
768.522438	3257.011362
768.848165	3251.418202
769.173846	3215.000907
769.499479	3200.631097
769.825066	3185.505115
770.150607	3166.933505
770.476101	3181.436904
770.801548	3177.562777
771.126949	3130.238946
771.452303	3111.584156
771.777611	3120.416258
772.102872	3124.653347
772.428087	3100.354986
772.753256	3090.484407
773.078378	3082.781523
773.403453	3048.776420
773.728482	3035.588762
774.053465	3057.568193
774.378401	3044.345246
774.703291	3015.666122
775.028135	3016.266019
775.352932	3010.655215
775.677683	3001.349245
776.002388	2994.508399
776.327046	2997.212978
776.651658	2986.923983
776.976224	2974.936119
777.300743	2975.157930
777.625216	2964.745427
777.949643	2959.769808
778.274024	2961.284675
778.598359	2950.942748
778.922647	2955.699076
779.246889	2957.861731
779.571086	2940.346242
779.895236	2934.226281
780.219339	2945.324382
780.543397	2958.328038
780.867409	2962.663430
781.191374	2954.743778
781.515294	2951.202367
781.839167	2950.925103
782.162995	2943.010492
782.486776	2950.269753
782.810511	2948.747325
783.134201	2934.571600
783.457844	2943.219700
783.781441	2935.138730
784.104993	2915.911769
784.428498	2915.722726
784.751958	2928.615477
785.075372	2921.502409
785.398739	2906.809966
785.722061	2920.315217
786.045337	2932.829882
786.368568	2917.522418
786.691752	2909.698547
787.014891	2959.114458
787.337983	2990.074704
787.661030	3017.100330
787.984031	3082.907552
788.306987	3127.529326
788.629897	3122.195785
788.952760	3106.235492
789.275579	3090.486927
789.598351	3033.010212
789.921078	2988.033037
790.243759	2977.537355
790.566395	2959.427009
790.888984	2937.755089
791.211529	2921.240269
791.534027	2909.449010
791.856480	2898.406363
792.178888	2885.495968
792.501249	2876.986500
792.823566	2873.621530
793.145836	2871.017774
793.468062	2868.895448
793.790241	2866.959645
794.112375	2873.881149
794.434464	2883.444218
794.756507	2886.927655
795.078505	2892.667009
795.400457	2907.518248
795.722364	2946.325051
796.044226	2970.487301
796.366042	2972.748258
796.687812	2961.655199
797.009538	2980.398209
797.331218	2968.198617
797.652852	2955.036164
797.974442	2936.983793
798.295986	2932.436672
798.617484	2926.213367
798.938938	2911.611665
799.260346	2895.348903
799.581709	2892.767832
799.903026	2885.150649
800.224299	2879.134032
800.545526	2870.876622
800.866708	2854.959178
801.187845	2844.234123
801.508936	2845.882581
801.829983	2852.234435
802.150984	2842.573063
802.471940	2823.073880
802.792851	2827.000939
803.113717	2822.012717
803.434538	2829.965137
803.755314	2826.181752
804.076045	2817.581543
804.396731	2816.585915
804.717372	2819.270330
805.037967	2814.259423
805.358518	2819.502223
805.679024	2833.922443
805.999485	2829.075374
806.319901	2830.154181
806.640272	2818.410813
806.960598	2827.300888
807.280879	2838.313288
807.601115	2847.377283
807.921306	2829.680312
808.241453	2829.413131
808.561554	2833.264573
808.881611	2834.542505
809.201623	2831.689212
809.521590	2830.494459
809.841513	2826.431289
810.161390	2828.982112
810.481223	2823.711586
810.801011	2816.333857
811.120755	2809.732467
811.440453	2811.552323
811.760107	2813.457879
812.079716	2811.759010
812.399281	2802.450520
812.718801	2794.702266
813.038276	2790.928963
813.357707	2794.367030
813.677093	2804.277938
813.996434	2796.776701
814.315731	2792.065743
814.634983	2789.845115
814.954191	2789.411575
815.273354	2803.423462
815.592473	2811.126346
815.911547	2812.341264
816.230577	2823.265444
816.549562	2832.697443
816.868502	2829.367761
817.187399	2841.053155
817.506250	2854.702079
817.825058	2849.849969
818.143821	2863.408152
818.462539	2876.356356
818.781213	2903.959194
819.099843	2938.060079
819.418429	2999.151302
819.736970	3059.297308
820.055466	3134.952425
820.373919	3242.835637
820.692327	3380.509549
821.010691	3550.283008
821.329011	3994.365812
821.647286	4895.837545
821.965517	6276.886847
822.283704	7025.417535
822.601847	7006.813157
822.919945	6371.859665
823.237999	5866.113467
823.556010	5280.412049
823.873976	4727.037029
824.191897	4314.070748
824.509775	4016.619985
824.827609	3751.661980
825.145398	3624.390490
825.463144	3608.001699
825.780845	3703.052654
826.098502	3809.133655
826.416116	4089.169751
826.733685	4407.843771
827.051210	4476.579903
827.368692	4361.278633
827.686129	4093.774845
828.003522	3761.159514
828.320872	3505.603261
828.638177	3307.448106
828.955439	3172.524144
829.272656	3087.033737
829.589830	3016.704599
829.906960	2972.160964
830.224046	2923.113058
830.541088	2893.161042
830.858086	2874.768392
831.175041	2856.864734
831.491952	2857.300794
831.808819	2871.826879
832.125642	2894.943090
832.442421	2940.547888
832.759157	3024.745240
833.075849	3203.643187
833.392497	3484.324551
833.709101	3686.870551
834.025662	3639.035042
834.342179	3476.583859
834.658653	3303.644556
834.975083	3151.341216
835.291469	3052.736247
835.607811	2969.025366
835.924110	2909.370872
836.240366	2857.701566
836.556578	2814.592139
836.872746	2793.578089
837.188871	2767.127155
837.504952	2752.742222
837.820990	2748.091758
838.136984	2730.321691
838.452935	2723.869014
838.768842	2720.274671
839.084706	2739.400809
839.400526	2817.962150
839.716303	2952.886112
840.032037	3034.078936
840.347727	3018.821884
840.663373	2958.864921
840.978977	2881.238713
841.294537	2808.520069
841.610054	2757.105341
841.925527	2737.580952
842.240957	2716.408106
842.556344	2695.346165
842.871687	2678.687672
843.186987	2670.115190
843.502244	2665.023625
843.817458	2662.089673
844.132629	2647.230872
844.447756	2640.838689
844.762840	2631.099180
845.077881	2636.100005
845.392879	2631.923409
845.707833	2630.857205
846.022745	2623.915536
846.337613	2622.745988
846.652438	2623.091307
846.967221	2623.701287
847.281960	2623.703807
847.596656	2622.070473
847.911309	2616.931017
848.225919	2613.994545
848.540485	2613.215687
848.855009	2614.886829
849.169490	2613.661829
849.483928	2613.102261
849.798323	2614.390276
850.112675	2610.127980
850.426984	2611.494133
850.741251	2612.767024
851.055474	2611.375666
851.369654	2616.875564
851.683792	2613.850872
851.997887	2613.021602
852.311938	2611.037908
852.625947	2613.339195
852.939914	2613.883640
853.253837	2614.733074
853.567718	2611.037908
853.881555	2608.678648
854.195350	2615.799278
854.509103	2611.501694
854.822812	2611.680655
855.136479	2610.470778
855.450103	2608.769389
855.763685	2613.750049
856.077224	2611.983125
856.390720	2608.834924
856.704173	2614.218876
857.017584	2616.716768
857.330953	2615.607714
857.644278	2619.771707
857.957561	2618.539145
858.270802	2614.415481
858.584000	2614.579319
858.897155	2619.749022
859.210268	2621.384877
859.523339	2612.036057
859.836367	2608.933227
860.149352	2606.856271
860.462295	2611.748711
860.775195	2608.335850
861.088054	2608.703854
861.400869	2608.807198
861.713642	2604.146651
862.026373	2604.617999
862.339062	2608.756786
862.651708	2618.150976
862.964312	2616.177365
863.276873	2611.191663
863.589392	2614.090327
863.901869	2619.806995
864.214303	2626.196658
864.526696	2628.082049
864.839045	2629.619601
865.151353	2634.202010
865.463619	2629.838892
865.775842	2632.077164
866.088023	2631.948614
866.400162	2632.871146
866.712258	2633.440796
867.024313	2629.385188
867.336325	2627.444343
867.648296	2628.455095
867.960224	2632.286372
868.272110	2629.533902
868.583954	2624.868314
868.895755	2628.359313
869.207515	2632.868625
869.519233	2639.512866
869.830909	2634.355765
870.142542	2634.512041
870.454134	2633.440796
870.765684	2638.081178
871.077191	2637.922382
871.388657	2644.732981
871.700081	2643.271046
872.011463	2643.182826
872.322803	2645.640388
872.634101	2647.303969
872.945357	2653.189516
873.256571	2658.056750
873.567744	2654.638848
873.878874	2654.916111
874.189963	2657.063643
874.501010	2661.532626
874.812015	2663.723007
875.122979	2667.771054
875.433900	2658.777635
875.744780	2655.100113
876.055618	2661.575476
876.366415	2668.287772
876.677169	2667.957576
876.987882	2660.952893
877.298554	2661.857780
877.609183	2671.569563
877.919771	2675.146262
878.230317	2684.590863
878.540822	2694.973120
878.851285	2708.543906
879.161707	2732.733883
879.472087	2772.211158
879.782425	2821.372491
880.092722	2933.916250
880.402977	3123.095631
880.713191	3388.726630
881.023363	3682.537679
881.333494	3872.158160
881.643583	4046.251888
881.953631	4044.321126
882.263637	3866.950648
882.573602	3646.929489
882.883526	3512.807070
883.193408	3402.453692
883.503248	3297.708597
883.813048	3181.580577
884.122806	3064.106569
884.432522	2981.900473
884.742197	2916.874630
885.051831	2876.500029
885.361424	2842.159689
885.670975	2806.354893
885.980485	2775.608896
886.289954	2757.276740
886.599382	2743.070769
886.908768	2729.336145
887.218113	2710.623382
887.527417	2698.295240
887.836680	2691.779549
888.145901	2684.235462
888.455082	2676.709019
888.764221	2666.109993
889.073319	2656.491472
889.382376	2656.831750
889.691392	2657.731596
890.000366	2656.647748
890.309300	2653.476862
890.618193	2656.801503
890.927044	2661.487255
891.235855	2661.245280
891.544625	2659.112872
891.853353	2656.425937
892.162041	2668.524706
892.470687	2688.948941
892.779293	2699.999150
893.087858	2709.957950
893.396381	2730.029304
893.704864	2775.311468
894.013306	2844.690348
894.321707	2940.207610
894.630068	2991.753408
894.938387	3009.505832
895.246665	3004.638598
895.554903	2960.100003
895.863100	2914.031419
896.171256	2858.561083
896.479371	2795.350055
896.787446	2757.974940
897.095480	2736.441651
897.403473	2731.551732
897.711425	2717.847355
898.019336	2695.157122
898.327207	2682.425688
898.635038	2683.496933
898.942827	2678.531397
899.250576	2670.120231
899.558284	2655.798313
899.865952	2650.426964
900.173579	2651.218425
900.481165	2647.157776
900.788711	2639.122176
901.096216	2635.255611
901.403681	2631.552884
901.711105	2632.440127
902.018489	2627.625825
902.325832	2631.436937
902.633135	2636.140334
902.940397	2650.714310
903.247619	2688.260823
903.554800	2756.898654
903.861941	2884.994373
904.169041	3014.884743
904.476101	3074.771130
904.783121	3070.382806
905.090100	3011.484485
905.397039	2937.752568
905.703938	2862.357072
906.010796	2800.870118
906.317614	2747.154103
906.624391	2708.632126
906.931129	2684.376614
907.237826	2658.492810
907.544483	2642.207362
907.851099	2627.567852
908.157675	2617.898919
908.464211	2610.438011
908.770707	2598.571135
909.077163	2594.757502
909.383578	2593.668613
909.689954	2589.156780
909.996289	2587.578899
910.302584	2589.759198
910.608839	2586.230390
910.915054	2585.459094
911.221229	2589.008066
911.527363	2589.993612
911.833458	2588.317428
912.139513	2590.331369
912.445527	2590.520412
912.751502	2597.298243
913.057436	2602.110025
913.363331	2607.199070
913.669186	2619.693569
913.975000	2634.721249
914.280775	2650.439567
914.586510	2667.753410
914.892205	2707.323947
915.197859	2774.978752
915.503475	2857.542770
915.809050	2925.948707
916.114585	2939.786674
916.420081	2953.443160
916.725536	2964.329532
917.030952	2939.736263
917.336328	2889.879251
917.641665	2838.832527
917.946961	2792.965589
918.252218	2756.535691
918.557435	2731.317318
918.862612	2707.157589
919.167750	2689.397604
919.472848	2672.696261
919.777906	2656.262099
920.082925	2644.173412
920.387904	2631.752009
920.692843	2628.155146
920.997743	2623.262706
921.302603	2618.080400
921.607423	2611.010182
921.912204	2603.264449
922.216946	2602.011722
922.521647	2598.760178
922.826310	2595.647266
923.130932	2590.656523
923.435516	2585.065884
923.740059	2584.130750
924.044564	2582.079000
924.349028	2579.424832
924.653454	2571.419480
924.957840	2571.104408
925.262186	2568.430076
925.566493	2570.386044
925.870761	2561.763150
926.174989	2567.134499
926.479178	2563.517472
926.783328	2560.780125
927.087438	2561.233829
927.391509	2561.685012
927.695541	2559.247614
927.999533	2558.930022
928.303486	2552.885678
928.607400	2555.703683
928.911275	2553.856100
929.215110	2553.505740
929.518906	2554.614794
929.822663	2552.933569
930.126381	2555.796944
930.430060	2554.400545
930.733699	2552.298384
931.037299	2557.231153
931.340861	2555.912891
931.644383	2556.827860
931.947866	2555.980947
932.251309	2554.912222
932.554714	2556.621173
932.858080	2556.883313
933.161407	2555.176882
933.464694	2555.557490
933.767943	2550.458363
934.071153	2554.748384
934.374323	2551.791748
934.677455	2551.312838
934.980548	2550.044988
935.283602	2551.791748
935.586617	2551.592622
935.889593	2551.554813
936.192530	2552.563044
936.495428	2550.884340
936.798287	2552.368960
937.101108	2555.479352
937.403890	2556.853066
937.706632	2560.495300
938.009336	2565.070147
938.312002	2571.056517
938.614628	2573.141034
938.917216	2578.174626
939.219765	2573.045252
939.522275	2572.158009
939.824747	2574.056004
940.127179	2571.235478
940.429573	2567.366393
940.731929	2565.337328
941.034246	2565.841443
941.336524	2564.770198
941.638763	2565.881773
941.940964	2567.041238
942.243126	2562.542008
942.545250	2564.886145
942.847335	2560.553273
943.149381	2559.290464
943.451389	2558.221739
943.753359	2558.670402
944.055290	2556.974054
944.357182	2554.236707
944.659036	2554.244269
944.960851	2552.742005
945.262628	2553.810730
945.564367	2554.919784
945.866067	2558.226781
946.167729	2557.735268
946.469352	2554.705535
946.770937	2556.953889
947.072484	2554.219063
947.373992	2555.837274
947.675462	2554.826522
947.976893	2553.334341
948.278286	2552.542880
948.579641	2553.964485
948.880958	2551.580019
949.182236	2553.220915
949.483476	2552.643703
949.784678	2551.287632
950.085841	2553.213353
950.386967	2551.456511
950.688054	2550.841490
950.989103	2553.296532
951.290114	2554.655123
951.591087	2556.618652
951.892021	2557.783159
952.192917	2559.323232
952.493776	2558.385577
952.794596	2559.310629
953.095378	2561.987481
953.396122	2559.764333
953.696828	2557.571431
953.997496	2557.642007
954.298126	2555.466749
954.598718	2553.719989
954.899272	2553.750236
955.199788	2554.690411
955.500266	2551.650595
955.800706	2543.723381
956.101108	2544.512322
956.401472	2544.502239
956.701798	2543.577187
957.002087	2541.827907
957.302337	2543.385624
957.602550	2544.217414
957.902724	2537.583256
958.202861	2542.934440
958.502960	2541.885880
958.803022	2543.438556
959.103045	2538.783050
959.403031	2541.996786
959.702979	2541.036446
960.002889	2539.821528
960.302762	2538.730118
960.602596	2537.953780
960.902393	2538.863709
961.202153	2538.785571
961.501875	2538.160468
961.801559	2538.069727
962.101205	2538.767927
962.400814	2538.271373
962.700385	2536.058307
962.999918	2539.304810
963.299414	2540.842362
963.598873	2538.651980
963.898293	2538.339429
964.197677	2536.123842
964.497022	2537.948739
964.796331	2534.951773
965.095601	2538.173071
965.394835	2534.654345
965.694030	2534.392205
965.993189	2538.331867
966.292309	2535.057638
966.591393	2539.934954
966.890439	2535.009747
967.189447	2537.058976
967.488419	2536.743903
967.787353	2536.517052
968.086249	2536.547298
968.385108	2536.454037
968.683930	2535.516382
968.982714	2533.013450
969.281462	2533.865405
969.580172	2536.580066
969.878844	2536.249870
970.177480	2538.112577
970.476078	2535.092926
970.774639	2535.125693
971.073162	2537.084181
971.371649	2534.026722
971.670098	2535.718029
971.968510	2534.805580
972.266885	2534.324150
972.565223	2536.801877
972.863524	2535.992772
973.161788	2537.169881
973.460014	2535.397915
973.758204	2539.067875
974.056356	2536.310364
974.354471	2536.874973
974.652550	2538.203318
974.950591	2536.701054
975.248595	2535.823893
975.546563	2538.553678
975.844493	2535.067720
976.142386	2537.510159
976.440243	2536.693492
976.738062	2535.833975
977.035845	2536.643080
977.333590	2535.181146
977.631299	2536.658204
977.928971	2536.811959
978.226606	2536.050745
978.524204	2539.239275
978.821765	2533.078985
979.119290	2535.836496
979.416777	2536.247350
979.714228	2536.902700
980.011642	2533.237781
980.309020	2537.560570
980.606360	2533.933460
980.903664	2535.745755
981.200931	2538.697351
981.498162	2537.936136
981.795356	2538.717515
982.092513	2543.088196
982.389633	2545.379400
982.686717	2548.900646
982.983764	2552.991542
983.280775	2552.169834
983.577749	2550.612118
983.874686	2549.044319
984.171587	2548.875440
984.468451	2544.595501
984.765279	2541.737166
985.062070	2541.149872
985.358824	2539.019984
985.655543	2538.157947
985.952224	2536.937988
986.248869	2535.405477
986.545478	2533.288192
986.842050	2533.303316
987.138586	2529.671165
987.435086	2532.350538
987.731549	2530.752492
988.027975	2533.976310
988.324366	2531.201155
988.620719	2533.951104
988.917037	2532.390867
989.213318	2532.080836
989.509563	2532.930271
989.805772	2532.791639
990.101944	2530.565969
990.398080	2533.557894
990.694180	2532.441279
990.990244	2531.780887
991.286271	2530.989426
991.582262	2533.494880
991.878217	2531.889272
992.174136	2532.090918
992.470019	2532.078316
992.765865	2534.677030
993.061676	2531.228881
993.357450	2534.752648
993.653188	2532.128727
993.948890	2530.230733
994.244556	2533.910775
994.540186	2536.759027
994.835780	2533.290713
995.131337	2534.593851
995.426859	2534.850950
995.722345	2533.888090
996.017795	2534.301464
996.313208	2537.008564
996.608586	2538.924202
996.903928	2536.827082
997.199234	2537.432021
997.494504	2535.912113
997.789738	2535.410518
998.084936	2535.856660
998.380099	2534.119983
998.675225	2534.251053
998.970316	2534.530837
999.265371	2533.230219
999.560390	2534.107380
999.855373	2532.547143
1000.150320	2532.864736
1000.445232	2534.661907
1000.740108	2531.264169
1001.034948	2531.911957
1001.329752	2531.496062
1001.624521	2533.545291
1001.919254	2526.885927
1002.213951	2529.552698
1002.508613	2529.197296
1002.803239	2530.286185
1003.097829	2525.154291
1003.392384	2530.029087
1003.686903	2532.035466
1003.981386	2529.804755
1004.275834	2530.719725
1004.570246	2531.019673
1004.864623	2529.572862
1005.158964	2530.513037
1005.453270	2528.909950
1005.747540	2531.690147
1006.041775	2529.935825
1006.335974	2530.318953
1006.630138	2529.572862
1006.924266	2532.393388
1007.218359	2532.375744
1007.512416	2529.414066
1007.806438	2528.920033
1008.100425	2529.154446
1008.394376	2531.753161
1008.688292	2529.986237
1008.982172	2530.691998
1009.276017	2531.065044
1009.569827	2529.376257
1009.863602	2527.488345
1010.157341	2530.240815
1010.451045	2531.377595
1010.744714	2529.530012
1011.038347	2530.233253
1011.331945	2532.680733
1011.625508	2530.134951
1011.919036	2530.414735
1012.212528	2529.782070
1012.505986	2527.969775
1012.799408	2531.044879
1013.092795	2527.246370
1013.386147	2529.981196
1013.679464	2528.486493
1013.972745	2530.475229
1014.265992	2528.728469
1014.559204	2528.526823
1014.852380	2532.726104
1015.145521	2529.915661
1015.438628	2530.689478
1015.731699	2530.485311
1016.024736	2530.114786
1016.317737	2530.197965
1016.610703	2533.111752
1016.903635	2524.851822
1017.196531	2523.667150
1017.489393	2528.725948
1017.782219	2524.693025
1018.075011	2528.360465
1018.367768	2531.682585
1018.660490	2530.427338
1018.953177	2530.427338
1019.245829	2530.427338
