Dividing Wavelength (nm)	Counts (n)	Blue Motor Position (mm): 2.800000	Red Motor Position (mm): 0.000000	
326.493990	2064.654969
326.888308	2064.654969
327.282561	2064.654969
327.676750	2038.587163
328.070874	2039.897863
328.464933	2047.615869
328.858929	2054.272713
329.252859	2064.067675
329.646726	2080.189285
330.040528	2095.101018
330.434265	2110.801692
330.827938	2135.422687
331.221547	2156.847591
331.615091	2173.606907
332.008571	2195.798066
332.401986	2217.119626
332.795338	2235.613099
333.188625	2256.173445
333.581847	2273.825045
333.975006	2290.496141
334.368100	2309.493729
334.761129	2327.087356
335.154095	2342.656960
335.546996	2358.750843
335.939833	2373.103008
336.332606	2383.840666
336.725315	2396.234343
337.117960	2404.902607
337.510540	2416.393917
337.903056	2423.159146
338.295508	2433.382606
338.687896	2439.152206
339.080220	2442.290324
339.472480	2447.371808
339.864676	2448.526232
340.256807	2455.982098
340.648875	2456.879424
341.040879	2458.974023
341.432818	2457.658282
341.824694	2460.539301
342.216506	2458.825309
342.608253	2458.495113
342.999937	2455.868672
343.391557	2459.163066
343.783113	2456.297170
344.174605	2455.127623
344.566033	2454.991512
344.957397	2452.881789
345.348697	2449.736109
345.739934	2448.972374
346.131106	2446.867692
346.522215	2444.702517
346.913260	2440.984666
347.304241	2442.305448
347.695159	2439.021136
348.086012	2440.180602
348.476802	2437.082813
348.867528	2432.139961
349.258191	2428.706935
349.648789	2431.532502
350.039324	2426.113262
350.429796	2432.523089
350.820203	2431.971083
351.210548	2431.464447
351.600828	2430.478901
351.991045	2429.130392
352.381198	2427.930598
352.771288	2429.059816
353.161314	2428.996802
353.551276	2428.366657
353.941175	2427.751637
354.331010	2429.180804
354.720782	2426.902202
355.110490	2431.391350
355.500135	2426.592171
355.889717	2429.362285
356.279235	2429.594178
356.668689	2430.478901
357.058080	2428.454878
357.447408	2430.768767
357.836672	2428.621236
358.225873	2431.998809
358.615010	2430.141144
359.004084	2431.540064
359.393095	2430.758685
359.782043	2433.513676
360.170927	2432.097111
360.559748	2431.371185
360.948505	2434.090888
361.337199	2436.175405
361.725830	2436.487956
362.114398	2435.091557
362.502903	2435.388985
362.891344	2434.874787
363.279722	2438.075920
363.668037	2438.522062
364.056289	2434.879828
364.444478	2437.140786
364.832603	2438.927875
365.220665	2437.544078
365.608665	2438.622885
365.996601	2438.632967
366.384474	2440.561209
366.772284	2438.940478
367.160031	2442.587753
367.547715	2440.906528
367.935336	2439.202618
368.322893	2439.177412
368.710388	2435.101639
369.097820	2441.735797
369.485189	2439.376537
369.872495	2441.355190
370.259738	2442.968360
370.646918	2445.486416
371.034035	2443.356528
371.421090	2443.517845
371.808081	2444.364759
372.195010	2443.006168
372.581875	2443.164965
372.968678	2442.617999
373.355418	2445.103288
373.742096	2446.550099
374.128710	2444.737805
374.515262	2444.271498
374.901751	2445.894749
375.288177	2443.981632
375.674540	2446.096396
376.060841	2445.279729
376.447079	2444.289142
376.833254	2446.303083
377.219367	2443.369131
377.605417	2447.069338
377.991404	2448.294339
378.377329	2446.590429
378.763191	2447.528083
379.148991	2445.357867
379.534727	2445.141097
379.920402	2451.341716
380.306013	2447.079421
380.691563	2448.183433
381.077049	2447.949020
381.462474	2448.798454
381.847835	2446.729060
382.233134	2449.821808
382.618371	2448.299380
383.003545	2450.817436
383.388657	2450.489761
383.773706	2450.343568
384.158693	2451.114864
384.543618	2453.368260
384.928480	2452.576799
385.313280	2450.409103
385.698017	2453.307766
386.082692	2452.039916
386.467305	2454.628548
386.851856	2453.287602
387.236344	2452.602005
387.620770	2450.956068
388.005133	2448.783331
388.389435	2450.527570
388.773674	2448.405244
389.157851	2452.271809
389.541965	2454.038733
389.926018	2452.178548
390.310008	2453.733744
390.693936	2451.152673
391.077802	2453.595112
391.461606	2455.041923
391.845348	2453.380863
392.229027	2454.499999
392.612645	2453.736264
392.996200	2455.772890
393.379694	2456.483693
393.763125	2455.142746
394.146494	2454.794907
394.529801	2455.765329
394.913047	2458.837912
395.296230	2455.364557
395.679351	2456.899588
396.062410	2455.412448
396.445408	2455.583847
396.828343	2456.329938
397.211217	2455.631738
397.594028	2460.314970
397.976778	2457.680967
398.359466	2460.766153
398.742092	2455.581327
399.124656	2457.963272
399.507158	2455.712397
399.889598	2457.549897
400.271977	2460.299847
400.654294	2457.353292
401.036549	2461.534929
401.418742	2457.222222
401.800874	2457.938066
402.182944	2459.442850
402.564952	2461.529888
402.946898	2458.971502
403.328783	2459.841102
403.710606	2460.052830
404.092367	2457.607870
404.474067	2460.826647
404.855705	2459.546194
405.237282	2459.831019
405.618797	2460.458643
406.000250	2463.498459
406.381642	2459.256328
406.762972	2459.142902
407.144240	2458.414455
407.525447	2457.930504
407.906593	2457.847325
408.287677	2462.207923
408.668700	2460.856894
409.049661	2461.149281
409.430560	2464.052986
409.811399	2465.343521
410.192176	2464.388222
410.572891	2462.507872
410.953545	2462.777574
411.334138	2461.741617
411.714669	2465.658593
412.095139	2464.680609
412.475547	2461.739096
412.855894	2464.027780
413.236180	2463.664817
413.616405	2465.613223
413.996568	2462.119703
414.376670	2463.959724
414.756711	2462.613736
415.136691	2461.802110
415.516609	2469.885601
415.896466	2463.344703
416.276262	2462.578448
416.655997	2466.054324
417.035670	2463.543829
417.415283	2471.032463
417.794834	2466.470219
418.174324	2465.850157
418.553753	2465.782101
418.933121	2466.145064
419.312428	2465.784622
419.691674	2464.660445
420.070859	2467.160857
420.449983	2468.101032
420.829045	2466.487863
421.208047	2466.432410
421.586988	2470.314099
421.965867	2468.005250
422.344686	2467.586834
422.723444	2471.145889
423.102141	2468.486680
423.480777	2466.923923
423.859352	2468.136320
424.237866	2466.520630
424.616319	2467.649849
424.994712	2469.469705
425.373044	2468.383337
425.751314	2466.535754
426.129524	2464.778912
426.507673	2468.196814
426.885762	2464.839406
427.263789	2467.813686
427.641756	2468.900055
428.019662	2471.196301
428.397508	2470.535909
428.775292	2470.646815
429.153016	2468.801753
429.530679	2468.847123
429.908282	2470.704788
430.285824	2472.418780
430.663305	2469.182360
431.040726	2469.762092
431.418086	2468.862246
431.795385	2471.261836
432.172624	2472.307875
432.549802	2469.111783
432.926920	2469.746969
433.303977	2472.002885
433.680974	2470.727473
434.057910	2469.752010
434.434786	2469.189921
434.811601	2470.987093
435.188355	2470.490539
435.565050	2472.912813
435.941683	2470.465333
436.318257	2472.373410
436.694770	2471.586990
437.071222	2469.900724
437.447614	2472.136476
437.823946	2468.960549
438.200218	2470.551033
438.576429	2473.248050
438.952580	2470.324181
439.328670	2472.948102
439.704700	2471.624799
440.080670	2472.012967
440.456580	2473.537917
440.832429	2472.159161
441.208218	2472.300313
441.583947	2471.811321
441.959616	2472.350725
442.335224	2472.590180
442.710773	2471.425673
443.086261	2470.183029
443.461689	2472.244861
443.837057	2476.061014
444.212365	2473.973976
444.587612	2470.818214
444.962800	2470.246043
445.337927	2471.652525
445.712995	2468.743779
446.088002	2474.349542
446.462949	2473.830303
446.837837	2476.005561
447.212664	2472.890128
447.587431	2474.987248
447.962139	2470.588842
448.336786	2476.406333
448.711374	2475.705613
449.085901	2475.312403
449.460369	2474.717547
449.834776	2477.412043
450.209124	2475.221662
450.583412	2473.580766
450.957640	2475.219141
451.331808	2475.342650
451.705917	2474.583956
452.079965	2476.761734
452.453954	2474.092443
452.827883	2478.049749
453.201752	2474.805767
453.575562	2477.215438
453.949311	2476.736529
454.323001	2475.246868
454.696632	2476.497074
455.070202	2475.758545
455.443713	2476.272742
455.817164	2476.721405
456.190556	2476.469348
456.563888	2476.595376
456.937160	2476.121508
457.310373	2474.173102
457.683526	2475.403143
458.056619	2476.363483
458.429653	2475.272073
458.802628	2479.272229
459.175542	2474.188225
459.548398	2478.659729
459.921194	2476.078658
460.293930	2477.338947
460.666607	2475.125880
461.039224	2477.704430
461.411782	2477.379276
461.784280	2476.776858
462.156719	2478.143011
462.529099	2478.899184
462.901419	2478.258957
463.273680	2474.616723
463.645882	2475.214100
464.018024	2476.050932
464.390106	2473.457258
464.762130	2475.514049
465.134094	2479.214256
465.505999	2474.992289
465.877845	2476.010603
466.249631	2475.599748
466.621358	2478.911787
466.993026	2476.867599
467.364634	2481.858341
467.736184	2479.562095
468.107674	2481.112250
468.479105	2478.276601
468.850477	2477.071765
469.221790	2479.957826
469.593043	2478.200984
469.964238	2476.610500
470.335373	2477.318782
470.706449	2479.791468
471.077467	2476.960860
471.448425	2478.868937
471.819324	2480.555203
472.190164	2477.414564
472.560945	2480.605614
472.931667	2479.020171
473.302330	2475.874491
473.672934	2481.576036
474.043479	2477.659060
474.413965	2481.407158
474.784393	2479.458752
475.154761	2481.250882
475.525070	2476.731487
475.895321	2477.752321
476.265513	2480.051087
476.635645	2480.456900
477.005719	2480.681232
477.375734	2476.658391
477.745691	2479.476396
478.115588	2481.197950
478.485427	2483.219452
478.855207	2480.885398
479.224928	2480.497229
479.594591	2481.848259
479.964194	2480.547641
480.333739	2479.294914
480.703226	2481.601242
481.072653	2481.414719
481.442022	2481.031592
481.811333	2478.228710
482.180584	2477.717033
482.549777	2479.483958
482.918912	2476.063535
483.287988	2479.625110
483.657005	2480.779534
484.025964	2481.757518
484.394864	2480.494709
484.763706	2483.262302
485.132489	2482.077631
485.501213	2480.267857
485.869879	2481.555872
486.238487	2482.201139
486.607036	2483.748774
486.975527	2478.349698
487.343959	2483.584936
487.712333	2480.207363
488.080648	2480.076293
488.448905	2480.693834
488.817104	2479.410861
489.185244	2478.977322
489.553326	2480.547641
489.921350	2481.003865
490.289315	2481.772641
490.657222	2480.832466
491.025070	2480.784575
491.392861	2481.349184
491.760593	2478.831128
492.128267	2481.651654
492.495883	2481.389514
492.863440	2479.408340
493.230939	2480.668629
493.598380	2482.596870
493.965763	2481.399596
494.333088	2479.937661
494.700354	2480.764411
495.067563	2479.703248
495.434713	2482.836325
495.801805	2483.794144
496.168839	2484.822539
496.535815	2484.782210
496.902733	2485.404793
497.269593	2483.237097
497.636395	2481.679380
498.003139	2479.632672
498.369825	2484.242807
498.736453	2480.729122
499.103023	2484.439412
499.469535	2482.319607
499.835989	2482.637199
500.202385	2479.557054
500.568723	2478.190902
500.935003	2481.964205
501.301226	2478.725264
501.667390	2482.957313
502.033497	2481.684421
502.399546	2481.513022
502.765537	2479.957826
503.131470	2485.089721
503.497345	2484.406644
503.863163	2485.087200
504.228923	2485.377066
504.594625	2481.427322
504.960269	2483.360605
505.325856	2483.703403
505.691385	2483.138794
506.056856	2482.622076
506.422270	2483.078300
506.787625	2482.826242
507.152924	2481.868423
507.518164	2483.526963
507.883347	2484.222642
508.248472	2483.254741
508.613540	2483.574854
508.978550	2482.059987
509.343503	2481.291211
509.708398	2485.079638
510.073236	2484.782210
510.438016	2482.904380
510.802738	2482.112919
511.167403	2482.614514
511.532010	2481.780203
511.896561	2484.252889
512.261053	2481.603763
512.625488	2481.956643
512.989866	2483.441263
513.354186	2483.000162
513.718449	2482.175934
514.082655	2483.441263
514.446803	2481.931438
514.810894	2484.028558
515.174927	2480.930769
515.538904	2485.067035
515.902822	2482.370018
516.266684	2484.204998
516.630488	2484.217601
516.994235	2480.822384
517.357925	2486.193733
517.721558	2484.504947
518.085133	2483.499237
518.448651	2482.516212
518.812112	2480.587970
519.175516	2483.771459
519.538863	2477.737198
519.902152	2484.439412
520.265385	2483.884885
520.628560	2482.329689
520.991678	2481.497898
521.354739	2484.885554
521.717743	2482.402786
522.080690	2483.579895
522.443580	2484.552838
522.806413	2483.753815
523.169189	2482.707775
523.531908	2484.991418
523.894569	2483.887405
524.257174	2486.143322
524.619722	2482.180975
524.982213	2485.651809
525.344647	2482.029740
525.707025	2485.707262
526.069345	2482.884216
526.431608	2484.252889
526.793815	2483.242138
527.155964	2485.636686
527.518057	2484.688949
527.880093	2485.964361
528.242072	2485.654330
528.603995	2482.491006
528.965860	2486.183651
529.327669	2484.177272
529.689421	2485.619042
530.051117	2482.828763
530.412755	2483.912611
530.774337	2484.789772
531.135862	2483.287508
531.497331	2483.932776
531.858743	2482.175934
532.220098	2486.143322
532.581396	2482.664926
532.942638	2487.396048
533.303824	2482.354895
533.664953	2485.976964
534.026025	2484.265492
534.387040	2485.167858
534.747999	2484.925883
535.108902	2483.751294
535.469748	2485.286326
535.830537	2485.046871
536.191270	2485.800523
536.551947	2485.303970
536.912567	2482.004534
537.273131	2482.904380
537.633638	2478.289204
537.994089	2485.382108
538.354483	2482.750625
538.714821	2485.245996
539.075103	2481.502940
539.435328	2487.466625
539.795497	2485.780359
540.155609	2484.630976
540.515665	2485.719865
540.875665	2487.746409
541.235609	2482.866572
541.595496	2484.875472
541.955328	2484.567961
542.315102	2484.643578
542.674821	2483.915132
543.034483	2485.172900
543.394090	2484.202477
543.753640	2483.917652
544.113134	2484.872951
544.472571	2486.783548
544.831953	2482.433033
545.191278	2487.635503
545.550548	2485.372025
545.909761	2485.898826
546.268918	2484.736840
546.628019	2485.616521
546.987064	2483.380769
547.346053	2486.198774
547.704986	2483.080821
548.063863	2487.519557
548.422684	2486.944865
548.781449	2490.506440
549.140158	2484.068887
549.498811	2486.390338
549.857408	2480.280460
550.215949	2485.997128
550.574434	2486.153404
550.932864	2485.238435
551.291237	2485.906388
551.649555	2483.799185
552.007817	2486.390338
552.366022	2485.031747
552.724173	2484.842704
553.082267	2484.270533
553.440305	2485.525780
553.798288	2488.099289
554.156215	2485.601398
554.514086	2482.685090
554.871902	2479.413381
555.229661	2487.088538
555.587365	2481.276088
555.945014	2486.463435
556.302606	2482.637199
556.660143	2487.879999
557.017625	2487.136429
557.375050	2487.431337
557.732421	2484.081490
558.089735	2484.988897
558.446994	2486.372694
558.804197	2487.277581
559.161345	2484.411685
559.518437	2487.023003
559.875474	2486.758343
560.232455	2487.267499
560.589381	2483.741212
560.946251	2482.307004
561.303065	2490.234218
561.659825	2488.540390
562.016528	2484.109216
562.373177	2486.097951
562.729770	2488.777325
563.086307	2489.437716
563.442789	2484.923362
563.799216	2488.018631
564.155587	2486.206336
564.511904	2484.441932
564.868164	2485.130050
565.224370	2485.137612
565.580520	2484.550317
565.936615	2487.733806
566.292654	2484.840183
566.648638	2485.540904
567.004567	2487.418734
567.360441	2484.618373
567.716260	2487.224649
568.072023	2486.420585
568.427732	2484.381438
568.783385	2485.142653
569.138982	2487.080976
569.494525	2488.973930
569.850013	2482.619555
570.205445	2486.163486
570.560823	2484.850266
570.916145	2486.670122
571.271412	2486.483600
571.626625	2486.990236
571.981782	2485.944196
572.336884	2485.200626
572.691931	2480.419092
573.046923	2483.781541
573.401860	2481.969246
573.756743	2486.324803
574.111570	2485.409834
574.466342	2488.971409
574.821059	2484.530153
575.175722	2486.443270
575.530330	2487.900164
575.884882	2486.881851
576.239380	2486.039978
576.593823	2486.312200
576.948211	2485.838332
577.302544	2487.753970
577.656823	2485.397231
578.011047	2487.053250
578.365216	2484.774648
578.719330	2488.547952
579.073389	2487.181799
579.427394	2489.803199
579.781344	2486.725575
580.135239	2487.252376
580.489080	2485.291367
580.842866	2487.436378
581.196597	2486.276912
581.550273	2487.474186
581.903895	2486.433188
582.257463	2487.385966
582.610975	2487.643065
582.964434	2486.125678
583.317837	2485.261120
583.671186	2489.576348
584.024481	2486.060143
584.377721	2487.471666
584.730906	2486.186172
585.084037	2485.823208
585.437113	2487.665750
585.790135	2488.610967
586.143103	2486.508805
586.496016	2486.534011
586.848874	2484.802375
587.201679	2489.016779
587.554428	2484.797334
587.907124	2486.055102
588.259765	2485.843373
588.612352	2486.740698
588.964884	2486.370174
589.317362	2488.026193
589.669786	2482.576705
590.022155	2484.603249
590.374470	2482.846407
590.726731	2484.462097
591.078937	2479.615027
591.431090	2486.294556
591.783188	2485.843373
592.135232	2485.765235
592.487222	2482.322127
592.839157	2486.357571
593.191038	2484.968733
593.542866	2487.209526
593.894639	2484.562920
594.246358	2488.265648
594.598022	2485.941676
594.949633	2486.798672
595.301190	2484.399082
595.652692	2486.012252
596.004141	2485.387149
596.355535	2488.426964
596.706876	2485.649289
597.058162	2486.861686
597.409395	2487.128867
597.760573	2487.232211
598.111698	2485.286326
598.462768	2486.609628
598.813785	2486.944865
599.164748	2484.875472
599.515657	2485.661892
599.866511	2484.623414
600.217312	2487.784217
600.568060	2487.396048
600.918753	2486.891933
601.269392	2488.467294
601.619978	2485.233393
601.970510	2485.092241
602.320988	2485.699700
602.671412	2484.777169
603.021783	2483.569813
603.372100	2486.886892
603.722363	2483.993270
604.072572	2487.602736
604.422728	2487.421254
604.772830	2485.432519
605.122878	2488.391676
605.472872	2484.905718
605.822813	2484.056284
606.172701	2484.961171
606.522534	2486.428147
606.872314	2486.198774
607.222041	2487.980822
607.571714	2483.915132
607.921333	2484.003352
608.270899	2484.981336
608.620411	2483.620224
608.969870	2488.421923
609.319276	2487.824547
609.668627	2485.404793
610.017926	2484.275574
610.367171	2483.310193
610.716362	2486.649958
611.065500	2486.375215
611.414585	2487.791779
611.763616	2486.251707
612.112594	2486.150883
612.461518	2487.267499
612.810389	2486.223980
613.159207	2483.705924
613.507971	2485.208188
613.856682	2485.200626
614.205340	2486.433188
614.553945	2485.606439
614.902496	2487.900164
615.250994	2487.312869
615.599439	2484.474700
615.947830	2485.808085
616.296169	2485.936634
616.644454	2486.360091
616.992686	2487.073415
617.340864	2487.879999
617.688990	2486.203816
618.037063	2485.482931
618.385082	2486.120637
618.733048	2485.966881
619.080961	2485.571151
619.428821	2484.482262
619.776628	2486.486120
620.124382	2485.223311
620.472083	2485.291367
620.819731	2485.238435
621.167326	2483.920173
621.514868	2486.327324
621.862357	2486.014772
622.209793	2484.814978
622.557176	2486.566779
622.904506	2486.844042
623.251783	2486.793631
623.599007	2485.707262
623.946179	2484.043681
624.293297	2487.370843
624.640363	2483.232055
624.987376	2485.205667
625.334336	2481.442446
625.681243	2484.484782
626.028097	2481.150059
626.374899	2486.150883
626.721647	2485.256079
627.068343	2485.026706
627.414987	2485.298928
627.761577	2483.781541
628.108115	2488.457211
628.454600	2487.075935
628.801032	2485.099803
629.147412	2483.834473
629.493739	2484.089052
629.840014	2485.563589
630.186236	2484.373877
630.532405	2487.791779
630.878521	2485.926552
631.224585	2484.656181
631.570597	2485.165338
631.916556	2486.077787
632.262462	2486.332365
632.608316	2484.862869
632.954117	2486.644917
633.299866	2483.063177
633.645562	2484.923362
633.991206	2483.186685
634.336797	2485.777838
634.682336	2487.214567
635.027823	2485.440081
635.373257	2484.832622
635.718639	2485.941676
636.063968	2488.003507
636.409245	2486.198774
636.754470	2487.355719
637.099642	2485.114926
637.444762	2486.034937
637.789829	2482.864051
638.134845	2487.771614
638.479808	2485.858497
638.824719	2486.493682
639.169577	2486.221460
639.514383	2486.634834
639.859137	2486.491161
640.203839	2487.159114
640.548489	2484.242807
640.893086	2482.332209
641.237632	2486.564258
641.582125	2488.469814
641.926566	2487.479227
642.270955	2486.607108
642.615292	2483.892447
642.959576	2483.965543
643.303809	2481.540748
643.647990	2487.393528
643.992118	2482.042343
644.336195	2485.523260
644.680219	2487.980822
645.024192	2484.620893
645.368112	2485.263640
645.711981	2486.791110
646.055797	2484.895636
646.399562	2485.757673
646.743274	2486.723054
647.086935	2481.326499
647.430544	2487.524598
647.774101	2484.729278
648.117606	2485.180461
648.461059	2488.091728
648.804460	2488.736995
649.147810	2488.058960
649.491108	2486.957468
649.834354	2484.288177
650.177548	2485.858497
650.520690	2488.041316
650.863781	2484.507467
651.206820	2486.844042
651.549807	2484.515029
651.892742	2482.319607
652.235626	2485.724906
652.578458	2486.995277
652.921238	2486.415544
653.263967	2483.842035
653.606644	2486.818836
653.949269	2486.322283
654.291843	2483.612663
654.634365	2484.704072
654.976836	2483.960502
655.319255	2486.818836
655.661622	2485.069556
656.003938	2483.839514
656.346203	2482.944710
656.688416	2485.913949
657.030577	2485.742550
657.372687	2485.245996
657.714746	2485.230873
658.056753	2484.870430
658.398708	2485.180461
658.740612	2484.807416
659.082465	2484.121819
659.424266	2481.240800
659.766016	2481.855820
660.107715	2483.408496
660.449362	2480.507312
660.790958	2484.091572
661.132503	2483.963023
661.473996	2486.380256
661.815438	2488.084166
662.156829	2487.393528
662.498168	2482.392703
662.839456	2486.891933
663.180693	2485.790441
663.521879	2487.204485
663.863013	2484.862869
664.204097	2485.629124
664.545129	2483.521922
664.886110	2486.102992
665.227040	2487.746409
665.567918	2484.336068
665.908746	2485.818167
666.249522	2485.848414
666.590248	2486.501244
666.930922	2484.076449
667.271545	2484.237766
667.612118	2484.247848
667.952639	2488.235401
668.293109	2485.548466
668.633528	2484.588126
668.973896	2483.514360
669.314213	2483.020327
669.654480	2485.891264
669.994695	2483.973105
670.334859	2486.919659
670.674973	2484.386480
671.015035	2485.699700
671.355047	2483.340440
671.695008	2487.829588
672.034918	2486.289515
672.374777	2485.414875
672.714585	2484.547797
673.054342	2485.200626
673.394049	2484.419247
673.733705	2483.249699
674.073310	2486.738178
674.412864	2486.556696
674.752368	2484.656181
675.091820	2483.539566
675.431223	2484.588126
675.770574	2487.481748
676.109875	2485.271202
676.449125	2481.334061
676.788324	2481.379431
677.127473	2483.587457
677.466571	2482.521253
677.805619	2483.486634
678.144616	2484.449494
678.483562	2487.499392
678.822458	2484.774648
679.161303	2485.898826
679.500098	2484.351192
679.838842	2486.007211
680.177535	2485.626603
680.516179	2486.196254
680.854771	2484.958651
681.193314	2486.062663
681.531805	2485.218270
681.870247	2485.188023
682.208638	2482.551500
682.546978	2489.006697
682.885268	2484.641058
683.223508	2484.983856
683.561697	2487.297746
683.899836	2485.014103
684.237925	2482.901860
684.575963	2484.416727
684.913951	2483.768938
685.251889	2485.974443
685.589776	2486.811275
685.927614	2486.591984
686.265401	2481.938999
686.603137	2485.588795
686.940824	2483.557210
687.278460	2488.522746
687.616046	2483.146356
687.953582	2484.552838
688.291068	2482.853969
688.628504	2484.762046
688.965889	2484.628455
689.303224	2486.067704
689.640510	2481.898670
689.977745	2484.867910
690.314930	2484.232724
690.652065	2483.390852
690.989150	2483.534525
691.326185	2484.406644
691.663170	2484.376397
692.000105	2484.484782
692.336990	2483.554689
692.673825	2486.738178
693.010610	2483.176603
693.347345	2483.887405
693.684030	2481.747436
694.020665	2483.652992
694.357251	2479.824235
694.693786	2482.531335
695.030272	2484.419247
695.366707	2484.268013
695.703093	2485.079638
696.039429	2485.624083
696.375716	2483.665595
696.711952	2484.071407
697.048139	2485.072077
697.384276	2485.659371
697.720363	2483.690800
698.056400	2484.441932
698.392388	2481.480254
698.728326	2484.711634
699.064214	2481.843217
699.400053	2485.326655
699.735842	2483.166520
700.071581	2484.293218
700.407270	2485.251037
700.742910	2484.023517
701.078501	2483.736171
701.414042	2484.167189
701.749533	2485.798003
702.084974	2485.714824
702.420366	2484.225163
702.755709	2484.131901
703.091002	2485.291367
703.426246	2483.327837
703.761440	2486.213898
704.096584	2483.030409
704.431679	2480.719040
704.766725	2484.015955
705.101721	2485.321614
705.436668	2484.567961
705.771565	2483.408496
706.106413	2484.757004
706.441212	2483.295070
706.775961	2483.968064
707.110661	2483.703403
707.445311	2485.041830
707.779913	2485.641727
708.114465	2484.431850
708.448967	2484.751963
708.783421	2485.218270
709.117825	2485.077118
709.452180	2484.484782
709.786485	2482.206181
710.120742	2480.517394
710.454949	2480.020840
710.789107	2482.506129
711.123216	2478.377424
711.457275	2484.031078
711.791286	2483.763897
712.125247	2484.325986
712.459159	2482.604432
712.793023	2483.965543
713.126837	2483.411016
713.460602	2485.561068
713.794318	2483.043012
714.127985	2484.900677
714.461602	2485.193064
714.795171	2484.217601
715.128691	2484.693990
715.462162	2484.489823
715.795584	2483.476551
716.128957	2485.314052
716.462281	2484.073928
716.795556	2481.689462
717.128782	2482.765749
717.461960	2481.863382
717.795088	2485.649289
718.128167	2485.114926
718.461198	2483.789103
718.794180	2484.167189
719.127113	2483.804226
719.459997	2482.213742
719.792833	2483.060656
720.125619	2482.843887
720.458357	2483.758856
720.791046	2483.194247
721.123686	2485.732468
721.456278	2485.185502
721.788821	2482.465800
722.121315	2484.482262
722.453761	2483.030409
722.786158	2483.658033
723.118506	2482.722899
723.450805	2482.682570
723.783056	2483.889926
724.115259	2484.378918
724.447412	2483.688280
724.779518	2483.405975
725.111574	2483.118629
725.443582	2483.544607
725.775542	2486.140801
726.107453	2485.278764
726.439315	2482.818681
726.771129	2486.581902
727.102895	2478.112764
727.434612	2482.468321
727.766281	2478.213587
728.097901	2480.593011
728.429473	2482.450677
728.760996	2483.998311
729.092471	2483.567292
729.423897	2481.603763
729.755276	2483.179123
730.086606	2486.082828
730.417887	2484.492344
730.749120	2481.361787
731.080305	2484.184833
731.411442	2483.602580
731.742530	2483.405975
732.073570	2483.983187
732.404562	2482.304483
732.735506	2483.537045
733.066401	2483.889926
733.397249	2484.237766
733.728048	2483.368167
734.058798	2483.879844
734.389501	2483.763897
734.720156	2483.678197
735.050762	2482.047384
735.381320	2480.625779
735.711831	2483.068218
736.042293	2481.490337
736.372707	2483.842035
736.703073	2486.700369
737.033391	2484.192395
737.363661	2480.666108
737.693883	2485.203147
738.024056	2485.624083
738.354182	2485.992087
738.684260	2484.086531
739.014290	2483.884885
739.344272	2484.174751
739.674207	2483.148876
740.004093	2481.145018
740.333931	2484.535194
740.663722	2483.340440
740.993464	2481.107209
741.323159	2483.166520
741.652806	2482.138125
741.982405	2483.279946
742.311956	2484.772128
742.641460	2485.437560
742.970915	2483.842035
743.300323	2480.608135
743.629683	2478.362301
743.958996	2483.224494
744.288260	2478.745428
744.617477	2483.539566
744.946647	2485.283805
745.275768	2482.017137
745.604842	2482.841366
745.933869	2483.380769
746.262847	2484.532673
746.591778	2482.392703
746.920662	2482.425471
747.249498	2483.582416
747.578286	2486.375215
747.907027	2482.032261
748.235720	2480.109061
748.564365	2482.997642
748.892963	2482.609473
749.221514	2482.173413
749.550017	2481.389514
749.878473	2483.138794
750.206881	2484.454535
750.535242	2484.668784
750.863555	2485.407313
751.191821	2482.846407
751.520039	2483.411016
751.848210	2482.949751
752.176334	2483.632827
752.504411	2484.290698
752.832440	2482.115440
753.160421	2482.322127
753.488356	2480.000676
753.816243	2484.406644
754.144082	2481.858341
754.471875	2481.656695
754.799620	2484.699031
755.127318	2480.958495
755.454969	2484.804895
755.782572	2480.837507
756.110129	2481.671818
756.437638	2485.276243
756.765100	2483.670636
757.092515	2486.110554
757.419882	2484.020996
757.747203	2483.037971
758.074477	2484.174751
758.401703	2482.107878
758.728882	2480.950933
759.056014	2481.359267
759.383099	2482.455718
759.710138	2482.770790
760.037129	2479.922538
760.364073	2482.546458
760.690970	2477.711992
761.017820	2483.234576
761.344623	2483.695842
761.671379	2485.800523
761.998088	2481.124853
762.324751	2483.950420
762.651366	2481.495378
762.977935	2483.348002
763.304456	2482.312045
763.630931	2485.029227
763.957359	2482.531335
764.283740	2484.615852
764.610074	2484.361274
764.936362	2481.898670
765.262602	2481.714668
765.588796	2483.043012
765.914943	2483.610142
766.241044	2482.312045
766.567097	2483.857158
766.893104	2481.180306
767.219064	2481.916314
767.544978	2482.692652
767.870845	2485.044350
768.196665	2483.791623
768.522438	2480.938330
768.848165	2482.196098
769.173846	2480.875316
769.499479	2481.132415
769.825066	2485.772797
770.150607	2481.709627
770.476101	2482.274236
770.801548	2480.958495
771.126949	2484.643578
771.452303	2482.808598
771.777611	2479.443628
772.102872	2482.241469
772.428087	2481.545789
772.753256	2482.458238
773.078378	2482.811119
773.403453	2481.112250
773.728482	2482.911942
774.053465	2482.324648
774.378401	2481.812971
774.703291	2482.480923
775.028135	2483.839514
775.352932	2482.974957
775.677683	2482.753146
776.002388	2479.829277
776.327046	2479.549492
776.651658	2478.077476
776.976224	2477.512866
777.300743	2479.710809
777.625216	2481.812971
777.949643	2482.294401
778.274024	2481.316417
778.598359	2480.933289
778.922647	2480.593011
779.246889	2480.613176
779.571086	2482.125522
779.895236	2482.969915
780.219339	2482.788434
780.543397	2482.874133
780.867409	2483.559730
781.191374	2484.167189
781.515294	2481.502940
781.839167	2482.765749
782.162995	2482.115440
782.486776	2481.848259
782.810511	2481.815491
783.134201	2482.412868
783.457844	2481.444966
783.781441	2482.735502
784.104993	2482.987559
784.428498	2481.820532
784.751958	2482.531335
785.075372	2481.192909
785.398739	2481.092086
785.722061	2482.135604
786.045337	2481.268526
786.368568	2480.870275
786.691752	2481.460090
787.014891	2482.866572
787.337983	2481.540748
787.661030	2483.532004
787.984031	2481.331540
788.306987	2482.513691
788.629897	2480.298104
788.952760	2481.591160
789.275579	2482.314565
789.598351	2482.024699
789.921078	2482.307004
790.243759	2482.485965
790.566395	2478.654688
790.888984	2484.222642
791.211529	2481.210553
791.534027	2484.787251
791.856480	2480.461941
792.178888	2481.205512
792.501249	2477.260809
792.823566	2480.502271
793.145836	2478.553865
793.468062	2480.121663
793.790241	2481.684421
794.112375	2481.134935
794.434464	2480.499750
794.756507	2482.894298
795.078505	2481.313896
795.400457	2483.020327
795.722364	2481.349184
796.044226	2482.054946
796.366042	2481.636530
796.687812	2482.080152
797.009538	2481.412199
797.331218	2485.198105
797.652852	2481.959164
797.974442	2482.531335
798.295986	2483.983187
798.617484	2481.555872
798.938938	2480.580408
799.260346	2478.695017
799.581709	2483.262302
799.903026	2480.792137
800.224299	2481.402117
800.545526	2483.229535
800.866708	2480.905563
801.187845	2483.927735
801.508936	2479.708289
801.829983	2481.402117
802.150984	2481.218114
802.471940	2483.675677
802.792851	2481.903711
803.113717	2480.504791
803.434538	2482.266674
803.755314	2480.595532
804.076045	2480.900522
804.396731	2479.615028
804.717372	2481.936479
805.037967	2482.541417
805.358518	2481.628968
805.679024	2483.186685
805.999485	2483.453866
806.319901	2479.587301
806.640272	2478.032105
806.960598	2480.257775
807.280879	2481.835656
807.601115	2483.592498
807.921306	2480.194760
808.241453	2482.123002
808.561554	2478.032105
808.881611	2478.581591
809.201623	2476.665952
809.521590	2482.304483
809.841513	2479.499081
810.161390	2482.846407
810.481223	2480.209884
810.801011	2482.256592
811.120755	2481.303814
811.440453	2483.317755
811.760107	2483.337920
812.079716	2482.372539
812.399281	2481.525625
812.718801	2480.918166
813.038276	2481.145018
813.357707	2478.972280
813.677093	2480.945892
813.996434	2481.306335
814.315731	2477.848103
814.634983	2481.497898
814.954191	2478.994966
815.273354	2482.611993
815.592473	2480.046046
815.911547	2482.072590
816.230577	2480.502271
816.549562	2483.748774
816.868502	2481.558392
817.187399	2481.916314
817.506250	2481.344143
817.825058	2480.736684
818.143821	2480.086375
818.462539	2479.206694
818.781213	2478.032105
819.099843	2477.485140
819.418429	2481.323979
819.736970	2482.123002
820.055466	2480.991262
820.373919	2482.952271
820.692327	2480.381283
821.010691	2479.985552
821.329011	2483.045533
821.647286	2482.427991
821.965517	2481.893629
822.283704	2479.788947
822.601847	2480.640902
822.919945	2479.186529
823.237999	2479.589822
823.556010	2483.093424
823.873976	2478.654688
824.191897	2479.907414
824.509775	2477.071765
824.827609	2479.153762
825.145398	2474.193267
825.463144	2481.760038
825.780845	2482.755666
826.098502	2481.981849
826.416116	2481.180306
826.733685	2480.966057
827.051210	2481.999493
827.368692	2480.630820
827.686129	2479.771303
828.003522	2483.370687
828.320872	2479.453711
828.638177	2478.558906
828.955439	2480.860193
829.272656	2481.417240
829.589830	2477.764924
829.906960	2480.519915
830.224046	2480.285501
830.541088	2482.922024
830.858086	2481.495378
831.175041	2478.901704
831.491952	2479.720892
831.808819	2479.703248
832.125642	2481.122332
832.442421	2480.938330
832.759157	2479.957826
833.075849	2479.738536
833.392497	2480.671149
833.709101	2481.003865
834.025662	2480.598052
834.342179	2483.196767
834.658653	2480.898001
834.975083	2480.519915
835.291469	2484.005872
835.607811	2480.552682
835.924110	2479.990593
836.240366	2480.885398
836.556578	2479.736015
836.872746	2478.737867
837.188871	2484.373877
837.504952	2481.669298
837.820990	2481.807929
838.136984	2481.303814
838.452935	2480.555203
838.768842	2481.339102
839.084706	2479.166365
839.400526	2483.663074
839.716303	2479.902373
840.032037	2473.893318
840.347727	2475.972794
840.663373	2478.349698
840.978977	2474.941878
841.294537	2480.177116
841.610054	2481.487816
841.925527	2480.441777
842.240957	2480.209884
842.556344	2478.904225
842.871687	2481.099647
843.186987	2481.281129
843.502244	2479.859523
843.817458	2478.611838
844.132629	2479.617548
844.447756	2480.028402
844.762840	2482.002014
845.077881	2479.365490
845.392879	2480.020840
845.707833	2481.523104
846.022745	2481.487816
846.337613	2479.544451
846.652438	2482.551500
846.967221	2479.052939
847.281960	2479.761221
847.596656	2482.334730
847.911309	2482.370018
848.225919	2483.756335
848.540485	2480.840028
848.855009	2480.177116
849.169490	2477.754842
849.483928	2481.641571
849.798323	2479.977991
850.112675	2479.927579
850.426984	2477.114615
850.741251	2479.272229
851.055474	2480.887919
851.369654	2479.020171
851.683792	2482.750625
851.997887	2483.312714
852.311938	2480.159472
852.625947	2482.213742
852.939914	2479.970429
853.253837	2481.470172
853.567718	2480.293063
853.881555	2480.766931
854.195350	2479.441108
854.509103	2481.392034
854.822812	2481.119812
855.136479	2482.397744
855.450103	2480.643423
855.763685	2477.318782
856.077224	2477.437249
856.390720	2477.485140
856.704173	2476.055973
857.017584	2481.472693
857.330953	2479.370532
857.644278	2479.063021
857.957561	2481.147538
858.270802	2476.492033
858.584000	2479.995635
858.897155	2482.768269
859.210268	2480.545120
859.523339	2480.129225
859.836367	2479.224338
860.149352	2479.320120
860.462295	2482.364977
860.775195	2482.632158
861.088054	2481.944041
861.400869	2479.098309
861.713642	2479.844400
862.026373	2477.306179
862.339062	2479.519246
862.651708	2479.123515
862.964312	2481.049236
863.276873	2479.791468
863.589392	2480.487147
863.901869	2483.053094
864.214303	2480.247692
864.526696	2476.817187
864.839045	2479.902373
865.151353	2480.898001
865.463619	2478.987404
865.775842	2481.318937
866.088023	2477.253247
866.400162	2479.428505
866.712258	2478.891622
867.024313	2480.867754
867.336325	2478.137969
867.648296	2482.339771
867.960224	2478.238792
868.272110	2480.298104
868.583954	2476.950778
868.895755	2478.513535
869.207515	2478.884060
869.519233	2480.303145
869.830909	2477.608648
870.142542	2479.985552
870.454134	2477.265850
870.765684	2478.228710
871.077191	2479.453711
871.388657	2476.053452
871.700081	2475.120839
872.011463	2474.712505
872.322803	2474.205869
872.634101	2479.350367
872.945357	2478.921869
873.256571	2481.631489
873.567744	2480.598052
873.878874	2479.763742
874.189963	2481.513022
874.501010	2479.869606
874.812015	2478.299286
875.122979	2481.833135
875.433900	2478.276601
875.744780	2479.524287
876.055618	2476.297948
876.366415	2481.215594
876.677169	2479.867085
876.987882	2477.175109
877.298554	2478.117805
877.609183	2478.770634
877.919771	2476.161837
878.230317	2478.425315
878.540822	2477.699389
878.851285	2480.275419
879.161707	2479.897332
879.472087	2477.843062
879.782425	2480.161993
880.092722	2478.200984
880.402977	2479.488999
880.713191	2479.214256
881.023363	2479.786427
881.333494	2480.708958
881.643583	2479.272229
881.953631	2478.682414
882.263637	2480.237610
882.573602	2481.996973
882.883526	2478.130408
883.193408	2480.081334
883.503248	2480.877837
883.813048	2478.604276
884.122806	2479.085706
884.432522	2479.993114
884.742197	2477.959008
885.051831	2482.143166
885.361424	2477.724595
885.670975	2478.619400
885.980485	2479.607466
886.289954	2479.383134
886.599382	2478.334574
886.908768	2477.538072
887.218113	2474.150417
887.527417	2477.742239
887.836680	2473.469861
888.145901	2480.035964
888.455082	2479.221817
888.764221	2478.805922
889.073319	2479.095789
889.382376	2479.690645
889.691392	2480.653505
890.000366	2479.824235
890.309300	2480.363639
890.618193	2478.332054
890.927044	2478.490850
891.235855	2477.270891
891.544625	2478.901704
891.853353	2479.216776
892.162041	2478.871457
892.470687	2476.865078
892.779293	2478.458083
893.087858	2479.279791
893.396381	2479.181488
893.704864	2482.367497
894.013306	2477.510346
894.321707	2478.248875
894.630068	2478.155613
894.938387	2478.763072
895.246665	2479.146200
895.554903	2478.112764
895.863100	2476.066055
896.171256	2477.212918
896.479371	2479.120994
896.787446	2480.814822
897.095480	2480.300624
897.403473	2476.055973
897.711425	2477.538072
898.019336	2480.734164
898.327207	2479.158803
898.635038	2479.531848
898.942827	2478.576550
899.250576	2479.904894
899.558284	2477.457414
899.865952	2479.738536
900.173579	2477.840541
900.481165	2476.429018
900.788711	2476.920531
901.096216	2476.981025
901.403681	2478.954636
901.711105	2481.520584
902.018489	2477.802733
902.325832	2478.208546
902.633135	2474.374748
902.940397	2475.108236
903.247619	2473.094295
903.554800	2478.120325
903.861941	2480.073772
904.169041	2476.708802
904.476101	2480.686273
904.783121	2478.896663
905.090100	2479.156283
905.397039	2480.109061
905.703938	2477.374235
906.010796	2476.728967
906.317614	2476.660911
906.624391	2479.488999
906.931129	2478.319451
907.237826	2476.048411
907.544483	2478.306848
907.851099	2479.630151
908.157675	2479.022692
908.464211	2479.519246
908.770707	2477.016313
909.077163	2477.601087
909.383578	2479.846921
909.689954	2478.420274
909.996289	2478.621920
910.302584	2477.787609
910.608839	2481.124853
910.915054	2479.854482
911.221229	2476.224852
911.527363	2478.082517
911.833458	2477.482619
912.139513	2479.257106
912.445527	2478.594194
912.751502	2477.870788
913.057436	2476.567650
913.363331	2477.230562
913.669186	2476.948257
913.975000	2479.937661
914.280775	2478.763072
914.586510	2481.008907
914.892205	2479.657877
915.197859	2477.880871
915.503475	2479.468834
915.809050	2476.078658
916.114585	2479.753659
916.420081	2477.553196
916.725536	2477.971611
917.030952	2478.768114
917.336328	2478.460603
917.641665	2476.847434
917.946961	2474.828452
918.252218	2477.069245
918.557435	2472.542289
918.862612	2477.517908
919.167750	2476.781899
919.472848	2477.959008
919.777906	2479.156283
920.082925	2477.628813
920.387904	2478.639564
920.692843	2478.667291
920.997743	2476.668473
921.302603	2479.045377
921.607423	2475.990438
921.912204	2476.441621
922.216946	2480.013279
922.521647	2474.334419
922.826310	2478.062352
923.130932	2478.165696
923.435516	2476.580253
923.740059	2477.099492
924.044564	2480.161993
924.349028	2478.321972
924.653454	2478.848772
924.957840	2478.372383
925.262186	2475.151086
925.566493	2475.597228
925.870761	2480.338433
926.174989	2480.098978
926.479178	2480.020840
926.783328	2479.340285
927.087438	2475.816518
927.391509	2478.689976
927.695541	2476.257619
927.999533	2480.507312
928.303486	2479.244503
928.607400	2477.772486
928.911275	2476.068576
929.215110	2477.901035
929.518906	2475.476240
929.822663	2477.911118
930.126381	2477.684266
930.430060	2480.197281
930.733699	2477.001189
931.037299	2477.956488
931.340861	2477.212918
931.644383	2473.946250
931.947866	2476.799543
932.251309	2478.437918
932.554714	2478.810963
932.858080	2476.176961
933.161407	2474.725108
933.464694	2475.680407
933.767943	2474.382310
934.071153	2475.539255
934.374323	2476.333236
934.677455	2479.191571
934.980548	2478.170737
935.283602	2477.064204
935.586617	2479.362970
935.889593	2475.743421
936.192530	2478.495891
936.495428	2476.388689
936.798287	2476.965901
937.101108	2478.541262
937.403890	2475.294759
937.706632	2479.370532
938.009336	2476.446662
938.312002	2476.754173
938.614628	2475.824080
938.917216	2476.098823
939.219765	2476.340798
939.522275	2477.664101
939.824747	2475.884574
940.127179	2474.566312
940.429573	2476.441621
940.731929	2477.578401
941.034246	2476.625623
941.336524	2478.296766
941.638763	2477.031436
941.940964	2476.708802
942.243126	2476.552527
942.545250	2480.759369
942.847335	2478.407671
943.149381	2477.838021
943.451389	2477.563278
943.753359	2475.478761
944.055290	2475.403143
944.357182	2478.846252
944.659036	2479.060501
944.960851	2476.504636
945.262628	2478.853813
945.564367	2475.811477
945.866067	2478.054790
946.167729	2476.421457
946.469352	2479.539410
946.770937	2471.571867
947.072484	2477.578401
947.373992	2477.096971
947.675462	2476.171919
947.976893	2474.586477
948.278286	2474.588997
948.579641	2474.962043
948.880958	2473.421970
949.182236	2476.731488
949.483476	2476.043370
949.784678	2476.683597
950.085841	2477.918679
950.386967	2478.473206
950.688054	2475.640078
950.989103	2477.296097
951.290114	2476.867599
951.591087	2478.732826
951.892021	2476.706282
952.192917	2479.216776
952.493776	2473.984059
952.794596	2478.238792
953.095378	2477.371714
953.396122	2476.552527
953.696828	2476.817187
953.997496	2474.750314
954.298126	2479.191571
954.598718	2476.459265
954.899272	2478.682414
955.199788	2476.164358
955.500266	2477.530510
955.800706	2476.804584
956.101108	2478.092599
956.401472	2475.312403
956.701798	2475.057824
957.002087	2475.025057
957.302337	2479.748618
957.602550	2478.490850
957.902724	2476.827269
958.202861	2476.529841
958.502960	2477.948926
958.803022	2480.262816
959.103045	2478.019502
959.403031	2475.125880
959.702979	2477.157465
960.002889	2475.052783
960.302762	2476.618062
960.602596	2475.710654
960.902393	2478.289204
961.202153	2475.604790
961.501875	2476.723926
961.801559	2476.615541
962.101205	2476.897846
962.400814	2475.214100
962.700385	2477.830459
962.999918	2474.077320
963.299414	2469.840230
963.598873	2477.401961
963.898293	2472.166723
964.197677	2477.152424
964.497022	2475.859368
964.796331	2476.262660
965.095601	2476.388689
965.394835	2474.281487
965.694030	2476.444142
965.993189	2475.902218
966.292309	2476.219810
966.591393	2472.038173
966.890439	2476.497074
967.189447	2475.438432
967.488419	2475.972794
967.787353	2476.754173
968.086249	2476.794502
968.385108	2477.404482
968.683930	2475.677886
968.982714	2475.617392
969.281462	2476.058493
969.580172	2477.275932
969.878844	2475.967753
970.177480	2474.893987
970.476078	2476.290387
970.774639	2474.962043
971.073162	2476.320633
971.371649	2476.978504
971.670098	2475.753504
971.968510	2476.209728
972.266885	2474.833493
972.565223	2477.880871
972.863524	2476.736529
973.161788	2473.961373
973.460014	2474.531024
973.758204	2476.517238
974.056356	2477.906076
974.354471	2477.142342
974.652550	2476.366004
974.950591	2475.544296
975.248595	2475.178812
975.546563	2478.274081
975.844493	2476.315592
976.142386	2476.018164
976.440243	2474.957001
976.738062	2477.570840
977.035845	2473.792495
977.333590	2476.746611
977.631299	2474.939357
977.928971	2472.945581
978.226606	2472.196970
978.524204	2471.047587
978.821765	2473.419449
979.119290	2476.018164
979.416777	2474.795684
979.714228	2477.248206
980.011642	2476.907928
980.309020	2478.899184
980.606360	2475.879533
980.903664	2476.229893
981.200931	2476.713843
981.498162	2475.854327
981.795356	2477.205356
982.092513	2474.135293
982.389633	2475.750983
982.686717	2476.504636
982.983764	2475.282156
983.280775	2474.808287
983.577749	2474.664614
983.874686	2474.520942
984.171587	2477.540593
984.468451	2474.904069
984.765279	2476.227372
985.062070	2475.166209
985.358824	2474.919193
985.655543	2475.831642
985.952224	2474.906590
986.248869	2474.100005
986.545478	2475.541775
986.842050	2474.853658
987.138586	2474.982207
987.435086	2476.035808
987.731549	2477.165027
988.027975	2475.695530
988.324366	2477.084368
988.620719	2477.280973
988.917037	2472.854840
989.213318	2476.915490
989.509563	2477.159986
989.805772	2479.133597
990.101944	2473.563122
990.398080	2475.922382
990.694180	2477.782568
990.990244	2474.125211
991.286271	2475.501446
991.582262	2475.035139
991.878217	2475.912300
992.174136	2472.980869
992.470019	2477.407002
992.765865	2475.708133
993.061676	2471.448358
993.357450	2473.051445
993.653188	2469.852833
993.948890	2477.066724
994.244556	2475.723257
994.540186	2475.521611
994.835780	2473.517752
995.131337	2474.914152
995.426859	2476.454224
995.722345	2475.955150
996.017795	2474.435242
996.313208	2475.723257
996.608586	2475.932465
996.903928	2475.108236
997.199234	2475.105715
997.494504	2476.776858
997.789738	2476.030767
998.084936	2474.914152
998.380099	2473.454737
998.675225	2474.490695
998.970316	2477.326344
999.265371	2477.195274
999.560390	2474.702423
999.855373	2475.045222
1000.150320	2475.914821
1000.445232	2477.250726
1000.740108	2474.011785
1001.034948	2476.686117
1001.329752	2474.788123
1001.624521	2475.642598
1001.919254	2476.164358
1002.213951	2476.242496
1002.508613	2475.151086
1002.803239	2476.870119
1003.097829	2473.711836
1003.392384	2478.158134
1003.686903	2474.347022
1003.981386	2475.642598
1004.275834	2475.055304
1004.570246	2480.439256
1004.864623	2474.102526
1005.158964	2477.452373
1005.453270	2476.035808
1005.747540	2475.463637
1006.041775	2476.139152
1006.335974	2473.374079
1006.630138	2473.573205
1006.924266	2479.226859
1007.218359	2477.606128
1007.512416	2475.398102
1007.806438	2472.265025
1008.100425	2474.054635
1008.394376	2472.799387
1008.688292	2475.345170
1008.982172	2474.503297
1009.276017	2475.650160
1009.569827	2477.500263
1009.863602	2477.724595
1010.157341	2475.279635
1010.451045	2474.893987
1010.744714	2473.651343
1011.038347	2477.407002
1011.331945	2475.985397
1011.625508	2473.464820
1011.919036	2472.688482
1012.212528	2476.713843
1012.505986	2476.681076
1012.799408	2478.231231
1013.092795	2474.127732
1013.386147	2474.659573
1013.679464	2474.286528
1013.972745	2475.937506
1014.265992	2477.298617
1014.559204	2476.237454
1014.852380	2476.126549
1015.145521	2476.451703
1015.438628	2476.174440
1015.731699	2476.938175
1016.024736	2475.955150
1016.317737	2472.978348
1016.610703	2474.674697
1016.903635	2478.836169
1017.196531	2475.549337
1017.489393	2477.449852
1017.782219	2476.010603
1018.075011	2474.304172
1018.367768	2474.278966
1018.660490	2475.965232
1018.953177	2475.965232
1019.245829	2475.965232
