Dividing Wavelength (nm)	Counts (n)	Blue Motor Position (mm): 6.000000	Red Motor Position (mm): 0.000000	
326.493990	2161.291368
326.888308	2161.291368
327.282561	2161.291368
327.676750	2134.167440
328.070874	2136.861936
328.464933	2143.554068
328.858929	2149.734523
329.252859	2160.192396
329.646726	2179.162258
330.040528	2190.787159
330.434265	2208.436239
330.827938	2228.598333
331.221547	2247.235479
331.615091	2267.710126
332.008571	2288.497323
332.401986	2309.803760
332.795338	2327.904023
333.188625	2345.941272
333.581847	2367.230064
333.975006	2385.630276
334.368100	2403.609551
334.761129	2421.994639
335.154095	2437.355035
335.546996	2455.898919
335.939833	2468.557257
336.332606	2485.608959
336.725315	2497.301916
337.117960	2507.447238
337.510540	2512.621982
337.903056	2522.280833
338.295508	2532.345497
338.687896	2538.344470
339.080220	2544.567774
339.472480	2550.201264
339.864676	2552.474824
340.256807	2557.367264
340.648875	2555.083621
341.040879	2558.342727
341.432818	2560.747358
341.824694	2561.768191
342.216506	2559.829867
342.608253	2560.810372
342.999937	2561.049827
343.391557	2560.490259
343.783113	2558.735937
344.174605	2556.885834
344.566033	2554.657644
344.957397	2553.788045
345.348697	2552.482386
345.739934	2547.887374
346.131106	2551.441388
346.522215	2544.955943
346.913260	2543.488967
347.304241	2544.857641
347.695159	2540.696168
348.086012	2542.112732
348.476802	2539.597197
348.867528	2537.353883
349.258191	2533.822555
349.648789	2537.621064
350.039324	2534.966897
350.429796	2534.505631
350.820203	2530.099663
351.210548	2530.127389
351.600828	2532.002698
351.991045	2528.849457
352.381198	2529.819879
352.771288	2530.376926
353.161314	2528.839374
353.551276	2531.866587
353.941175	2531.896834
354.331010	2529.217461
354.720782	2532.385826
355.110490	2529.146885
355.500135	2530.046731
355.889717	2530.049251
356.279235	2527.836185
356.668689	2531.158305
357.058080	2531.493542
357.447408	2528.577234
357.836672	2528.378109
358.225873	2528.995650
358.615010	2530.082019
359.004084	2534.135106
359.393095	2536.007895
359.782043	2536.411187
360.170927	2533.867925
360.559748	2537.600900
360.948505	2535.528985
361.337199	2538.117618
361.725830	2534.616537
362.114398	2538.054603
362.502903	2537.432021
362.891344	2537.555529
363.279722	2537.893287
363.668037	2538.425128
364.056289	2541.056611
364.444478	2542.488298
364.832603	2542.253885
365.220665	2541.585932
365.608665	2541.101981
365.996601	2540.882691
366.384474	2542.049718
366.772284	2543.904863
367.160031	2541.419574
367.547715	2541.351518
367.935336	2539.476209
368.322893	2540.411343
368.710388	2542.379913
369.097820	2544.734132
369.485189	2542.858823
369.872495	2544.608103
370.259738	2543.110881
370.646918	2545.439894
371.034035	2544.759338
371.421090	2543.645243
371.808081	2544.860161
372.195010	2546.508618
372.581875	2547.549617
372.968678	2545.654143
373.355418	2545.371838
373.742096	2547.340409
374.128710	2546.155738
374.515262	2546.548948
374.901751	2545.495347
375.288177	2547.063145
375.674540	2548.184802
376.060841	2548.890564
376.447079	2547.821839
376.833254	2547.496685
377.219367	2545.510470
377.605417	2547.103475
377.991404	2544.393854
378.377329	2543.983000
378.763191	2546.538865
379.148991	2550.879299
379.534727	2552.184958
379.920402	2552.699155
380.306013	2547.955430
380.691563	2552.179917
381.077049	2552.026161
381.462474	2553.069680
381.847835	2550.735626
382.233134	2550.513815
382.618371	2552.610935
383.003545	2554.854249
383.388657	2554.786193
383.773706	2553.616645
384.158693	2549.147663
384.543618	2554.899619
384.928480	2553.392314
385.313280	2551.854762
385.698017	2555.257541
386.082692	2552.903322
386.467305	2552.258054
386.851856	2556.686708
387.236344	2554.035061
387.620770	2555.746533
388.005133	2555.819630
388.389435	2557.236194
388.773674	2557.256358
389.157851	2553.636810
389.541965	2555.580175
389.926018	2553.815771
390.310008	2556.200237
390.693936	2555.310473
391.077802	2555.552448
391.461606	2555.809547
391.845348	2554.728220
392.229027	2556.008673
392.612645	2559.257697
392.996200	2555.842315
393.379694	2558.796431
393.763125	2557.195865
394.146494	2556.913560
394.529801	2559.837429
394.913047	2559.902964
395.296230	2558.221739
395.679351	2557.652089
396.062410	2559.575289
396.445408	2559.514795
396.828343	2559.902964
397.211217	2555.232335
397.594028	2557.241235
397.976778	2554.087993
398.359466	2558.030176
398.742092	2555.796944
399.124656	2561.039744
399.507158	2559.139229
399.889598	2559.461863
400.271977	2561.019580
400.654294	2560.858263
401.036549	2561.052347
401.418742	2562.746175
401.800874	2559.403890
402.182944	2560.069322
402.564952	2559.350958
402.946898	2562.925136
403.328783	2563.583007
403.710606	2561.201061
404.092367	2562.577296
404.474067	2562.922615
404.855705	2563.756926
405.237282	2563.202399
405.618797	2565.274314
406.000250	2563.144426
406.381642	2562.269786
406.762972	2563.386402
407.144240	2564.508058
407.525447	2565.644838
407.906593	2564.006463
408.287677	2563.890517
408.668700	2561.858932
409.049661	2565.236505
409.430560	2563.313305
409.811399	2563.857749
410.192176	2563.736762
410.572891	2564.550908
410.953545	2564.850857
411.334138	2566.595096
411.714669	2563.653583
412.095139	2566.350600
412.475547	2563.724159
412.855894	2565.569221
413.236180	2564.742472
413.616405	2566.043090
413.996568	2569.781105
414.376670	2566.917730
414.756711	2566.335477
415.136691	2566.887483
415.516609	2568.646846
415.896466	2566.816907
416.276262	2567.419325
416.655997	2562.053016
417.035670	2563.235167
417.415283	2564.949159
417.794834	2562.224416
418.174324	2564.855898
418.553753	2569.120714
418.933121	2570.688513
419.312428	2570.398647
419.691674	2568.099880
420.070859	2568.871177
420.449983	2567.295816
420.829045	2565.677606
421.208047	2569.128276
421.586988	2569.294634
421.965867	2569.546692
422.344686	2569.670200
422.723444	2567.477298
423.102141	2568.664490
423.480777	2570.030642
423.859352	2572.314285
424.237866	2570.204562
424.616319	2568.369582
424.994712	2569.460992
425.373044	2572.140365
425.751314	2571.038873
426.129524	2569.380333
426.507673	2571.358986
426.885762	2569.085426
427.263789	2572.006775
427.641756	2568.233471
428.019662	2571.444686
428.397508	2568.969479
428.775292	2572.165571
429.153016	2572.079871
429.530679	2571.331260
429.908282	2571.419480
430.285824	2573.456106
430.663305	2570.567525
431.040726	2574.303020
431.418086	2569.995354
431.795385	2572.982238
432.172624	2570.607854
432.549802	2571.117011
432.926920	2570.043245
433.303977	2574.431570
433.680974	2573.745973
434.057910	2575.623802
434.434786	2574.446693
434.811601	2576.014492
435.188355	2575.739749
435.565050	2574.360993
435.941683	2574.487022
436.318257	2568.921588
436.694770	2568.984603
437.071222	2570.358317
437.447614	2569.985272
437.823946	2569.841599
438.200218	2573.917372
438.576429	2575.021385
438.952580	2573.728329
439.328670	2572.838565
439.704700	2573.062896
440.080670	2574.108936
440.456580	2572.410067
440.832429	2574.005592
441.208218	2575.026426
441.583947	2573.345201
441.959616	2576.732856
442.335224	2572.914182
442.710773	2573.579615
443.086261	2575.001220
443.461689	2576.266550
443.837057	2576.538772
444.212365	2573.992989
444.587612	2576.435428
444.962800	2575.649008
445.337927	2577.063052
445.712995	2574.245047
446.088002	2574.965932
446.462949	2576.211097
446.837837	2578.101530
447.212664	2575.676735
447.587431	2574.849985
447.962139	2573.814028
448.336786	2577.453741
448.711374	2575.550706
449.085901	2578.126735
449.460369	2575.575912
449.834776	2578.209914
450.209124	2575.641447
450.583412	2575.475088
450.957640	2574.267732
451.331808	2577.660429
451.705917	2576.095150
452.079965	2577.617579
452.453954	2575.071796
452.827883	2579.046746
453.201752	2577.902404
453.575562	2577.158834
453.949311	2577.121025
454.323001	2576.374934
454.696632	2575.918710
455.070202	2579.533217
455.443713	2575.197825
455.817164	2574.481981
456.190556	2574.504666
456.563888	2575.926272
456.937160	2572.324367
457.310373	2580.483475
457.683526	2579.465162
458.056619	2581.032961
458.429653	2580.425502
458.802628	2582.149576
459.175542	2581.393403
459.548398	2578.467013
459.921194	2578.101530
460.293930	2578.618248
460.666607	2580.765779
461.039224	2579.152610
461.411782	2580.428022
461.784280	2581.756366
462.156719	2580.178485
462.529099	2581.554720
462.901419	2577.486509
463.273680	2580.029771
463.645882	2578.159503
464.018024	2578.923238
464.390106	2580.468351
464.762130	2580.231417
465.134094	2581.101016
465.505999	2581.645461
465.877845	2579.628999
466.249631	2581.355594
466.621358	2580.518763
466.993026	2582.434401
467.364634	2581.390883
467.736184	2579.686972
468.107674	2579.694534
468.479105	2578.265367
468.850477	2578.817373
469.221790	2582.343661
469.593043	2578.983732
469.964238	2581.849628
470.335373	2578.875347
470.706449	2578.950964
471.077467	2582.048753
471.448425	2584.778538
471.819324	2582.641089
472.190164	2582.815008
472.560945	2581.095975
472.931667	2581.388362
473.302330	2580.017168
473.672934	2580.997672
474.043479	2581.068249
474.413965	2580.649833
474.784393	2577.075655
475.154761	2577.715881
475.525070	2575.157496
475.895321	2580.107909
476.265513	2577.786457
476.635645	2582.346181
477.005719	2580.175964
477.375734	2581.642940
477.745691	2583.039340
478.115588	2582.580595
478.485427	2581.902560
478.855207	2580.775862
479.224928	2583.820719
479.594591	2581.847107
479.964194	2580.778382
480.333739	2582.573033
480.703226	2582.993969
481.072653	2585.751481
481.442022	2583.374577
481.811333	2583.301480
482.180584	2582.817529
482.549777	2582.807447
482.918912	2583.238465
483.287988	2583.142683
483.657005	2583.548496
484.025964	2584.390369
484.394864	2580.647312
484.763706	2584.715523
485.132489	2585.126378
485.501213	2583.183013
485.869879	2581.113619
486.238487	2579.508012
486.607036	2586.558065
486.975527	2582.714185
487.343959	2584.377766
487.712333	2584.755853
488.080648	2582.202508
488.448905	2583.493044
488.817104	2582.484813
489.185244	2583.498085
489.553326	2580.783423
489.921350	2582.840214
490.289315	2584.281984
490.657222	2582.797364
491.025070	2584.370204
491.392861	2585.116295
491.760593	2582.774679
492.128267	2586.341296
492.495883	2586.096800
492.863440	2586.069073
493.230939	2584.241655
493.598380	2585.385997
493.965763	2580.034812
494.333088	2582.207549
494.700354	2580.463310
495.067563	2580.972467
495.434713	2579.674370
495.801805	2583.155286
496.168839	2584.224011
496.535815	2585.393559
496.902733	2585.701069
497.269593	2584.367684
497.636395	2585.454052
498.003139	2583.850966
498.369825	2583.971953
498.736453	2582.857858
499.103023	2586.134608
499.469535	2584.133270
499.835989	2583.916501
500.202385	2586.575709
500.568723	2584.375246
500.935003	2583.674525
501.301226	2584.748291
501.667390	2586.358940
502.033497	2584.675194
502.399546	2583.911459
502.765537	2586.779876
503.131470	2586.061512
503.497345	2586.613518
503.863163	2586.177458
504.228923	2584.377766
504.594625	2586.179979
504.960269	2586.207705
505.325856	2584.728126
505.691385	2585.925400
506.056856	2586.353898
506.422270	2587.606625
506.787625	2587.170565
507.152924	2585.194433
507.518164	2587.049578
507.883347	2584.740729
508.248472	2586.295925
508.613540	2584.569330
508.978550	2584.871799
509.343503	2585.862386
509.708398	2586.653847
510.073236	2586.401789
510.438016	2587.014290
510.802738	2585.156624
511.167403	2587.382294
511.532010	2585.496902
511.896561	2584.914649
512.261053	2588.304825
512.625488	2582.124370
512.989866	2582.608321
513.354186	2580.291911
513.718449	2581.587487
514.082655	2583.742581
514.446803	2583.167889
514.810894	2584.977663
515.174927	2589.867583
515.538904	2586.890781
515.902822	2586.142170
516.266684	2584.954978
516.630488	2586.187540
516.994235	2589.968406
517.357925	2586.036306
517.721558	2587.057139
518.085133	2584.652509
518.448651	2589.834815
518.812112	2589.212233
519.175516	2585.060842
519.538863	2585.219639
519.902152	2587.851121
520.265385	2587.467993
520.628560	2586.101841
520.991678	2588.035123
521.354739	2583.518249
521.717743	2585.161666
522.080690	2587.155442
522.443580	2584.612180
522.806413	2587.273909
523.169189	2586.984043
523.531908	2588.302304
523.894569	2585.370873
524.257174	2585.232242
524.619722	2589.103848
524.982213	2587.175607
525.344647	2585.590164
525.707025	2586.855493
526.069345	2590.228025
526.431608	2587.198292
526.793815	2587.551172
527.155964	2585.597725
527.518057	2585.605287
527.880093	2587.220977
528.242072	2587.137798
528.603995	2584.937334
528.965860	2588.211564
529.327669	2591.004363
529.689421	2586.185020
530.051117	2587.455391
530.412755	2588.778693
530.774337	2589.791965
531.135862	2589.408838
531.497331	2585.537232
531.858743	2584.092941
532.220098	2583.785431
532.581396	2583.369535
532.942638	2584.730647
533.303824	2587.846080
533.664953	2589.040833
534.026025	2587.213415
534.387040	2588.067891
534.747999	2585.391038
535.108902	2585.252406
535.469748	2584.816347
535.830537	2585.837180
536.191270	2589.522264
536.551947	2586.311049
536.912567	2589.098807
537.273131	2584.997828
537.633638	2585.398600
537.994089	2587.089907
538.354483	2587.893971
538.714821	2589.255083
539.075103	2585.978332
539.435328	2587.594022
539.795497	2587.833477
540.155609	2584.657550
540.515665	2588.299784
540.875665	2591.090062
541.235609	2589.179465
541.595496	2589.812130
541.955328	2588.009918
542.315102	2587.820874
542.674821	2589.096286
543.034483	2589.444126
543.394090	2588.395566
543.753640	2589.355906
544.113134	2587.594022
544.472571	2586.855493
544.831953	2585.880030
545.191278	2584.123188
545.550548	2586.782397
545.909761	2587.702407
546.268918	2589.118971
546.628019	2589.187027
546.987064	2587.904053
547.346053	2585.721234
547.704986	2587.982191
548.063863	2587.256265
548.422684	2588.118302
548.781449	2587.669640
549.140158	2588.698035
549.498811	2591.117789
549.857408	2587.851121
550.215949	2584.082859
550.574434	2586.847932
550.932864	2586.689135
551.291237	2582.174782
551.649555	2587.919177
552.007817	2589.943200
552.366022	2588.695514
552.724173	2585.539752
553.082267	2590.086873
553.440305	2587.722572
553.798288	2588.997984
554.156215	2590.013776
554.514086	2588.894640
554.871902	2589.605443
555.229661	2590.401945
555.587365	2588.824064
555.945014	2587.047057
556.302606	2588.292222
556.660143	2586.868096
557.017625	2588.743405
557.375050	2587.392376
557.732421	2586.858014
558.089735	2587.692325
558.446994	2588.894640
558.804197	2589.728951
559.161345	2588.261975
559.518437	2590.434712
559.875474	2589.088724
560.232455	2588.771132
560.589381	2588.168714
560.946251	2590.626276
561.303065	2587.382294
561.659825	2590.759867
562.016528	2590.459918
562.373177	2588.020000
562.729770	2590.449836
563.086307	2588.093097
563.442789	2590.578385
563.799216	2589.860021
564.155587	2591.180803
564.511904	2590.124682
564.868164	2590.989239
565.224370	2588.584609
565.580520	2588.037644
565.936615	2591.740371
566.292654	2590.719538
566.648638	2590.238107
567.004567	2587.538570
567.360441	2590.222984
567.716260	2587.362129
568.072023	2591.047213
568.427732	2586.532859
568.783385	2584.397931
569.138982	2588.554362
569.494525	2586.379104
569.850013	2587.372212
570.205445	2588.660226
570.560823	2588.715679
570.916145	2590.349013
571.271412	2590.409507
571.626625	2587.094948
571.981782	2590.011256
572.336884	2590.170052
572.691931	2588.269537
573.046923	2589.333220
573.401860	2590.401945
573.756743	2588.264496
574.111570	2587.097469
574.466342	2590.848087
574.821059	2589.703745
575.175722	2588.362798
575.530330	2591.342120
575.884882	2587.513364
576.239380	2590.704414
576.593823	2591.823550
576.948211	2587.283991
577.302544	2591.468149
577.656823	2589.771801
578.011047	2591.813468
578.365216	2587.964547
578.719330	2588.463621
579.073389	2589.549990
579.427394	2589.229877
579.781344	2589.852459
580.135239	2589.597881
580.489080	2589.010587
580.842866	2589.572675
581.196597	2593.708942
581.550273	2590.810278
581.903895	2588.251893
582.257463	2588.272057
582.610975	2586.230390
582.964434	2589.429002
583.317837	2591.087542
583.671186	2589.673498
584.024481	2591.246338
584.377721	2591.261462
584.730906	2590.359095
585.084037	2591.064857
585.437113	2588.572006
585.790135	2591.952100
586.143103	2588.723241
586.496016	2592.365474
586.848874	2587.392376
587.201679	2589.257603
587.554428	2585.958168
587.907124	2590.273396
588.259765	2587.334403
588.612352	2591.115268
588.964884	2591.271544
589.317362	2589.963365
589.669786	2590.724579
590.022155	2590.621235
590.374470	2589.854980
590.726731	2593.459405
591.078937	2588.735844
591.431090	2589.993612
591.783188	2591.770618
592.135232	2589.975967
592.487222	2588.198961
592.839157	2592.801534
593.191038	2590.762387
593.542866	2591.445464
593.894639	2593.061154
594.246358	2588.887078
594.598022	2588.675350
594.949633	2590.386822
595.301190	2592.252048
595.652692	2594.800352
596.004141	2590.354054
596.355535	2590.371698
596.706876	2589.484455
597.058162	2590.827923
597.409395	2589.446646
597.760573	2588.864393
598.111698	2589.229877
598.462768	2590.152408
598.813785	2591.137953
599.164748	2591.276585
599.515657	2587.916656
599.866511	2589.534867
600.217312	2589.091245
600.568060	2589.340782
600.918753	2588.914805
601.269392	2590.820361
601.619978	2590.530494
601.970510	2592.100814
602.320988	2592.017635
602.671412	2588.140987
603.021783	2590.071749
603.372100	2588.214084
603.722363	2591.780701
604.072572	2591.198447
604.422728	2592.345310
604.772830	2585.945565
605.122878	2587.959506
605.472872	2586.051429
605.822813	2587.543611
606.172701	2586.479927
606.522534	2589.635690
606.872314	2590.417068
607.222041	2590.036461
607.571714	2592.231884
607.921333	2591.579054
608.270899	2591.644589
608.620411	2591.939497
608.969870	2589.802048
609.319276	2592.730958
609.668627	2589.575196
610.017926	2588.559403
610.367171	2592.025197
610.716362	2593.146853
611.065500	2589.774321
611.414585	2592.569641
611.763616	2592.824219
612.112594	2590.641400
612.461518	2592.834302
612.810389	2588.947572
613.159207	2591.947059
613.507971	2591.122830
613.856682	2591.241297
614.205340	2592.741040
614.553945	2590.996801
614.902496	2592.950248
615.250994	2592.811617
615.599439	2589.718869
615.947830	2591.505958
616.296169	2590.860690
616.644454	2592.622573
616.992686	2593.076277
617.340864	2591.102665
617.688990	2589.587799
618.037063	2591.425299
618.385082	2594.412183
618.733048	2591.586616
619.080961	2591.526122
619.428821	2591.934456
619.776628	2589.902871
620.124382	2590.555700
620.472083	2590.386822
620.819731	2593.240115
621.167326	2590.883375
621.514868	2591.873962
621.862357	2591.301791
622.209793	2592.458736
622.557176	2594.893613
622.904506	2589.308015
623.251783	2587.692325
623.599007	2589.683581
623.946179	2587.145360
624.293297	2586.298446
624.640363	2595.470825
624.987376	2590.391863
625.334336	2591.843715
625.681243	2593.151894
626.028097	2593.998808
626.374899	2591.972264
626.721647	2592.680547
627.068343	2590.989239
627.414987	2591.899168
627.761577	2593.650969
628.108115	2592.680547
628.454600	2591.576534
628.801032	2591.722727
629.147412	2595.266658
629.493739	2592.108376
629.840014	2593.686257
630.186236	2594.323963
630.532405	2592.899837
630.878521	2592.320104
631.224585	2592.909919
631.570597	2589.948241
631.916556	2594.230701
632.262462	2592.231884
632.608316	2593.744230
632.954117	2593.668613
633.299866	2592.161308
633.645562	2594.155084
633.991206	2595.117944
634.336797	2593.237594
634.682336	2593.598037
635.027823	2593.398911
635.373257	2593.908067
635.718639	2591.261462
636.063968	2591.435382
636.409245	2592.360433
636.754470	2592.539394
637.099642	2594.502924
637.444762	2592.909919
637.789829	2593.547625
638.134845	2594.540732
638.479808	2595.886720
638.824719	2594.497883
639.169577	2591.347161
639.514383	2594.727255
639.859137	2592.320104
640.203839	2593.295567
640.548489	2594.901175
640.893086	2591.410176
641.237632	2590.429671
641.582125	2589.436564
641.926566	2590.918663
642.270955	2592.844384
642.615292	2593.411514
642.959576	2594.661720
643.303809	2594.472677
643.647990	2595.541401
643.992118	2593.028386
644.336195	2597.179776
644.680219	2596.443768
645.024192	2593.935794
645.368112	2595.619539
645.711981	2595.581731
646.055797	2595.828747
646.399562	2599.009715
646.743274	2597.814962
647.086935	2598.069540
647.430544	2596.431165
647.774101	2599.619695
648.117606	2598.808069
648.461059	2599.085333
648.804460	2598.208172
649.147810	2599.491145
649.491108	2597.230188
649.834354	2597.086515
650.177548	2598.278748
650.520690	2597.578027
650.863781	2598.558532
651.206820	2600.300251
651.549807	2598.099787
651.892742	2598.845878
652.235626	2595.624580
652.578458	2597.918305
652.921238	2597.109200
653.263967	2598.911413
653.606644	2599.216403
653.949269	2599.614654
654.291843	2600.811928
654.634365	2600.748913
654.976836	2600.648090
655.319255	2599.944849
655.661622	2599.352514
656.003938	2599.947370
656.346203	2601.063985
656.688416	2602.452823
657.030577	2600.665734
657.372687	2601.439551
657.714746	2599.418049
658.056753	2600.771598
658.398708	2598.190528
658.740612	2600.222113
659.082465	2600.446444
659.424266	2597.172215
659.766016	2599.518872
660.107715	2601.875611
660.449362	2602.896445
660.790958	2602.026846
661.132503	2601.288317
661.473996	2605.243102
661.815438	2605.621188
662.156829	2605.016250
662.498168	2604.532299
662.839456	2607.672938
663.180693	2605.595983
663.521879	2603.997937
663.863013	2604.401229
664.204097	2607.839296
664.545129	2606.621857
664.886110	2608.073710
665.227040	2607.693103
665.567918	2607.441045
665.908746	2609.636467
666.249522	2608.603031
666.590248	2607.912393
666.930922	2609.044132
667.271545	2608.305603
667.612118	2610.589246
667.952639	2609.031529
668.293109	2615.453959
668.633528	2613.482868
668.973896	2607.493977
669.314213	2614.105450
669.654480	2611.980604
669.994695	2612.971191
670.334859	2614.604525
670.674973	2613.248454
671.015035	2614.206273
671.355047	2611.050511
671.695008	2614.599483
672.034918	2614.657457
672.374777	2617.954371
672.714585	2617.296501
673.054342	2615.055708
673.394049	2616.076542
673.733705	2618.095524
674.073310	2618.735750
674.412864	2618.660133
674.752368	2617.341871
675.091820	2619.625514
675.431223	2618.700462
675.770574	2618.884464
676.109875	2617.467900
676.449125	2618.375308
676.788324	2618.453446
677.127473	2615.552262
677.466571	2616.265585
677.805619	2619.746502
678.144616	2620.762294
678.483562	2621.616770
678.822458	2621.052160
679.161303	2621.203395
679.500098	2617.737602
679.838842	2620.994187
680.177535	2622.745988
680.516179	2621.793210
680.854771	2625.168262
681.193314	2624.447377
681.531805	2629.138171
681.870247	2629.670013
682.208638	2631.842750
682.546978	2634.751496
682.885268	2634.189407
683.223508	2634.209572
683.561697	2635.167391
683.899836	2639.464975
684.237925	2633.188738
684.575963	2636.967083
684.913951	2636.470529
685.251889	2641.249543
685.589776	2639.878349
685.927614	2639.651497
686.265401	2641.126035
686.603137	2643.361787
686.940824	2647.823208
687.278460	2649.774134
687.616046	2651.767911
687.953582	2653.781852
688.291068	2654.217912
688.628504	2654.996770
688.965889	2658.079435
689.303224	2657.892913
689.640510	2655.679846
689.977745	2657.870227
690.314930	2657.114054
690.652065	2657.976092
690.989150	2654.094403
691.326185	2650.429484
691.663170	2651.442756
692.000105	2649.227169
692.336990	2647.588794
692.673825	2651.178096
693.010610	2647.238434
693.347345	2642.930768
693.684030	2640.090078
694.020665	2640.415232
694.357251	2640.657208
694.693786	2639.717032
695.030272	2642.817342
695.366707	2643.702065
695.703093	2642.277939
696.039429	2644.390182
696.375716	2645.060656
696.711952	2645.612662
697.048139	2645.968063
697.384276	2645.761376
697.720363	2648.660039
698.056400	2645.554689
698.392388	2648.657519
698.728326	2647.523259
699.064214	2649.257416
699.400053	2650.076604
699.735842	2649.355719
700.071581	2649.481747
700.407270	2651.286481
700.742910	2646.459576
701.078501	2648.816315
701.414042	2648.347488
701.749533	2643.933958
702.084974	2644.866571
702.420366	2647.137611
702.755709	2647.271202
703.091002	2648.193733
703.426246	2648.455873
703.761440	2648.448311
704.096584	2646.623413
704.431679	2649.731285
704.766725	2649.675832
705.101721	2649.995945
705.436668	2649.685914
705.771565	2648.750780
706.106413	2652.108189
706.441212	2651.654485
706.775961	2653.454177
707.110661	2653.363436
707.445311	2654.906029
707.779913	2652.226656
708.114465	2660.773932
708.448967	2659.496000
708.783421	2661.099087
709.117825	2667.708039
709.452180	2667.997906
709.786485	2672.184584
710.120742	2678.037363
710.454949	2681.873682
710.789107	2681.835873
711.123216	2685.546162
711.457275	2689.629497
711.791286	2693.629652
712.125247	2697.781042
712.459159	2698.222143
712.793023	2706.277907
713.126837	2702.106352
713.460602	2702.880170
713.794318	2701.345138
714.127985	2700.904037
714.461602	2698.393543
714.795171	2697.405477
715.128691	2691.318283
715.462162	2690.115968
715.795584	2688.283509
716.128957	2687.832325
716.462281	2685.117664
716.795556	2687.441636
717.128782	2682.735719
717.461960	2678.959895
717.795088	2680.550379
718.128167	2679.627847
718.461198	2678.821263
718.794180	2677.974349
719.127113	2675.216838
719.459997	2676.126766
719.792833	2675.892353
720.125619	2677.780265
720.458357	2674.553926
720.791046	2677.129956
721.123686	2673.134841
721.456278	2671.889676
721.788821	2672.577794
722.121315	2676.008299
722.453761	2674.495953
722.786158	2674.911848
723.118506	2675.841941
723.450805	2676.673731
723.783056	2678.816222
724.115259	2679.176664
724.447412	2678.536438
724.779518	2682.460976
725.111574	2681.384690
725.443582	2683.398631
725.775542	2687.360977
726.107453	2690.665454
726.439315	2693.952286
726.771129	2698.380940
727.102895	2699.779860
727.434612	2704.092567
727.766281	2703.520396
728.097901	2706.557691
728.429473	2707.656663
728.760996	2706.497197
729.092471	2708.248998
729.423897	2712.130687
729.755276	2713.365770
730.086606	2717.292828
730.417887	2719.788200
730.749120	2724.163921
731.080305	2729.772205
731.411442	2731.849160
731.742530	2735.226733
732.073570	2737.568349
732.404562	2740.588000
732.735506	2740.393916
733.066401	2741.858371
733.397249	2739.322671
733.728048	2733.174984
734.058798	2726.341700
734.389501	2722.223077
734.720156	2721.413972
735.050762	2713.453990
735.381320	2709.869729
735.711831	2709.630275
736.042293	2707.495346
736.372707	2707.323947
736.703073	2708.967363
737.033391	2711.049359
737.363661	2709.201777
737.693883	2710.668752
738.024056	2717.852397
738.354182	2720.042778
738.684260	2722.195351
739.014290	2727.044941
739.344272	2728.073336
739.674207	2733.553070
740.004093	2736.968452
740.333931	2740.260325
740.663722	2743.637898
740.993464	2742.997672
741.323159	2742.664956
741.652806	2741.621437
741.982405	2741.903742
742.311956	2739.683113
742.641460	2737.606158
742.970915	2736.754203
743.300323	2733.288410
743.629683	2731.488718
743.958996	2728.829509
744.288260	2727.798593
744.617477	2725.351113
744.946647	2721.045967
745.275768	2719.669732
745.604842	2716.821481
745.933869	2716.791234
746.262847	2717.708724
746.591778	2720.241903
746.920662	2719.561348
747.249498	2718.883312
747.578286	2722.104610
747.907027	2725.814899
748.235720	2727.279354
748.564365	2731.387895
748.892963	2732.683471
749.221514	2735.335118
749.550017	2732.711197
749.878473	2735.100704
750.206881	2732.035683
750.535242	2733.779922
750.863555	2731.551732
751.191821	2732.683471
751.520039	2734.180694
751.848210	2731.183728
752.176334	2732.562483
752.504411	2734.122721
752.832440	2731.372771
753.160421	2732.461660
753.488356	2733.091805
753.816243	2735.080540
754.144082	2735.272104
754.471875	2735.501476
754.799620	2733.195148
755.127318	2733.114490
755.454969	2733.280848
755.782572	2734.067268
756.110129	2736.134141
756.437638	2737.028946
756.765100	2739.662949
757.092515	2737.918709
757.419882	2741.175295
757.747203	2739.181518
758.074477	2741.918865
758.401703	2739.834348
758.728882	2746.720564
759.056014	2746.546644
759.383099	2747.010430
759.710138	2752.931266
760.037129	2754.584764
760.364073	2758.494179
760.690970	2758.027872
761.017820	2760.714807
761.344623	2759.832605
761.671379	2770.285438
761.998088	2775.734925
762.324751	2797.427010
762.651366	2839.316478
762.977935	2898.043400
763.304456	2947.164403
763.630931	2978.769917
763.957359	2975.878815
764.283740	2948.863272
764.610074	2923.191196
764.936362	2888.719786
765.262602	2861.865559
765.588796	2833.889676
765.914943	2809.215748
766.241044	2792.274951
766.567097	2779.750204
766.893104	2767.018770
767.219064	2759.520054
767.544978	2751.673498
767.870845	2744.242837
768.196665	2743.118660
768.522438	2736.093812
768.848165	2733.532906
769.173846	2733.487535
769.499479	2730.835888
769.825066	2726.520661
770.150607	2724.778942
770.476101	2725.383880
770.801548	2722.762480
771.126949	2719.626883
771.452303	2721.779455
771.777611	2715.714947
772.102872	2719.679815
772.428087	2713.413661
772.753256	2713.237220
773.078378	2711.913917
773.403453	2707.989379
773.728482	2707.601210
774.053465	2709.496684
774.378401	2707.278576
774.703291	2704.395036
775.028135	2700.893955
775.352932	2703.764892
775.677683	2702.771785
776.002388	2697.962524
776.327046	2697.942359
776.651658	2698.670806
776.976224	2698.222143
777.300743	2697.937318
777.625216	2694.181659
777.949643	2696.273737
778.274024	2696.815662
778.598359	2693.634693
778.922647	2692.399611
779.246889	2691.046061
779.571086	2691.988757
779.895236	2692.981864
780.219339	2697.806248
780.543397	2696.170394
780.867409	2698.655683
781.191374	2698.779191
781.515294	2700.021835
781.839167	2702.764223
782.162995	2702.630632
782.486776	2701.267000
782.810511	2703.580890
783.134201	2700.261290
783.457844	2700.783050
783.781441	2700.281455
784.104993	2699.737010
784.428498	2700.097453
784.751958	2701.294727
785.075372	2699.328677
785.398739	2700.150385
785.722061	2699.237936
786.045337	2700.896476
786.368568	2702.418904
786.691752	2706.603062
787.014891	2710.938454
787.337983	2715.296532
787.661030	2728.330435
787.984031	2737.712022
788.306987	2748.976480
788.629897	2752.132243
788.952760	2757.470825
789.275579	2756.175248
789.598351	2752.802716
789.921078	2745.659401
790.243759	2736.222361
790.566395	2729.895713
790.888984	2728.516957
791.211529	2722.470093
791.534027	2721.320710
791.856480	2715.881305
792.178888	2713.844679
792.501249	2712.153372
792.823566	2711.208156
793.145836	2707.054245
793.468062	2707.210521
793.790241	2707.099615
794.112375	2706.988710
794.434464	2708.952239
794.756507	2711.712271
795.078505	2715.024309
795.400457	2716.486244
795.722364	2720.098231
796.044226	2725.900599
796.366042	2734.291599
796.687812	2732.633060
797.009538	2740.003227
797.331218	2740.285531
797.652852	2741.192939
797.974442	2738.095150
798.295986	2738.576580
798.617484	2732.486866
798.938938	2732.575086
799.260346	2732.416290
799.581709	2727.750702
799.903026	2725.172152
800.224299	2723.216184
800.545526	2717.643189
800.866708	2714.459700
801.187845	2717.796944
801.508936	2711.417364
801.829983	2712.821325
802.150984	2707.543237
802.471940	2710.192363
802.792851	2707.182794
803.113717	2709.123639
803.434538	2706.358566
803.755314	2708.044832
804.076045	2703.991744
804.396731	2703.147351
804.717372	2702.209696
805.037967	2704.697506
805.358518	2703.323791
805.679024	2706.111549
805.999485	2705.335212
806.319901	2709.226982
806.640272	2703.709439
806.960598	2709.789071
807.280879	2708.818649
807.601115	2713.481716
807.921306	2711.495502
808.241453	2709.181612
808.561554	2712.261757
808.881611	2713.673280
809.201623	2712.730584
809.521590	2712.629761
809.841513	2713.912735
810.161390	2715.692262
810.481223	2711.185471
810.801011	2712.438197
811.120755	2713.718650
811.440453	2710.290666
811.760107	2710.545244
812.079716	2706.857640
812.399281	2707.593648
812.718801	2707.477702
813.038276	2705.483926
813.357707	2708.717826
813.677093	2712.465924
813.996434	2708.881663
814.315731	2709.766386
814.634983	2710.772096
814.954191	2711.553475
815.273354	2716.017417
815.592473	2716.965153
815.911547	2720.257027
816.230577	2726.281206
816.549562	2728.474108
816.868502	2730.069633
817.187399	2735.231774
817.506250	2741.089595
817.825058	2743.065727
818.143821	2750.118302
818.462539	2760.175404
818.781213	2769.365427
819.099843	2784.083076
819.418429	2809.666932
819.736970	2834.088801
820.055466	2872.285624
820.373919	2912.077972
820.692327	2969.292548
821.010691	3052.766493
821.329011	3206.602344
821.647286	3433.323197
821.965517	3694.601160
822.283704	3895.455853
822.601847	4050.735994
822.919945	4039.272410
823.237999	3994.292715
823.556010	3894.351840
823.873976	3776.517389
824.191897	3640.567552
824.509775	3531.487066
824.827609	3416.586567
825.145398	3337.485822
825.463144	3281.271915
825.780845	3261.868514
826.098502	3267.249946
826.416116	3321.412103
826.733685	3398.191396
827.051210	3443.740742
827.368692	3433.202210
827.686129	3375.692727
828.003522	3295.213226
828.320872	3199.176725
828.638177	3126.929428
828.955439	3060.887792
829.272656	3004.638598
829.589830	2955.767132
829.906960	2915.634506
830.224046	2880.671583
830.541088	2847.589011
830.858086	2828.102431
831.175041	2811.857313
831.491952	2805.752476
831.808819	2801.527989
832.125642	2810.425625
832.442421	2828.039417
832.759157	2866.531147
833.075849	2932.214861
833.392497	3006.551716
833.709101	3073.440265
834.025662	3093.337700
834.342179	3078.892273
834.658653	3035.349307
834.975083	2992.943121
835.291469	2955.119343
835.607811	2908.198804
835.924110	2880.981614
836.240366	2852.289887
836.556578	2819.335865
836.872746	2796.819551
837.188871	2775.553443
837.504952	2759.144488
837.820990	2744.336098
838.136984	2728.401011
838.452935	2726.094683
838.768842	2720.632593
839.084706	2731.130796
839.400526	2754.486462
839.716303	2790.886113
840.032037	2832.437823
840.347727	2844.098012
840.663373	2835.286075
840.978977	2807.834472
841.294537	2782.696758
841.610054	2763.958790
841.925527	2747.670822
842.240957	2734.626836
842.556344	2722.391956
842.871687	2710.877960
843.186987	2700.601568
843.502244	2688.787624
843.817458	2683.149093
844.132629	2677.432425
844.447756	2671.423370
844.762840	2660.852070
845.077881	2659.009528
845.392879	2656.299908
845.707833	2654.096924
846.022745	2651.846049
846.337613	2654.278405
846.652438	2650.850421
846.967221	2650.608445
847.281960	2650.129536
847.596656	2649.108702
847.911309	2647.591315
848.225919	2645.910090
848.540485	2647.961840
848.855009	2645.847076
849.169490	2643.593680
849.483928	2641.063021
849.798323	2644.102836
850.112675	2642.424132
850.426984	2644.165851
850.741251	2640.624440
851.055474	2642.305665
851.369654	2642.308186
851.683792	2639.336425
851.997887	2641.022691
852.311938	2640.647125
852.625947	2641.347846
852.939914	2640.606796
853.253837	2642.875315
853.567718	2643.495377
853.881555	2642.479585
854.195350	2645.295069
854.509103	2644.072589
854.822812	2642.913124
855.136479	2641.362969
855.450103	2640.498411
855.763685	2639.674183
856.077224	2643.281128
856.390720	2642.111581
856.704173	2641.892290
857.017584	2643.218114
857.330953	2643.966725
857.644278	2646.303300
857.957561	2648.135759
858.270802	2645.579894
858.584000	2646.058804
858.897155	2644.571664
859.210268	2646.008392
859.523339	2645.209370
859.836367	2642.217445
860.149352	2645.743732
860.462295	2646.182312
860.775195	2640.453041
861.088054	2644.054945
861.400869	2638.668472
861.713642	2638.474388
862.026373	2642.310706
862.339062	2644.569143
862.651708	2647.969401
862.964312	2645.867240
863.276873	2646.439411
863.589392	2649.605256
863.901869	2649.330513
864.214303	2649.030564
864.526696	2655.316883
864.839045	2656.549445
865.151353	2657.524908
865.463619	2656.005001
865.775842	2653.643220
866.088023	2660.630259
866.400162	2659.992553
866.712258	2657.908036
867.024313	2661.509941
867.336325	2662.954231
867.648296	2660.640342
867.960224	2662.344252
868.272110	2665.159736
868.583954	2664.806855
868.895755	2665.273162
869.207515	2664.600168
869.519233	2669.842968
869.830909	2667.902124
870.142542	2667.672751
870.454134	2669.328770
870.765684	2670.082423
871.077191	2670.647032
871.388657	2675.088288
871.700081	2675.300017
872.011463	2675.320182
872.322803	2677.742456
872.634101	2678.997703
872.945357	2681.369566
873.256571	2684.605987
873.567744	2685.190761
873.878874	2688.016327
874.189963	2687.870134
874.501010	2689.541277
874.812015	2691.106555
875.122979	2690.405834
875.433900	2694.917667
875.744780	2693.387677
876.055618	2697.839016
876.366415	2695.938501
876.677169	2701.642566
876.987882	2700.689788
877.298554	2704.130376
877.609183	2710.187322
877.919771	2715.861141
878.230317	2723.349775
878.540822	2733.999212
878.851285	2753.332037
879.161707	2767.590941
879.472087	2799.234264
879.782425	2840.231447
880.092722	2901.569687
880.402977	2983.569095
880.713191	3062.563976
881.023363	3132.782208
881.333494	3185.757173
881.643583	3231.485480
881.953631	3260.517485
882.263637	3273.783281
882.573602	3272.805297
882.883526	3260.116713
883.193408	3234.084194
883.503248	3201.336859
883.813048	3165.101045
884.122806	3126.982360
884.432522	3078.582242
884.742197	3037.675799
885.051831	2994.851198
885.361424	2955.837708
885.670975	2922.508119
885.980485	2891.449570
886.289954	2862.026876
886.599382	2837.221878
886.908768	2819.971050
887.218113	2799.856846
887.527417	2781.806995
887.836680	2767.835437
888.145901	2756.349168
888.455082	2746.332395
888.764221	2738.316961
889.073319	2729.641135
889.382376	2722.921277
889.691392	2719.962119
890.000366	2717.781820
890.309300	2714.590770
890.618193	2716.415668
890.927044	2713.706047
891.235855	2712.239072
891.544625	2712.992724
891.853353	2712.904504
892.162041	2719.634444
892.470687	2725.709035
892.779293	2732.191959
893.087858	2744.278125
893.396381	2760.379570
893.704864	2784.123405
894.013306	2819.595484
894.321707	2862.203316
894.630068	2898.537433
894.938387	2924.501896
895.246665	2930.987340
895.554903	2921.522574
895.863100	2904.748134
896.171256	2892.730023
896.479371	2875.126314
896.787446	2853.093951
897.095480	2835.671724
897.403473	2820.603715
897.711425	2803.267187
898.019336	2794.203192
898.327207	2779.354473
898.635038	2767.643873
898.942827	2756.109713
899.250576	2743.065727
899.558284	2730.808162
899.865952	2725.945969
900.173579	2716.024978
900.481165	2713.247302
900.788711	2706.325798
901.096216	2702.630632
901.403681	2696.931608
901.711105	2696.377081
902.018489	2695.678881
902.325832	2699.026207
902.633135	2701.456044
902.940397	2710.099102
903.247619	2737.454923
903.554800	2773.554626
903.861941	2829.027483
904.169041	2890.257338
904.476101	2930.846188
904.783121	2943.499484
905.090100	2936.257866
905.397039	2918.628951
905.703938	2893.796228
906.010796	2870.410315
906.317614	2848.186388
906.624391	2828.886331
906.931129	2807.796663
907.237826	2790.387039
907.544483	2773.153854
907.851099	2752.953951
908.157675	2735.312433
908.464211	2717.663353
908.770707	2700.233564
909.077163	2688.384332
909.383578	2679.552230
909.689954	2668.713749
909.996289	2663.690240
910.302584	2664.269972
910.608839	2660.416010
910.915054	2655.916780
911.221229	2653.817140
911.527363	2653.998621
911.833458	2655.488282
912.139513	2657.330824
912.445527	2657.164466
912.751502	2661.149498
913.057436	2664.151505
913.363331	2671.428411
913.669186	2679.985769
913.975000	2689.906760
914.280775	2708.594317
914.586510	2731.624829
914.892205	2756.533170
915.197859	2790.921401
915.503475	2833.062927
915.809050	2871.854605
916.114585	2904.390212
916.420081	2923.231525
916.725536	2937.729883
917.030952	2930.768050
917.336328	2925.129519
917.641665	2914.709454
917.946961	2903.419790
918.252218	2888.707183
918.557435	2871.743700
918.862612	2856.831967
919.167750	2837.302537
919.472848	2817.853765
919.777906	2800.502114
920.082925	2784.438477
920.387904	2766.623039
920.692843	2754.884713
920.997743	2738.977352
921.302603	2722.336503
921.607423	2713.695965
921.912204	2703.475026
922.216946	2697.647452
922.521647	2690.564631
922.826310	2680.953671
923.130932	2675.549554
923.435516	2669.691733
923.740059	2668.471774
924.044564	2660.360558
924.349028	2657.129178
924.653454	2651.278919
924.957840	2646.061325
925.262186	2644.332209
925.566493	2641.950264
925.870761	2634.794346
926.174989	2635.908441
926.479178	2635.535395
926.783328	2634.040693
927.087438	2628.666823
927.391509	2627.908130
927.695541	2626.229425
927.999533	2623.960906
928.303486	2621.185751
928.607400	2624.664147
928.911275	2620.273302
929.215110	2618.413116
929.518906	2616.411778
929.822663	2617.878754
930.126381	2616.931017
930.430060	2617.109978
930.733699	2617.437653
931.037299	2617.649382
931.340861	2617.702314
931.644383	2616.981429
931.947866	2616.618466
932.251309	2616.003445
932.554714	2616.116871
932.858080	2617.362036
933.161407	2616.280708
933.464694	2618.972684
933.767943	2615.600152
934.071153	2613.767693
934.374323	2615.141407
934.677455	2613.734926
934.980548	2615.338012
935.283602	2615.660646
935.586617	2613.442539
935.889593	2614.004627
936.192530	2615.123763
936.495428	2615.491768
936.798287	2617.210801
937.101108	2618.176182
937.403890	2620.837911
937.706632	2624.628859
938.009336	2625.107769
938.312002	2630.879890
938.614628	2632.684623
938.917216	2637.012453
939.219765	2639.827938
939.522275	2645.161479
939.824747	2645.784061
940.127179	2637.957670
940.429573	2641.239461
940.731929	2641.960346
941.034246	2638.368524
941.336524	2642.003196
941.638763	2645.912611
941.940964	2645.088382
942.243126	2642.325830
942.545250	2641.365490
942.847335	2641.441107
943.149381	2636.294089
943.451389	2634.638070
943.753359	2633.022380
944.055290	2630.471556
944.357182	2632.518265
944.659036	2628.714714
944.960851	2628.230763
945.262628	2625.019548
945.564367	2626.363016
945.866067	2624.777573
946.167729	2626.945269
946.469352	2622.942593
946.770937	2626.486524
947.072484	2622.816564
947.373992	2624.381842
947.675462	2622.420834
947.976893	2624.265896
948.278286	2623.194651
948.579641	2624.903602
948.880958	2623.391256
949.182236	2622.468725
949.483476	2622.824126
949.784678	2621.664661
950.085841	2623.328241
950.386967	2621.883951
950.688054	2621.314300
950.989103	2623.313118
951.290114	2624.845629
951.591087	2626.075670
951.892021	2624.175155
952.192917	2628.505506
952.493776	2627.182203
952.794596	2632.682102
953.095378	2629.105404
953.396122	2632.535909
953.696828	2629.949797
953.997496	2630.506844
954.298126	2627.461987
954.598718	2626.438633
954.899272	2623.897892
955.199788	2626.302522
955.500266	2622.667850
955.800706	2618.990328
956.101108	2616.053856
956.401472	2611.809205
956.701798	2611.960439
957.002087	2605.230499
957.302337	2608.774430
957.602550	2609.412136
957.902724	2606.823504
958.202861	2605.568256
958.502960	2601.215220
958.803022	2601.321084
959.103045	2600.648090
959.403031	2598.863522
959.702979	2596.708428
960.002889	2598.281268
960.302762	2595.377564
960.602596	2593.814806
960.902393	2594.906216
961.202153	2590.999322
961.501875	2592.357913
961.801559	2591.440423
962.101205	2590.830443
962.400814	2592.052923
962.700385	2589.938159
962.999918	2591.022007
963.299414	2588.584609
963.598873	2589.549990
963.898293	2588.980340
964.197677	2589.658375
964.497022	2588.466142
964.796331	2590.422110
965.095601	2588.657706
965.394835	2587.778024
965.694030	2587.720051
965.993189	2589.078642
966.292309	2588.642582
966.591393	2586.724423
966.890439	2585.968250
967.189447	2587.765422
967.488419	2586.109402
967.787353	2588.569486
968.086249	2587.422623
968.385108	2586.124526
968.683930	2586.411872
968.982714	2590.827922
969.281462	2588.481265
969.580172	2588.133426
969.878844	2591.077460
970.177480	2592.095773
970.476078	2591.183324
970.774639	2591.022007
971.073162	2590.079311
971.371649	2588.027562
971.670098	2585.953127
971.968510	2589.179465
972.266885	2586.565627
972.565223	2593.857656
972.863524	2592.824219
973.161788	2593.277923
973.460014	2591.505958
973.758204	2592.020155
974.056356	2593.774477
974.354471	2591.974785
974.652550	2592.993098
974.950591	2594.046699
975.248595	2594.671802
975.546563	2593.499734
975.844493	2592.592326
976.142386	2596.388315
976.440243	2590.822881
976.738062	2593.335897
977.035845	2591.142995
977.333590	2595.004518
977.631299	2592.478900
977.928971	2591.994950
978.226606	2592.355392
978.524204	2591.352202
978.821765	2591.142995
979.119290	2592.257090
979.416777	2592.584765
979.714228	2592.809096
980.011642	2590.878334
980.309020	2592.884713
980.606360	2592.763726
980.903664	2593.275403
981.200931	2593.986205
981.498162	2596.794128
981.795356	2603.579521
982.092513	2607.246961
982.389633	2611.884822
982.686717	2618.040071
982.983764	2622.993005
983.280775	2625.586678
983.577749	2624.785135
983.874686	2627.431741
984.171587	2629.022225
984.468451	2626.799076
984.765279	2623.993674
985.062070	2620.817747
985.358824	2618.602160
985.655543	2616.346243
985.952224	2610.816097
986.248869	2608.350973
986.545478	2599.992740
986.842050	2596.726072
987.138586	2590.381780
987.435086	2589.043354
987.731549	2588.982860
988.027975	2589.093766
988.324366	2587.110072
988.620719	2589.013107
988.917037	2583.770307
989.213318	2583.135122
989.509563	2584.808785
989.805772	2582.073959
990.101944	2583.082190
990.398080	2584.949937
990.694180	2584.440781
990.990244	2585.927921
991.286271	2583.510688
991.582262	2582.394072
991.878217	2582.129412
992.174136	2586.369022
992.470019	2584.569330
992.765865	2584.728126
993.061676	2587.170565
993.357450	2584.024885
993.653188	2585.242324
993.948890	2585.058322
994.244556	2588.219125
994.540186	2589.068560
994.835780	2591.856318
995.131337	2593.910588
995.426859	2594.722214
995.722345	2595.798500
996.017795	2602.485591
996.313208	2601.973914
996.608586	2605.563215
996.903928	2607.400716
997.199234	2608.204780
997.494504	2608.603031
997.789738	2606.087495
998.084936	2606.130345
998.380099	2604.086157
998.675225	2603.781167
998.970316	2601.358893
999.265371	2600.133892
999.560390	2598.734972
999.855373	2595.382605
1000.150320	2594.449992
1000.445232	2593.507296
1000.740108	2588.698035
1001.034948	2590.144846
1001.329752	2585.600246
1001.624521	2587.069742
1001.919254	2582.318455
1002.213951	2582.094123
1002.508613	2583.626634
1002.803239	2581.693352
1003.097829	2576.977352
1003.392384	2579.628999
1003.686903	2580.758218
1003.981386	2580.178485
1004.275834	2580.347364
1004.570246	2580.271746
1004.864623	2577.521797
1005.158964	2579.833166
1005.453270	2582.288208
1005.747540	2579.129925
1006.041775	2580.092785
1006.335974	2577.846951
1006.630138	2580.095306
1006.924266	2580.980028
1007.218359	2578.908114
1007.512416	2578.817373
1007.806438	2582.010944
1008.100425	2576.901735
1008.394376	2578.255285
1008.688292	2579.727302
1008.982172	2578.988773
1009.276017	2577.244533
1009.569827	2579.392065
1009.863602	2580.264185
1010.157341	2577.302507
1010.451045	2579.044225
1010.744714	2577.176478
1011.038347	2577.428536
1011.331945	2578.086406
1011.625508	2577.778896
1011.919036	2576.972311
1012.212528	2576.241344
1012.505986	2576.052301
1012.799408	2577.184040
1013.092795	2577.902404
1013.386147	2579.906263
1013.679464	2577.483988
1013.972745	2576.314441
1014.265992	2576.248906
1014.559204	2581.297621
1014.852380	2578.431725
1015.145521	2577.607497
1015.438628	2578.802250
1015.731699	2578.482137
1016.024736	2576.793350
1016.317737	2578.020871
1016.610703	2579.540779
1016.903635	2575.444842
1017.196531	2576.233782
1017.489393	2574.572722
1017.782219	2575.323854
1018.075011	2574.817218
1018.367768	2574.892835
1018.660490	2578.812332
1018.953177	2578.812332
1019.245829	2578.812332
