Dividing Wavelength (nm)	Counts (n)	Blue Motor Position (mm): 6.100000	Red Motor Position (mm): 0.000000	
326.493990	2158.876655
326.888308	2158.876655
327.282561	2158.876655
327.676750	2116.566251
328.070874	2112.329161
328.464933	2118.497013
328.858929	2117.501385
329.252859	2121.544390
329.646726	2132.710546
330.040528	2144.978194
330.434265	2156.885399
330.827938	2175.855261
331.221547	2190.683815
331.615091	2208.111084
332.008571	2227.171687
332.401986	2246.212125
332.795338	2261.723755
333.188625	2285.218053
333.581847	2302.904941
333.975006	2319.266006
334.368100	2338.931547
334.761129	2355.053157
335.154095	2374.088554
335.546996	2392.297202
335.939833	2405.028636
336.332606	2420.222673
336.725315	2435.361258
337.117960	2445.680500
337.510540	2459.591564
337.903056	2469.731845
338.295508	2477.825418
338.687896	2489.576347
339.080220	2493.957110
339.472480	2502.834582
339.864676	2507.704337
340.256807	2511.933865
340.648875	2515.709689
341.040879	2519.770338
341.432818	2524.065402
341.824694	2522.217819
342.216506	2526.938859
342.608253	2525.761750
342.999937	2526.233098
343.391557	2527.823582
343.783113	2523.450381
344.174605	2525.895340
344.566033	2522.636234
344.957397	2527.107738
345.348697	2519.571213
345.739934	2523.374763
346.131106	2516.859072
346.522215	2520.002232
346.913260	2512.790861
347.304241	2513.373114
347.695159	2514.192302
348.086012	2509.314985
348.476802	2508.705006
348.867528	2502.650580
349.258191	2502.373317
349.648789	2499.653614
350.039324	2497.753099
350.429796	2498.350476
350.820203	2499.041114
351.210548	2496.220588
351.600828	2496.820486
351.991045	2494.471308
352.381198	2491.214723
352.771288	2492.810248
353.161314	2492.447285
353.551276	2495.605567
353.941175	2494.047851
354.331010	2494.234374
354.720782	2491.983498
355.110490	2491.824702
355.500135	2489.999804
355.889717	2491.744044
356.279235	2493.926863
356.668689	2492.984168
357.058080	2489.644403
357.447408	2491.426451
357.836672	2492.356544
358.225873	2493.624394
358.615010	2493.110196
359.004084	2494.589775
359.393095	2493.775629
359.782043	2498.083295
360.170927	2494.385608
360.559748	2496.281082
360.948505	2495.487100
361.337199	2497.470794
361.725830	2496.860815
362.114398	2497.059940
362.502903	2497.616988
362.891344	2497.289313
363.279722	2500.193018
363.668037	2499.338542
364.056289	2499.615805
364.444478	2498.806700
364.832603	2498.098418
365.220665	2499.983810
365.608665	2500.364417
365.996601	2499.903151
366.384474	2501.972545
366.772284	2500.051865
367.160031	2504.067144
367.547715	2504.011692
367.935336	2502.907679
368.322893	2500.349293
368.710388	2499.865342
369.097820	2506.028153
369.485189	2498.163953
369.872495	2505.468585
370.259738	2504.379696
370.646918	2505.881960
371.034035	2504.510766
371.421090	2507.137207
371.808081	2507.971518
372.195010	2510.169461
372.581875	2507.416991
372.968678	2507.651405
373.355418	2508.372290
373.742096	2508.962105
374.128710	2506.270128
374.515262	2510.842455
374.901751	2506.197032
375.288177	2510.923113
375.674540	2508.412619
376.060841	2510.582836
376.447079	2508.203411
376.833254	2508.173164
377.219367	2509.141066
377.605417	2511.679287
377.991404	2512.311951
378.377329	2511.197856
378.763191	2511.507887
379.148991	2509.662825
379.534727	2514.250275
379.920402	2508.503360
380.306013	2509.090654
380.691563	2512.120388
381.077049	2511.535614
381.462474	2510.804646
381.847835	2514.262878
382.233134	2514.570388
382.618371	2512.314472
383.003545	2512.833711
383.388657	2510.774399
383.773706	2514.149452
384.158693	2514.245234
384.543618	2514.396468
384.928480	2514.257837
385.313280	2515.669360
385.698017	2514.341016
386.082692	2514.267919
386.467305	2515.591222
386.851856	2516.564165
387.236344	2513.065604
387.620770	2512.226252
388.005133	2511.888494
388.389435	2514.945954
388.773674	2511.364214
389.157851	2516.213804
389.541965	2516.052488
389.926018	2520.329907
390.310008	2519.009124
390.693936	2515.142559
391.077802	2517.443846
391.461606	2516.496109
391.845348	2515.823115
392.229027	2517.537107
392.612645	2516.181037
392.996200	2519.082221
393.379694	2516.480986
393.763125	2517.655574
394.146494	2518.484844
394.529801	2521.842253
394.913047	2519.944258
395.296230	2517.058198
395.679351	2519.757736
396.062410	2519.888806
396.445408	2518.699093
396.828343	2521.287726
397.211217	2521.559948
397.594028	2520.783610
397.976778	2521.839732
398.359466	2523.357119
398.742092	2521.421316
399.124656	2521.103724
399.507158	2520.100534
399.889598	2524.400638
400.271977	2521.943076
400.654294	2522.016172
401.036549	2521.214629
401.418742	2522.303518
401.800874	2521.532222
402.182944	2522.913498
402.564952	2522.676564
402.946898	2521.990967
403.328783	2521.474248
403.710606	2523.727644
404.092367	2521.259999
404.474067	2522.840401
404.855705	2525.902902
405.237282	2523.331914
405.618797	2522.737058
406.000250	2525.761750
406.381642	2527.763088
406.762972	2521.345699
407.144240	2522.661440
407.525447	2522.895854
407.906593	2518.434433
408.287677	2524.262007
408.668700	2529.184693
409.049661	2526.701925
409.430560	2521.605318
409.811399	2526.734693
410.192176	2524.826616
410.572891	2527.518592
410.953545	2525.169414
411.334138	2528.743592
411.714669	2524.899713
412.095139	2527.006915
412.475547	2526.681760
412.855894	2529.958510
413.236180	2528.720907
413.616405	2529.857687
413.996568	2528.181504
414.376670	2526.994312
414.756711	2527.876514
415.136691	2529.983716
415.516609	2527.085053
415.896466	2527.379960
416.276262	2526.775022
416.655997	2528.221833
417.035670	2527.959693
417.415283	2528.753675
417.794834	2526.651513
418.174324	2528.501617
418.553753	2528.420958
418.933121	2528.713345
419.312428	2528.544467
419.691674	2529.570342
420.070859	2527.712676
420.449983	2531.690147
420.829045	2528.995650
421.208047	2533.615868
421.586988	2528.511699
421.965867	2530.951618
422.344686	2531.574200
422.723444	2532.673172
423.102141	2532.584952
423.480777	2530.308871
423.859352	2531.511186
424.237866	2530.465146
424.616319	2528.821730
424.994712	2530.848274
425.373044	2531.460774
425.751314	2528.236956
426.129524	2528.458767
426.507673	2528.322656
426.885762	2525.290402
427.263789	2531.370033
427.641756	2531.770805
428.019662	2533.588141
428.397508	2533.152081
428.775292	2530.195445
429.153016	2530.684437
429.530679	2532.862215
429.908282	2530.349200
430.285824	2535.070240
430.663305	2533.769623
431.040726	2532.834489
431.418086	2533.295754
431.795385	2534.369520
432.172624	2534.301464
432.549802	2533.943543
432.926920	2532.494211
433.303977	2533.338604
433.680974	2531.029756
434.057910	2534.495549
434.434786	2533.719211
434.811601	2533.247863
435.188355	2531.851464
435.565050	2535.178625
435.941683	2534.979500
436.318257	2532.837009
436.694770	2533.948584
437.071222	2535.420601
437.447614	2533.618388
437.823946	2536.746424
438.200218	2532.582431
438.576429	2538.074768
438.952580	2534.742565
439.328670	2535.488656
439.704700	2535.776002
440.080670	2534.233409
440.456580	2535.428162
440.832429	2536.302803
441.208218	2533.351207
441.583947	2539.692978
441.959616	2534.666948
442.335224	2535.438245
442.710773	2537.825231
443.086261	2535.120652
443.461689	2537.265663
443.837057	2536.378420
444.212365	2536.091074
444.587612	2532.794159
444.962800	2532.282482
445.337927	2531.765764
445.712995	2528.899868
446.088002	2534.808100
446.462949	2534.772812
446.837837	2537.489994
447.212664	2537.648791
447.587431	2536.015457
447.962139	2536.668286
448.336786	2538.220962
448.711374	2537.162319
449.085901	2537.190046
449.460369	2538.644418
449.834776	2539.934954
450.209124	2537.033770
450.583412	2537.918492
450.957640	2537.729449
451.331808	2539.778678
451.705917	2536.751465
452.079965	2538.387320
452.453954	2538.823379
452.827883	2538.049562
453.201752	2539.261960
453.575562	2537.837834
453.949311	2536.580066
454.323001	2536.567463
454.696632	2536.927906
455.070202	2537.232895
455.443713	2540.270191
455.817164	2537.295910
456.190556	2539.929913
456.563888	2540.083668
456.937160	2537.663914
457.310373	2537.421939
457.683526	2539.556867
458.056619	2539.788760
458.429653	2538.659542
458.802628	2539.965201
459.175542	2539.624923
459.548398	2542.987373
459.921194	2539.977804
460.293930	2542.150541
460.666607	2540.350849
461.039224	2540.265149
461.411782	2540.744059
461.784280	2538.566281
462.156719	2538.898997
462.529099	2540.663401
462.901419	2539.272042
463.273680	2538.263811
463.645882	2538.788091
464.018024	2535.826413
464.390106	2537.827752
464.762130	2541.361600
465.134094	2539.879501
465.505999	2541.439738
465.877845	2539.836651
466.249631	2541.555685
466.621358	2541.101981
466.993026	2540.933102
467.364634	2545.155069
467.736184	2544.988711
468.107674	2541.827907
468.479105	2540.691127
468.850477	2542.425284
469.221790	2539.879501
469.593043	2542.470654
469.964238	2542.969728
470.335373	2540.353370
470.706449	2540.968390
471.077467	2540.590304
471.448425	2541.956457
471.819324	2540.030736
472.190164	2543.138607
472.560945	2541.606096
472.931667	2542.332022
473.302330	2540.217258
473.672934	2541.364121
474.043479	2540.149203
474.413965	2541.898483
474.784393	2541.568288
475.154761	2543.824204
475.525070	2541.396888
475.895321	2542.677342
476.265513	2541.722043
476.635645	2542.105171
477.005719	2542.190870
477.375734	2540.038298
477.745691	2544.174564
478.115588	2540.620551
478.485427	2541.921168
478.855207	2544.945861
479.224928	2539.899666
479.594591	2544.497198
479.964194	2543.085675
480.333739	2542.942002
480.703226	2542.815973
481.072653	2542.090047
481.442022	2543.753628
481.811333	2540.691127
482.180584	2542.707588
482.549777	2542.347146
482.918912	2539.146013
483.287988	2542.949564
483.657005	2544.121632
484.025964	2544.426622
484.394864	2543.191539
484.763706	2544.227496
485.132489	2542.004347
485.501213	2546.150697
485.869879	2541.540561
486.238487	2545.492826
486.607036	2545.976777
486.975527	2544.895449
487.343959	2543.433515
487.712333	2545.802857
488.080648	2545.732281
488.448905	2544.908052
488.817104	2544.308155
489.185244	2546.501057
489.553326	2546.312013
489.921350	2544.822352
490.289315	2543.985521
490.657222	2546.382590
491.025070	2544.842517
491.392861	2544.860161
491.760593	2543.297403
492.128267	2546.319575
492.495883	2544.179605
492.863440	2541.734646
493.230939	2543.511653
493.598380	2544.557692
493.965763	2545.792775
494.333088	2544.587939
494.700354	2543.441076
495.067563	2545.543237
495.434713	2543.879657
495.801805	2545.805377
496.168839	2545.737322
496.535815	2547.116078
496.902733	2546.672456
497.269593	2546.803526
497.636395	2544.897970
498.003139	2545.601211
498.369825	2547.849565
498.736453	2545.313865
499.103023	2544.976108
499.469535	2543.874616
499.835989	2545.500388
500.202385	2543.574667
500.568723	2541.497712
500.935003	2544.149358
501.301226	2539.627443
501.667390	2544.819832
502.033497	2544.270346
502.399546	2547.307641
502.765537	2546.657332
503.131470	2547.625234
503.497345	2546.813608
503.863163	2546.906870
504.228923	2547.045501
504.594625	2545.137425
504.960269	2545.833104
505.325856	2547.085831
505.691385	2546.155738
506.056856	2545.376879
506.422270	2550.075235
506.787625	2545.689431
507.152924	2544.018288
507.518164	2544.383772
507.883347	2546.871582
508.248472	2548.973743
508.613540	2545.633978
508.978550	2546.942158
509.343503	2546.765717
509.708398	2546.266643
510.073236	2545.732281
510.438016	2547.201777
510.802738	2546.475851
511.167403	2544.242620
511.532010	2547.289997
511.896561	2550.362581
512.261053	2547.607590
512.625488	2547.831921
512.989866	2547.143804
513.354186	2545.263453
513.718449	2548.938455
514.082655	2547.443753
514.446803	2547.839483
514.810894	2546.279246
515.174927	2546.425439
515.538904	2547.854607
515.902822	2546.178423
516.266684	2548.706562
516.630488	2547.456355
516.994235	2545.933927
517.357925	2547.673125
517.721558	2547.756304
518.085133	2549.457693
518.448651	2545.175233
518.812112	2541.666590
519.175516	2545.165151
519.538863	2541.772454
519.902152	2548.605738
520.265385	2547.680687
520.628560	2546.727909
520.991678	2547.151366
521.354739	2545.565923
521.717743	2550.004659
522.080690	2547.060625
522.443580	2549.256047
522.806413	2553.034392
523.169189	2547.032898
523.531908	2544.910573
523.894569	2542.894111
524.257174	2549.273691
524.619722	2547.940306
524.982213	2549.692107
525.344647	2546.790923
525.707025	2551.658157
526.069345	2546.685059
526.431608	2548.527601
526.793815	2549.160265
527.155964	2548.411654
527.518057	2549.543393
527.880093	2549.308979
528.242072	2546.806047
528.603995	2548.474668
528.965860	2547.700851
529.327669	2549.268650
529.689421	2549.639175
530.051117	2549.946685
530.412755	2548.898125
530.774337	2550.118085
531.135862	2546.884184
531.497331	2547.421067
531.858743	2549.545914
532.220098	2550.609597
532.581396	2551.247303
532.942638	2548.593136
533.303824	2549.964329
533.664953	2547.438711
534.026025	2549.676984
534.387040	2548.109185
534.747999	2545.744884
535.108902	2549.742519
535.469748	2548.825029
535.830537	2548.688918
536.191270	2548.119267
536.551947	2543.927548
536.912567	2543.836807
537.273131	2546.561551
537.633638	2539.753472
537.994089	2548.668753
538.354483	2547.307641
538.714821	2547.678166
539.075103	2546.763197
539.435328	2548.091541
539.795497	2550.952396
540.155609	2550.566747
540.515665	2551.983312
540.875665	2549.447611
541.235609	2546.846376
541.595496	2550.775955
541.955328	2549.997097
542.315102	2550.682694
542.674821	2549.437529
543.034483	2549.417364
543.394090	2548.701520
543.753640	2549.291335
544.113134	2550.506253
544.472571	2550.755791
544.831953	2550.780996
545.191278	2552.164793
545.550548	2549.482899
545.909761	2548.583053
546.268918	2548.041129
546.628019	2550.561706
546.987064	2548.146993
547.346053	2548.759494
547.704986	2549.283774
548.063863	2550.624721
548.422684	2551.141439
548.781449	2550.584391
549.140158	2550.662529
549.498811	2553.024310
549.857408	2550.702858
550.215949	2549.810574
550.574434	2550.070194
550.932864	2551.428785
551.291237	2552.195040
551.649555	2550.657488
552.007817	2551.872406
552.366022	2550.544062
552.724173	2550.796120
553.082267	2549.951727
553.440305	2551.718651
553.798288	2552.406768
554.156215	2551.459032
554.514086	2549.997097
554.871902	2550.261757
555.229661	2549.777807
555.587365	2546.445604
555.945014	2552.615976
556.302606	2557.092521
556.660143	2553.314176
557.017625	2554.808878
557.375050	2552.021120
557.732421	2551.527087
558.089735	2553.374670
558.446994	2552.643703
558.804197	2554.524053
559.161345	2556.424568
559.518437	2552.338713
559.875474	2553.500699
560.232455	2556.769887
560.589381	2553.130174
560.946251	2555.718807
561.303065	2553.843497
561.659825	2549.550955
562.016528	2554.645041
562.373177	2551.849721
562.729770	2553.634289
563.086307	2556.038920
563.442789	2552.762170
563.799216	2557.090000
564.155587	2552.205122
564.511904	2553.679660
564.868164	2554.382901
565.224370	2555.456667
565.580520	2554.753426
565.936615	2555.091183
566.292654	2556.351471
566.648638	2553.946841
567.004567	2555.345761
567.360441	2555.388611
567.716260	2552.220246
568.072023	2554.818961
568.427732	2552.986501
568.783385	2555.764177
569.138982	2555.741492
569.494525	2554.801317
569.850013	2555.260062
570.205445	2555.585216
570.560823	2554.967675
570.916145	2554.778631
571.271412	2551.464073
571.626625	2556.568241
571.981782	2552.615976
572.336884	2550.647406
572.691931	2550.743188
573.046923	2550.884340
573.401860	2549.457693
573.756743	2554.450956
574.111570	2553.704866
574.466342	2555.491955
574.821059	2556.779969
575.175722	2554.256872
575.530330	2553.044474
575.884882	2552.878116
576.239380	2551.496840
576.593823	2555.396173
576.948211	2553.470452
577.302544	2555.602860
577.656823	2553.188147
578.011047	2558.768705
578.365216	2553.248641
578.719330	2552.666388
579.073389	2554.576985
579.427394	2554.970195
579.781344	2551.504402
580.135239	2555.698642
580.489080	2553.150339
580.842866	2552.353836
581.196597	2553.616645
581.550273	2555.696121
581.903895	2553.639331
582.257463	2554.287119
582.610975	2554.503888
582.964434	2554.889537
583.317837	2554.501368
583.671186	2555.638148
584.024481	2553.004145
584.377721	2554.390463
584.730906	2553.135215
585.084037	2550.503733
585.437113	2555.275185
585.790135	2552.976419
586.143103	2554.624876
586.496016	2557.309291
586.848874	2552.948692
587.201679	2554.622356
587.554428	2555.791903
587.907124	2552.227808
588.259765	2551.484237
588.612352	2553.951882
588.964884	2553.515822
589.317362	2552.658826
589.669786	2553.011707
590.022155	2552.739485
590.374470	2550.402910
590.726731	2549.961809
591.078937	2545.139945
591.431090	2553.848538
591.783188	2551.494320
592.135232	2554.478683
592.487222	2551.864844
592.839157	2552.996583
593.191038	2553.669578
593.542866	2551.708569
593.894639	2554.103117
594.246358	2553.674619
594.598022	2552.399207
594.949633	2551.012889
595.301190	2550.420554
595.652692	2555.693601
596.004141	2553.079763
596.355535	2552.820143
596.706876	2554.450956
597.058162	2553.803168
597.409395	2550.816284
597.760573	2553.369629
598.111698	2553.790565
598.462768	2554.574465
598.813785	2553.982129
599.164748	2555.045813
599.515657	2551.524567
599.866511	2553.568754
600.217312	2551.723692
600.568060	2551.816953
600.918753	2556.558159
601.269392	2551.428785
601.619978	2555.469269
601.970510	2551.867365
602.320988	2552.255534
602.671412	2550.813764
603.021783	2551.607746
603.372100	2552.434495
603.722363	2552.240410
604.072572	2550.778476
604.422728	2551.118754
604.772830	2555.544887
605.122878	2552.313507
605.472872	2551.930379
605.822813	2552.676470
606.172701	2553.956923
606.522534	2551.658157
606.872314	2553.203271
607.222041	2549.533311
607.571714	2550.632282
607.921333	2546.654812
608.270899	2553.198230
608.620411	2546.801005
608.969870	2554.203940
609.319276	2554.950031
609.668627	2559.542522
610.017926	2567.782288
610.367171	2564.059396
610.716362	2563.807338
611.065500	2562.723490
611.414585	2559.812223
611.763616	2560.434806
612.112594	2553.858621
612.461518	2557.793241
612.810389	2555.877603
613.159207	2557.780638
613.507971	2555.189485
613.856682	2557.412634
614.205340	2556.031358
614.553945	2554.627397
614.902496	2553.175544
615.250994	2556.124619
615.599439	2553.450287
615.947830	2553.339382
616.296169	2553.203271
616.644454	2549.692107
616.992686	2553.472973
617.340864	2555.328117
617.688990	2552.726882
618.037063	2555.471790
618.385082	2552.623538
618.733048	2554.108158
619.080961	2550.574309
619.428821	2553.475493
619.776628	2555.393652
620.124382	2553.982129
620.472083	2551.978270
620.819731	2555.063457
621.167326	2553.835936
621.514868	2555.242417
621.862357	2553.535987
622.209793	2550.685214
622.557176	2553.346944
622.904506	2553.160421
623.251783	2552.126984
623.599007	2552.908363
623.946179	2553.326779
624.293297	2553.740154
624.640363	2550.014741
624.987376	2549.198074
625.334336	2549.024154
625.681243	2551.053219
626.028097	2545.588608
626.374899	2552.331151
626.721647	2553.331820
627.068343	2553.228477
627.414987	2556.439692
627.761577	2549.845862
628.108115	2553.495658
628.454600	2553.543549
628.801032	2554.196378
629.147412	2554.128322
629.493739	2552.437015
629.840014	2554.231666
630.186236	2553.243600
630.532405	2553.770401
630.878521	2552.537838
631.224585	2554.307283
631.570597	2551.448949
631.916556	2553.016748
632.262462	2552.215205
632.608316	2551.257385
632.954117	2552.595812
633.299866	2552.981460
633.645562	2551.942982
633.991206	2551.433826
634.336797	2552.497509
634.682336	2552.348795
635.027823	2552.552962
635.373257	2550.574309
635.718639	2553.052036
636.063968	2551.572458
636.409245	2552.689073
636.754470	2552.520194
637.099642	2549.122457
637.444762	2552.517674
637.789829	2550.397869
638.134845	2551.335523
638.479808	2552.991542
638.824719	2552.074052
639.169577	2551.945503
639.514383	2550.274360
639.859137	2549.513146
640.203839	2552.558003
640.548489	2552.182437
640.893086	2551.126315
641.237632	2552.018600
641.582125	2555.464228
641.926566	2551.610266
642.270955	2549.989535
642.615292	2550.203784
642.959576	2548.129349
643.303809	2548.381407
643.647990	2552.752088
643.992118	2553.498178
644.336195	2552.353836
644.680219	2550.128167
645.024192	2551.338044
645.368112	2553.399876
645.711981	2551.171686
646.055797	2549.820657
646.399562	2555.756615
646.743274	2550.783517
647.086935	2556.026317
647.430544	2551.121274
647.774101	2552.484906
648.117606	2549.102292
648.461059	2554.125802
648.804460	2553.092365
649.147810	2555.648230
649.491108	2552.850390
649.834354	2555.060936
650.177548	2552.999104
650.520690	2552.812581
650.863781	2552.260575
651.206820	2550.160934
651.549807	2553.072201
651.892742	2551.665719
652.235626	2553.498178
652.578458	2556.008673
652.921238	2552.076573
653.263967	2553.576316
653.606644	2554.201419
653.949269	2552.792417
654.291843	2550.198743
654.634365	2554.292160
654.976836	2550.392827
655.319255	2552.610935
655.661622	2552.792417
656.003938	2554.776111
656.346203	2554.400545
656.688416	2552.192519
657.030577	2553.359547
657.372687	2552.116902
657.714746	2553.185627
658.056753	2551.713610
658.398708	2550.579350
658.740612	2554.246790
659.082465	2550.922149
659.424266	2550.929710
659.766016	2548.898125
660.107715	2550.362581
660.449362	2546.979966
660.790958	2553.851059
661.132503	2555.020607
661.473996	2552.346275
661.815438	2554.266954
662.156829	2551.665719
662.498168	2550.596994
662.839456	2554.072870
663.180693	2554.239228
663.521879	2554.950031
663.863013	2554.266954
664.204097	2553.803168
664.545129	2555.043292
664.886110	2554.065308
665.227040	2552.789896
665.567918	2552.605894
665.908746	2554.478683
666.249522	2555.277706
666.590248	2555.754095
666.930922	2554.970195
667.271545	2553.525905
667.612118	2554.665205
667.952639	2555.983467
668.293109	2552.595812
668.633528	2555.602860
668.973896	2555.489434
669.314213	2553.674619
669.654480	2557.440361
669.994695	2554.503888
670.334859	2557.601677
670.674973	2554.889537
671.015035	2556.669064
671.355047	2555.655792
671.695008	2556.225442
672.034918	2556.795093
672.374777	2555.496996
672.714585	2553.354505
673.054342	2557.450443
673.394049	2558.546894
673.733705	2557.233673
674.073310	2556.169990
674.412864	2558.246945
674.752368	2558.534291
675.091820	2557.029507
675.431223	2557.972202
675.770574	2557.460525
676.109875	2558.874569
676.449125	2555.713765
676.788324	2556.837943
677.127473	2551.708569
677.466571	2553.256203
677.805619	2557.039589
678.144616	2556.036399
678.483562	2557.011863
678.822458	2558.249466
679.161303	2556.162428
679.500098	2556.943807
679.838842	2559.955896
680.177535	2556.664023
680.516179	2557.498334
680.854771	2556.369115
681.193314	2558.448591
681.531805	2559.449260
681.870247	2561.246432
682.208638	2560.230639
682.546978	2560.636452
682.885268	2559.819785
683.223508	2563.930846
683.561697	2561.616957
683.899836	2561.470763
684.237925	2560.676781
684.575963	2562.915054
684.913951	2563.610733
685.251889	2563.376319
685.589776	2562.128634
685.927614	2564.611402
686.265401	2562.680640
686.603137	2565.417987
686.940824	2567.457133
687.278460	2565.894376
687.616046	2565.470919
687.953582	2570.010478
688.291068	2567.436969
688.628504	2570.297823
688.965889	2570.943091
689.303224	2570.562484
689.640510	2572.689851
689.977745	2570.597772
690.314930	2570.010478
690.652065	2569.904613
690.989150	2568.757751
691.326185	2567.527709
691.663170	2567.981413
692.000105	2566.106104
692.336990	2567.759603
692.673825	2566.726166
693.010610	2567.893193
693.347345	2562.007646
693.684030	2561.546380
694.020665	2564.790363
694.357251	2561.140568
694.693786	2566.731207
695.030272	2563.696433
695.366707	2567.028635
695.703093	2565.181052
696.039429	2567.003429
696.375716	2568.326732
696.711952	2565.785991
697.048139	2566.907647
697.384276	2567.694067
697.720363	2566.398491
698.056400	2566.695919
698.392388	2567.651218
698.728326	2569.665159
699.064214	2569.024932
699.400053	2570.691033
699.735842	2568.906465
700.071581	2567.681465
700.407270	2566.968141
700.742910	2568.145251
701.078501	2567.799932
701.414042	2566.988306
701.749533	2567.389078
702.084974	2566.685837
702.420366	2568.246074
702.755709	2566.012843
703.091002	2569.090467
703.426246	2571.064079
703.761440	2569.967628
704.096584	2569.294634
704.431679	2567.484860
704.766725	2570.451579
705.101721	2571.323698
705.436668	2569.032494
705.771565	2570.053327
706.106413	2571.069120
706.441212	2569.516445
706.775961	2572.087433
707.110661	2571.409398
707.445311	2576.969791
707.779913	2573.738411
708.114465	2572.531055
708.448967	2576.425346
708.783421	2574.229923
709.117825	2577.930130
709.452180	2579.644123
709.786485	2578.159503
710.120742	2582.139494
710.454949	2581.373238
710.789107	2584.861717
711.123216	2584.430698
711.457275	2593.706421
711.791286	2595.100300
712.125247	2593.305650
712.459159	2594.981833
712.793023	2601.351331
713.126837	2596.295054
713.460602	2600.325456
713.794318	2593.744230
714.127985	2596.726073
714.461602	2591.856318
714.795171	2594.926381
715.128691	2591.972264
715.462162	2589.209712
715.795584	2591.415217
716.128957	2589.159301
716.462281	2587.674681
716.795556	2588.393045
717.128782	2585.615369
717.461960	2583.470358
717.795088	2586.570668
718.128167	2586.608477
718.461198	2587.495720
718.794180	2584.203846
719.127113	2582.331058
719.459997	2581.461459
719.792833	2583.465317
720.125619	2583.515729
720.458357	2583.989597
720.791046	2583.218301
721.123686	2584.014803
721.456278	2582.192426
721.788821	2583.228383
722.121315	2582.363825
722.453761	2582.774679
722.786158	2584.135791
723.118506	2583.140163
723.450805	2583.722416
723.783056	2587.475555
724.115259	2586.185020
724.447412	2588.864393
724.779518	2587.891450
725.111574	2588.841708
725.443582	2588.506471
725.775542	2589.698704
726.107453	2594.205496
726.439315	2592.582244
726.771129	2598.306474
727.102895	2594.699529
727.434612	2597.802359
727.766281	2594.613829
728.097901	2600.706063
728.429473	2600.927874
728.760996	2600.189345
729.092471	2600.479212
729.423897	2600.693461
729.755276	2602.185642
730.086606	2599.521392
730.417887	2601.628595
730.749120	2601.689088
731.080305	2608.114039
731.411442	2609.265943
731.742530	2609.981787
732.073570	2613.150152
732.404562	2616.258023
732.735506	2614.801130
733.066401	2618.942437
733.397249	2618.738271
733.728048	2614.607045
734.058798	2607.675459
734.389501	2609.069338
734.720156	2608.512290
735.050762	2603.214037
735.381320	2600.058275
735.711831	2600.791763
736.042293	2601.190014
736.372707	2599.591968
736.703073	2601.857967
737.033391	2599.818820
737.363661	2601.063985
737.693883	2602.805704
738.024056	2603.738317
738.354182	2605.260746
738.684260	2609.467589
739.014290	2608.615634
739.344272	2614.448249
739.674207	2612.890532
740.004093	2612.164606
740.333931	2616.384052
740.663722	2615.874895
740.993464	2615.332971
741.323159	2621.279012
741.652806	2614.034874
741.982405	2612.386417
742.311956	2618.687859
742.641460	2613.114864
742.970915	2607.962804
743.300323	2612.232662
743.629683	2607.982969
743.958996	2609.339039
744.288260	2603.070365
744.617477	2606.846189
744.946647	2612.784668
745.275768	2605.543051
745.604842	2605.326281
745.933869	2606.218565
746.262847	2607.867022
746.591778	2607.327619
746.920662	2604.517176
747.249498	2605.343925
747.578286	2606.780654
747.907027	2609.376848
748.235720	2612.288114
748.564365	2613.611417
748.892963	2612.043618
749.221514	2623.681122
749.550017	2616.903291
749.878473	2611.899946
750.206881	2614.486057
750.535242	2614.087806
750.863555	2610.758124
751.191821	2615.476644
751.520039	2612.761983
751.848210	2610.947167
752.176334	2612.877929
752.504411	2614.284411
752.832440	2613.729884
753.160421	2608.729060
753.488356	2614.181068
753.816243	2618.390431
754.144082	2612.943464
754.471875	2611.758793
754.799620	2614.475975
755.127318	2615.884978
755.454969	2615.176696
755.782572	2616.404217
756.110129	2614.241562
756.437638	2617.659464
756.765100	2615.874895
757.092515	2619.527211
757.419882	2614.226438
757.747203	2615.080914
758.074477	2623.378653
758.401703	2620.167438
758.728882	2618.445884
759.056014	2617.994701
759.383099	2626.242028
759.710138	2623.184568
760.037129	2620.714403
760.364073	2624.046606
760.690970	2624.699435
761.017820	2631.988944
761.344623	2629.178500
761.671379	2633.087915
761.998088	2635.164871
762.324751	2641.778864
762.651366	2656.925011
762.977935	2690.158818
763.304456	2728.242215
763.630931	2756.258427
763.957359	2750.569485
764.283740	2727.508727
764.610074	2714.762169
764.936362	2689.871472
765.262602	2673.117197
765.588796	2653.857469
765.914943	2644.833804
766.241044	2644.876653
766.567097	2638.842392
766.893104	2630.670682
767.219064	2622.274640
767.544978	2623.862604
767.870845	2623.585340
768.196665	2620.167438
768.522438	2617.457818
768.848165	2614.942282
769.173846	2611.993207
769.499479	2611.567229
769.825066	2610.150665
770.150607	2612.023454
770.476101	2611.985645
770.801548	2609.323916
771.126949	2606.883997
771.452303	2606.838627
771.777611	2608.320726
772.102872	2609.434821
772.428087	2606.168154
772.753256	2604.635643
773.078378	2606.200921
773.403453	2602.883842
773.728482	2605.845520
774.053465	2601.394181
774.378401	2598.107349
774.703291	2603.440889
775.028135	2603.360231
775.352932	2602.052052
775.677683	2598.687081
776.002388	2598.349324
776.327046	2594.427306
776.651658	2597.013418
776.976224	2589.607963
777.300743	2591.853797
777.625216	2596.673140
777.949643	2597.625918
778.274024	2595.490990
778.598359	2597.046186
778.922647	2594.878490
779.246889	2595.483428
779.571086	2595.009560
779.895236	2597.096597
780.219339	2593.666092
780.543397	2595.223809
780.867409	2597.812441
781.191374	2598.460229
781.515294	2596.196751
781.839167	2596.335383
782.162995	2596.385795
782.486776	2594.412183
782.810511	2598.205651
783.134201	2598.306474
783.457844	2596.509303
783.781441	2596.053078
784.104993	2597.278079
784.428498	2595.138109
784.751958	2595.153232
785.075372	2596.872266
785.398739	2593.847574
785.722061	2593.587954
786.045337	2598.896289
786.368568	2597.572986
786.691752	2593.270362
787.014891	2595.387646
787.337983	2601.293358
787.661030	2608.204780
787.984031	2609.916252
788.306987	2618.728188
788.629897	2621.692387
788.952760	2622.877058
789.275579	2618.156018
789.598351	2620.059053
789.921078	2612.557816
790.243759	2603.256887
790.566395	2606.034563
790.888984	2604.703698
791.211529	2599.455857
791.534027	2598.462750
791.856480	2601.066506
792.178888	2597.961155
792.501249	2590.457398
792.823566	2593.741709
793.145836	2594.306319
793.468062	2595.644745
793.790241	2590.432192
794.112375	2591.889085
794.434464	2594.933942
794.756507	2599.196238
795.078505	2597.641042
795.400457	2596.816813
795.722364	2605.714450
796.044226	2607.914913
796.366042	2613.175357
796.687812	2612.290635
797.009538	2612.356170
797.331218	2609.495315
797.652852	2613.011520
797.974442	2607.148658
798.295986	2610.884153
798.617484	2609.946498
798.938938	2603.229161
799.260346	2607.735952
799.581709	2608.862650
799.903026	2602.838472
800.224299	2603.367793
800.545526	2602.596496
800.866708	2601.923502
801.187845	2594.775146
801.508936	2602.601537
801.829983	2602.961980
802.150984	2595.957297
802.471940	2597.341093
802.792851	2598.987030
803.113717	2592.357913
803.434538	2598.598861
803.755314	2595.596854
804.076045	2591.682398
804.396731	2593.356061
804.717372	2595.977461
805.037967	2594.812955
805.358518	2593.746751
805.679024	2595.755650
805.999485	2597.018459
806.319901	2596.347986
806.640272	2598.150198
806.960598	2595.370002
807.280879	2599.276896
807.601115	2598.734972
807.921306	2598.399736
808.241453	2599.947370
808.561554	2599.143306
808.881611	2594.409662
809.201623	2595.662389
809.521590	2601.711774
809.841513	2599.463419
810.161390	2604.476847
810.481223	2605.900972
810.801011	2598.737493
811.120755	2595.942173
811.440453	2600.111207
811.760107	2600.945518
812.079716	2600.630446
812.399281	2597.053747
812.718801	2599.576845
813.038276	2595.521237
813.357707	2598.492997
813.677093	2600.086002
813.996434	2598.896289
814.315731	2599.813779
814.634983	2597.681371
814.954191	2598.740013
815.273354	2597.898141
815.592473	2597.373861
815.911547	2601.308481
816.230577	2605.459872
816.549562	2606.062289
816.868502	2608.189656
817.187399	2616.497478
817.506250	2613.616458
817.825058	2607.975407
818.143821	2613.772734
818.462539	2624.396966
818.781213	2627.862759
819.099843	2628.165228
819.418429	2643.956643
819.736970	2657.724034
820.055466	2663.057575
820.373919	2688.102027
820.692327	2716.007334
821.010691	2736.023236
821.329011	2802.256435
821.647286	2915.208528
821.965517	3051.682645
822.283704	3165.411076
822.601847	3267.111314
822.919945	3263.237187
823.237999	3193.817978
823.556010	3114.029116
823.873976	3053.275650
824.191897	2958.156639
824.509775	2879.262581
824.827609	2816.631286
825.145398	2784.443518
825.463144	2781.817077
825.780845	2786.059208
826.098502	2791.700259
826.416116	2833.204079
826.733685	2884.863303
827.051210	2928.479366
827.368692	2951.968622
827.686129	2918.976791
828.003522	2839.112311
828.320872	2786.202881
828.638177	2748.069073
828.955439	2717.411296
829.272656	2686.909794
829.589830	2667.203924
829.906960	2662.321566
830.224046	2643.928917
830.541088	2636.052114
830.858086	2633.566825
831.175041	2628.903757
831.491952	2625.926956
831.808819	2631.752009
832.125642	2637.708133
832.442421	2642.885398
832.759157	2660.022800
833.075849	2690.678057
833.392497	2737.470047
833.709101	2771.119749
834.025662	2784.241872
834.342179	2784.350257
834.658653	2762.043151
834.975083	2724.312635
835.291469	2696.203161
835.607811	2657.063643
835.924110	2653.302942
836.240366	2640.221148
836.556578	2621.314300
836.872746	2609.023967
837.188871	2611.025305
837.504952	2607.110849
837.820990	2602.742690
838.136984	2596.267328
838.452935	2597.436875
838.768842	2600.116248
839.084706	2599.786053
839.400526	2611.988166
839.716303	2629.314612
840.032037	2654.326296
840.347727	2672.913031
840.663373	2665.893224
840.978977	2644.201139
841.294537	2627.068777
841.610054	2610.720316
841.925527	2603.725715
842.240957	2597.376381
842.556344	2590.656523
842.871687	2587.604105
843.186987	2588.254413
843.502244	2580.150759
843.817458	2578.512384
844.132629	2575.447362
844.447756	2578.033474
844.762840	2577.607497
845.077881	2573.884604
845.392879	2570.433935
845.707833	2572.147927
846.022745	2571.351425
846.337613	2571.227916
846.652438	2569.793708
846.967221	2570.317988
847.281960	2569.045097
847.596656	2570.766651
847.911309	2570.305385
848.225919	2569.062741
848.540485	2569.297154
848.855009	2569.360169
849.169490	2569.909655
849.483928	2569.506362
849.798323	2567.807493
850.112675	2568.198183
850.426984	2567.247925
850.741251	2567.200034
851.055474	2568.510734
851.369654	2568.790518
851.683792	2567.714232
851.997887	2566.753892
852.311938	2567.820096
852.625947	2565.886814
852.939914	2568.924109
853.253837	2565.849005
853.567718	2565.901937
853.881555	2563.497307
854.195350	2565.912020
854.509103	2568.825807
854.822812	2566.761454
855.136479	2566.897565
855.450103	2568.389747
855.763685	2562.557132
856.077224	2561.682492
856.390720	2563.288099
856.704173	2564.208110
857.017584	2566.756413
857.330953	2563.966134
857.644278	2567.215158
857.957561	2569.072823
858.270802	2567.005950
858.584000	2570.010478
858.897155	2567.416804
859.210268	2567.210117
859.523339	2566.368244
859.836367	2569.266907
860.149352	2565.296999
860.462295	2567.988975
860.775195	2568.344376
861.088054	2569.201372
861.400869	2566.547205
861.713642	2563.736762
862.026373	2566.998388
862.339062	2569.226578
862.651708	2568.866136
862.964312	2568.273800
863.276873	2572.314285
863.589392	2572.508369
863.901869	2569.871846
864.214303	2570.945612
864.526696	2573.788823
864.839045	2573.269584
865.151353	2572.667166
865.463619	2570.784295
865.775842	2574.459296
866.088023	2575.603638
866.400162	2573.657752
866.712258	2572.984758
867.024313	2570.547361
867.336325	2575.316292
867.648296	2576.790830
867.960224	2573.138514
868.272110	2572.112639
868.583954	2573.932495
868.895755	2579.427353
869.207515	2571.842937
869.519233	2573.325036
869.830909	2574.300500
870.142542	2578.789647
870.454134	2578.925758
870.765684	2576.901735
871.077191	2579.807960
871.388657	2578.746797
871.700081	2576.710171
872.011463	2579.076993
872.322803	2575.727146
872.634101	2582.235276
872.945357	2581.733681
873.256571	2586.298446
873.567744	2584.733167
873.878874	2583.475400
874.189963	2588.677870
874.501010	2587.604105
874.812015	2583.490523
875.122979	2588.050247
875.433900	2587.064701
875.744780	2588.317428
876.055618	2586.648806
876.366415	2587.445308
876.677169	2588.188878
876.987882	2590.699373
877.298554	2591.677357
877.609183	2593.834971
877.919771	2597.262955
878.230317	2596.968048
878.540822	2605.540530
878.851285	2611.957919
879.161707	2616.444546
879.472087	2625.306894
879.782425	2642.391365
880.092722	2685.462983
880.402977	2720.859445
880.713191	2743.302662
881.023363	2787.203550
881.333494	2841.554750
881.643583	2851.246368
881.953631	2843.006602
882.263637	2838.663648
882.573602	2835.041579
882.883526	2817.793272
883.193408	2782.422016
883.503248	2754.856986
883.813048	2738.700088
884.122806	2717.920452
884.432522	2694.239632
884.742197	2675.854544
885.051831	2657.250166
885.361424	2642.961015
885.670975	2632.878707
885.980485	2627.542646
886.289954	2620.734568
886.599382	2615.103599
886.908768	2607.098247
887.218113	2601.298399
887.527417	2597.588110
887.836680	2589.907912
888.145901	2594.081987
888.455082	2594.079467
888.764221	2587.067222
889.073319	2582.510019
889.382376	2583.820719
889.691392	2584.052612
890.000366	2584.103023
890.309300	2582.754515
890.618193	2583.578743
890.927044	2585.794330
891.235855	2586.563106
891.544625	2584.990266
891.853353	2586.424475
892.162041	2586.676532
892.470687	2588.314907
892.779293	2592.262131
893.087858	2599.849067
893.396381	2605.762341
893.704864	2617.167951
894.013306	2634.817031
894.321707	2655.732778
894.630068	2670.460509
894.938387	2670.977227
895.246665	2673.868329
895.554903	2672.131652
895.863100	2657.895433
896.171256	2644.059987
896.479371	2629.254118
896.787446	2620.875720
897.095480	2607.947681
897.403473	2602.601537
897.711425	2593.192224
898.019336	2598.500559
898.327207	2591.410176
898.635038	2590.129723
898.942827	2587.934300
899.250576	2586.910946
899.558284	2579.200501
899.865952	2576.684965
900.173579	2576.780747
900.481165	2574.706312
900.788711	2574.817218
901.096216	2576.803433
901.403681	2571.555591
901.711105	2574.522310
902.018489	2574.434090
902.325832	2570.738924
902.633135	2568.825807
902.940397	2574.517269
903.247619	2580.130594
903.554800	2600.693461
903.861941	2625.102728
904.169041	2655.740340
904.476101	2676.285562
904.783121	2677.669359
905.090100	2666.109993
905.397039	2651.866213
905.703938	2631.119345
906.010796	2616.129474
906.317614	2603.317381
906.624391	2593.519899
906.931129	2588.443457
907.237826	2579.732343
907.544483	2574.544996
907.851099	2571.787484
908.157675	2570.035683
908.464211	2566.978224
908.770707	2562.499158
909.077163	2564.671896
909.383578	2560.391956
909.689954	2557.662171
909.996289	2557.669733
910.302584	2558.614949
910.608839	2557.102603
910.915054	2557.823488
911.221229	2556.979095
911.527363	2556.119578
911.833458	2558.062943
912.139513	2561.385063
912.445527	2559.630742
912.751502	2561.196020
913.057436	2561.518654
913.363331	2563.691391
913.669186	2565.614592
913.975000	2565.148285
914.280775	2571.749676
914.586510	2580.329720
914.892205	2587.878847
915.197859	2598.911413
915.503475	2613.256016
915.809050	2627.459467
916.114585	2634.559932
916.420081	2639.530510
916.725536	2638.328195
917.030952	2638.905407
917.336328	2625.407717
917.641665	2615.060749
917.946961	2602.619181
918.252218	2598.089705
918.557435	2588.040164
918.862612	2587.664598
919.167750	2582.610842
919.472848	2577.141190
919.777906	2572.906621
920.082925	2573.869481
920.387904	2567.522668
920.692843	2567.842782
920.997743	2565.954869
921.302603	2563.940928
921.607423	2562.473953
921.912204	2559.635783
922.216946	2560.848181
922.521647	2557.319373
922.826310	2558.982954
923.130932	2557.352140
923.435516	2553.929197
923.740059	2556.898437
924.044564	2551.698486
924.349028	2553.659495
924.653454	2552.749567
924.957840	2552.240410
925.262186	2551.166645
925.566493	2551.829556
925.870761	2551.834597
926.174989	2551.045657
926.479178	2549.117416
926.783328	2548.746891
927.087438	2547.940306
927.391509	2548.588094
927.695541	2549.245965
927.999533	2546.995090
928.303486	2545.223124
928.607400	2544.766900
928.911275	2547.393341
929.215110	2549.314021
929.518906	2545.538196
929.822663	2545.422250
930.126381	2549.485420
930.430060	2548.457024
930.733699	2546.909390
931.037299	2548.336037
931.340861	2544.860161
931.644383	2545.533155
931.947866	2544.797147
932.251309	2546.480892
932.554714	2547.872251
932.858080	2545.172713
933.161407	2543.710778
933.464694	2544.066179
933.767943	2541.361600
934.071153	2547.521890
934.374323	2544.734132
934.677455	2548.961140
934.980548	2544.106509
935.283602	2546.581715
935.586617	2543.892260
935.889593	2544.756817
936.192530	2544.960984
936.495428	2546.901828
936.798287	2546.982487
937.101108	2547.022816
937.403890	2546.337219
937.706632	2547.547096
938.009336	2546.778320
938.312002	2548.111705
938.614628	2549.084648
938.917216	2552.862993
939.219765	2550.355019
939.522275	2553.220915
939.824747	2549.893753
940.127179	2547.733619
940.429573	2549.346788
940.731929	2548.363763
941.034246	2551.819474
941.336524	2551.597663
941.638763	2548.744370
941.940964	2547.297559
942.243126	2548.915769
942.545250	2550.576830
942.847335	2546.722868
943.149381	2547.647919
943.451389	2547.070707
943.753359	2547.058104
944.055290	2544.391334
944.357182	2545.596170
944.659036	2547.413506
944.960851	2546.483413
945.262628	2545.500388
945.564367	2546.256561
945.866067	2546.135573
946.167729	2546.369987
946.469352	2547.012734
946.770937	2546.064997
947.072484	2544.504760
947.373992	2546.748073
947.675462	2544.978628
947.976893	2544.131714
948.278286	2538.752803
948.579641	2544.708927
948.880958	2541.089378
949.182236	2544.373690
949.483476	2539.113246
949.784678	2545.926365
950.085841	2543.320089
950.386967	2547.806716
950.688054	2540.817156
950.989103	2548.376366
951.290114	2546.269164
951.591087	2546.604400
951.892021	2546.649771
952.192917	2545.603731
952.493776	2544.083823
952.794596	2544.640871
953.095378	2546.422919
953.396122	2544.784544
953.696828	2544.255223
953.997496	2546.243958
954.298126	2544.968546
954.598718	2543.433515
954.899272	2543.892260
955.199788	2543.879657
955.500266	2546.813608
955.800706	2542.682383
956.101108	2543.453679
956.401472	2543.093237
956.701798	2543.594832
957.002087	2541.293545
957.302337	2546.334699
957.602550	2542.289173
957.902724	2539.345139
958.202861	2541.154913
958.502960	2541.540561
958.803022	2545.041643
959.103045	2544.214893
959.403031	2542.790768
959.702979	2542.700027
960.002889	2540.474357
960.302762	2541.974101
960.602596	2540.703730
960.902393	2542.634492
961.202153	2542.455531
961.501875	2539.398071
961.801559	2541.245654
962.101205	2540.214738
962.400814	2542.334543
962.700385	2541.016281
962.999918	2538.069727
963.299414	2538.891435
963.598873	2536.701054
963.898293	2536.123842
964.197677	2541.618699
964.497022	2541.127187
964.796331	2540.517207
965.095601	2541.343956
965.394835	2540.902855
965.694030	2539.995448
965.993189	2540.610468
966.292309	2540.854964
966.591393	2539.929913
966.890439	2539.415715
967.189447	2541.351518
967.488419	2541.646426
967.787353	2541.822866
968.086249	2539.551826
968.385108	2538.828421
968.683930	2539.801363
968.982714	2538.450334
969.281462	2542.014430
969.580172	2541.585932
969.878844	2538.483102
970.177480	2539.904707
970.476078	2539.219110
970.774639	2540.973432
971.073162	2542.510983
971.371649	2541.626261
971.670098	2538.939326
971.968510	2539.635005
972.266885	2538.843544
972.565223	2540.360931
972.863524	2542.160623
973.161788	2540.670962
973.460014	2541.406971
973.758204	2543.133566
974.056356	2540.154244
974.354471	2537.905889
974.652550	2537.691640
974.950591	2539.198945
975.248595	2539.425797
975.546563	2539.897145
975.844493	2539.627443
976.142386	2540.565098
976.440243	2540.043339
976.738062	2538.062165
977.035845	2538.954449
977.333590	2539.849254
977.631299	2537.782381
977.928971	2538.324305
978.226606	2535.334901
978.524204	2538.112577
978.821765	2536.542257
979.119290	2541.386806
979.416777	2541.326312
979.714228	2541.132228
980.011642	2538.087371
980.309020	2540.232382
980.606360	2541.611137
980.903664	2540.683565
981.200931	2538.515869
981.498162	2539.801363
981.795356	2541.545602
982.092513	2540.471837
982.389633	2540.005530
982.686717	2542.566436
982.983764	2541.840510
983.280775	2542.261446
983.577749	2542.573998
983.874686	2542.674821
984.171587	2542.871426
984.468451	2543.120963
984.765279	2540.885211
985.062070	2539.740869
985.358824	2541.611137
985.655543	2541.107022
985.952224	2542.619368
986.248869	2540.935623
986.545478	2540.643236
986.842050	2540.600386
987.138586	2541.069213
987.435086	2541.512835
987.731549	2537.265663
988.027975	2540.156765
988.324366	2540.549975
988.620719	2540.862526
988.917037	2541.495191
989.213318	2540.043339
989.509563	2537.805066
989.805772	2539.559388
990.101944	2537.981507
990.398080	2540.033256
990.694180	2539.405633
990.990244	2537.870601
991.286271	2539.511497
991.582262	2538.074768
991.878217	2536.912782
992.174136	2542.672300
992.470019	2538.866229
992.765865	2535.886907
993.061676	2536.638039
993.357450	2538.248688
993.653188	2534.185518
993.948890	2539.130890
994.244556	2540.653318
994.540186	2538.558719
994.835780	2538.825900
995.131337	2538.480581
995.426859	2536.322967
995.722345	2537.210210
996.017795	2539.609799
996.313208	2543.337733
996.608586	2539.834131
996.903928	2539.743390
997.199234	2540.305479
997.494504	2539.597197
997.789738	2540.532331
998.084936	2539.445962
998.380099	2539.229192
998.675225	2538.251208
998.970316	2538.422608
999.265371	2538.919161
999.560390	2539.773637
999.855373	2539.312371
1000.150320	2538.087371
1000.445232	2539.559388
1000.740108	2538.054603
1001.034948	2539.297248
1001.329752	2538.410005
1001.624521	2541.427135
1001.919254	2540.098791
1002.213951	2539.619882
1002.508613	2538.513348
1002.803239	2540.582742
1003.097829	2538.031918
1003.392384	2539.418236
1003.686903	2539.080478
1003.981386	2538.039480
1004.275834	2537.593338
1004.570246	2539.241795
1004.864623	2542.450490
1005.158964	2537.603420
1005.453270	2538.946888
1005.747540	2540.048380
1006.041775	2541.038967
1006.335974	2537.815149
1006.630138	2539.788760
1006.924266	2541.026364
1007.218359	2539.599717
1007.512416	2536.597710
1007.806438	2536.380940
1008.100425	2536.985879
1008.394376	2532.927750
1008.688292	2538.331867
1008.982172	2539.168698
1009.276017	2534.384643
1009.569827	2538.236085
1009.863602	2539.902186
1010.157341	2539.471168
1010.451045	2535.763399
1010.744714	2538.654501
1011.038347	2538.639377
1011.331945	2539.057793
1011.625508	2539.173740
1011.919036	2538.016795
1012.212528	2537.668955
1012.505986	2538.767927
1012.799408	2539.060314
1013.092795	2540.481919
1013.386147	2538.077289
1013.679464	2538.205838
1013.972745	2537.091743
1014.265992	2537.966383
1014.559204	2537.104346
1014.852380	2538.105015
1015.145521	2541.427135
1015.438628	2538.125180
1015.731699	2540.030736
1016.024736	2538.367155
1016.317737	2539.095602
1016.610703	2538.215920
1016.903635	2539.156096
1017.196531	2536.736342
1017.489393	2537.918492
1017.782219	2540.683565
1018.075011	2538.669624
1018.367768	2537.079140
1018.660490	2537.880684
1018.953177	2537.880684
1019.245829	2537.880684
