Dividing Wavelength (nm)	Counts (n)	Blue Motor Position (mm): 45.200000	Red Motor Position (mm): 0.000000	
326.493990	2270.124838
326.888308	2270.124838
327.282561	2270.124838
327.676750	2229.296533
328.070874	2225.258569
328.464933	2226.014742
328.858929	2229.362068
329.252859	2234.559498
329.646726	2241.405385
330.040528	2254.633373
330.434265	2269.751793
330.827938	2286.407765
331.221547	2305.309572
331.615091	2318.431695
332.008571	2339.486074
332.401986	2360.999198
332.795338	2378.219780
333.188625	2400.975548
333.581847	2416.910635
333.975006	2435.532658
334.368100	2455.296501
334.761129	2474.934316
335.154095	2491.297902
335.546996	2520.276974
335.939833	2558.859445
336.332606	2572.278997
336.725315	2587.054619
337.117960	2598.364447
337.510540	2610.178392
337.903056	2619.922942
338.295508	2629.012142
338.687896	2638.786940
339.080220	2646.772127
339.472480	2651.893940
339.864676	2654.684218
340.256807	2660.874755
340.648875	2664.995898
341.040879	2668.575118
341.432818	2670.279028
341.824694	2672.429080
342.216506	2672.124090
342.608253	2673.273473
342.999937	2674.919410
343.391557	2676.656087
343.783113	2674.881601
344.174605	2675.380675
344.566033	2672.502177
344.957397	2672.134172
345.348697	2669.671569
345.739934	2670.074861
346.131106	2669.270797
346.522215	2668.544871
346.913260	2664.867349
347.304241	2661.285609
347.695159	2660.146308
348.086012	2657.645896
348.476802	2658.288643
348.867528	2654.724548
349.258191	2650.608445
349.648789	2650.303456
350.039324	2646.053763
350.429796	2650.051398
350.820203	2649.186840
351.210548	2648.647437
351.600828	2648.652478
351.991045	2646.570481
352.381198	2648.077786
352.771288	2645.070738
353.161314	2644.871612
353.551276	2643.167702
353.941175	2643.013947
354.331010	2644.496046
354.720782	2644.876653
355.110490	2644.450676
355.500135	2644.680048
355.889717	2644.599390
356.279235	2643.606283
356.668689	2645.867240
357.058080	2644.652322
357.447408	2643.628968
357.836672	2645.935296
358.225873	2644.584267
358.615010	2647.422436
359.004084	2648.564257
359.393095	2646.941006
359.782043	2645.942858
360.170927	2647.213228
360.559748	2646.525111
360.948505	2651.339413
361.337199	2650.842859
361.725830	2650.810092
362.114398	2653.582726
362.502903	2653.698673
362.891344	2650.893271
363.279722	2651.112561
363.668037	2654.464928
364.056289	2652.970226
364.444478	2653.824702
364.832603	2655.359733
365.220665	2658.707059
365.608665	2656.645227
365.996601	2658.616318
366.384474	2659.942142
366.772284	2661.172183
367.160031	2657.350989
367.547715	2660.486586
367.935336	2660.053047
368.322893	2660.078253
368.710388	2659.269148
369.097820	2658.172697
369.485189	2659.145639
369.872495	2663.039931
370.259738	2665.615960
370.646918	2665.610919
371.034035	2667.675272
371.421090	2666.727535
371.808081	2666.387257
372.195010	2665.580672
372.581875	2666.377175
372.968678	2670.531085
373.355418	2669.963956
373.742096	2671.680468
374.128710	2673.654080
374.515262	2675.219358
374.901751	2679.746315
375.288177	2683.340657
375.674540	2688.608663
376.060841	2698.630477
376.447079	2708.168340
376.833254	2719.440360
377.219367	2732.161712
377.605417	2751.325658
377.991404	2766.181938
378.377329	2792.108593
378.763191	2811.141469
379.148991	2844.463496
379.534727	2875.159082
379.920402	2906.615882
380.306013	2933.674275
380.691563	2985.751915
381.077049	3010.826614
381.462474	3054.384704
381.847835	3107.450410
382.233134	3151.593273
382.618371	3188.643234
383.003545	3251.072883
383.388657	3285.793830
383.773706	3350.428984
384.158693	3395.474214
384.543618	3433.696243
384.928480	3499.105214
385.313280	3562.285995
385.698017	3599.260338
386.082692	3694.278526
386.467305	3708.237481
386.851856	3756.725819
387.236344	3841.966690
387.620770	3876.695199
388.005133	3941.519396
388.389435	3996.072242
388.773674	4014.303575
389.157851	4095.735854
389.541965	4168.731762
389.926018	4142.583297
390.310008	4253.564298
390.693936	4314.080830
391.077802	4347.261704
391.461606	4352.451572
391.845348	4422.664763
392.229027	4487.821677
392.612645	4491.080782
392.996200	4595.924180
393.379694	4659.228469
393.763125	4763.678656
394.146494	4790.348881
394.529801	4854.137121
394.913047	4934.462866
395.296230	4885.593921
395.679351	4995.503678
396.062410	5046.837747
396.445408	5020.782543
396.828343	5079.156584
397.211217	5139.768898
397.594028	5019.630640
397.976778	5139.194206
398.359466	5186.250857
398.742092	5207.375812
399.124656	5126.477896
399.507158	5248.317543
399.889598	5307.735103
400.271977	5430.928300
400.654294	5427.001241
401.036549	5470.027489
401.418742	5388.070930
401.800874	5594.226396
402.182944	5652.008102
402.564952	5759.238485
402.946898	5821.799204
403.328783	5656.774513
403.710606	5676.669426
404.092367	6000.054404
404.474067	6020.173649
404.855705	5921.656900
405.237282	5854.176015
405.618797	6109.381908
406.000250	6089.151757
406.381642	6292.698426
406.762972	6310.080325
407.144240	6374.360077
407.525447	6353.030956
407.906593	6372.235231
408.287677	6534.141969
408.668700	6450.116017
409.049661	6563.254633
409.430560	6594.547595
409.811399	6453.486028
410.192176	6721.607357
410.572891	6730.777216
410.953545	6919.893582
411.334138	6654.262583
411.714669	6828.588204
412.095139	6624.832327
412.475547	6868.864502
412.855894	6936.781447
413.236180	7122.598378
413.616405	6786.287882
413.996568	7011.569485
414.376670	7054.250414
414.756711	6949.233097
415.136691	7042.386059
415.516609	7249.249807
415.896466	7233.309678
416.276262	7432.881398
416.655997	7416.911022
417.035670	7602.899352
417.415283	7948.982125
417.794834	8001.841144
418.174324	7863.053137
418.553753	7789.550594
418.933121	8089.562262
419.312428	8189.944238
419.691674	7966.691699
420.070859	8447.988301
420.449983	8126.861759
420.829045	8493.603181
421.208047	8262.546936
421.586988	8565.366527
421.965867	8592.921474
422.344686	8690.296401
422.723444	8752.456349
423.102141	8090.623425
423.480777	8852.619035
423.859352	8377.084472
424.237866	8997.312753
424.616319	8862.129171
424.994712	9293.374677
425.373044	8834.750665
425.751314	9313.982914
426.129524	9192.912043
426.507673	9275.753324
426.885762	9439.963869
427.263789	9363.393783
427.641756	9290.183627
428.019662	9382.908090
428.397508	9649.010437
428.775292	9307.827665
429.153016	9693.906953
429.530679	9523.911684
429.908282	9547.476557
430.285824	9277.656359
430.663305	9957.672725
431.040726	9407.481194
431.418086	9391.314214
431.795385	9718.318741
432.172624	9813.057145
432.549802	9724.549607
432.926920	9800.161873
433.303977	9669.558180
433.680974	9873.548470
434.057910	9975.566301
434.434786	10046.376868
434.811601	9867.516730
435.188355	10433.734089
435.565050	10177.772023
435.941683	10101.310322
436.318257	10580.353528
436.694770	10737.405635
437.071222	10788.457400
437.447614	10625.769283
437.823946	10546.066120
438.200218	10643.657817
438.576429	10487.170319
438.952580	10736.846067
439.328670	10762.986970
439.704700	10560.017513
440.080670	10548.725328
440.456580	11074.789897
440.832429	10860.561023
441.208218	10460.575712
441.583947	10757.371124
441.959616	10943.117479
442.335224	10745.932746
442.710773	10856.626403
443.086261	11091.967629
443.461689	10354.799702
443.837057	11037.659278
444.212365	11277.323294
444.587612	10913.813252
444.962800	11140.118210
445.337927	10880.057686
445.712995	10541.783660
446.088002	11584.614388
446.462949	11280.723552
446.837837	11247.230126
447.212664	11174.420741
447.587431	11753.858526
447.962139	12512.030420
448.336786	14805.521007
448.711374	15297.207426
449.085901	13105.124691
449.460369	12755.671906
449.834776	12203.098430
450.209124	13132.026808
450.583412	13542.805229
450.957640	14473.414832
451.331808	13529.937684
451.705917	12586.531112
452.079965	11842.804644
452.453954	12765.665994
452.827883	12415.020976
453.201752	12705.010831
453.575562	12249.638363
453.949311	12662.685303
454.323001	12649.830361
454.696632	12880.374929
455.070202	13148.642451
455.443713	13355.448226
455.817164	13851.313762
456.190556	13819.224298
456.563888	14178.817363
456.937160	14329.628522
457.310373	13683.609697
457.683526	13794.633549
458.056619	13318.521774
458.429653	13524.873845
458.802628	12889.149057
459.175542	13289.512454
459.548398	14249.741357
459.921194	14606.927271
460.293930	14682.184137
460.666607	15519.018196
461.039224	16595.125581
461.411782	17319.819172
461.784280	17092.047239
462.156719	17200.873148
462.529099	16875.257459
462.901419	15825.580843
463.273680	15588.502940
463.645882	15485.439070
464.018024	15210.736514
464.390106	15435.738334
464.762130	16153.265926
465.134094	16952.553471
465.505999	19002.818466
465.877845	22276.140482
466.249631	25075.296607
466.621358	24700.993455
466.993026	23286.095326
467.364634	22691.511394
467.736184	21219.890202
468.107674	20427.768657
468.479105	20544.645288
468.850477	20018.285812
469.221790	19612.787999
469.593043	18921.726466
469.964238	18348.335545
470.335373	17990.211976
470.706449	18497.271394
471.077467	18080.005008
471.448425	19944.092630
471.819324	24088.248767
472.190164	25917.141573
472.560945	22250.869178
472.931667	19954.242993
473.302330	19337.803139
473.672934	18970.587849
474.043479	19210.919818
474.413965	19013.510754
474.784393	18622.155898
475.154761	19380.201764
475.525070	19296.256470
475.895321	19018.272123
476.265513	19620.309401
476.635645	20211.180523
477.005719	19970.354521
477.375734	20146.157200
477.745691	20640.807818
478.115588	21191.500944
478.485427	21745.319585
478.855207	22837.903981
479.224928	24628.567198
479.594591	26856.263165
479.964194	26757.915294
480.333739	26999.222726
480.703226	26579.186226
481.072653	26292.190817
481.442022	26912.363645
481.811333	27827.393562
482.180584	27724.092758
482.549777	26758.242969
482.918912	26444.131194
483.287988	26574.059372
483.657005	26207.852313
484.025964	26001.507804
484.394864	25866.974531
484.763706	25520.226325
485.132489	24984.477700
485.501213	25169.548540
485.869879	25086.737506
486.238487	24938.595639
486.607036	25050.831888
486.975527	24798.348218
487.343959	25093.550626
487.712333	24997.272149
488.080648	24659.827393
488.448905	25162.826162
488.817104	24918.428503
489.185244	25638.212011
489.553326	25581.133546
489.921350	26632.468701
490.289315	28983.143616
490.657222	30690.345490
491.025070	31205.937061
491.392861	30964.062500
491.760593	30105.571644
492.128267	29179.085705
492.495883	28122.522873
492.863440	27254.395851
493.230939	26384.161628
493.598380	26226.373512
493.965763	25840.057290
494.333088	25337.300496
494.700354	25307.839993
495.067563	25157.323742
495.434713	24899.650205
495.801805	25073.249899
496.168839	24844.328582
496.535815	24716.888213
496.902733	24944.042605
497.269593	24629.653566
497.636395	24793.460819
498.003139	24730.441355
498.369825	24473.415606
498.736453	24704.917993
499.103023	24558.628750
499.469535	24558.285951
499.835989	24790.917557
500.202385	24798.630523
500.568723	24355.238357
500.935003	24531.172105
501.301226	24216.374733
501.667390	25066.925772
502.033497	25273.010661
502.399546	24995.805173
502.765537	24534.151427
503.131470	24912.439612
503.497345	25063.888476
503.863163	24298.215345
504.228923	24846.723130
504.594625	25087.730613
504.960269	24648.199971
505.325856	25117.410407
505.691385	24524.333780
506.056856	25121.639935
506.422270	25108.200219
506.787625	24634.515759
507.152924	25081.706435
507.518164	25117.445695
507.883347	24921.511168
508.248472	24594.940181
508.613540	25381.115685
508.978550	25185.685274
509.343503	25206.568254
509.708398	25389.955348
510.073236	25566.617544
510.438016	25771.454748
510.802738	25432.636277
511.167403	25694.355341
511.532010	25440.351763
511.896561	26187.952358
512.261053	26149.775700
512.625488	25989.121689
512.989866	25877.520625
513.354186	25697.964807
513.718449	25841.622568
514.082655	26213.369856
514.446803	25933.157319
514.810894	26436.882014
515.174927	25915.077221
515.538904	25944.071417
515.902822	26440.632633
516.266684	26199.867125
516.630488	26112.146007
516.994235	26043.908949
517.357925	26383.609621
517.721558	26525.540787
518.085133	26657.634141
518.448651	26536.154937
518.812112	26313.666132
519.175516	26521.535590
519.538863	26670.476481
519.902152	26475.504815
520.265385	26714.090023
520.628560	26538.297427
520.991678	26528.459615
521.354739	26567.765492
521.717743	26661.820820
522.080690	26443.672449
522.443580	26786.854038
522.806413	26745.156134
523.169189	26864.240791
523.531908	26892.564513
523.894569	26525.991970
524.257174	26621.612577
524.619722	26756.682732
524.982213	26481.861710
525.344647	26502.185121
525.707025	26673.854054
526.069345	26616.420188
526.431608	26600.918640
526.793815	26766.429803
527.155964	26264.696364
527.518057	26423.974140
527.880093	26345.838776
528.242072	26574.923930
528.603995	26290.812061
528.965860	26082.947644
529.327669	26118.636493
529.689421	26109.012930
530.051117	25958.988192
530.412755	26118.389476
530.774337	25904.382413
531.135862	25801.295858
531.497331	25979.931665
531.858743	25577.831590
532.220098	26032.505859
532.581396	25725.272738
532.942638	25619.748785
533.303824	25743.279739
533.664953	25739.856796
534.026025	25400.216617
534.387040	25651.520657
534.747999	25694.070516
535.108902	25864.055703
535.469748	25355.526788
535.830537	25525.895103
536.191270	25662.896020
536.551947	25482.795758
536.912567	25100.782161
537.273131	25541.084099
537.633638	25210.891043
537.994089	25443.522649
538.354483	24927.235398
538.714821	25430.135865
539.075103	25484.681150
539.435328	25252.231025
539.795497	24845.462842
540.155609	25191.349010
540.515665	25523.457705
540.875665	24720.427103
541.235609	25083.803555
541.595496	25005.010320
541.955328	25368.991710
542.315102	25275.760611
542.674821	24785.077381
543.034483	24680.055023
543.394090	24844.200033
543.753640	24662.945346
544.113134	25283.224039
544.472571	24882.207812
544.831953	25175.953326
545.191278	24826.989534
545.550548	24705.757345
545.909761	24908.530197
546.268918	25146.432329
546.628019	25119.832681
546.987064	24795.754544
547.346053	24546.227511
547.704986	24649.896320
548.063863	24815.057123
548.422684	24840.560320
548.781449	24328.553009
549.140158	24745.721093
549.498811	24318.248890
549.857408	24079.283075
550.215949	24467.038546
550.574434	24162.434387
550.932864	24359.977041
551.291237	24555.664551
551.649555	24395.302927
552.007817	24468.359328
552.366022	24304.282374
552.724173	24328.275745
553.082267	24307.354957
553.440305	24794.763958
553.798288	24015.623384
554.156215	24507.055225
554.514086	24637.590863
554.871902	24024.707543
555.229661	24292.186125
555.587365	24142.247086
555.945014	24052.398601
556.302606	24261.535910
556.660143	24265.926755
557.017625	24479.732172
557.375050	23998.218800
557.732421	24385.528130
558.089735	24218.164342
558.446994	24263.151599
558.804197	24304.867147
559.161345	24195.892525
559.518437	24007.166848
559.875474	24168.529142
560.232455	24361.723801
560.589381	24172.060470
560.946251	24173.799668
561.303065	24465.831190
561.659825	24566.908845
562.016528	24166.812629
562.373177	23899.278594
562.729770	24263.391054
563.086307	24111.556542
563.442789	24274.874803
563.799216	24136.550582
564.155587	24125.681855
564.511904	24104.055305
564.868164	24061.407143
565.224370	24010.277240
565.580520	23956.107522
565.936615	24068.920983
566.292654	23777.605305
566.648638	24011.497199
567.004567	23852.506769
567.360441	23791.438231
567.716260	23525.996275
568.072023	23845.744061
568.427732	23619.184525
568.783385	23379.462536
569.138982	23634.484427
569.494525	23660.398478
569.850013	23419.859822
570.205445	23519.495707
570.560823	23328.020082
570.916145	23090.415377
571.271412	23287.191777
571.626625	23045.660013
571.981782	23136.904898
572.336884	22944.277368
572.691931	23095.396037
573.046923	22827.365449
573.401860	22697.633875
573.756743	22731.003793
574.111570	22610.510134
574.466342	22537.040358
574.821059	22614.356534
575.175722	22323.403820
575.530330	22291.475672
575.884882	22291.526083
576.239380	22220.007234
576.593823	22102.765119
576.948211	22100.478955
577.302544	21952.750462
577.656823	21794.175927
578.011047	21906.434862
578.365216	21779.206221
578.719330	21647.929533
579.073389	21536.704036
579.427394	21704.829037
579.781344	21447.165582
580.135239	21335.488900
580.489080	21283.630551
580.842866	21072.338149
581.196597	21282.455962
581.550273	21231.830174
581.903895	21121.668360
582.257463	21424.422416
582.610975	20965.901747
582.964434	21292.838218
583.317837	20958.783638
583.671186	21051.485416
584.024481	21030.622601
584.377721	20790.550252
584.730906	20902.799104
585.084037	20870.664269
585.437113	20800.390584
585.790135	21002.918940
586.143103	20452.573654
586.496016	20479.226234
586.848874	20710.519414
587.201679	20620.824684
587.554428	20331.507824
587.907124	20666.222795
588.259765	20425.207750
588.612352	20490.972123
588.964884	20055.504651
589.317362	20230.833461
589.669786	20300.643359
590.022155	20284.657861
590.374470	20530.096518
590.726731	20288.927718
591.078937	20091.324569
591.431090	20165.149747
591.783188	19939.422001
592.135232	19886.353775
592.487222	19989.029476
592.839157	20000.719911
593.191038	19882.209946
593.542866	19770.631568
593.894639	19479.570468
594.246358	19683.167548
594.598022	19576.794161
594.949633	19335.232151
595.301190	19328.658486
595.652692	19483.948710
596.004141	19706.117401
596.355535	19029.531541
596.706876	19064.764165
597.058162	18961.128124
597.409395	19199.536892
597.760573	19242.711854
598.111698	19016.260703
598.462768	18971.641450
598.813785	18933.313558
599.164748	18728.378051
599.515657	18790.873235
599.866511	18591.576259
600.217312	18939.950237
600.568060	18442.383311
600.918753	18752.900744
601.269392	18664.715840
601.619978	18457.171536
601.970510	18642.869999
602.320988	18597.809646
602.671412	18796.844482
603.021783	18730.991889
603.372100	18426.362524
603.722363	18584.397656
604.072572	18530.394295
604.422728	18683.910033
604.772830	18426.574253
605.122878	18395.167864
605.472872	18370.816570
605.822813	18350.054578
606.172701	18344.380760
606.522534	18510.963168
606.872314	18560.472340
607.222041	18388.634529
607.571714	18599.006920
607.921333	18417.593437
608.270899	18498.977825
608.620411	18657.469181
608.969870	18454.088870
609.319276	18450.247511
609.668627	18462.250498
610.017926	18613.265823
610.367171	18724.070385
610.716362	18779.202964
611.065500	18594.137165
611.414585	18739.302231
611.763616	18720.949911
612.112594	18646.204723
612.461518	18610.256255
612.810389	18808.839907
613.159207	18671.564247
613.507971	18599.695037
613.856682	18838.144135
614.205340	18763.272918
614.553945	18909.504188
614.902496	18663.952105
615.250994	18872.194608
615.599439	18828.061827
615.947830	18811.552048
616.296169	18888.346465
616.644454	18838.270164
616.992686	18814.072625
617.340864	19033.667807
617.688990	18786.774777
618.037063	18950.934911
618.385082	18815.753850
618.733048	19082.211598
619.080961	18972.052304
619.428821	18996.980810
619.776628	18874.894146
620.124382	18812.726637
620.472083	18864.978197
620.819731	18872.277788
621.167326	18565.021981
621.514868	18609.197612
621.862357	18394.590652
622.209793	18389.549498
622.557176	18220.645638
622.904506	18052.868477
623.251783	17990.559815
623.599007	17727.187253
623.946179	17665.997728
624.293297	17595.653467
624.640363	17332.616142
624.987376	17352.533740
625.334336	17165.022982
625.681243	16998.790934
626.028097	17027.686828
626.374899	16930.836180
626.721647	16804.338507
627.068343	16635.674102
627.414987	16577.068168
627.761577	16545.203034
628.108115	16579.472798
628.454600	16305.899461
628.801032	16395.639561
629.147412	16342.994792
629.493739	16341.270717
629.840014	16160.154662
630.186236	16252.064979
630.532405	16017.825245
630.878521	16212.796911
631.224585	16127.679549
631.570597	15932.392811
631.916556	15964.182327
632.262462	15939.276507
632.608316	15862.056112
632.954117	15807.520910
633.299866	15792.231090
633.645562	15707.917792
633.991206	15471.089425
634.336797	15342.086298
634.682336	15312.673686
635.027823	15180.522359
635.373257	15051.166351
635.718639	14972.310102
636.063968	14906.989351
636.409245	14654.903932
636.754470	14690.363409
637.099642	14536.577969
637.444762	14311.878619
637.789829	14350.221635
638.134845	14187.546121
638.479808	14215.310276
638.824719	14136.161640
639.169577	14007.587011
639.514383	14046.040933
639.859137	13884.774421
640.203839	13974.060818
640.548489	13812.859841
640.893086	13795.288899
641.237632	13675.758100
641.582125	13832.452285
641.926566	13650.138957
642.270955	13659.896110
642.615292	13617.366415
642.959576	13632.061379
643.303809	13656.258917
643.647990	13588.657044
643.992118	13649.465963
644.336195	13427.607302
644.680219	13654.905367
645.024192	13544.763718
645.368112	13809.111743
645.711981	13843.706661
646.055797	14027.756668
646.399562	14004.524510
646.743274	14277.777734
647.086935	14545.294124
647.430544	14509.060831
647.774101	14553.667481
648.117606	14688.241083
648.461059	14670.710470
648.804460	14642.815246
649.147810	14364.563718
649.491108	14279.416109
649.834354	14293.301967
650.177548	13961.031955
650.520690	13777.796095
650.863781	13706.572153
651.206820	13752.645779
651.549807	13585.881889
651.892742	13373.470351
652.235626	13311.507009
652.578458	13313.387359
652.921238	13015.492975
653.263967	13210.767111
653.606644	13040.371070
653.949269	13018.137061
654.291843	12816.732882
654.634365	12981.140032
654.976836	12836.398423
655.319255	12823.982061
655.661622	12786.801031
656.003938	12707.861603
656.346203	12630.943678
656.688416	12713.038868
657.030577	12669.543793
657.372687	12573.776993
657.714746	12565.617886
658.056753	12751.124785
658.398708	12563.750138
658.740612	12561.915158
659.082465	12669.747959
659.424266	12650.616781
659.766016	12679.820185
660.107715	12590.342225
660.449362	12660.852843
660.790958	12611.502468
661.132503	12548.931666
661.473996	12625.708439
661.815438	12652.018221
662.156829	12666.471209
662.498168	12640.370635
662.839456	12640.904998
663.180693	12660.245384
663.521879	12755.558480
663.863013	12723.542112
664.204097	12693.055734
664.545129	12818.237667
664.886110	12802.640337
665.227040	12887.309036
665.567918	12889.141495
665.908746	12911.746029
666.249522	12901.066345
666.590248	12962.260911
666.930922	13071.104464
667.271545	13043.544476
667.612118	13130.897590
667.952639	13024.010005
668.293109	13054.577041
668.633528	13002.600224
668.973896	12981.140033
669.314213	13042.856358
669.654480	12785.923870
669.994695	12876.515926
670.334859	12901.489802
670.674973	12841.079135
671.015035	12870.118701
671.355047	12811.036378
671.695008	12788.396556
672.034918	12800.313844
672.374777	12839.831449
672.714585	12756.748193
673.054342	12793.248667
673.394049	12744.974578
673.733705	12838.553517
674.073310	12737.511149
674.412864	12745.536666
674.752368	12601.241199
675.091820	12655.403356
675.431223	12625.554684
675.770574	12496.392761
676.109875	12412.858321
676.449125	12371.788041
676.788324	12320.942963
677.127473	12148.311170
677.466571	12139.935293
677.805619	12030.121318
678.144616	11962.234620
678.483562	11944.252824
678.822458	11803.619755
679.161303	11788.297168
679.500098	11766.577357
679.838842	11725.587735
680.177535	11760.583425
680.516179	11822.798825
680.854771	11763.524938
681.193314	11988.350317
681.531805	12153.548929
681.870247	12595.582504
682.208638	13007.104495
682.546978	13301.833034
682.885268	13324.901354
683.223508	13037.414433
683.561697	12879.074311
683.899836	12777.313580
684.237925	12571.510994
684.575963	12494.038542
684.913951	12401.208215
685.251889	12362.565250
685.589776	12464.522586
685.927614	12383.256666
686.265401	12355.275741
686.603137	12419.247984
686.940824	12563.729973
687.278460	12693.479191
687.616046	12732.374214
687.953582	12890.308523
688.291068	12830.631343
688.628504	13056.661558
688.965889	13066.096078
689.303224	13027.117876
689.640510	12908.985997
689.977745	12595.267432
690.314930	12370.437012
690.652065	12275.701128
690.989150	11975.737351
691.326185	11747.978020
691.663170	11549.747248
692.000105	11300.373970
692.336990	11182.867194
692.673825	10925.395303
693.010610	10821.320682
693.347345	10604.309091
693.684030	10410.859853
694.020665	10357.922697
694.357251	10153.130863
694.693786	10078.670500
695.030272	9930.886554
695.366707	9805.293768
695.703093	9745.818235
696.039429	9748.719419
696.375716	9650.984049
696.711952	9520.690386
697.048139	9574.718953
697.384276	9524.730871
697.720363	9551.670797
698.056400	9480.751845
698.392388	9422.206405
698.728326	9390.684070
699.064214	9335.261624
699.400053	9365.480821
699.735842	9183.074231
700.071581	9147.234148
700.407270	9068.710615
700.742910	8995.535746
701.078501	8896.033452
701.414042	8767.922609
701.749533	8718.947799
702.084974	8568.280314
702.420366	8688.463942
702.755709	8563.839057
703.091002	8429.026000
703.426246	8467.737021
703.761440	8417.038137
704.096584	8375.357877
704.431679	8307.846744
704.766725	8288.491234
705.101721	8239.218996
705.436668	8295.974827
705.771565	8178.397475
706.106413	8266.572297
706.441212	8290.966441
706.775961	8267.026001
707.110661	8315.957961
707.445311	8443.789019
707.779913	8339.018719
708.114465	8464.140158
708.448967	8503.292279
708.783421	8668.155654
709.117825	8840.555553
709.452180	8875.150472
709.786485	8964.119275
710.120742	9251.906146
710.454949	9252.092668
710.789107	9356.467238
711.123216	9587.243699
711.457275	9758.348023
711.791286	9901.098376
712.125247	9904.670034
712.459159	9882.962825
712.793023	10113.305747
713.126837	9698.932983
713.460602	9858.475420
713.794318	9686.544348
714.127985	9705.889776
714.461602	9366.073157
714.795171	9324.521446
715.128691	9074.581038
715.462162	8827.955189
715.795584	8768.388916
716.128957	8603.737269
716.462281	8442.710212
716.795556	8488.609918
717.128782	8284.927138
717.461960	8032.834158
717.795088	8095.417562
718.128167	8002.307451
718.461198	7835.213365
718.794180	7777.877802
719.127113	7774.991742
719.459997	7597.472550
719.792833	7380.377780
720.125619	7451.510982
720.458357	7297.249153
720.791046	7297.521376
721.123686	7280.925897
721.456278	7119.833305
721.788821	7140.302911
722.121315	7043.432098
722.453761	7111.727130
722.786158	7045.652727
723.118506	7054.759571
723.450805	7023.149016
723.783056	7084.777122
724.115259	7003.508680
724.447412	7000.496591
724.779518	7055.866104
725.111574	7050.434261
725.443582	7127.826055
725.775542	7110.706296
726.107453	7309.272305
726.439315	7213.215639
726.771129	7293.647249
727.102895	7468.741645
727.434612	7570.557830
727.766281	7612.936289
728.097901	7676.895929
728.429473	7690.701129
728.760996	7671.096081
729.092471	7635.513097
729.423897	7575.770383
729.755276	7580.498985
730.086606	7505.715988
730.417887	7612.354036
730.749120	7831.845875
731.080305	8022.628342
731.411442	8122.193651
731.742530	8110.125129
732.073570	8220.105462
732.404562	8310.047208
732.735506	8169.562853
733.066401	8297.424159
733.397249	8219.339206
733.728048	7971.826114
734.058798	7639.795557
734.389501	7405.054228
734.720156	7230.274904
735.050762	7007.342478
735.381320	6923.056906
735.711831	6859.077102
736.042293	6749.560555
736.372707	6762.203769
736.703073	6632.976311
737.033391	6672.831673
737.363661	6685.439599
737.693883	6723.427214
738.024056	6804.993083
738.354182	6838.307548
738.684260	6875.007148
739.014290	7001.383834
739.344272	7110.492047
739.674207	7140.471789
740.004093	7214.624642
740.333931	7225.306847
740.663722	7227.308185
740.993464	7311.596277
741.323159	7282.597040
741.652806	7040.301542
741.982405	7082.763181
742.311956	7116.339786
742.641460	6933.666014
742.970915	6743.871613
743.300323	6734.011116
743.629683	6694.591814
743.958996	6558.949487
744.288260	6467.823070
744.617477	6416.418424
744.946647	6406.946096
745.275768	6243.385859
745.604842	6201.813984
745.933869	6182.796231
746.262847	6145.567310
746.591778	6132.505681
746.920662	6088.491366
747.249498	6089.239978
747.578286	6136.160517
747.907027	6208.954779
748.235720	6267.091885
748.564365	6240.230097
748.892963	6287.231295
749.221514	6420.070740
749.550017	6233.290949
749.878473	6128.455113
750.206881	6186.957704
750.535242	6135.076669
750.863555	6059.045987
751.191821	6071.457308
751.520039	6069.181227
751.848210	5976.986084
752.176334	6014.497310
752.504411	6049.147681
752.832440	5974.924253
753.160421	5911.695580
753.488356	5958.633764
753.816243	5980.620756
754.144082	5835.841338
754.471875	5815.885931
754.799620	5854.221385
755.127318	5867.862748
755.454969	5823.908927
755.782572	5792.018588
756.110129	5834.795299
756.437638	5812.112627
756.765100	5750.940746
757.092515	5760.334936
757.419882	5819.820552
757.747203	5785.971724
758.074477	5850.523699
758.401703	5830.691800
758.728882	5792.384072
759.056014	5861.440318
759.383099	5974.765456
759.710138	5984.792311
760.037129	5973.868131
760.364073	5982.244008
760.690970	6059.240071
761.017820	6035.294590
761.344623	6000.072048
761.671379	6109.941476
761.998088	6234.110136
762.324751	6498.062431
762.651366	7141.482541
762.977935	8518.430864
763.304456	10179.438124
763.630931	11028.088648
763.957359	10566.467669
764.283740	9602.452861
764.610074	8727.613543
764.936362	7721.706745
765.262602	7133.512476
765.588796	6600.309634
765.914943	6270.832422
766.241044	6100.519559
766.567097	5887.661879
766.893104	5624.231344
767.219064	5454.825890
767.544978	5392.489502
767.870845	5305.738806
768.196665	5207.990833
768.522438	5129.245489
768.848165	5092.984469
769.173846	5030.877454
769.499479	4978.905678
769.825066	4930.203091
770.150607	4871.536663
770.476101	4850.777192
770.801548	4839.782435
771.126949	4756.542903
771.452303	4701.319583
771.777611	4665.976053
772.102872	4684.802242
772.428087	4654.325947
772.753256	4605.560345
773.078378	4553.316347
773.403453	4486.662211
773.728482	4473.000684
774.053465	4426.024692
774.378401	4419.481274
774.703291	4409.371240
775.028135	4335.984643
775.352932	4291.468734
775.677683	4282.293834
776.002388	4295.781441
776.327046	4306.302329
776.651658	4229.863314
776.976224	4170.100435
777.300743	4177.599151
777.625216	4198.235114
777.949643	4183.565357
778.274024	4143.011795
778.598359	4106.934777
778.922647	4133.758757
779.246889	4121.153352
779.571086	4110.945015
779.895236	4095.763580
780.219339	4086.724791
780.543397	4082.346549
780.867409	4135.709683
781.191374	4147.753000
781.515294	4077.721291
781.839167	4074.507555
782.162995	4102.732975
782.486776	4083.478288
782.810511	4097.596040
783.134201	4084.670521
783.457844	4036.701422
783.781441	3987.177126
784.104993	3990.905060
784.428498	4011.843492
784.751958	4006.698995
785.075372	3984.785099
785.398739	3947.687248
785.722061	3962.155359
786.045337	4007.631608
786.368568	4033.417110
786.691752	3942.799849
787.014891	4004.884179
787.337983	4138.079026
787.661030	4304.626146
787.984031	4467.294098
788.306987	4631.837360
788.629897	4715.563363
788.952760	4665.444212
789.275579	4603.629583
789.598351	4529.360784
789.921078	4371.688615
790.243759	4182.534441
790.566395	4172.048841
790.888984	4164.151873
791.211529	4052.024009
791.534027	3993.304649
791.856480	3977.054489
792.178888	3917.263884
792.501249	3874.008264
792.823566	3884.214080
793.145836	3907.967997
793.468062	3854.516642
793.790241	3808.564004
794.112375	3841.626412
794.434464	3911.050662
794.756507	3928.669495
795.078505	3906.148140
795.400457	3949.060962
795.722364	4096.877675
796.044226	4202.510013
796.366042	4272.768574
796.687812	4245.712701
797.009538	4250.103546
797.331218	4211.100139
797.652852	4182.776416
797.974442	4162.478210
798.295986	4155.483609
798.617484	4073.897575
798.938938	3991.585615
799.260346	4038.110424
799.581709	4028.025596
799.903026	3949.691106
800.224299	3914.208945
800.545526	3904.582862
800.866708	3868.190772
801.187845	3814.000889
801.508936	3846.286959
801.829983	3834.261286
802.150984	3761.497272
802.471940	3753.970829
802.792851	3760.181530
803.113717	3763.042385
803.434538	3761.945934
803.755314	3703.776060
804.076045	3682.961136
804.396731	3702.419990
804.717372	3726.872106
805.037967	3709.175136
805.358518	3701.061399
805.679024	3731.235225
805.999485	3744.208634
806.319901	3748.007144
806.640272	3757.562651
806.960598	3772.171915
807.280879	3746.449427
807.601115	3764.723610
807.921306	3780.235240
808.241453	3819.984738
808.561554	3787.902835
808.881611	3721.972105
809.201623	3769.759723
809.521590	3778.871608
809.841513	3748.163420
810.161390	3780.212555
810.481223	3752.831528
810.801011	3699.496120
811.120755	3697.678784
811.440453	3726.925038
811.760107	3728.792786
812.079716	3681.312678
812.399281	3658.337620
812.718801	3678.890404
813.038276	3652.827639
813.357707	3649.692041
813.677093	3663.378774
813.996434	3611.220475
814.315731	3625.381077
814.634983	3626.669091
814.954191	3643.551916
815.273354	3670.917819
815.592473	3660.306190
815.911547	3679.172709
816.230577	3720.608473
816.549562	3771.476236
816.868502	3813.625323
817.187399	3836.638190
817.506250	3836.144157
817.825058	3813.698420
818.143821	3908.220054
818.462539	4010.767206
818.781213	4052.908731
819.099843	4122.335502
819.418429	4385.826531
819.736970	4627.895177
820.055466	4884.653746
820.373919	5260.227269
820.692327	5677.065157
821.010691	6171.282236
821.329011	7669.765217
821.647286	10587.632954
821.965517	15352.589542
822.283704	19362.114104
822.601847	21360.122499
822.919945	19410.110930
823.237999	16732.295377
823.556010	14199.511300
823.873976	12038.618183
824.191897	9916.536910
824.509775	8575.547137
824.827609	7445.559899
825.145398	6921.083294
825.463144	6803.377393
825.780845	6913.566934
826.098502	7143.569578
826.416116	8100.758665
826.733685	9476.529879
827.051210	10570.190562
827.368692	10498.770014
827.686129	9161.162856
828.003522	7654.220819
828.320872	6627.143696
828.638177	5906.951855
828.955439	5333.903732
829.272656	4830.390766
829.589830	4564.001073
829.906960	4381.793608
830.224046	4187.862940
830.541088	4065.609918
830.858086	4016.867002
831.175041	3941.393367
831.491952	3927.741922
831.808819	3936.337090
832.125642	4019.811036
832.442421	4180.132331
832.759157	4474.452537
833.075849	5063.047577
833.392497	5956.783660
833.709101	6750.886379
834.025662	7053.610188
834.342179	6628.537575
834.658653	5945.988029
834.975083	5289.213903
835.291469	4701.249007
835.607811	4297.921411
835.924110	4158.271367
836.240366	3949.340746
836.556578	3748.549068
836.872746	3636.368271
837.188871	3594.768670
837.504952	3526.082949
837.820990	3443.226544
838.136984	3402.252046
838.452935	3426.726848
838.768842	3421.448759
839.084706	3447.214097
839.400526	3616.463275
839.716303	3983.305520
840.032037	4535.752967
840.347727	4769.241569
840.663373	4455.855720
840.978977	4063.706883
841.294537	3753.350767
841.610054	3526.450953
841.925527	3420.495981
842.240957	3350.416381
842.556344	3296.357568
842.871687	3234.006057
843.186987	3183.448325
843.502244	3145.652274
843.817458	3110.752366
844.132629	3084.054415
844.447756	3088.084817
844.762840	3071.605285
845.077881	3040.264432
845.392879	3023.759694
845.707833	3020.054446
846.022745	3020.508150
846.337613	3017.586801
846.652438	3007.018022
846.967221	3004.399143
847.281960	2990.329283
847.596656	2986.558499
847.911309	2986.810557
848.225919	2977.575163
848.540485	2975.614154
848.855009	2974.563074
849.169490	2962.383646
849.483928	2954.811833
849.798323	2955.631021
850.112675	2950.788992
850.426984	2966.608133
850.741251	2959.759726
851.055474	2947.434104
851.369654	2942.100564
851.683792	2950.539455
851.997887	2960.475569
852.311938	2961.501444
852.625947	2947.683642
852.939914	2949.120370
853.253837	2953.241514
853.567718	2939.693413
853.881555	2939.474123
854.195350	2955.643623
854.509103	2951.068776
854.822812	2942.667693
855.136479	2942.360183
855.450103	2944.674073
855.763685	2938.042435
856.077224	2933.389450
856.390720	2944.701799
856.704173	2954.274950
857.017584	2946.015020
857.330953	2943.736418
857.644278	2954.625310
857.957561	2965.194089
858.270802	2968.148206
858.584000	2964.924388
858.897155	2949.942078
859.210268	2949.390072
859.523339	2948.306224
859.836367	2950.544496
860.149352	2942.362704
860.462295	2940.837755
860.775195	2948.457459
861.088054	2946.476285
861.400869	2928.887699
861.713642	2928.706218
862.026373	2944.316151
862.339062	2944.399330
862.651708	2950.867130
862.964312	2951.835032
863.276873	2945.573919
863.589392	2958.688480
863.901869	2969.680716
864.214303	2993.626197
864.526696	3009.057169
864.839045	3001.490397
865.151353	3004.641118
865.463619	3004.961232
865.775842	3004.489884
866.088023	3024.011752
866.400162	3027.180117
866.712258	2994.135354
867.024313	2990.699807
867.336325	2998.042248
867.648296	3018.547141
867.960224	3014.141173
868.272110	2997.507886
868.583954	3004.668845
868.895755	3018.519415
869.207515	3002.370078
869.519233	3010.894670
869.830909	3021.881864
870.142542	3032.556508
870.454134	3032.059954
870.765684	3030.051054
871.077191	3030.877803
871.388657	3043.896583
871.700081	3057.555590
872.011463	3066.009605
872.322803	3062.800910
872.634101	3064.754357
872.945357	3080.535689
873.256571	3108.246912
873.567744	3097.592433
873.878874	3096.301898
874.189963	3120.570013
874.501010	3118.082203
874.812015	3107.987293
875.122979	3108.738425
875.433900	3107.533589
875.744780	3116.232100
876.055618	3121.288377
876.366415	3117.625979
876.677169	3126.639562
876.987882	3124.063532
877.298554	3124.434057
877.609183	3149.307110
877.919771	3168.224040
878.230317	3197.855942
878.540822	3250.036926
878.851285	3289.156280
879.161707	3339.088908
879.472087	3455.216928
879.782425	3705.240515
880.092722	4163.821678
880.402977	4711.573290
880.713191	5382.608840
881.023363	6620.433920
881.333494	7935.706247
881.643583	8449.699772
881.953631	8110.102443
882.263637	7432.261336
882.573602	6803.972249
882.883526	6214.187496
883.193408	5637.986132
883.503248	5180.030073
883.813048	4864.756311
884.122806	4533.739026
884.432522	4207.309191
884.742197	3964.333138
885.051831	3770.170577
885.361424	3640.930516
885.670975	3570.351841
885.980485	3475.850371
886.289954	3390.407855
886.599382	3349.007379
886.908768	3310.626554
887.218113	3267.559977
887.527417	3204.202755
887.836680	3157.685508
888.145901	3150.269971
888.455082	3140.036428
888.764221	3083.651123
889.073319	3058.342010
889.382376	3055.208932
889.691392	3061.470046
890.000366	3059.751012
890.309300	3045.829866
890.618193	3061.346537
890.927044	3073.926737
891.235855	3072.285841
891.544625	3060.355951
891.853353	3074.831624
892.162041	3092.873913
892.470687	3136.807569
892.779293	3187.241793
893.087858	3237.784401
893.396381	3315.680311
893.704864	3449.485137
894.013306	3701.830175
894.321707	4020.494112
894.630068	4216.786561
894.938387	4206.759706
895.246665	4163.234383
895.554903	4028.108775
895.863100	3823.581602
896.171256	3649.487874
896.479371	3503.869104
896.787446	3374.782798
897.095480	3270.214144
897.403473	3207.325750
897.711425	3172.105728
898.019336	3161.731034
898.327207	3126.097638
898.635038	3088.299066
898.942827	3073.626788
899.250576	3066.163360
899.558284	3036.476005
899.865952	3013.064886
900.173579	2991.690394
900.481165	2986.029178
900.788711	2970.154585
901.096216	2944.800102
901.403681	2937.442538
901.711105	2943.244906
902.018489	2939.794236
902.325832	2941.722477
902.633135	2951.499795
902.940397	2985.363746
903.247619	3078.849423
903.554800	3291.036630
903.861941	3662.930111
904.169041	4112.696816
904.476101	4399.881268
904.783121	4332.052543
905.090100	4066.431627
905.397039	3778.932102
905.703938	3526.019934
906.010796	3341.548992
906.317614	3225.889799
906.624391	3125.613687
906.931129	3053.497461
907.237826	2989.888182
907.544483	2942.244237
907.851099	2913.129053
908.157675	2888.535783
908.464211	2869.192876
908.770707	2856.045547
909.077163	2839.369410
909.383578	2827.308449
909.689954	2814.251861
909.996289	2817.039619
910.302584	2817.127839
910.608839	2816.522901
910.915054	2807.043011
911.221229	2801.785087
911.527363	2805.306333
911.833458	2809.624082
912.139513	2817.773107
912.445527	2820.679332
912.751502	2828.046978
913.057436	2838.358659
913.363331	2851.778210
913.669186	2878.050183
913.975000	2914.633837
914.280775	2981.456852
914.586510	3054.024261
914.892205	3137.417549
915.197859	3277.128087
915.503475	3487.613904
915.809050	3711.131103
916.114585	3853.662167
916.420081	3865.029969
916.725536	3800.477994
917.030952	3674.605423
917.336328	3539.583159
917.641665	3402.804052
917.946961	3303.289154
918.252218	3226.076322
918.557435	3144.535658
918.862612	3081.881677
919.167750	3031.056764
919.472848	2991.458501
919.777906	2963.535550
920.082925	2936.698967
920.387904	2904.410377
920.692843	2886.718448
920.997743	2876.043804
921.302603	2861.462267
921.607423	2851.362315
921.912204	2835.843123
922.216946	2823.978767
922.521647	2817.016934
922.826310	2805.974286
923.130932	2800.804583
923.435516	2790.276133
923.740059	2783.498302
924.044564	2776.722991
924.349028	2769.471291
924.653454	2763.091711
924.957840	2756.828077
925.262186	2753.614342
925.566493	2748.487488
925.870761	2741.487846
926.174989	2739.788977
926.479178	2733.646332
926.783328	2728.703480
927.087438	2726.480331
927.391509	2726.997050
927.695541	2719.400031
927.999533	2719.029506
928.303486	2718.298539
928.607400	2715.677139
928.911275	2716.634958
929.215110	2713.723692
929.518906	2711.601366
929.822663	2710.220090
930.126381	2713.186809
930.430060	2713.459031
930.733699	2714.399206
931.037299	2715.639330
931.340861	2716.486244
931.644383	2716.478682
931.947866	2714.784854
932.251309	2714.610935
932.554714	2716.183775
932.858080	2711.760162
933.161407	2711.803012
933.464694	2708.097764
933.767943	2704.614327
934.071153	2709.161447
934.374323	2706.945860
934.677455	2706.202290
934.980548	2706.189687
935.283602	2704.566436
935.586617	2703.948894
935.889593	2703.795139
936.192530	2702.020653
936.495428	2704.868905
936.798287	2705.751107
937.101108	2710.862837
937.403890	2713.844679
937.706632	2718.706872
938.009336	2726.898747
938.312002	2732.837226
938.614628	2742.586818
938.917216	2754.778848
939.219765	2750.733322
939.522275	2750.171234
939.824747	2745.760224
940.127179	2744.893146
940.429573	2742.601941
940.731929	2737.412073
941.034246	2737.505335
941.336524	2733.933677
941.638763	2730.659448
941.940964	2727.607029
942.243126	2724.572255
942.545250	2724.234497
942.847335	2723.795917
943.149381	2716.206460
943.451389	2714.842828
943.753359	2710.880481
944.055290	2711.311499
944.357182	2710.149513
944.659036	2706.822352
944.960851	2708.755634
945.262628	2706.509800
945.564367	2706.260263
945.866067	2707.830583
946.167729	2709.768906
946.469352	2709.105995
946.770937	2709.562219
947.072484	2705.826724
947.373992	2705.481405
947.675462	2703.769933
947.976893	2700.029397
948.278286	2699.041331
948.579641	2697.846577
948.880958	2696.508151
949.182236	2698.154088
949.483476	2696.896320
949.784678	2699.666434
950.085841	2700.767926
950.386967	2698.640559
950.688054	2699.583255
950.989103	2700.359593
951.290114	2703.101980
951.591087	2706.570294
951.892021	2707.623895
952.192917	2709.587425
952.493776	2710.711602
952.794596	2709.899976
953.095378	2710.691437
953.396122	2708.881663
953.696828	2706.696323
953.997496	2708.652291
954.298126	2702.809593
954.598718	2699.270703
954.899272	2699.167360
955.199788	2697.309695
955.500266	2696.092256
955.800706	2689.753005
956.101108	2690.713345
956.401472	2687.955834
956.701798	2686.992973
957.002087	2682.861748
957.302337	2685.586491
957.602550	2681.329237
957.902724	2682.155986
958.202861	2680.502488
958.502960	2679.161541
958.803022	2676.895542
959.103045	2677.016530
959.403031	2674.153154
959.702979	2674.377486
960.002889	2673.843123
960.302762	2674.163237
960.602596	2671.768689
960.902393	2674.788340
961.202153	2673.888494
961.501875	2672.166940
961.801559	2671.125942
962.101205	2669.273317
962.400814	2674.707681
962.700385	2671.970335
962.999918	2667.939932
963.299414	2666.979592
963.598873	2669.147289
963.898293	2663.599499
964.197677	2671.274656
964.497022	2668.081085
964.796331	2671.299861
965.095601	2667.077895
965.394835	2670.669717
965.694030	2669.101918
965.993189	2669.706857
966.292309	2669.853050
966.591393	2665.981444
966.890439	2669.769871
967.189447	2667.766013
967.488419	2666.954387
967.787353	2667.866836
968.086249	2668.464212
968.385108	2667.493790
968.683930	2669.777433
968.982714	2668.020591
969.281462	2669.268276
969.580172	2669.273317
969.878844	2668.781805
970.177480	2665.898265
970.476078	2668.933040
970.774639	2670.243740
971.073162	2669.863132
971.371649	2670.760458
971.670098	2669.036383
971.968510	2670.135355
972.266885	2671.357835
972.565223	2669.379182
972.863524	2669.270797
973.161788	2668.328101
973.460014	2667.871877
973.758204	2669.905982
974.056356	2668.423883
974.354471	2666.142761
974.652550	2669.777433
974.950591	2672.008143
975.248595	2669.543019
975.546563	2666.745179
975.844493	2667.889521
976.142386	2665.126968
976.440243	2666.810714
976.738062	2667.065292
977.035845	2671.335149
977.333590	2668.998575
977.631299	2668.597803
977.928971	2666.677123
978.226606	2663.213851
978.524204	2663.186124
978.821765	2662.533295
979.119290	2667.365241
979.416777	2666.873728
979.714228	2664.194355
980.011642	2665.757113
980.309020	2667.445899
980.606360	2667.350117
980.903664	2666.397339
981.200931	2667.271979
981.498162	2667.259377
981.795356	2670.730211
982.092513	2669.706857
982.389633	2673.379337
982.686717	2677.281190
982.983764	2678.198680
983.280775	2684.240503
983.577749	2687.376101
983.874686	2685.377283
984.171587	2683.128929
984.468451	2678.682631
984.765279	2675.715912
985.062070	2674.637105
985.358824	2673.727177
985.655543	2671.330108
985.952224	2669.374141
986.248869	2670.306754
986.545478	2667.430776
986.842050	2667.760971
987.138586	2667.012360
987.435086	2666.175528
987.731549	2665.321053
988.027975	2665.515137
988.324366	2664.262411
988.620719	2664.421207
988.917037	2664.854746
989.213318	2664.332987
989.509563	2663.970024
989.805772	2664.242246
990.101944	2665.134530
990.398080	2661.638490
990.694180	2664.363234
990.990244	2663.148316
991.286271	2662.578665
991.582262	2662.835764
991.878217	2663.382729
992.174136	2663.715445
992.470019	2662.949190
992.765865	2659.770742
993.061676	2660.879796
993.357450	2660.327790
993.653188	2658.853252
993.948890	2664.285096
994.244556	2663.680157
994.540186	2662.833243
994.835780	2664.922802
995.131337	2665.961279
995.426859	2664.532112
995.722345	2664.960610
996.017795	2666.712411
996.313208	2667.781136
996.608586	2667.713080
996.903928	2668.950684
997.199234	2669.769871
997.494504	2668.580159
997.789738	2667.997906
998.084936	2667.859274
998.380099	2667.060251
998.675225	2665.845333
998.970316	2664.690909
999.265371	2666.127637
999.560390	2664.171670
999.855373	2664.401042
1000.150320	2664.143943
1000.445232	2662.901299
1000.740108	2662.929025
1001.034948	2661.131854
1001.329752	2661.333500
1001.624521	2662.906340
1001.919254	2660.877276
1002.213951	2663.360044
1002.508613	2660.171514
1002.803239	2659.105310
1003.097829	2661.134375
1003.392384	2661.567914
1003.686903	2663.486073
1003.981386	2662.450116
1004.275834	2660.922646
1004.570246	2658.502892
1004.864623	2662.114879
1005.158964	2657.983653
1005.453270	2659.831236
1005.747540	2658.276040
1006.041775	2661.572955
1006.335974	2661.252842
1006.630138	2659.886689
1006.924266	2660.539518
1007.218359	2661.018428
1007.512416	2658.601195
1007.806438	2658.719662
1008.100425	2660.179076
1008.394376	2658.243273
1008.688292	2659.793428
1008.982172	2659.765701
1009.276017	2658.565907
1009.569827	2661.615805
1009.863602	2660.741165
1010.157341	2658.780156
1010.451045	2663.014725
1010.744714	2660.529436
1011.038347	2662.256031
1011.331945	2661.202430
1011.625508	2660.756288
1011.919036	2660.451298
1012.212528	2657.028355
1012.505986	2660.806700
1012.799408	2659.375012
1013.092795	2659.881648
1013.386147	2660.771412
1013.679464	2659.064981
1013.972745	2658.467604
1014.265992	2660.408448
1014.559204	2661.600681
1014.852380	2659.546411
1015.145521	2660.836947
1015.438628	2661.759478
1015.731699	2659.929539
1016.024736	2660.829385
1016.317737	2659.806031
1016.610703	2659.231339
1016.903635	2659.291833
1017.196531	2656.536842
1017.489393	2658.046668
1017.782219	2659.130516
1018.075011	2659.717810
1018.367768	2659.944662
1018.660490	2659.380053
1018.953177	2659.380053
1019.245829	2659.380053
