Dividing Wavelength (nm)	Counts (n)	Blue Motor Position (mm): 42.000000	Red Motor Position (mm): 0.000000	
326.493990	2093.702098
326.888308	2093.702098
327.282561	2093.702098
327.676750	2072.675445
328.070874	2074.533110
328.464933	2080.093503
328.858929	2087.047775
329.252859	2102.592173
329.646726	2114.723709
330.040528	2132.123252
330.434265	2152.366005
330.827938	2173.737977
331.221547	2190.698939
331.615091	2212.877495
332.008571	2233.757954
332.401986	2254.240163
332.795338	2273.777154
333.188625	2292.585699
333.581847	2311.628658
333.975006	2329.582727
334.368100	2349.205419
334.761129	2364.618747
335.154095	2381.771273
335.546996	2427.595361
335.939833	2513.872188
336.332606	2528.703263
336.725315	2537.474871
337.117960	2544.850079
337.510540	2554.574465
337.903056	2565.785991
338.295508	2572.165571
338.687896	2578.890470
339.080220	2583.876171
339.472480	2588.241811
339.864676	2590.349013
340.256807	2597.820003
340.648875	2595.987543
341.040879	2597.557863
341.432818	2601.106835
341.824694	2600.169181
342.216506	2600.509458
342.608253	2599.279417
342.999937	2598.011567
343.391557	2600.360744
343.783113	2595.753130
344.174605	2593.083839
344.566033	2590.800196
344.957397	2593.383787
345.348697	2588.967737
345.739934	2586.737026
346.131106	2587.916656
346.522215	2584.725606
346.913260	2583.714854
347.304241	2581.592529
347.695159	2582.520101
348.086012	2580.743094
348.476802	2579.180337
348.867528	2576.952147
349.258191	2578.114132
349.648789	2575.762434
350.039324	2574.340829
350.429796	2574.358473
350.820203	2570.910324
351.210548	2574.076168
351.600828	2572.843606
351.991045	2570.743966
352.381198	2569.246743
352.771288	2567.936043
353.161314	2567.714232
353.551276	2567.046279
353.941175	2567.144582
354.331010	2570.998544
354.720782	2573.924934
355.110490	2575.764955
355.500135	2572.100036
355.889717	2571.837896
356.279235	2570.552402
356.668689	2571.444686
357.058080	2574.303020
357.447408	2570.189439
357.836672	2570.965776
358.225873	2571.422001
358.615010	2569.536609
359.004084	2579.003896
359.393095	2578.144379
359.782043	2577.287383
360.170927	2574.005592
360.559748	2574.315623
360.948505	2578.156982
361.337199	2579.646643
361.725830	2581.660584
362.114398	2579.994483
362.502903	2581.973136
362.891344	2580.977508
363.279722	2580.659915
363.668037	2584.085379
364.056289	2584.944896
364.444478	2586.686615
364.832603	2586.868096
365.220665	2587.987232
365.608665	2588.304825
365.996601	2585.910277
366.384474	2588.556883
366.772284	2588.191399
367.160031	2590.641400
367.547715	2592.012594
367.935336	2591.296750
368.322893	2590.490165
368.710388	2592.985536
369.097820	2594.084508
369.485189	2593.963520
369.872495	2595.473346
370.259738	2596.572317
370.646918	2594.024014
371.034035	2598.026690
371.421090	2597.240270
371.808081	2595.720362
372.195010	2602.006681
372.581875	2600.791763
372.968678	2597.562904
373.355418	2599.133223
373.742096	2600.275045
374.128710	2604.033225
374.515262	2604.703698
374.901751	2606.911724
375.288177	2604.454161
375.674540	2606.364759
376.060841	2609.570932
376.447079	2605.187649
376.833254	2610.843824
377.219367	2606.256374
377.605417	2608.313165
377.991404	2608.998762
378.377329	2609.671756
378.763191	2609.989348
379.148991	2613.974380
379.534727	2617.712396
379.920402	2616.971346
380.306013	2619.824639
380.691563	2616.109309
381.077049	2619.572582
381.462474	2622.819085
381.847835	2622.690535
382.233134	2624.452419
382.618371	2623.101389
383.003545	2627.217492
383.388657	2631.953656
383.773706	2629.826289
384.158693	2631.288223
384.543618	2636.974645
384.928480	2637.181332
385.313280	2641.733494
385.698017	2644.002013
386.082692	2652.574495
386.467305	2652.478713
386.851856	2658.192861
387.236344	2666.097391
387.620770	2675.405881
388.005133	2682.050122
388.389435	2696.205682
388.773674	2707.873432
389.157851	2723.740464
389.541965	2743.143865
389.926018	2759.699015
390.310008	2784.055349
390.693936	2808.693989
391.077802	2838.436797
391.461606	2871.547095
391.845348	2908.891963
392.229027	2951.056173
392.612645	3006.224041
392.996200	3058.014335
393.379694	3120.196967
393.763125	3191.312525
394.146494	3253.858120
394.529801	3324.295643
394.913047	3416.967174
395.296230	3473.481029
395.679351	3542.491904
396.062410	3653.243534
396.445408	3702.135164
396.828343	3803.608550
397.211217	3905.802821
397.594028	3955.168320
397.976778	4084.942743
398.359466	4210.112073
398.742092	4290.266419
399.124656	4421.172582
399.507158	4570.637752
399.889598	4668.368081
400.271977	4838.519626
400.654294	4950.312254
401.036549	5125.494871
401.418742	5233.307507
401.800874	5457.064162
402.182944	5604.122181
402.564952	5878.111413
402.946898	5913.200365
403.328783	6045.757505
403.710606	6256.434886
404.092367	6505.992166
404.474067	6810.757643
404.855705	6823.042934
405.237282	6910.978302
405.618797	7279.292563
406.000250	7545.374746
406.381642	7888.037096
406.762972	7997.624219
407.144240	7983.662743
407.525447	8269.292000
407.906593	8350.956171
408.287677	8644.308475
408.668700	8866.265438
409.049661	8973.435328
409.430560	9203.770688
409.811399	9300.636459
410.192176	9524.529225
410.572891	9690.110964
410.953545	10167.432616
411.334138	9874.549139
411.714669	10442.261200
412.095139	10008.192648
412.475547	10497.076187
412.855894	10472.195572
413.236180	10830.281332
413.616405	10665.337299
413.996568	10980.742131
414.376670	11047.870135
414.756711	11021.739314
415.136691	11340.657830
415.516609	11563.534803
415.896466	11702.365660
416.276262	12028.200639
416.655997	12503.248730
417.035670	12607.567847
417.415283	13265.672838
417.794834	13398.091347
418.174324	13211.387173
418.553753	13181.901464
418.933121	13689.278475
419.312428	13572.510228
419.691674	13535.535886
420.070859	14014.846273
420.449983	13713.697824
420.829045	14286.241831
421.208047	14088.694135
421.586988	14556.137646
421.965867	14818.353264
422.344686	14853.568244
422.723444	15433.142140
423.102141	14184.579402
423.480777	15372.789446
423.859352	14894.305808
424.237866	15998.736916
424.616319	15739.868625
424.994712	16383.666821
425.373044	16201.701332
425.751314	16886.736166
426.129524	16039.819799
426.507673	17117.086650
426.885762	16857.283225
427.263789	17034.562962
427.641756	17231.107468
428.019662	17297.128939
428.397508	17350.759254
428.775292	17653.823341
429.153016	17634.084703
429.530679	17715.945480
429.908282	17749.264986
430.285824	17481.892269
430.663305	18191.492646
431.040726	17810.905695
431.418086	17652.396695
431.795385	18303.035736
432.172624	18731.533813
432.549802	18296.673800
432.926920	18509.828908
433.303977	18385.650166
433.680974	18646.882758
434.057910	18957.092680
434.434786	18998.092385
434.811601	18934.137786
435.188355	19970.220931
435.565050	19650.289143
435.941683	19604.276011
436.318257	20507.721357
436.694770	20307.905142
437.071222	20896.399359
437.447614	19970.016764
437.823946	19990.206585
438.200218	20177.059473
438.576429	19940.778072
438.952580	20256.051833
439.328670	20234.841178
439.704700	20649.733181
440.080670	20219.652182
440.456580	20832.449802
440.832429	21003.506234
441.208218	20011.928917
441.583947	20458.640683
441.959616	20575.056048
442.335224	20826.203812
442.710773	20964.724638
443.086261	21514.964060
443.461689	20859.717403
443.837057	21019.678256
444.212365	21669.518275
444.587612	21676.228051
444.962800	21274.473295
445.337927	21706.008667
445.712995	20423.251783
446.088002	22315.726142
446.462949	22531.837887
446.837837	22714.879663
447.212664	22750.445003
447.587431	25751.695945
447.962139	28725.782630
448.336786	31001.616575
448.711374	29256.109494
449.085901	25546.339502
449.460369	25567.666104
449.834776	25600.045435
450.209124	28171.164966
450.583412	27637.311815
450.957640	28081.744979
451.331808	26741.839055
451.705917	25373.891712
452.079965	25426.072695
452.453954	25809.399513
452.827883	25727.851288
453.201752	25517.932600
453.575562	25687.292684
453.949311	26822.464749
454.323001	26908.295434
454.696632	26690.734357
455.070202	28299.878227
455.443713	28486.935282
455.817164	29076.767926
456.190556	29624.827048
456.563888	29027.460400
456.937160	29448.016139
457.310373	27739.007012
457.683526	28182.600824
458.056619	28194.868472
458.429653	28180.062603
458.802628	28799.512026
459.175542	28951.154975
459.548398	30322.598358
459.921194	31963.423359
460.293930	32730.757550
460.666607	34830.806461
461.039224	36605.093489
461.411782	36914.973216
461.784280	35633.728678
462.156719	35049.859719
462.529099	34480.310157
462.901419	33146.740963
463.273680	32103.587600
463.645882	32247.996493
464.018024	32262.835130
464.390106	33227.054105
464.762130	36185.465322
465.134094	40586.740469
465.505999	46096.845132
465.877845	50586.453897
466.249631	51509.494207
466.621358	49592.335838
466.993026	47357.678038
467.364634	45215.250667
467.736184	43235.592073
468.107674	41993.227434
468.479105	41192.450227
468.850477	40478.075878
469.221790	38997.143674
469.593043	37242.141580
469.964238	36339.472572
470.335373	36281.111134
470.706449	38196.305974
471.077467	41038.586650
471.448425	45711.494290
471.819324	48392.188342
472.190164	46332.393045
472.560945	42700.584497
472.931667	39556.754601
473.302330	38469.889393
473.672934	37632.704974
474.043479	38182.722585
474.413965	37385.227170
474.784393	37014.354523
475.154761	37960.193451
475.525070	38001.271293
475.895321	37521.413941
476.265513	38148.228490
476.635645	39160.620732
477.005719	39013.086323
477.375734	39529.678563
477.745691	40258.745356
478.115588	41650.313026
478.485427	43813.308303
478.855207	47325.601176
479.224928	49962.984154
479.594591	51464.078452
479.964194	50339.336536
480.333739	50460.377160
480.703226	50561.966492
481.072653	51221.596432
481.442022	51697.670398
481.811333	51881.949777
482.180584	50591.830288
482.549777	50077.050342
482.918912	49548.813036
483.287988	49238.277959
483.657005	48389.415707
484.025964	47715.131133
484.394864	47709.011173
484.763706	47266.760828
485.132489	46387.008906
485.501213	46239.688746
485.869879	46396.400575
486.238487	45979.192163
486.607036	46181.491146
486.975527	45608.624505
487.343959	45847.313057
487.712333	45901.593681
488.080648	45796.369677
488.448905	46252.563853
488.817104	46069.222129
489.185244	47081.934484
489.553326	48909.947609
489.921350	51678.816483
490.289315	54465.810825
490.657222	54975.668084
491.025070	55182.642737
491.392861	54238.341361
491.760593	52969.659378
492.128267	51265.552773
492.495883	49717.590867
492.863440	48285.240263
493.230939	46922.218127
493.598380	45826.369584
493.965763	45490.323748
494.333088	44663.662737
494.700354	44158.629862
495.067563	43876.216862
495.434713	43724.586516
495.801805	43794.139316
496.168839	43410.401644
496.535815	43051.158939
496.902733	43090.119496
497.269593	42645.777073
497.636395	42585.293309
498.003139	42990.894465
498.369825	42427.593414
498.736453	42728.641039
499.103023	42241.963006
499.469535	42127.871612
499.835989	42212.492420
500.202385	41872.390976
500.568723	41896.631364
500.935003	42090.400715
501.301226	41888.709191
501.667390	42503.001513
502.033497	42740.727205
502.399546	42166.517097
502.765537	41450.080915
503.131470	41827.522186
503.497345	42194.225799
503.863163	40843.715807
504.228923	41483.874290
504.594625	41897.009451
504.960269	41140.284368
505.325856	41858.527803
505.691385	41197.007431
506.056856	41337.335510
506.422270	41788.612040
506.787625	41339.425068
507.152924	41554.571432
507.518164	41644.588795
507.883347	40837.817657
508.248472	41073.380694
508.613540	41568.762280
508.978550	41865.804708
509.343503	41630.987762
509.708398	41824.709222
510.073236	42346.768594
510.438016	42352.013915
510.802738	41806.692138
511.167403	42449.419089
511.532010	42650.891323
511.896561	42956.125627
512.261053	43821.164942
512.625488	43370.594173
512.989866	43237.933689
513.354186	43074.275150
513.718449	43067.739294
514.082655	43735.848454
514.446803	43412.617231
514.810894	43953.810302
515.174927	43854.804561
515.538904	43752.832101
515.902822	44422.332620
516.266684	43865.764030
516.630488	44297.130523
516.994235	44138.568591
517.357925	44716.239451
517.721558	44893.579682
518.085133	45202.138626
518.448651	45325.130177
518.812112	45097.607781
519.175516	45204.618874
519.538863	45532.414862
519.902152	45485.660680
520.265385	45949.766948
520.628560	45972.295864
520.991678	45778.423169
521.354739	46003.540936
521.717743	46316.329408
522.080690	46204.020062
522.443580	46742.737927
522.806413	46768.389838
523.169189	46735.992863
523.531908	46913.433917
523.894569	46758.806605
524.257174	46934.437884
524.619722	47220.624188
524.982213	47193.752318
525.344647	47120.882439
525.707025	47161.390630
526.069345	47567.911797
526.431608	47475.746902
526.793815	47808.974733
527.155964	47329.790375
527.518057	47484.969693
527.880093	47271.887682
528.242072	47789.543605
528.603995	47497.338164
528.965860	47484.001791
529.327669	47578.783045
529.689421	47479.522726
530.051117	47445.336141
530.412755	47592.401723
530.774337	47649.817944
531.135862	47445.494938
531.497331	47644.728899
531.858743	47537.047333
532.220098	47890.916168
532.581396	47588.197400
532.942638	47226.996207
533.303824	47557.330415
533.664953	47543.651244
534.026025	47244.478928
534.387040	47714.064929
534.747999	47660.159871
535.108902	47813.904981
535.469748	47317.275710
535.830537	47425.700847
536.191270	47617.932646
536.551947	47273.679812
536.912567	47589.104808
537.273131	47706.218373
537.633638	47189.207717
537.994089	47526.758338
538.354483	47119.833879
538.714821	47694.795119
539.075103	48044.512564
539.435328	47798.068197
539.795497	47664.739760
540.155609	47663.857558
540.515665	48138.991349
540.875665	47572.174093
541.235609	47897.245337
541.595496	47864.457672
541.955328	48545.474707
542.315102	47889.287875
542.674821	47659.630550
543.034483	47709.447233
543.394090	47697.023309
543.753640	47648.366092
544.113134	48646.249893
544.472571	47637.401582
544.831953	48890.813910
545.191278	48064.412519
545.550548	47796.361766
545.909761	48263.273435
546.268918	48453.733269
546.628019	48771.141959
546.987064	48312.051640
547.346053	47568.788958
547.704986	48452.077250
548.063863	48006.401441
548.422684	48182.037762
548.781449	48014.177421
549.140158	48413.025951
549.498811	48251.436806
549.857408	47672.397272
550.215949	48523.553249
550.574434	48444.419737
550.932864	48195.389257
551.291237	48903.860416
551.649555	48512.790386
552.007817	48752.817365
552.366022	48390.650790
552.724173	48549.351354
553.082267	48938.924162
553.440305	49212.058918
553.798288	48509.795941
554.156215	48833.090178
554.514086	49025.702584
554.871902	48755.494217
555.229661	48775.240417
555.587365	48600.236761
555.945014	48686.874031
556.302606	48609.575499
556.660143	48836.510601
557.017625	48886.453312
557.375050	48695.532213
557.732421	49031.144510
558.089735	48984.105503
558.446994	48902.753883
558.804197	49371.687055
559.161345	49263.463564
559.518437	48520.982261
559.875474	48833.301906
560.232455	48988.612295
560.589381	49154.040279
560.946251	48841.740798
561.303065	49513.010762
561.659825	49284.883427
562.016528	48969.435745
562.373177	48685.714566
562.729770	49150.415689
563.086307	48653.010080
563.442789	49100.830900
563.799216	49147.045678
564.155587	48922.484959
564.511904	48933.653635
564.868164	49020.094300
565.224370	49252.047871
565.580520	48979.563423
565.936615	49177.595070
566.292654	48870.568636
566.648638	49138.342126
567.004567	49082.108054
567.360441	49131.987751
567.716260	48986.787397
568.072023	49260.181773
568.427732	49208.225121
568.783385	48753.155122
569.138982	49141.220624
569.494525	49074.881560
569.850013	48824.338735
570.205445	48802.969284
570.560823	48737.023430
570.916145	48613.507599
571.271412	48648.977157
571.626625	48380.611332
571.981782	48400.954908
572.336884	48091.077702
572.691931	48393.292355
573.046923	48001.758538
573.401860	47816.423038
573.756743	47792.059141
574.111570	47872.989825
574.466342	47713.470073
574.821059	47822.495107
575.175722	47327.743666
575.530330	47332.822629
575.884882	47047.359730
576.239380	46983.281624
576.593823	46956.392109
576.948211	46877.976961
577.302544	46379.351393
577.656823	46386.865233
578.011047	46619.269987
578.365216	46352.940788
578.719330	46102.854187
579.073389	45950.213090
579.427394	46028.197219
579.781344	45979.550084
580.135239	45627.538914
580.489080	45681.728797
580.842866	45161.350651
581.196597	45597.723010
581.550273	45550.560495
581.903895	45408.709987
582.257463	45819.120404
582.610975	45181.036356
582.964434	45465.853987
583.317837	45093.620228
583.671186	44903.838430
584.024481	45128.994005
584.377721	44630.607891
584.730906	44911.281693
585.084037	44929.999498
585.437113	44651.478268
585.790135	44650.311241
586.143103	44242.265125
586.496016	44352.401734
586.848874	44371.933685
587.201679	44386.283329
587.554428	43850.146535
587.907124	44041.193663
588.259765	43775.217345
588.612352	44024.865366
588.964884	43385.276533
589.317362	43685.134446
589.669786	43611.032005
590.022155	43372.469482
590.374470	43766.619657
590.726731	43306.705109
591.078937	42787.244453
591.431090	42876.581260
591.783188	42530.899259
592.135232	42221.818555
592.487222	42447.647124
592.839157	42531.075699
593.191038	42197.033722
593.542866	41936.915225
593.894639	41332.254027
594.246358	41617.074178
594.598022	41590.885383
594.949633	41188.397140
595.301190	41133.304890
595.652692	40950.048865
596.004141	41271.863524
596.355535	40292.458073
596.706876	40230.275440
597.058162	40070.440616
597.409395	40516.938133
597.760573	40597.941913
598.111698	40184.433707
598.462768	40187.208863
598.813785	40224.684800
599.164748	39673.681644
599.515657	40039.936594
599.866511	39554.440711
600.217312	40140.815124
600.568060	39112.225655
600.918753	39870.810924
601.269392	39808.915637
601.619978	39465.056012
601.970510	39668.653093
602.320988	39841.292447
602.671412	40152.586218
603.021783	39895.479810
603.372100	39545.250688
603.722363	39642.373558
604.072572	39702.033093
604.422728	39719.818284
604.772830	39526.966423
605.122878	39636.135130
605.472872	39571.005943
605.822813	39836.495789
606.172701	39657.958285
606.522534	39924.647926
606.872314	40156.896404
607.222041	39928.640520
607.571714	40309.482049
607.921333	39754.776165
608.270899	40036.185976
608.620411	40390.740408
608.969870	40183.622082
609.319276	40178.631339
609.668627	40229.065563
610.017926	40706.775384
610.367171	40854.788702
610.716362	40934.380959
611.065500	40875.822916
611.414585	41075.450088
611.763616	41355.758406
612.112594	41290.616616
612.461518	41506.415810
612.810389	41817.601195
613.159207	41689.518079
613.507971	41761.863678
613.856682	42229.024884
614.205340	42112.720424
614.553945	42805.863954
614.902496	42266.639454
615.250994	42741.299376
615.599439	42784.980974
615.947830	43000.238244
616.296169	43071.275663
616.644454	43177.447404
616.992686	43355.427861
617.340864	43871.387437
617.688990	43589.539046
618.037063	44193.307960
618.385082	44154.425540
618.733048	44450.749604
619.080961	44455.127847
619.428821	44485.105068
619.776628	44578.457155
620.124382	44412.028502
620.472083	44522.424730
620.819731	44648.617413
621.167326	44313.942771
621.514868	44298.211851
621.862357	43840.170092
622.209793	43864.231519
622.557176	43515.313097
622.904506	43265.695323
623.251783	42917.800255
623.599007	42685.340048
623.946179	42472.888181
624.293297	42427.754731
624.640363	41831.822290
624.987376	41812.156749
625.334336	41562.158368
625.681243	41235.272309
626.028097	41185.720287
626.374899	41037.921218
626.721647	41036.280322
627.068343	40921.510893
627.414987	40688.367610
627.761577	40465.430143
628.108115	40791.197067
628.454600	40233.738713
628.801032	40453.041508
629.147412	40395.433722
629.493739	40403.308004
629.840014	40046.522862
630.186236	40389.888453
630.532405	39988.952885
630.878521	40198.851407
631.224585	40078.647614
631.570597	39781.645515
631.916556	39944.212644
632.262462	39890.413450
632.608316	39907.606306
632.954117	39804.340790
633.299866	39793.315786
633.645562	39718.527748
633.991206	39213.822549
634.336797	38777.798029
634.682336	38762.311604
635.027823	38526.993063
635.373257	38326.234153
635.718639	38098.419369
636.063968	37952.309087
636.409245	37380.017138
636.754470	37439.588452
637.099642	37181.317538
637.444762	36714.748667
637.789829	36871.755404
638.134845	36520.298761
638.479808	36455.955993
638.824719	36364.307817
639.169577	35987.436196
639.514383	36052.598151
639.859137	35756.669817
640.203839	35991.617833
640.548489	35622.013036
640.893086	35690.749169
641.237632	35442.835305
641.582125	35573.776756
641.926566	35485.738045
642.270955	35456.280062
642.615292	35479.058516
642.959576	35450.737314
643.303809	35454.810566
643.647990	35616.298888
643.992118	35572.859266
644.336195	35558.295372
644.680219	35655.287172
645.024192	35958.956198
645.368112	36477.837122
645.711981	36487.732907
646.055797	37370.456589
646.399562	37291.678478
646.743274	38247.382945
647.086935	38686.706900
647.430544	38564.779032
647.774101	38679.949233
648.117606	38920.868496
648.461059	39203.619253
648.804460	38797.488776
649.147810	38166.653907
649.491108	37915.548993
649.834354	37542.914462
650.177548	36714.698256
650.520690	36271.550586
650.863781	36289.918030
651.206820	36131.507332
651.549807	35708.887240
651.892742	35224.820525
652.235626	35041.917381
652.578458	34901.339765
652.921238	34301.336593
653.263967	34625.926407
653.606644	34316.281093
653.949269	34248.654014
654.291843	33840.060933
654.634365	34249.483284
654.976836	33857.757904
655.319255	33863.119171
655.661622	33851.131307
656.003938	33631.125271
656.346203	33518.430277
656.688416	33725.634303
657.030577	33523.794065
657.372687	33372.607340
657.714746	33607.404122
658.056753	33744.841099
658.398708	33185.555327
658.740612	33250.654267
659.082465	33528.346227
659.424266	33362.792214
659.766016	33483.515245
660.107715	33359.618807
660.449362	33470.498986
660.790958	33444.012764
661.132503	33456.567758
661.473996	33503.495859
661.815438	33613.415698
662.156829	33805.309739
662.498168	33577.925975
662.839456	33587.962912
663.180693	33753.761421
663.521879	33918.423149
663.863013	33884.256729
664.204097	33857.984756
664.545129	34319.968697
664.886110	34274.313488
665.227040	34360.071076
665.567918	34479.367461
665.908746	34540.272162
666.249522	34701.425247
666.590248	34700.462387
666.930922	34802.880989
667.271545	34756.588073
667.612118	34836.213098
667.952639	34611.022235
668.293109	34666.311090
668.633528	34556.819749
668.973896	34479.659848
669.314213	34522.033267
669.654480	34258.879995
669.994695	34285.111639
670.334859	34169.873383
670.674973	34072.727828
671.015035	34219.601845
671.355047	34161.994059
671.695008	34109.160246
672.034918	34018.676576
672.374777	34113.173005
672.714585	33948.861636
673.054342	34169.044113
673.394049	33924.124694
673.733705	34212.307295
674.073310	33858.148593
674.412864	33924.102009
674.752368	33548.437745
675.091820	33845.689382
675.431223	33404.301074
675.770574	33129.671616
676.109875	32971.371823
676.449125	32698.436192
676.788324	32623.670840
677.127473	32090.173090
677.466571	32001.395850
677.805619	31664.692143
678.144616	31662.521927
678.483562	31576.638309
678.822458	31251.176376
679.161303	31181.926045
679.500098	31106.409561
679.838842	30996.877891
680.177535	31153.287250
680.516179	31444.091251
680.854771	31699.440817
681.193314	32586.693976
681.531805	33728.538007
681.870247	34496.613249
682.208638	35202.372267
682.546978	35378.981530
682.885268	35457.033715
683.223508	34926.900935
683.561697	34584.210858
683.899836	34394.756735
684.237925	33900.378339
684.575963	33745.725822
684.913951	33287.172385
685.251889	33447.899493
685.589776	33443.296920
685.927614	33448.383444
686.265401	33598.196454
686.603137	33696.657751
686.940824	34197.529153
687.278460	34606.182728
687.616046	34719.898555
687.953582	35315.873845
688.291068	35153.712529
688.628504	35445.481911
688.965889	35361.720619
689.303224	34961.992407
689.640510	34609.356134
689.977745	33848.973693
690.314930	33030.139074
690.652065	32511.462317
690.989150	31777.399741
691.326185	30876.986649
691.663170	30166.640181
692.000105	29414.714277
692.336990	28739.771832
692.673825	28286.267112
693.010610	27772.986909
693.347345	27177.717381
693.684030	26528.840222
694.020665	26254.457780
694.357251	25583.860810
694.693786	25546.190788
695.030272	25312.034233
695.366707	24774.453149
695.703093	24478.290402
696.039429	24475.669002
696.375716	24216.979671
696.711952	24194.982597
697.048139	24029.612586
697.384276	23848.945194
697.720363	23985.540298
698.056400	23778.212764
698.392388	23561.458272
698.728326	23523.269011
699.064214	23308.687257
699.400053	23248.962186
699.735842	22880.821844
700.071581	22602.797169
700.407270	22307.125934
700.742910	22127.512143
701.078501	21858.367460
701.414042	21583.904359
701.749533	21282.733225
702.084974	20927.798186
702.420366	21125.484513
702.755709	20693.714728
703.091002	20398.098946
703.426246	20411.750390
703.761440	20314.370421
704.096584	20045.487878
704.431679	19994.673047
704.766725	19909.311189
705.101721	19850.604432
705.436668	19952.798703
705.771565	19622.792169
706.106413	19975.388113
706.441212	19958.575865
706.775961	20102.125242
707.110661	20163.755868
707.445311	20519.036226
707.779913	20369.273628
708.114465	20607.944536
708.448967	20901.957231
708.783421	21599.627718
709.117825	21863.602698
709.452180	22084.697623
709.786485	22503.854442
710.120742	23310.023162
710.454949	23327.526048
710.789107	23789.479743
711.123216	24492.428317
711.457275	24595.797177
711.791286	25118.650531
712.125247	25194.938312
712.459159	24873.237079
712.793023	25517.693146
713.126837	24400.333998
713.460602	24658.667927
713.794318	24269.823567
714.127985	23880.485173
714.461602	22970.597233
714.795171	22928.599380
715.128691	21908.020304
715.462162	21369.841843
715.795584	20940.837130
716.128957	20685.911022
716.462281	20296.721342
716.795556	20053.382325
717.128782	19550.134019
717.461960	19016.474952
717.795088	18928.350542
718.128167	18532.632568
718.461198	18074.540397
718.794180	17934.744160
719.127113	17571.072801
719.459997	17376.549797
719.792833	17017.987648
720.125619	16992.837331
720.458357	16679.078436
720.791046	16498.443812
721.123686	16339.138309
721.456278	16113.448372
721.788821	16076.602578
722.121315	15822.760318
722.453761	15901.157822
722.786158	15822.460369
723.118506	15833.528222
723.450805	15693.719382
723.783056	15854.438928
724.115259	15750.989410
724.447412	15690.551017
724.779518	15933.332986
725.111574	15951.372755
725.443582	16156.162068
725.775542	16147.617313
726.107453	16611.635360
726.439315	16509.042838
726.771129	16900.521201
727.102895	17259.844565
727.434612	17472.508161
727.766281	17588.396726
728.097901	17843.055654
728.429473	17876.710397
728.760996	17854.882201
729.092471	17948.980378
729.423897	17816.292168
729.755276	17681.426179
730.086606	17814.618505
730.417887	18345.257920
730.749120	18857.539974
731.080305	19016.560652
731.411442	19340.608542
731.742530	19419.575696
732.073570	19500.700464
732.404562	19778.984759
732.735506	19588.809751
733.066401	19284.036713
733.397249	18742.619311
733.728048	18107.012990
734.058798	17281.400539
734.389501	16592.284891
734.720156	16137.666075
735.050762	15623.700276
735.381320	15280.816115
735.711831	15040.360638
736.042293	14700.337332
736.372707	14722.362133
736.703073	14506.086550
737.033391	14715.208735
737.363661	14682.668087
737.693883	14776.950267
738.024056	14960.176045
738.354182	15141.876873
738.684260	15419.790644
739.014290	15638.412883
739.344272	15828.025803
739.674207	16102.229284
740.004093	16211.536623
740.333931	16196.541711
740.663722	16227.423819
740.993464	16209.794904
741.323159	16030.917122
741.652806	15755.869247
741.982405	15529.818868
742.311956	15189.755232
742.641460	15082.202215
742.970915	14772.246871
743.300323	14443.525831
743.629683	14228.848295
743.958996	13956.275627
744.288260	13682.851004
744.617477	13391.058937
744.946647	13322.622753
745.275768	13048.837687
745.604842	12863.204759
745.933869	12692.619674
746.262847	12646.052016
746.591778	12572.599884
746.920662	12476.454998
747.249498	12478.841984
747.578286	12591.272318
747.907027	12748.495824
748.235720	12964.050521
748.564365	12989.936846
748.892963	12888.556722
749.221514	12940.278960
749.550017	12790.198769
749.878473	12753.617636
750.206881	12534.766024
750.535242	12440.163731
750.863555	12360.906710
751.191821	12253.315884
751.520039	12278.304884
751.848210	12189.782222
752.176334	12221.012170
752.504411	12126.714867
752.832440	11965.476082
753.160421	12025.057479
753.488356	11910.192268
753.816243	11823.832262
754.144082	11675.639983
754.471875	11614.475663
754.799620	11569.967316
755.127318	11534.074300
755.454969	11497.397386
755.782572	11449.433327
756.110129	11455.661673
756.437638	11377.070084
756.765100	11373.984898
757.092515	11384.772968
757.419882	11391.250850
757.747203	11399.498178
758.074477	11470.081893
758.401703	11432.633682
758.728882	11593.224679
759.056014	11634.264712
759.383099	11748.121693
759.710138	11848.750685
760.037129	11930.399733
760.364073	11943.128647
760.690970	11935.531628
761.017820	11933.391658
761.344623	12129.913479
761.671379	12461.628964
761.998088	13126.874749
762.324751	14755.522843
762.651366	17685.610337
762.977935	21291.736726
763.304456	23376.004304
763.630931	23710.194996
763.957359	22469.065439
764.283740	20561.681867
764.610074	18694.952680
764.936362	16595.312103
765.262602	15100.899854
765.588796	13648.727433
765.914943	12645.058908
766.241044	11810.483286
766.567097	11187.487412
766.893104	10653.798098
767.219064	10308.148864
767.544978	9931.763715
767.870845	9627.789700
768.196665	9441.393036
768.522438	9255.029140
768.848165	9082.246113
769.173846	8915.704034
769.499479	8796.561404
769.825066	8642.196232
770.150607	8457.168242
770.476101	8397.727997
770.801548	8289.433930
771.126949	8148.790779
771.452303	8062.718118
771.777611	7900.723160
772.102872	7876.104685
772.428087	7761.100842
772.753256	7639.283880
773.078378	7555.121817
773.403453	7412.507574
773.728482	7305.955226
774.053465	7245.196719
774.378401	7151.496793
774.703291	7065.693834
775.028135	6970.088351
775.352932	6926.590755
775.677683	6844.999680
776.002388	6757.888542
776.327046	6759.363079
776.651658	6676.574730
776.976224	6599.866012
777.300743	6589.138437
777.625216	6522.010432
777.949643	6480.788917
778.274024	6487.541543
778.598359	6414.480100
778.922647	6418.384474
779.246889	6383.023300
779.571086	6391.124435
779.895236	6398.444190
780.219339	6395.553088
780.543397	6395.074179
780.867409	6442.072856
781.191374	6445.992353
781.515294	6415.160656
781.839167	6455.338652
782.162995	6423.269352
782.486776	6380.371653
782.810511	6336.672411
783.134201	6265.345126
783.457844	6251.754175
783.781441	6201.516556
784.104993	6157.363610
784.428498	6130.955526
784.751958	6111.630262
785.075372	6088.141006
785.398739	6049.573659
785.722061	6074.119037
786.045337	6079.495427
786.368568	6191.777047
786.691752	6217.123968
787.014891	6466.608152
787.337983	6755.859477
787.661030	7195.145623
787.984031	7615.698842
788.306987	7858.768157
788.629897	7933.825896
788.952760	7836.546751
789.275579	7658.039493
789.598351	7354.907350
789.921078	7094.700633
790.243759	6816.139074
790.566395	6613.658609
790.888984	6427.967707
791.211529	6291.990144
791.534027	6130.297655
791.856480	5997.372511
792.178888	5940.462925
792.501249	5871.464652
792.823566	5770.180310
793.145836	5767.342140
793.468062	5749.488894
793.790241	5713.979006
794.112375	5752.730356
794.434464	5853.387074
794.756507	5887.298916
795.078505	6008.889027
795.400457	6226.056893
795.722364	6464.019519
796.044226	6651.510113
796.366042	6805.023330
796.687812	6743.226346
797.009538	6770.042763
797.331218	6676.889802
797.652852	6604.851714
797.974442	6487.516337
798.295986	6415.226191
798.617484	6283.662158
798.938938	6179.209450
799.260346	6113.117403
799.581709	5976.701259
799.903026	5921.493063
800.224299	5850.296847
800.545526	5740.634107
800.866708	5672.636503
801.187845	5632.050174
801.508936	5550.315426
801.829983	5520.749058
802.150984	5421.410601
802.471940	5393.482609
802.792851	5373.227253
803.113717	5356.679665
803.434538	5332.169575
803.755314	5298.477024
804.076045	5295.091889
804.396731	5252.698306
804.717372	5271.479124
805.037967	5272.063898
805.358518	5298.648423
805.679024	5362.151838
805.999485	5368.032344
806.319901	5390.422629
806.640272	5400.058794
806.960598	5451.264314
807.280879	5439.001708
807.601115	5479.280527
807.921306	5439.243683
808.241453	5431.878557
808.561554	5444.390701
808.881611	5410.667902
809.201623	5407.595319
809.521590	5357.287124
809.841513	5343.832285
810.161390	5358.154203
810.481223	5269.797899
810.801011	5256.244757
811.120755	5228.694852
811.440453	5182.858160
811.760107	5146.793746
812.079716	5120.541937
812.399281	5073.462601
812.718801	5064.028082
813.038276	5030.401065
813.357707	4998.591384
813.677093	5022.161299
813.996434	4956.223007
814.315731	4977.511799
814.634983	4978.744362
814.954191	4983.969518
815.273354	5042.565369
815.592473	5086.085650
815.911547	5161.130787
816.230577	5210.889496
816.549562	5298.300583
816.868502	5349.662379
817.187399	5403.454011
817.506250	5484.054500
817.825058	5512.559704
818.143821	5670.423437
818.462539	5840.005332
818.781213	6073.327576
819.099843	6440.195026
819.418429	7074.490647
819.736970	7695.870832
820.055466	8394.453767
820.373919	9322.504985
820.692327	10812.942284
821.010691	13623.030152
821.329011	20044.532579
821.647286	29561.737008
821.965517	39580.387530
822.283704	44514.187484
822.601847	45594.075735
822.919945	40898.568602
823.237999	35874.499227
823.556010	30822.539667
823.873976	26245.585349
824.191897	22184.104136
824.509775	19223.021107
824.827609	16551.179322
825.145398	15070.499176
825.463144	14399.113266
825.780845	14770.575728
826.098502	16087.594814
826.416116	18536.022744
826.733685	20697.790501
827.051210	21053.103627
827.368692	19546.617814
827.686129	17007.955752
828.003522	14592.590230
828.320872	12442.870831
828.638177	10844.830103
828.955439	9643.361824
829.272656	8615.054660
829.589830	7793.828013
829.906960	7078.102634
830.224046	6561.034004
830.541088	6169.406927
830.858086	5918.120531
831.175041	5726.375203
831.491952	5673.279250
831.808819	5718.493359
832.125642	5978.523636
832.442421	6551.692746
832.759157	7696.690019
833.075849	9474.271442
833.392497	11268.836511
833.709101	12283.837550
834.025662	11947.950511
834.342179	10869.297343
834.658653	9588.443494
834.975083	8525.158284
835.291469	7654.644276
835.607811	6933.792043
835.924110	6420.826913
836.240366	5944.339572
836.556578	5503.906563
836.872746	5160.046939
837.188871	4896.329058
837.504952	4678.246222
837.820990	4515.974000
838.136984	4405.136671
838.452935	4364.421792
838.768842	4408.118514
839.084706	4712.470615
839.400526	5473.042099
839.716303	6354.170256
840.032037	6864.584563
840.347727	6676.690677
840.663373	6073.405713
840.978977	5512.103480
841.294537	5083.340742
841.610054	4769.097897
841.925527	4532.178789
842.240957	4330.401565
842.556344	4153.305831
842.871687	3998.378570
843.186987	3848.782330
843.502244	3729.821181
843.817458	3649.606341
844.132629	3581.467585
844.447756	3532.129813
844.762840	3489.743791
845.077881	3451.015127
845.392879	3419.104623
845.707833	3392.933473
846.022745	3363.664533
846.337613	3352.684900
846.652438	3330.155984
846.967221	3322.609377
847.281960	3303.783188
847.596656	3296.942342
847.911309	3282.743932
848.225919	3265.893875
848.540485	3260.562855
848.855009	3253.807709
849.169490	3243.450658
849.483928	3235.210892
849.798323	3229.935325
850.112675	3218.249930
850.426984	3219.520301
850.741251	3214.441338
851.055474	3208.389433
851.369654	3213.107953
851.683792	3210.078220
851.997887	3211.283056
852.311938	3210.547047
852.625947	3211.905638
852.939914	3204.694267
853.253837	3208.046635
853.567718	3206.461192
853.881555	3202.634956
854.195350	3207.814742
854.509103	3206.695606
854.822812	3202.826520
855.136479	3198.581868
855.450103	3202.773588
855.763685	3195.874769
856.077224	3197.891230
856.390720	3208.568394
856.704173	3215.981411
857.017584	3223.016341
857.330953	3223.270919
857.644278	3234.326170
857.957561	3237.025708
858.270802	3236.894638
858.584000	3234.759709
858.897155	3229.388360
859.210268	3216.064590
859.523339	3203.534802
859.836367	3203.829710
860.149352	3197.578679
860.462295	3196.000798
860.775195	3187.100641
861.088054	3182.989580
861.400869	3180.300124
861.713642	3179.319620
862.026373	3187.266999
862.339062	3192.240097
862.651708	3203.461705
862.964312	3219.608521
863.276873	3227.082032
863.589392	3256.950868
863.901869	3281.483643
864.214303	3304.085657
864.526696	3322.569047
864.839045	3338.630163
865.151353	3350.252544
865.463619	3352.533666
865.775842	3351.691793
866.088023	3358.956096
866.400162	3349.957636
866.712258	3350.844879
867.024313	3349.861854
867.336325	3351.780013
867.648296	3351.109540
867.960224	3348.541072
868.272110	3351.931248
868.583954	3353.514170
868.895755	3358.005838
869.207515	3358.293184
869.519233	3376.630381
869.830909	3381.512739
870.142542	3393.167886
870.454134	3400.185173
870.765684	3413.995413
871.077191	3434.291099
871.388657	3444.607820
871.700081	3461.110037
872.011463	3479.676607
872.322803	3501.797190
872.634101	3515.141124
872.945357	3535.741799
873.256571	3565.119123
873.567744	3580.635795
873.878874	3583.216866
874.189963	3600.994495
874.501010	3603.842747
874.812015	3597.074998
875.122979	3612.329529
875.433900	3610.565125
875.744780	3614.288018
876.055618	3621.832104
876.366415	3621.285139
876.677169	3628.819143
876.987882	3643.372955
877.298554	3665.717869
877.609183	3702.861091
877.919771	3748.791043
878.230317	3821.698731
878.540822	3924.119853
878.851285	4082.331426
879.161707	4307.355931
879.472087	4693.959498
879.782425	5340.076625
880.092722	6547.269134
880.402977	8500.766661
880.713191	10836.179483
881.023363	13119.504582
881.333494	14332.325539
881.643583	14711.705133
881.953631	14265.016053
882.263637	13432.600565
882.573602	12423.951380
882.883526	11500.686738
883.193408	10566.003883
883.503248	9684.235499
883.813048	8879.306903
884.122806	8130.015001
884.432522	7383.185703
884.742197	6734.036322
885.051831	6192.283683
885.361424	5714.034459
885.670975	5331.214277
885.980485	5018.032594
886.289954	4756.439559
886.599382	4547.561870
886.908768	4369.715004
887.218113	4211.188359
887.527417	4076.518975
887.836680	3960.983291
888.145901	3864.193137
888.455082	3784.628606
888.764221	3716.247875
889.073319	3661.465656
889.382376	3631.438023
889.691392	3608.006740
890.000366	3600.593723
890.309300	3595.678598
890.618193	3596.626335
890.927044	3592.863114
891.235855	3599.101542
891.544625	3617.035446
891.853353	3647.751197
892.162041	3712.199828
892.470687	3801.171152
892.779293	3920.434770
893.087858	4098.667285
893.396381	4386.660842
893.704864	4805.429492
894.013306	5373.794383
894.321707	5929.105205
894.630068	6257.039825
894.938387	6269.604901
895.246665	6077.325211
895.554903	5766.941368
895.863100	5438.474907
896.171256	5172.057488
896.479371	4937.842960
896.787446	4718.620823
897.095480	4528.269374
897.403473	4385.458527
897.711425	4242.113318
898.019336	4123.114360
898.327207	4003.207996
898.635038	3900.925505
898.942827	3795.439360
899.250576	3711.199159
899.558284	3626.038947
899.865952	3573.852923
900.173579	3514.248840
900.481165	3467.497179
900.788711	3428.818926
901.096216	3396.127044
901.403681	3369.718959
901.711105	3361.317876
902.018489	3356.652288
902.325832	3390.838873
902.633135	3453.754994
902.940397	3632.521871
903.247619	4062.333168
903.554800	4823.257533
903.861941	5770.334065
904.169041	6422.666934
904.476101	6587.283293
904.783121	6296.771679
905.090100	5900.181585
905.397039	5499.034288
905.703938	5149.896576
906.010796	4837.985264
906.317614	4595.377214
906.624391	4363.181668
906.931129	4170.211340
907.237826	3994.970750
907.544483	3825.852642
907.851099	3656.880726
908.157675	3501.162005
908.464211	3359.278730
908.770707	3260.494799
909.077163	3186.047039
909.383578	3128.371198
909.689954	3084.624065
909.996289	3054.946793
910.302584	3037.252343
910.608839	3020.266175
910.915054	3011.418950
911.221229	3005.450223
911.527363	3011.333250
911.833458	3021.995290
912.139513	3034.275541
912.445527	3047.097716
912.751502	3078.325143
913.057436	3126.246352
913.363331	3184.519570
913.669186	3269.468053
913.975000	3390.806106
914.280775	3584.086465
914.586510	3855.726519
914.892205	4235.494283
915.197859	4732.075663
915.503475	5306.434485
915.809050	5782.049706
916.114585	6044.184665
916.420081	6090.107056
916.725536	6023.785636
917.030952	5785.888545
917.336328	5582.994706
917.641665	5379.110279
917.946961	5156.175333
918.252218	4956.512873
918.557435	4736.779059
918.862612	4546.399884
919.167750	4372.507803
919.472848	4184.989483
919.777906	4021.207435
920.082925	3868.117675
920.387904	3713.094633
920.692843	3607.999178
920.997743	3509.500073
921.302603	3418.030857
921.607423	3354.295549
921.912204	3290.328348
922.216946	3239.253898
922.521647	3195.007690
922.826310	3156.178203
923.130932	3116.537090
923.435516	3077.702561
923.740059	3049.356153
924.044564	3016.780217
924.349028	2992.628049
924.653454	2965.073102
924.957840	2937.815583
925.262186	2919.163314
925.566493	2897.536764
925.870761	2874.539020
926.174989	2862.271372
926.479178	2845.922910
926.783328	2830.433965
927.087438	2820.281081
927.391509	2807.227013
927.695541	2793.696556
927.999533	2785.091307
928.303486	2777.269956
928.607400	2772.475819
928.911275	2766.537340
929.215110	2760.805548
929.518906	2757.959817
929.822663	2757.637183
930.126381	2755.845052
930.430060	2759.714138
930.733699	2763.542894
931.037299	2766.761671
931.340861	2766.388626
931.644383	2768.561363
931.947866	2769.100767
932.251309	2763.232863
932.554714	2763.822678
932.858080	2762.983326
933.161407	2760.014087
933.464694	2752.989239
933.767943	2752.885895
934.071153	2748.467324
934.374323	2743.877353
934.677455	2741.447517
934.980548	2738.211096
935.283602	2736.582804
935.586617	2734.309243
935.889593	2737.986765
936.192530	2737.888462
936.495428	2744.734349
936.798287	2755.378746
937.101108	2767.749737
937.403890	2790.155146
937.706632	2814.529124
938.009336	2849.688652
938.312002	2878.758466
938.614628	2899.510375
938.917216	2919.170875
939.219765	2930.911723
939.522275	2942.130811
939.824747	2938.087805
940.127179	2930.523554
940.429573	2927.186310
940.731929	2925.202616
941.034246	2914.076789
941.336524	2912.476223
941.638763	2907.709812
941.940964	2903.573545
942.243126	2882.708210
942.545250	2873.379554
942.847335	2858.223325
943.149381	2843.871160
943.451389	2830.920436
943.753359	2820.795279
944.055290	2810.871767
944.357182	2802.914306
944.659036	2798.183183
944.960851	2796.025569
945.262628	2789.353602
945.564367	2792.723613
945.866067	2790.588685
946.167729	2789.696401
946.469352	2786.797737
946.770937	2786.780093
947.072484	2780.818929
947.373992	2779.984618
947.675462	2776.065121
947.976893	2771.555808
948.278286	2767.301075
948.579641	2764.833430
948.880958	2762.461567
949.182236	2762.542225
949.483476	2757.919487
949.784678	2758.605084
950.085841	2758.718510
950.386967	2761.501227
950.688054	2764.498193
950.989103	2773.650408
951.290114	2782.457304
951.591087	2793.550363
951.892021	2806.032260
952.192917	2819.068683
952.493776	2828.427586
952.794596	2831.727021
953.095378	2832.773060
953.396122	2829.839109
953.696828	2829.639983
953.997496	2826.290136
954.298126	2813.117601
954.598718	2804.199800
954.899272	2794.866104
955.199788	2782.424536
955.500266	2770.754265
955.800706	2755.827408
956.101108	2739.451220
956.401472	2733.152298
956.701798	2717.053374
957.002087	2703.215406
957.302337	2693.513706
957.602550	2685.246213
957.902724	2673.434790
958.202861	2667.244253
958.502960	2660.748726
958.803022	2651.558703
959.103045	2643.139976
959.403031	2637.713174
959.702979	2634.141516
960.002889	2632.213275
960.302762	2624.943931
960.602596	2622.282202
960.902393	2617.780452
961.202153	2615.116202
961.501875	2610.085130
961.801559	2609.086982
962.101205	2607.065479
962.400814	2603.902155
962.700385	2600.849736
962.999918	2600.892586
963.299414	2597.356217
963.598873	2600.166660
963.898293	2595.911926
964.197677	2595.541401
964.497022	2594.780187
964.796331	2592.383118
965.095601	2591.437902
965.394835	2593.736668
965.694030	2592.345310
965.993189	2590.863211
966.292309	2591.142995
966.591393	2588.730802
966.890439	2589.615525
967.189447	2586.311049
967.488419	2587.533528
967.787353	2590.404466
968.086249	2589.950762
968.385108	2589.582757
968.683930	2591.223653
968.982714	2592.264651
969.281462	2593.315732
969.580172	2595.037286
969.878844	2596.857142
970.177480	2601.343769
970.476078	2605.086826
970.774639	2602.636825
971.073162	2608.557661
971.371649	2607.360387
971.670098	2609.502877
971.968510	2612.925820
972.266885	2611.778958
972.565223	2613.127467
972.863524	2614.334823
973.161788	2618.561830
973.460014	2616.613424
973.758204	2619.804475
974.056356	2621.634414
974.354471	2619.779269
974.652550	2619.635596
974.950591	2619.557458
975.248595	2619.895216
975.546563	2618.430760
975.844493	2618.150976
976.142386	2615.302724
976.440243	2611.473968
976.738062	2610.644698
977.035845	2611.022785
977.333590	2607.564553
977.631299	2602.440220
977.928971	2602.394850
978.226606	2600.035590
978.524204	2600.154057
978.821765	2597.830085
979.119290	2595.367482
979.416777	2600.048193
979.714228	2598.525764
980.011642	2597.356217
980.309020	2603.735797
980.606360	2606.127824
980.903664	2615.587550
981.200931	2631.424334
981.498162	2648.642395
981.795356	2677.669359
982.092513	2714.242930
982.389633	2755.353540
982.686717	2796.287709
982.983764	2825.344920
983.280775	2845.585153
983.577749	2841.789164
983.874686	2834.774398
984.171587	2817.362253
984.468451	2802.284162
984.765279	2785.713889
985.062070	2766.335694
985.358824	2751.111409
985.655543	2727.808675
985.952224	2707.417208
986.248869	2679.983249
986.545478	2653.549959
986.842050	2636.606641
987.138586	2618.975205
987.435086	2606.868874
987.731549	2590.903540
988.027975	2586.779876
988.324366	2583.954309
988.620719	2579.485326
988.917037	2576.710171
989.213318	2576.085068
989.509563	2570.176836
989.805772	2568.805642
990.101944	2566.199365
990.398080	2565.233984
990.694180	2566.116186
990.990244	2562.567214
991.286271	2564.228274
991.582262	2567.147102
991.878217	2566.436300
992.174136	2570.466702
992.470019	2569.760941
992.765865	2566.353121
993.061676	2571.847978
993.357450	2576.788309
993.653188	2581.710996
993.948890	2583.712334
994.244556	2589.121492
994.540186	2598.561052
994.835780	2609.858278
995.131337	2625.710187
995.426859	2641.486477
995.722345	2655.901657
996.017795	2678.670028
996.313208	2690.660413
996.608586	2700.203317
996.903928	2702.076106
997.199234	2701.647607
997.494504	2700.498224
997.789738	2691.333407
998.084936	2681.558609
998.380099	2669.127124
998.675225	2657.693787
998.970316	2644.647281
999.265371	2632.729993
999.560390	2622.156173
999.855373	2610.052363
1000.150320	2600.572473
1000.445232	2592.224322
1000.740108	2585.161666
1001.034948	2578.048597
1001.329752	2574.282856
1001.624521	2570.257494
1001.919254	2562.443706
1002.213951	2560.817934
1002.508613	2558.055381
1002.803239	2557.495813
1003.097829	2553.339382
1003.392384	2556.727037
1003.686903	2554.410627
1003.981386	2553.180586
1004.275834	2551.428785
1004.570246	2551.272509
1004.864623	2549.629093
1005.158964	2551.721172
1005.453270	2548.963660
1005.747540	2549.452652
1006.041775	2547.821839
1006.335974	2546.899308
1006.630138	2548.620862
1006.924266	2545.860830
1007.218359	2544.267826
1007.512416	2545.439894
1007.806438	2546.559030
1008.100425	2548.174720
1008.394376	2545.165151
1008.688292	2543.191539
1008.982172	2543.980480
1009.276017	2544.837476
1009.569827	2545.659184
1009.863602	2544.187167
1010.157341	2545.812939
1010.451045	2545.608772
1010.744714	2543.579708
1011.038347	2543.743546
1011.331945	2544.348484
1011.625508	2544.416540
1011.919036	2542.092568
1012.212528	2541.578370
1012.505986	2541.530479
1012.799408	2540.406302
1013.092795	2541.517876
1013.386147	2540.383617
1013.679464	2542.581560
1013.972745	2541.129707
1014.265992	2540.794471
1014.559204	2539.234233
1014.852380	2537.598379
1015.145521	2540.902855
1015.438628	2541.507794
1015.731699	2539.748431
1016.024736	2538.878832
1016.317737	2541.149872
1016.610703	2542.962167
1016.903635	2536.209541
1017.196531	2538.636857
1017.489393	2539.876981
1017.782219	2539.264480
1018.075011	2540.660880
1018.367768	2543.259595
1018.660490	2544.908052
1018.953177	2544.908052
1019.245829	2544.908052
