Dividing Wavelength (nm)	Counts (n)	Blue Motor Position (mm): 37.000000	Red Motor Position (mm): 0.000000	
326.493990	2049.428164
326.888308	2049.428164
327.282561	2049.428164
327.676750	2025.734741
328.070874	2027.973013
328.464933	2032.283200
328.858929	2042.126053
329.252859	2052.341951
329.646726	2065.925340
330.040528	2083.531570
330.434265	2100.222830
330.827938	2123.371809
331.221547	2142.767648
331.615091	2161.026707
332.008571	2182.567558
332.401986	2202.480115
332.795338	2224.779659
333.188625	2244.215828
333.581847	2262.432038
333.975006	2278.583894
334.368100	2297.072326
334.761129	2312.974646
335.154095	2329.126503
335.546996	2380.231200
335.939833	2489.636841
336.332606	2496.994405
336.725315	2511.354132
337.117960	2520.276974
337.510540	2534.145189
337.903056	2539.173740
338.295508	2548.603218
338.687896	2554.582026
339.080220	2557.165618
339.472480	2562.904971
339.864676	2567.452092
340.256807	2570.592731
340.648875	2571.192628
341.040879	2573.443503
341.432818	2577.751169
341.824694	2575.656570
342.216506	2574.509707
342.608253	2572.904100
342.999937	2573.241857
343.391557	2572.712536
343.783113	2571.784964
344.174605	2570.176836
344.566033	2569.763461
344.957397	2568.591393
345.348697	2561.760629
345.739934	2566.143913
346.131106	2561.619477
346.522215	2560.313818
346.913260	2560.679302
347.304241	2559.736606
347.695159	2558.052861
348.086012	2556.938766
348.476802	2554.191337
348.867528	2548.966181
349.258191	2543.262115
349.648789	2548.850234
350.039324	2542.430325
350.429796	2546.561551
350.820203	2545.059287
351.210548	2547.968032
351.600828	2540.292876
351.991045	2543.068031
352.381198	2545.868392
352.771288	2545.087013
353.161314	2544.129194
353.551276	2542.029553
353.941175	2540.663401
354.331010	2544.713968
354.720782	2545.071890
355.110490	2544.598021
355.500135	2544.502239
355.889717	2542.972249
356.279235	2543.032743
356.668689	2542.032074
357.058080	2546.236396
357.447408	2547.771427
357.836672	2545.747404
358.225873	2545.109698
358.615010	2546.511139
359.004084	2547.035419
359.393095	2547.325285
359.782043	2547.847045
360.170927	2548.426777
360.559748	2549.286294
360.948505	2546.682538
361.337199	2553.359547
361.725830	2551.995914
362.114398	2550.760832
362.502903	2552.046326
362.891344	2553.384752
363.279722	2552.152190
363.668037	2551.370811
364.056289	2553.556152
364.444478	2554.304763
364.832603	2556.664023
365.220665	2554.730740
365.608665	2555.202088
365.996601	2556.258210
366.384474	2558.289795
366.772284	2556.603529
367.160031	2558.244425
367.547715	2560.651576
367.935336	2554.899619
368.322893	2559.398849
368.710388	2555.496996
369.097820	2556.394321
369.485189	2553.656975
369.872495	2561.402708
370.259738	2559.759291
370.646918	2561.420352
371.034035	2560.586041
371.421090	2560.454971
371.808081	2560.361709
372.195010	2559.363561
372.581875	2561.853891
372.968678	2562.519323
373.355418	2559.671071
373.742096	2561.329611
374.128710	2563.724159
374.515262	2561.473284
374.901751	2564.177863
375.288177	2565.417987
375.674540	2564.707184
376.060841	2565.420507
376.447079	2561.465722
376.833254	2567.343707
377.219367	2567.179870
377.605417	2570.320509
377.991404	2567.903275
378.377329	2569.710529
378.763191	2566.458985
379.148991	2565.518810
379.534727	2570.575087
379.920402	2569.949984
380.306013	2569.355128
380.691563	2569.897052
381.077049	2570.723801
381.462474	2571.336301
381.847835	2571.094326
382.233134	2571.290931
382.618371	2570.958215
383.003545	2573.476271
383.388657	2569.481157
383.773706	2573.433421
384.158693	2573.869481
384.543618	2573.446024
384.928480	2576.296797
385.313280	2575.238154
385.698017	2576.538772
386.082692	2573.188925
386.467305	2577.763772
386.851856	2575.989286
387.236344	2574.804615
387.620770	2575.268401
388.005133	2576.334605
388.389435	2575.502815
388.773674	2573.609862
389.157851	2578.441807
389.541965	2580.463310
389.926018	2579.371900
390.310008	2579.979359
390.693936	2578.950964
391.077802	2582.915832
391.461606	2584.723085
391.845348	2584.337437
392.229027	2581.065728
392.612645	2583.707293
392.996200	2583.508167
393.379694	2586.152252
393.763125	2586.195102
394.146494	2587.929259
394.529801	2587.470514
394.913047	2586.363981
395.296230	2590.144846
395.679351	2592.783890
396.062410	2588.360278
396.445408	2589.542428
396.828343	2591.705083
397.211217	2589.988570
397.594028	2592.932604
397.976778	2593.804724
398.359466	2594.616350
398.742092	2594.969230
399.124656	2594.933942
399.507158	2595.841350
399.889598	2602.621702
400.271977	2601.353852
400.654294	2605.011209
401.036549	2605.144799
401.418742	2607.811570
401.800874	2609.805346
402.182944	2615.494288
402.564952	2619.731378
402.946898	2621.871348
403.328783	2626.937707
403.710606	2632.629170
404.092367	2638.907927
404.474067	2645.411016
404.855705	2650.515184
405.237282	2660.746206
405.618797	2670.248781
406.000250	2684.336285
406.381642	2698.975796
406.762972	2707.785212
407.144240	2713.496840
407.525447	2732.451578
407.906593	2745.608990
408.287677	2774.585542
408.668700	2787.367387
409.049661	2811.320430
409.430560	2831.512772
409.811399	2848.836697
410.192176	2873.432487
410.572891	2902.837537
410.953545	2938.455809
411.334138	2943.169288
411.714669	2986.742502
412.095139	2996.645848
412.475547	3038.905841
412.855894	3063.884758
413.236180	3110.170112
413.616405	3123.861886
413.996568	3173.960873
414.376670	3204.963969
414.756711	3230.207547
415.136691	3282.431380
415.516609	3334.307374
415.896466	3377.857902
416.276262	3437.603137
416.655997	3505.184845
417.035670	3571.125658
417.415283	3654.987773
417.794834	3714.672514
418.174324	3735.684043
418.553753	3779.897483
418.933121	3884.307341
419.312428	3930.433899
419.691674	3947.528451
420.070859	4083.768155
420.449983	4081.776899
420.829045	4209.066033
421.208047	4222.225966
421.586988	4342.049151
421.965867	4427.284981
422.344686	4511.769678
422.723444	4650.182118
423.102141	4501.299201
423.480777	4749.644084
423.859352	4702.542063
424.237866	4954.672852
424.616319	5004.630687
424.994712	5147.106297
425.373044	5150.577132
425.751314	5392.058483
426.129524	5269.288743
426.507673	5494.787116
426.885762	5568.095575
427.263789	5646.268748
427.641756	5758.767137
428.019662	5853.427404
428.397508	5935.507471
428.775292	5983.020346
429.153016	6139.270909
429.530679	6147.009080
429.908282	6231.745835
430.285824	6234.195836
430.663305	6474.641230
431.040726	6452.150122
431.418086	6479.384956
431.795385	6641.374873
432.172624	6828.517628
432.549802	6762.029849
432.926920	6920.637152
433.303977	6920.919457
433.680974	6994.439645
434.057910	7192.940118
434.434786	7269.772344
434.811601	7264.963083
435.188355	7596.282838
435.565050	7538.841410
435.941683	7576.445897
436.318257	7893.894917
436.694770	7880.984522
437.071222	8100.914941
437.447614	7919.763598
437.823946	7925.439937
438.200218	8088.188548
438.576429	8005.090168
438.952580	8174.021754
439.328670	8212.730253
439.704700	8310.858834
440.080670	8223.979588
440.456580	8487.553797
440.832429	8483.518353
441.208218	8261.021987
441.583947	8386.203919
441.959616	8501.525354
442.335224	8549.096203
442.710773	8639.050552
443.086261	8831.305036
443.461689	8586.546935
443.837057	8734.633349
444.212365	8940.940050
444.587612	8951.004714
444.962800	8856.379735
445.337927	9002.258125
445.712995	8571.299965
446.088002	9204.388229
446.462949	9278.982183
446.837837	9291.234707
447.212664	9357.417496
447.587431	10260.537687
447.962139	11223.319933
448.336786	11970.204684
448.711374	11585.428535
449.085901	10455.695875
449.460369	10438.656775
449.834776	10363.475527
450.209124	11281.376382
450.583412	11056.704758
450.957640	11268.665112
451.331808	10862.443894
451.705917	10386.526203
452.079965	10307.861518
452.453954	10505.573052
452.827883	10458.990269
453.201752	10430.951372
453.575562	10450.732859
453.949311	10807.422220
454.323001	10887.805939
454.696632	10809.186624
455.070202	11395.717313
455.443713	11460.075203
455.817164	11605.283119
456.190556	11918.797518
456.563888	11752.988927
456.937160	11968.087400
457.310373	11474.031637
457.683526	11511.076557
458.056619	11563.809546
458.429653	11637.659930
458.802628	11811.088225
459.175542	11870.611649
459.548398	12415.799834
459.921194	12999.812466
460.293930	13323.179800
460.666607	14151.963137
461.039224	14886.963367
461.411782	15144.957018
461.784280	14749.153345
462.156719	14665.520602
462.529099	14576.662704
462.901419	13998.696936
463.273680	13651.074091
463.645882	13889.283733
464.018024	13836.114684
464.390106	14247.636675
464.762130	15414.968780
465.134094	17086.786795
465.505999	19367.946719
465.877845	21375.805528
466.249631	22269.733175
466.621358	21640.294706
466.993026	20809.683951
467.364634	20105.807804
467.736184	19404.321164
468.107674	18862.233288
468.479105	18716.352378
468.850477	18448.692315
469.221790	18023.365124
469.593043	17387.826858
469.964238	17046.137451
470.335373	17163.717323
470.706449	18042.334986
471.077467	19163.033897
471.448425	21516.884739
471.819324	23015.052648
472.190164	22500.620542
472.560945	20806.906276
472.931667	19404.021216
473.302330	19157.171035
473.672934	18714.199806
474.043479	19142.279467
474.413965	18947.045661
474.784393	18795.516138
475.154761	19423.006201
475.525070	19561.763961
475.895321	19405.674714
476.265513	19925.258879
476.635645	20516.424909
477.005719	20570.269473
477.375734	20955.209460
477.745691	21566.751833
478.115588	22233.157083
478.485427	23490.264577
478.855207	25365.674631
479.224928	27094.916429
479.594591	28270.165666
479.964194	27741.835099
480.333739	28132.300191
480.703226	28430.411344
481.072653	28942.395970
481.442022	29416.453475
481.811333	29723.185001
482.180584	29223.790657
482.549777	29013.574542
482.918912	28812.137596
483.287988	28759.369318
483.657005	28596.721530
484.025964	28247.125073
484.394864	28437.751264
484.763706	28379.142809
485.132489	27890.256751
485.501213	27971.817579
485.869879	28156.691814
486.238487	28130.250962
486.607036	28397.127126
486.975527	28107.159957
487.343959	28445.668396
487.712333	28770.752243
488.080648	28750.161650
488.448905	29182.775829
488.817104	29106.898902
489.185244	30006.878454
489.553326	31163.939208
489.921350	33111.926754
490.289315	35504.329820
490.657222	36176.161873
491.025070	36570.990083
491.392861	36182.629673
491.760593	35384.055451
492.128267	34388.699789
492.495883	33439.372382
492.863440	32605.530247
493.230939	31728.704715
493.598380	31223.303836
493.965763	31101.514600
494.333088	30636.856327
494.700354	30469.361470
495.067563	30469.114453
495.434713	30377.410824
495.801805	30665.752221
496.168839	30523.634532
496.535815	30394.452444
496.902733	30548.421886
497.269593	30367.217611
497.636395	30544.119261
498.003139	30826.542343
498.369825	30603.123446
498.736453	31003.418788
499.103023	30855.728103
499.469535	30958.050924
499.835989	31108.289911
500.202385	30971.341926
500.568723	31049.376467
500.935003	31384.436757
501.301226	31291.762705
501.667390	31975.431387
502.033497	32187.396783
502.399546	31988.576196
502.765537	31593.453078
503.131470	32068.279359
503.497345	32510.449045
503.863163	31501.643584
504.228923	32277.388941
504.594625	32674.589014
504.960269	32177.808508
505.325856	32849.514532
505.691385	32536.080792
506.056856	32861.235215
506.422270	33357.627552
506.787625	32901.564445
507.152924	33380.970614
507.518164	33586.163220
507.883347	33145.692403
508.248472	33316.400995
508.613540	34006.766850
508.978550	34258.554841
509.343503	34110.105463
509.708398	34483.448275
510.073236	35091.240030
510.438016	35196.186771
510.802738	34890.062703
511.167403	35472.300849
511.532010	35711.415379
511.896561	36197.329678
512.261053	36956.182128
512.625488	36744.234376
512.989866	36685.605757
513.354186	36746.976764
513.718449	36723.603454
514.082655	37605.119780
514.446803	37323.911616
514.810894	37943.666028
515.174927	37962.280489
515.538904	37967.253587
515.902822	38622.780028
516.266684	38315.836773
516.630488	38685.476858
516.994235	38705.538130
517.357925	39304.454933
517.721558	39555.827028
518.085133	39958.083379
518.448651	40135.751285
518.812112	40018.267194
519.175516	40200.625893
519.538863	40633.265278
519.902152	40713.467515
520.265385	41263.742225
520.628560	41280.025152
520.991678	41237.097207
521.354739	41465.509367
521.717743	41838.080883
522.080690	41755.108532
522.443580	42435.162706
522.806413	42460.607930
523.169189	42611.325827
523.531908	42842.377032
523.894569	42696.274311
524.257174	42906.278698
524.619722	43257.531174
524.982213	43383.335689
525.344647	43417.807099
525.707025	43547.831060
526.069345	44004.665462
526.431608	43901.503290
526.793815	44303.772243
527.155964	43848.402296
527.518057	44109.045073
527.880093	43963.348165
528.242072	44602.432883
528.603995	44338.289024
528.965860	44257.091159
529.327669	44482.506353
529.689421	44532.176842
530.051117	44497.032438
530.412755	44781.232527
530.774337	44842.253174
531.135862	44784.433660
531.497331	44929.344148
531.858743	44930.062512
532.220098	45338.968145
532.581396	45073.889152
532.942638	44831.144991
533.303824	45082.290235
533.664953	45128.716741
534.026025	44815.794678
534.387040	45395.824798
534.747999	45476.616850
535.108902	45774.647345
535.469748	45101.713801
535.830537	45371.876797
536.191270	45600.765346
536.551947	45339.202558
536.912567	45633.416900
537.273131	45779.723787
537.633638	45397.158183
537.994089	45604.105111
538.354483	45336.399677
538.714821	46003.714855
539.075103	46275.609488
539.435328	46140.322563
539.795497	45897.843063
540.155609	46006.152253
540.515665	46594.780062
540.875665	45907.645587
541.235609	46194.610749
541.595496	46310.302709
541.955328	46889.803508
542.315102	46316.599110
542.674821	46219.012454
543.034483	46097.898733
543.394090	46115.522607
543.753640	46092.116529
544.113134	47156.528437
544.472571	46264.488703
544.831953	47408.250893
545.191278	46668.388469
545.550548	46343.788573
545.909761	46997.913573
546.268918	47141.619225
546.628019	47559.198163
546.987064	46993.200094
547.346053	46251.709378
547.704986	47177.923094
548.063863	46844.949842
548.422684	47042.507620
548.781449	46624.606048
549.140158	47161.975404
549.498811	46936.403934
549.857408	46321.363000
550.215949	47151.270514
550.574434	46989.331008
550.932864	46930.863706
551.291237	47646.773087
551.649555	47403.194616
552.007817	47592.956249
552.366022	47247.004546
552.724173	47325.223089
553.082267	47740.276409
553.440305	48076.418027
553.798288	47335.141559
554.156215	47719.035507
554.514086	47921.412628
554.871902	47551.782625
555.229661	47720.943584
555.587365	47397.414933
555.945014	47534.607414
556.302606	47531.524749
556.660143	47661.624327
557.017625	47873.304897
557.375050	47580.912933
557.732421	47978.417996
558.089735	48054.791477
558.446994	47906.654650
558.804197	48404.841638
559.161345	48257.672713
559.518437	47588.850230
559.875474	47868.394813
560.232455	48089.018391
560.589381	48148.211619
560.946251	47944.380125
561.303065	48605.527452
561.659825	48291.196386
562.016528	48103.413406
562.373177	47674.595215
562.729770	48316.830654
563.086307	47832.153958
563.442789	48388.372188
563.799216	48235.731091
564.155587	48113.989746
564.511904	48081.832226
564.868164	48140.657450
565.224370	48450.756467
565.580520	48187.252835
565.936615	48375.648316
566.292654	48022.558339
566.648638	48401.320392
567.004567	48321.718052
567.360441	48420.640614
567.716260	48149.197165
568.072023	48521.657776
568.427732	48447.802351
568.783385	47980.976382
569.138982	48404.123274
569.494525	48524.541316
569.850013	48100.401316
570.205445	48252.157691
570.560823	48015.568779
570.916145	47902.384793
571.271412	48140.690218
571.626625	47787.222154
571.981782	47866.607724
572.336884	47451.350238
572.691931	47774.710010
573.046923	47438.646530
573.401860	47280.644166
573.756743	47295.371897
574.111570	47430.036239
574.466342	47350.282665
574.821059	47496.178698
575.175722	46983.808424
575.530330	47120.527037
575.884882	46745.991992
576.239380	46644.551373
576.593823	46724.713281
576.948211	46659.332037
577.302544	46196.506222
577.656823	46197.148970
578.011047	46458.648743
578.365216	46278.813141
578.719330	46010.848088
579.073389	45965.737323
579.427394	46030.117899
579.781344	45955.390355
580.135239	45712.273149
580.489080	45767.466222
580.842866	45268.732269
581.196597	45760.118740
581.550273	45745.264980
581.903895	45684.907245
582.257463	46123.351518
582.610975	45533.196241
582.964434	45890.016672
583.317837	45384.202418
583.671186	45343.790008
584.024481	45624.486496
584.377721	45164.143450
584.730906	45384.940947
585.084037	45507.854360
585.437113	45205.969903
585.790135	45336.503020
586.143103	44884.331685
586.496016	45053.290997
586.848874	45139.461961
587.201679	45168.083112
587.554428	44673.278738
587.907124	44941.145489
588.259765	44699.757399
588.612352	44870.944901
588.964884	44330.404659
589.317362	44636.140558
589.669786	44642.071475
590.022155	44488.648999
590.374470	44951.633609
590.726731	44526.767684
591.078937	43853.808933
591.431090	44193.698649
591.783188	43720.906474
592.135232	43519.371226
592.487222	43783.404179
592.839157	43934.719453
593.191038	43569.417280
593.542866	43387.348448
593.894639	42785.112044
594.246358	43083.079525
594.598022	43070.743821
594.949633	42639.939417
595.301190	42633.990855
595.652692	42565.378231
596.004141	43055.358220
596.355535	41950.528861
596.706876	41967.691469
597.058162	41685.762419
597.409395	42184.965200
597.760573	42406.793613
598.111698	41989.643173
598.462768	41916.385126
598.813785	41946.143057
599.164748	41533.630479
599.515657	41816.419045
599.866511	41330.860147
600.217312	42016.560414
600.568060	40934.600249
600.918753	41772.490430
601.269392	41697.962012
601.619978	41411.972313
601.970510	41610.150153
602.320988	41749.631318
602.671412	42013.104703
603.021783	41885.351783
603.372100	41444.641510
603.722363	41569.730181
604.072572	41596.952412
604.422728	41585.806421
604.772830	41376.848073
605.122878	41533.474203
605.472872	41391.192677
605.822813	41660.967504
606.172701	41391.434652
606.522534	41719.248284
606.872314	41936.375821
607.222041	41757.682041
607.571714	42094.657970
607.921333	41595.319078
608.270899	41810.543580
608.620411	42191.412835
608.969870	41922.353852
609.319276	41950.924591
609.668627	41992.826662
610.017926	42379.465518
610.367171	42520.333000
610.716362	42556.740213
611.065500	42439.881226
611.414585	42660.426666
611.763616	42836.942668
612.112594	42733.384765
612.461518	42880.223494
612.810389	43258.378088
613.159207	43042.399934
613.507971	43024.604661
613.856682	43512.719423
614.205340	43342.134339
614.553945	44045.276998
614.902496	43364.320457
615.250994	43767.353145
615.599439	43835.496942
615.947830	43955.892299
616.296169	43946.530876
616.644454	43986.723996
616.992686	44152.744315
617.340864	44605.082009
617.688990	44142.334333
618.037063	44805.840920
618.385082	44619.303104
618.733048	44953.776100
619.080961	44834.015928
619.428821	44847.778278
619.776628	44871.943049
620.124382	44681.155541
620.472083	44782.228155
620.819731	44899.392132
621.167326	44448.395386
621.514868	44436.147902
621.862357	43908.336574
622.209793	43995.626673
622.557176	43555.425558
622.904506	43332.525899
623.251783	42958.699136
623.599007	42642.341526
623.946179	42549.425499
624.293297	42294.592652
624.640363	41746.551173
624.987376	41596.959974
625.334336	41379.076263
625.681243	40977.699594
626.028097	40899.445763
626.374899	40717.432383
626.721647	40678.018122
627.068343	40452.497063
627.414987	40174.371564
627.761577	39913.922871
628.108115	40240.914795
628.454600	39485.770113
628.801032	39707.333866
629.147412	39606.651942
629.493739	39518.154486
629.840014	39071.142771
630.186236	39495.698666
630.532405	38938.184859
630.878521	39176.422228
631.224585	38954.992066
631.570597	38600.954352
631.916556	38764.310422
632.262462	38661.458281
632.608316	38583.484233
632.954117	38461.077456
633.299866	38415.316382
633.645562	38331.764298
633.991206	37794.475601
634.336797	37380.362457
634.682336	37279.388145
635.027823	37036.109622
635.373257	36918.076046
635.718639	36582.075580
636.063968	36475.077090
636.409245	35812.399773
636.754470	35774.533146
637.099642	35549.924536
637.444762	34983.613916
637.789829	35115.566118
638.134845	34734.094445
638.479808	34664.193805
638.824719	34612.625322
639.169577	34097.696663
639.514383	34200.042168
639.859137	33809.539268
640.203839	33973.366685
640.548489	33683.076882
640.893086	33670.126158
641.237632	33395.889909
641.582125	33495.548480
641.926566	33291.401913
642.270955	33321.759742
642.615292	33255.045112
642.959576	33145.145437
643.303809	33145.672238
643.647990	33240.070364
643.992118	33192.323076
644.336195	33027.169835
644.680219	33122.503095
645.024192	33322.309228
645.368112	33861.861403
645.711981	33867.535222
646.055797	34596.412971
646.399562	34397.788989
646.743274	35266.029437
647.086935	35670.491292
647.430544	35638.487527
647.774101	35667.358215
648.117606	35958.348738
648.461059	36097.131704
648.804460	35697.179161
649.147810	35184.917271
649.491108	34837.420454
649.834354	34702.672933
650.177548	33857.573902
650.520690	33358.386245
650.863781	33343.845037
651.206820	33171.087215
651.549807	32759.386263
651.892742	32191.291074
652.235626	32094.931939
652.578458	31962.251290
652.921238	31263.721287
653.263967	31570.896435
653.606644	31275.492381
653.949269	31176.358091
654.291843	30787.498607
654.634365	31146.108647
654.976836	30682.277123
655.319255	30759.908372
655.661622	30629.317281
656.003938	30507.137356
656.346203	30318.086525
656.688416	30567.084237
657.030577	30333.235192
657.372687	30157.732463
657.714746	30315.288685
658.056753	30499.918424
658.398708	29881.535205
658.740612	29961.873553
659.082465	30163.653298
659.424266	30055.253367
659.766016	30060.102957
660.107715	29923.555743
660.449362	30017.180052
660.790958	30004.299904
661.132503	29930.764593
661.473996	30006.490285
661.815438	30088.330897
662.156829	30196.645129
662.498168	30010.374494
662.839456	29979.973816
663.180693	30112.427613
663.521879	30194.353925
663.863013	30163.194553
664.204097	30127.992175
664.545129	30549.808203
664.886110	30477.581071
665.227040	30590.513000
665.567918	30574.530021
665.908746	30662.130152
666.249522	30742.317265
666.590248	30765.093198
666.930922	30866.601872
667.271545	30864.356038
667.612118	30925.671592
667.952639	30731.002396
668.293109	30760.846026
668.633528	30624.066920
668.973896	30591.105335
669.314213	30561.818752
669.654480	30382.262934
669.994695	30367.983866
670.334859	30288.116866
670.674973	30122.920775
671.015035	30319.442596
671.355047	30244.452912
671.695008	30173.531439
672.034918	30084.958366
672.374777	30175.580668
672.714585	30038.723423
673.054342	30186.711535
673.394049	30042.138805
673.733705	30245.577089
674.073310	29970.912342
674.412864	30032.132114
674.752368	29715.567817
675.091820	29945.202457
675.431223	29547.284020
675.770574	29342.605612
676.109875	29203.436998
676.449125	28981.371651
676.788324	28882.607885
677.127473	28404.915708
677.466571	28285.642008
677.805619	28023.146607
678.144616	27952.078941
678.483562	27903.411642
678.822458	27583.305934
679.161303	27518.184309
679.500098	27446.940202
679.838842	27365.500362
680.177535	27457.569475
680.516179	27695.738788
680.854771	27833.236259
681.193314	28592.123998
681.531805	29620.784043
681.870247	30354.224037
682.208638	31077.284294
682.546978	31357.816944
682.885268	31496.403305
683.223508	31052.804451
683.561697	30793.737035
683.899836	30615.444026
684.237925	30209.076614
684.575963	30065.181919
684.913951	29687.561687
685.251889	29865.363183
685.589776	29884.297757
685.927614	29890.135413
686.265401	30068.531766
686.603137	30169.574133
686.940824	30679.156649
687.278460	31010.468841
687.616046	31180.388493
687.953582	31849.710051
688.291068	31742.308269
688.628504	32089.043871
688.965889	32078.323858
689.303224	31822.573520
689.640510	31543.449873
689.977745	30901.842058
690.314930	30161.591466
690.652065	29727.568284
690.989150	29064.293590
691.326185	28214.196256
691.663170	27581.060100
692.000105	26836.363210
692.336990	26229.151188
692.673825	25796.811752
693.010610	25316.591436
693.347345	24810.058818
693.684030	24176.395862
694.020665	23976.798938
694.357251	23294.844248
694.693786	23291.791829
695.030272	23062.399165
695.366707	22562.175551
695.703093	22282.499897
696.039429	22353.900280
696.375716	22106.878700
696.711952	22103.861570
697.048139	21966.031382
697.384276	21818.418836
697.720363	21926.591915
698.056400	21813.226447
698.392388	21657.404382
698.728326	21651.128146
699.064214	21491.910863
699.400053	21495.462356
699.735842	21095.691294
700.071581	20903.706512
700.407270	20650.804426
700.742910	20489.167390
701.078501	20235.254553
701.414042	20033.288286
701.749533	19724.976358
702.084974	19413.249048
702.420366	19644.116250
702.755709	19229.987982
703.091002	18918.863090
703.426246	18983.483121
703.761440	18908.032171
704.096584	18667.977466
704.431679	18604.869782
704.766725	18561.493173
705.101721	18492.260487
705.436668	18617.775136
705.771565	18332.629830
706.106413	18648.372419
706.441212	18721.174242
706.775961	18821.793152
707.110661	18897.533968
707.445311	19259.539226
707.779913	19135.516759
708.114465	19430.318395
708.448967	19754.915770
708.783421	20379.963395
709.117825	20745.797409
709.452180	20969.682613
709.786485	21421.249010
710.120742	22187.431298
710.454949	22292.173872
710.789107	22796.269092
711.123216	23522.212889
711.457275	23738.896805
711.791286	24284.248828
712.125247	24451.542039
712.459159	24176.685729
712.793023	24937.892398
713.126837	23909.199585
713.460602	24174.467621
713.794318	23828.894004
714.127985	23568.740219
714.461602	22668.594309
714.795171	22643.194455
715.128691	21656.743991
715.462162	21138.798201
715.795584	20708.921368
716.128957	20450.284970
716.462281	20070.426466
716.795556	19775.806312
717.128782	19303.031781
717.461960	18694.488894
717.795088	18657.890117
718.128167	18312.066963
718.461198	17856.150051
718.794180	17721.180718
719.127113	17391.549751
719.459997	17197.097323
719.792833	16821.034808
720.125619	16868.504833
720.458357	16527.135539
720.791046	16381.647839
721.123686	16233.518574
721.456278	16013.457085
721.788821	16001.287740
722.121315	15742.449696
722.453761	15841.218502
722.786158	15723.336161
723.118506	15806.409335
723.450805	15678.522824
723.783056	15869.738830
724.115259	15751.102836
724.447412	15747.105201
724.779518	15963.534539
725.111574	16014.137641
725.443582	16276.988444
725.775542	16234.874645
726.107453	16748.918582
726.439315	16671.390677
726.771129	17087.910972
727.102895	17506.861104
727.434612	17786.098177
727.766281	17948.738403
728.097901	18277.716541
728.429473	18360.540178
728.760996	18378.952993
729.092471	18508.036778
729.423897	18396.637360
729.755276	18263.568543
730.086606	18389.874653
730.417887	18969.128435
730.749120	19528.504948
731.080305	19737.929602
731.411442	20138.124121
731.742530	20256.442523
732.073570	20427.022566
732.404562	20744.965618
732.735506	20582.025444
733.066401	20385.488499
733.397249	19887.878724
733.728048	19257.754658
734.058798	18403.994924
734.389501	17636.194426
734.720156	17119.992875
735.050762	16536.502003
735.381320	16145.784853
735.711831	15865.148860
736.042293	15497.573127
736.372707	15534.068560
736.703073	15318.839017
737.033391	15521.311921
737.363661	15506.490928
737.693883	15630.563807
738.024056	15835.872359
738.354182	16048.377158
738.684260	16409.361582
739.014290	16687.882812
739.344272	16904.312149
739.674207	17264.295904
740.004093	17429.330678
740.333931	17495.551275
740.663722	17571.657575
740.993464	17608.029500
741.323159	17468.003890
741.652806	17163.997107
741.982405	16995.327661
742.311956	16642.983775
742.641460	16529.260385
742.970915	16201.350972
743.300323	15851.588156
743.629683	15631.955165
743.958996	15322.526622
744.288260	15004.399567
744.617477	14700.102918
744.946647	14662.311908
745.275768	14346.067724
745.604842	14148.116736
745.933869	13965.206031
746.262847	13932.700671
746.591778	13855.896171
746.920662	13735.006782
747.249498	13740.864602
747.578286	13906.116146
747.907027	14067.307040
748.235720	14339.219317
748.564365	14409.016613
748.892963	14333.328729
749.221514	14433.287248
749.550017	14299.868070
749.878473	14266.268780
750.206881	14049.625193
750.535242	13967.237616
750.863555	13888.343558
751.191821	13788.085090
751.520039	13801.587821
751.848210	13734.074168
752.176334	13781.284574
752.504411	13701.243654
752.832440	13519.603319
753.160421	13636.341318
753.488356	13529.289896
753.816243	13434.574177
754.144082	13271.931430
754.471875	13210.338613
754.799620	13189.100232
755.127318	13159.506138
755.454969	13147.304025
755.782572	13117.707411
756.110129	13136.586532
756.437638	13038.132797
756.765100	13042.480792
757.092515	13061.395202
757.419882	13107.952778
757.747203	13118.740847
758.074477	13200.291593
758.401703	13185.445395
758.728882	13370.932130
759.056014	13421.295778
759.383099	13593.703239
759.710138	13716.611611
760.037129	13843.749511
760.364073	13901.531217
760.690970	13930.981637
761.017820	13951.771356
761.344623	14174.786961
761.671379	14549.483323
761.998088	15248.794705
762.324751	17027.407044
762.651366	20437.064544
762.977935	24917.682412
763.304456	27918.356142
763.630931	28992.845317
763.957359	27809.603330
764.283740	25549.008793
764.610074	23273.147122
764.936362	20629.845829
765.262602	18753.941742
765.588796	16805.160215
765.914943	15510.241547
766.241044	14397.404315
766.567097	13605.575157
766.893104	12884.279302
767.219064	12406.970253
767.544978	11922.550657
767.870845	11529.501974
768.196665	11311.794704
768.522438	11074.235370
768.848165	10870.681139
769.173846	10657.694910
769.499479	10529.465600
769.825066	10361.378407
770.150607	10133.268717
770.476101	10057.232993
770.801548	9928.234907
771.126949	9767.475032
771.452303	9653.492023
771.777611	9452.864182
772.102872	9450.686403
772.428087	9304.508065
772.753256	9147.677769
773.078378	9058.535046
773.403453	8873.108804
773.728482	8759.725693
774.053465	8686.760032
774.378401	8582.317407
774.703291	8460.220660
775.028135	8336.926640
775.352932	8299.498593
775.677683	8193.402470
776.002388	8084.158145
776.327046	8094.752130
776.651658	7997.914085
776.976224	7894.482211
777.300743	7895.903817
777.625216	7808.129766
777.949643	7754.169256
778.274024	7774.006196
778.598359	7689.524019
778.922647	7704.193777
779.246889	7655.629821
779.571086	7658.329359
779.895236	7674.713109
780.219339	7679.088831
780.543397	7683.099069
780.867409	7764.773323
781.191374	7768.322295
781.515294	7734.927171
781.839167	7829.577355
782.162995	7807.176988
782.486776	7749.241528
782.810511	7695.981737
783.134201	7614.869572
783.457844	7609.263809
783.781441	7558.093577
784.104993	7490.380798
784.428498	7464.633105
784.751958	7450.346475
785.075372	7425.773371
785.398739	7364.639298
785.722061	7417.944459
786.045337	7415.625528
786.368568	7577.796927
786.691752	7597.366686
787.014891	7942.353008
787.337983	8294.737224
787.661030	8889.618583
787.984031	9518.207618
788.306987	9929.379249
788.629897	10139.328183
788.952760	10083.043701
789.275579	9863.907264
789.598351	9467.334814
789.921078	9118.192060
790.243759	8696.940642
790.566395	8407.081858
790.888984	8156.629773
791.211529	7939.966022
791.534027	7726.500883
791.856480	7522.513113
792.178888	7449.076104
792.501249	7347.141453
792.823566	7185.456526
793.145836	7189.628080
793.468062	7158.365365
793.790241	7111.215453
794.112375	7172.984711
794.434464	7332.315419
794.756507	7371.233127
795.078505	7528.398660
795.400457	7843.266609
795.722364	8195.648304
796.044226	8483.122622
796.366042	8752.579857
796.687812	8706.826345
797.009538	8783.212428
797.331218	8687.087707
797.652852	8603.165098
797.974442	8444.222559
798.295986	8363.803552
798.617484	8164.158736
798.938938	8027.735031
799.260346	7923.970441
799.581709	7725.631284
799.903026	7644.935013
800.224299	7536.071296
800.545526	7358.340376
800.866708	7265.966273
801.187845	7201.951181
801.508936	7087.403563
801.829983	7049.927625
802.150984	6894.939871
802.471940	6856.009560
802.792851	6837.412743
803.113717	6806.621376
803.434538	6771.484533
803.755314	6711.656120
804.076045	6717.468570
804.396731	6665.890004
804.717372	6692.494694
805.037967	6694.347318
805.358518	6736.473720
805.679024	6814.780483
805.999485	6825.366906
806.319901	6865.055911
806.640272	6887.660444
806.960598	6970.826880
807.280879	6967.663556
807.601115	7049.219343
807.921306	6998.492732
808.241453	7010.306676
808.561554	7035.691407
808.881611	6995.478122
809.201623	7009.890781
809.521590	6953.036648
809.841513	6938.382014
810.161390	6975.144628
810.481223	6844.384659
810.801011	6831.902762
811.120755	6804.257075
811.440453	6728.838893
811.760107	6688.885228
812.079716	6666.081568
812.399281	6596.458193
812.718801	6586.164156
813.038276	6543.876437
813.357707	6480.955276
813.677093	6519.210072
813.996434	6428.396206
814.315731	6472.075283
814.634983	6462.663449
814.954191	6477.076108
815.273354	6584.941677
815.592473	6647.262941
815.911547	6780.195647
816.230577	6858.779674
816.549562	7005.152097
816.868502	7102.194308
817.187399	7206.710030
817.506250	7355.003132
817.825058	7395.372692
818.143821	7662.440420
818.462539	7937.516021
818.781213	8312.338412
819.099843	8861.524233
819.418429	9859.670174
819.736970	10846.055103
820.055466	12030.363294
820.373919	13573.599118
820.692327	15935.815754
821.010691	20102.773030
821.329011	29117.555901
821.647286	42162.043073
821.965517	55623.332845
822.283704	60994.573883
822.601847	63008.098949
822.919945	60370.912576
823.237999	56258.755164
823.556010	50173.790084
823.873976	43445.167962
824.191897	36875.364870
824.509775	31983.953458
824.827609	27405.965703
825.145398	24779.302739
825.463144	23384.891859
825.780845	23678.783566
826.098502	25445.834018
826.416116	29224.826614
826.733685	32887.421488
827.051210	34037.568300
827.368692	32278.538324
827.686129	28323.455703
828.003522	24170.190202
828.320872	20437.939184
828.638177	17568.675732
828.955439	15392.008845
829.272656	13571.549889
829.589830	12077.896333
829.906960	10789.826073
830.224046	9842.421866
830.541088	9084.189478
830.858086	8619.526163
831.175041	8234.807987
831.491952	8111.521528
831.808819	8155.956779
832.125642	8556.753715
832.442421	9454.989028
832.759157	11244.056720
833.075849	14169.256815
833.392497	17414.928102
833.709101	19613.599625
834.025662	19475.187185
834.342179	17787.774361
834.658653	15587.562764
834.975083	13638.836690
835.291469	12008.903102
835.607811	10681.869763
835.924110	9760.520760
836.240366	8887.287050
836.556578	8068.986793
836.872746	7427.129441
837.188871	6914.744043
837.504952	6494.556309
837.820990	6179.907650
838.136984	5956.844154
838.452935	5861.921748
838.768842	5890.477364
839.084706	6309.908926
839.400526	7521.557814
839.716303	9112.803067
840.032037	10221.125946
840.347727	10159.056739
840.663373	9173.632150
840.978977	8135.187225
841.294537	7314.772204
841.610054	6708.691921
841.925527	6268.200939
842.240957	5907.093007
842.556344	5570.475000
842.871687	5283.945898
843.186987	4998.866127
843.502244	4771.827681
843.817458	4606.331642
844.132629	4467.677226
844.447756	4373.490828
844.762840	4293.485196
845.077881	4217.867888
845.392879	4153.149555
845.707833	4102.680043
846.022745	4059.946182
846.337613	4029.890823
846.652438	3986.720902
846.967221	3972.537616
847.281960	3936.614353
847.596656	3919.827311
847.911309	3898.031882
848.225919	3874.479612
848.540485	3857.543855
848.855009	3845.563553
849.169490	3822.704441
849.483928	3812.942247
849.798323	3800.299033
850.112675	3784.416877
850.426984	3791.040954
850.741251	3778.140641
851.055474	3768.814506
851.369654	3775.078140
851.683792	3770.518416
851.997887	3776.293058
852.311938	3779.380765
852.625947	3784.028709
852.939914	3774.868932
853.253837	3782.894449
853.567718	3779.920168
853.881555	3768.640587
854.195350	3783.824542
854.509103	3782.753297
854.822812	3780.298255
855.136479	3771.637553
855.450103	3779.615178
855.763685	3767.586985
856.077224	3769.253087
856.390720	3786.140952
856.704173	3809.489056
857.017584	3817.267557
857.330953	3833.119465
857.644278	3856.530583
857.957561	3858.433619
858.270802	3858.027806
858.584000	3860.460163
858.897155	3854.372969
859.210268	3836.260104
859.523339	3814.172288
859.836367	3815.409891
860.149352	3805.446051
860.462295	3799.684012
860.775195	3789.563896
861.088054	3785.959471
861.400869	3783.088533
861.713642	3780.454531
862.026373	3794.015234
862.339062	3794.962971
862.651708	3815.314109
862.964312	3854.768700
863.276873	3866.517109
863.589392	3923.489709
863.901869	3969.175166
864.214303	4013.242412
864.526696	4048.321281
864.839045	4092.907767
865.151353	4120.906335
865.463619	4130.683653
865.775842	4134.918222
866.088023	4159.420750
866.400162	4147.513545
866.712258	4155.655008
867.024313	4160.194568
867.336325	4157.051408
867.648296	4163.110875
867.960224	4159.307324
868.272110	4172.971372
868.583954	4175.991023
868.895755	4186.557282
869.207515	4184.956715
869.519233	4228.106472
869.830909	4243.696240
870.142542	4266.827574
870.454134	4278.878453
870.765684	4309.664779
871.077191	4344.569728
871.388657	4372.800190
871.700081	4411.158329
872.011463	4451.883291
872.322803	4488.366121
872.634101	4519.139845
872.945357	4555.705854
873.256571	4615.012509
873.567744	4648.344618
873.878874	4660.599663
874.189963	4704.001477
874.501010	4709.511458
874.812015	4709.576993
875.122979	4753.077110
875.433900	4751.862192
875.744780	4761.211011
876.055618	4788.332419
876.366415	4791.631854
876.677169	4814.324608
876.987882	4862.341599
877.298554	4915.475360
877.609183	4993.504860
877.919771	5104.402683
878.230317	5251.289303
878.540822	5470.892047
878.851285	5795.444052
879.161707	6261.090392
879.472087	7029.752927
879.782425	8269.977597
880.092722	10471.940994
880.402977	13801.212255
880.713191	17590.130883
881.023363	21349.157989
881.333494	23588.534309
881.643583	24825.880480
881.953631	24838.269115
882.263637	23995.725950
882.573602	22518.100743
882.883526	20950.987494
883.193408	19265.142468
883.503248	17557.416315
883.813048	15986.713764
884.122806	14543.822108
884.432522	13056.288513
884.742197	11772.979622
885.051831	10667.073977
885.361424	9648.334922
885.670975	8818.152666
885.980485	8114.762990
886.289954	7536.202366
886.599382	7057.401136
886.908768	6672.133473
887.218113	6300.388707
887.527417	6010.005642
887.836680	5743.971351
888.145901	5523.483884
888.455082	5355.585735
888.764221	5202.977405
889.073319	5062.334254
889.382376	4988.478830
889.691392	4930.563534
890.000366	4909.761212
890.309300	4889.916710
890.618193	4888.732039
890.927044	4873.638824
891.235855	4898.506836
891.544625	4929.426753
891.853353	4990.732225
892.162041	5113.310402
892.470687	5295.046518
892.779293	5550.940529
893.087858	5926.360297
893.396381	6510.037692
893.704864	7316.334962
894.013306	8472.309347
894.321707	9659.002004
894.630068	10483.079423
894.938387	10702.472959
895.246665	10466.718358
895.554903	9864.275268
895.863100	9154.644644
896.171256	8592.929035
896.479371	8089.388342
896.787446	7578.122081
897.095480	7147.980588
897.403473	6824.240208
897.711425	6499.214335
898.019336	6231.975208
898.327207	5957.098733
898.635038	5725.220779
898.942827	5474.778777
899.250576	5277.094970
899.558284	5085.480712
899.865952	4962.605108
900.173579	4811.284792
900.481165	4703.232701
900.788711	4611.778608
901.096216	4533.365981
901.403681	4470.129747
901.711105	4448.427580
902.018489	4425.414713
902.325832	4498.556814
902.633135	4624.358808
902.940397	4965.891940
903.247619	5767.586636
903.554800	7217.815692
903.861941	9154.783276
904.169041	10696.405930
904.476101	11335.316728
904.783121	10991.688996
905.090100	10248.673331
905.397039	9400.279906
905.703938	8638.601889
906.010796	7937.470651
906.317614	7377.453911
906.624391	6835.086251
906.931129	6402.141876
907.237826	5999.252861
907.544483	5621.715808
907.851099	5241.897633
908.157675	4882.846492
908.464211	4551.302406
908.770707	4313.488494
909.077163	4109.679685
909.383578	3967.625011
909.689954	3844.207483
909.996289	3774.649642
910.302584	3711.357955
910.608839	3679.074406
910.915054	3646.022081
911.221229	3632.204278
911.527363	3641.321205
911.833458	3656.810150
912.139513	3686.137063
912.445527	3710.458109
912.751502	3796.104793
913.057436	3899.193868
913.363331	4033.515412
913.669186	4242.146085
913.975000	4503.338348
914.280775	4930.682001
914.586510	5519.536661
914.892205	6322.728580
915.197859	7370.887808
915.503475	8602.451775
915.809050	9666.014249
916.114585	10324.603190
916.420081	10590.713099
916.725536	10550.278004
917.030952	10114.833217
917.336328	9701.781235
917.641665	9285.006362
917.946961	8803.525758
918.252218	8374.828555
918.557435	7864.562963
918.862612	7422.713390
919.167750	7046.718931
919.472848	6620.267562
919.777906	6240.093986
920.082925	5880.142998
920.387904	5504.798848
920.692843	5236.480914
920.997743	4986.147296
921.302603	4747.912447
921.607423	4581.932457
921.912204	4423.577212
922.216946	4303.272596
922.521647	4178.589738
922.826310	4069.105959
923.130932	3973.205568
923.435516	3878.351218
923.740059	3803.084270
924.044564	3726.536870
924.349028	3668.903878
924.653454	3602.587499
924.957840	3533.692570
925.262186	3483.817915
925.566493	3422.348605
925.870761	3365.975903
926.174989	3326.322186
926.479178	3290.310704
926.783328	3244.322778
927.087438	3217.529045
927.391509	3181.905732
927.695541	3155.235507
927.999533	3124.902884
928.303486	3104.125769
928.607400	3089.519026
928.911275	3076.414546
929.215110	3058.029458
929.518906	3051.372614
929.822663	3047.974877
930.126381	3043.906666
930.430060	3055.821433
930.733699	3056.053326
931.037299	3064.277968
931.340861	3061.512895
931.644383	3075.396233
931.947866	3071.746438
932.251309	3064.686302
932.554714	3065.381981
932.858080	3061.124727
933.161407	3050.765155
933.464694	3041.565050
933.767943	3035.429965
934.071153	3033.917619
934.374323	3022.398583
934.677455	3016.737367
934.980548	3009.306706
935.283602	3002.143227
935.586617	2998.324553
935.889593	3009.437776
936.192530	3012.376769
936.495428	3026.791948
936.798287	3047.818601
937.101108	3082.284970
937.403890	3131.768936
937.706632	3194.468287
938.009336	3272.102056
938.312002	3350.401258
938.614628	3411.568098
938.917216	3464.772436
939.219765	3496.042713
939.522275	3530.214174
939.824747	3533.745503
940.127179	3535.318343
940.429573	3528.943803
940.731929	3526.145963
941.034246	3515.080630
941.336524	3500.037827
941.638763	3484.082575
941.940964	3471.721666
942.243126	3429.615429
942.545250	3405.395205
942.847335	3366.356510
943.149381	3330.544153
943.451389	3300.324956
943.753359	3262.279368
944.055290	3238.094432
944.357182	3214.045608
944.659036	3197.727393
944.960851	3188.970909
945.262628	3173.978517
945.564367	3176.458765
945.866067	3170.792508
946.167729	3167.924091
946.469352	3166.610871
946.770937	3161.922598
947.072484	3143.779485
947.373992	3148.056904
947.675462	3138.957621
947.976893	3121.704272
948.278286	3114.505505
948.579641	3106.580811
948.880958	3103.220882
949.182236	3105.103753
949.483476	3096.821137
949.784678	3098.981271
950.085841	3099.354317
950.386967	3107.959566
950.688054	3127.920015
950.989103	3148.014054
951.290114	3166.686488
951.591087	3195.993236
951.892021	3223.112123
952.192917	3250.031885
952.493776	3279.094137
952.794596	3285.889612
953.095378	3290.051084
953.396122	3284.460445
953.696828	3281.334929
953.997496	3264.754574
954.298126	3242.608786
954.598718	3222.608008
954.899272	3197.671940
955.199788	3169.421314
955.500266	3138.110707
955.800706	3099.064450
956.101108	3061.941393
956.401472	3032.884183
956.701798	2999.665499
957.002087	2958.418779
957.302337	2930.647062
957.602550	2900.349728
957.902724	2872.351159
958.202861	2843.062055
958.502960	2827.295847
958.803022	2802.533699
959.103045	2782.321192
959.403031	2765.617329
959.702979	2751.318096
960.002889	2737.928792
960.302762	2726.238356
960.602596	2714.323589
960.902393	2701.992927
961.202153	2697.478573
961.501875	2690.620083
961.801559	2682.644978
962.101205	2675.000068
962.400814	2671.118380
962.700385	2663.763336
962.999918	2657.562717
963.299414	2652.375370
963.598873	2648.992756
963.898293	2643.951602
964.197677	2642.104019
964.497022	2639.986734
964.796331	2637.541775
965.095601	2634.610344
965.394835	2631.036166
965.694030	2632.566156
965.993189	2631.079015
966.292309	2629.044910
966.591393	2626.990640
966.890439	2625.712707
967.189447	2626.025259
967.488419	2625.591719
967.787353	2626.940228
968.086249	2628.467698
968.385108	2631.840230
968.683930	2635.863070
968.982714	2638.965901
969.281462	2641.360449
969.580172	2645.179123
969.878844	2652.776142
970.177480	2663.039931
970.476078	2667.914727
970.774639	2673.311282
971.073162	2684.185051
971.371649	2689.916842
971.670098	2696.152750
971.968510	2700.926722
972.266885	2705.158771
972.565223	2709.920141
972.863524	2707.891077
973.161788	2714.681511
973.460014	2717.290308
973.758204	2723.412789
974.056356	2723.979919
974.354471	2724.252141
974.652550	2725.603171
974.950591	2724.418499
975.248595	2721.335834
975.546563	2719.115206
975.844493	2714.184957
976.142386	2711.954247
976.440243	2706.749255
976.738062	2702.645756
977.035845	2695.278110
977.333590	2689.604291
977.631299	2684.043898
977.928971	2677.061900
978.226606	2668.590241
978.524204	2667.279541
978.821765	2663.007163
979.119290	2670.309275
979.416777	2667.806342
979.714228	2668.287772
980.011642	2673.888494
980.309020	2679.262364
980.606360	2696.540919
980.903664	2717.136553
981.200931	2754.383118
981.498162	2803.531847
981.795356	2879.358363
982.092513	2970.136941
982.389633	3074.458578
982.686717	3175.463137
982.983764	3249.971391
983.280775	3299.097435
983.577749	3310.409784
983.874686	3292.085190
984.171587	3260.930859
984.468451	3218.179354
984.765279	3174.623785
985.062070	3127.715848
985.358824	3081.289342
985.655543	3026.103831
985.952224	2971.344297
986.248869	2910.306006
986.545478	2848.201512
986.842050	2792.600105
987.138586	2745.193094
987.435086	2706.908052
987.731549	2673.795232
988.027975	2648.660039
988.324366	2632.220837
988.620719	2619.769187
988.917037	2608.383741
989.213318	2598.354365
989.509563	2592.146184
989.805772	2586.928590
990.101944	2578.661098
990.398080	2576.705130
990.694180	2576.442990
990.990244	2578.219997
991.286271	2577.287383
991.582262	2578.915676
991.878217	2580.528845
992.174136	2585.766604
992.470019	2583.510688
992.765865	2588.952613
993.061676	2595.826227
993.357450	2604.507093
993.653188	2611.156375
993.948890	2630.655558
994.244556	2646.661222
994.540186	2672.426559
994.835780	2700.629294
995.131337	2737.376785
995.426859	2784.519136
995.722345	2832.674758
996.017795	2883.129146
996.313208	2920.703386
996.608586	2948.144907
996.903928	2962.761733
997.199234	2961.561938
997.494504	2959.300981
997.789738	2941.823300
998.084936	2917.338416
998.380099	2887.401524
998.675225	2857.119313
998.970316	2826.869869
999.265371	2789.799744
999.560390	2751.418919
999.855373	2722.994373
1000.150320	2693.541432
1000.445232	2666.846002
1000.740108	2646.273053
1001.034948	2630.453912
1001.329752	2612.424226
1001.624521	2602.445262
1001.919254	2589.552511
1002.213951	2580.110429
1002.508613	2570.804459
1002.803239	2564.805486
1003.097829	2562.773901
1003.392384	2555.071018
1003.686903	2548.015923
1003.981386	2549.679504
1004.275834	2543.642722
1004.570246	2538.959491
1004.864623	2539.882022
1005.158964	2533.378933
1005.453270	2534.591331
1005.747540	2532.131248
1006.041775	2534.341794
1006.335974	2527.400125
1006.630138	2529.083870
1006.924266	2526.749816
1007.218359	2526.943900
1007.512416	2520.750843
1007.806438	2518.971316
1008.100425	2523.289064
1008.394376	2519.601460
1008.688292	2522.689167
1008.982172	2523.382325
1009.276017	2521.907788
1009.569827	2522.704290
1009.863602	2519.034330
1010.157341	2517.620286
1010.451045	2521.375946
1010.744714	2518.131963
1011.038347	2517.358146
1011.331945	2515.351767
1011.625508	2514.870337
1011.919036	2515.664319
1012.212528	2514.288084
1012.505986	2512.828670
1012.799408	2512.236334
1013.092795	2509.766169
1013.386147	2511.523011
1013.679464	2510.471930
1013.972745	2511.336488
1014.265992	2510.504698
1014.559204	2511.638957
1014.852380	2507.807680
1015.145521	2510.865140
1015.438628	2511.575943
1015.731699	2510.083761
1016.024736	2512.818587
1016.317737	2513.536952
1016.610703	2513.925121
1016.903635	2516.601973
1017.196531	2511.865809
1017.489393	2517.653054
1017.782219	2519.296470
1018.075011	2522.532891
1018.367768	2519.951820
1018.660490	2523.536080
1018.953177	2523.536080
1019.245829	2523.536080
