Dividing Wavelength (nm)	Counts (n)	Blue Motor Position (mm): 11.000000	Red Motor Position (mm): 0.000000	
326.493990	2105.301793
326.888308	2105.301793
327.282561	2105.301793
327.676750	2081.578123
328.070874	2080.776579
328.464933	2091.025245
328.858929	2101.334405
329.252859	2110.232041
329.646726	2125.126130
330.040528	2142.445014
330.434265	2161.858498
330.827938	2180.717454
331.221547	2199.488191
331.615091	2221.649103
332.008571	2242.501836
332.401986	2261.625453
332.795338	2283.110851
333.188625	2303.172122
333.581847	2320.571665
333.975006	2339.705364
334.368100	2356.981398
334.761129	2374.663246
335.154095	2390.966337
335.546996	2421.954310
335.939833	2471.783595
336.332606	2482.727940
336.725315	2493.916781
337.117960	2500.513131
337.510540	2508.896570
337.903056	2517.854700
338.295508	2523.810823
338.687896	2529.424148
339.080220	2539.829090
339.472480	2543.027702
339.864676	2545.674308
340.256807	2548.814946
340.648875	2551.716130
341.040879	2548.676315
341.432818	2554.665205
341.824694	2555.451625
342.216506	2554.095555
342.608253	2554.990360
342.999937	2553.031872
343.391557	2550.823846
343.783113	2549.843342
344.174605	2547.116077
344.566033	2545.719678
344.957397	2543.829245
345.348697	2541.260777
345.739934	2543.539379
346.131106	2541.774975
346.522215	2537.522762
346.913260	2536.937988
347.304241	2536.905220
347.695159	2533.966228
348.086012	2533.426824
348.476802	2531.498583
348.867528	2532.965559
349.258191	2529.063706
349.648789	2529.835002
350.039324	2522.989115
350.429796	2527.392563
350.820203	2523.223529
351.210548	2524.844260
351.600828	2524.705628
351.991045	2524.715710
352.381198	2520.168590
352.771288	2521.557427
353.161314	2520.937366
353.551276	2523.440298
353.941175	2521.728827
354.331010	2522.767304
354.720782	2525.907943
355.110490	2523.231091
355.500135	2522.787469
355.889717	2520.612211
356.279235	2524.698066
356.668689	2522.893333
357.058080	2524.995494
357.447408	2523.871317
357.836672	2521.023065
358.225873	2522.961389
358.615010	2519.553569
359.004084	2525.912984
359.393095	2526.901051
359.782043	2527.513551
360.170927	2528.047913
360.559748	2529.383819
360.948505	2529.754344
361.337199	2526.800227
361.725830	2529.250228
362.114398	2529.403983
362.502903	2529.640918
362.891344	2530.326515
363.279722	2531.811134
363.668037	2532.025383
364.056289	2532.544622
364.444478	2533.036135
364.832603	2531.763243
365.220665	2534.344314
365.608665	2532.088398
365.996601	2535.690302
366.384474	2533.033614
366.772284	2533.278110
367.160031	2533.938501
367.547715	2534.757689
367.935336	2533.908254
368.322893	2536.048224
368.710388	2535.990251
369.097820	2539.629964
369.485189	2535.833975
369.872495	2537.432021
370.259738	2536.277597
370.646918	2537.507638
371.034035	2539.196425
371.421090	2535.309695
371.808081	2539.463606
372.195010	2539.950077
372.581875	2535.347504
372.968678	2538.704912
373.355418	2538.755324
373.742096	2539.249357
374.128710	2538.110056
374.515262	2539.229192
374.901751	2536.905220
375.288177	2537.989068
375.674540	2541.202804
376.060841	2537.101825
376.447079	2539.950077
376.833254	2542.584080
377.219367	2537.563091
377.605417	2538.457896
377.991404	2539.307330
378.377329	2539.859337
378.763191	2534.581248
379.148991	2541.926210
379.534727	2542.969728
379.920402	2542.052238
380.306013	2542.440407
380.691563	2542.624409
381.077049	2544.066179
381.462474	2542.836138
381.847835	2542.117773
382.233134	2542.707588
382.618371	2546.125491
383.003545	2544.618186
383.388657	2545.858310
383.773706	2542.798329
384.158693	2545.029040
384.543618	2543.821683
384.928480	2544.124153
385.313280	2547.990718
385.698017	2545.296221
386.082692	2547.320244
386.467305	2546.140614
386.851856	2545.850748
387.236344	2546.165820
387.620770	2546.243958
388.005133	2547.264792
388.389435	2547.824360
388.773674	2546.649771
389.157851	2548.225131
389.541965	2547.216901
389.926018	2547.655481
390.310008	2548.159596
390.693936	2550.458362
391.077802	2547.342929
391.461606	2550.743188
391.845348	2550.355019
392.229027	2548.641027
392.612645	2550.634803
392.996200	2549.674463
393.379694	2552.179917
393.763125	2551.088507
394.146494	2551.824515
394.529801	2552.936090
394.913047	2551.549772
395.296230	2550.329813
395.679351	2548.550286
396.062410	2551.764021
396.445408	2551.758980
396.828343	2551.615307
397.211217	2549.727395
397.594028	2549.414844
397.976778	2549.495502
398.359466	2550.725544
398.742092	2549.724875
399.124656	2554.609753
399.507158	2553.344423
399.889598	2553.422561
400.271977	2553.835936
400.654294	2557.142932
401.036549	2557.349620
401.418742	2555.446584
401.800874	2553.878785
402.182944	2556.419527
402.564952	2552.394166
402.946898	2556.414486
403.328783	2559.512275
403.710606	2559.497151
404.092367	2556.782490
404.474067	2557.561348
404.855705	2556.996739
405.237282	2556.495144
405.618797	2557.750392
406.000250	2559.081256
406.381642	2557.420196
406.762972	2555.607901
407.144240	2557.531101
407.525447	2560.122254
407.906593	2556.779969
408.287677	2558.141081
408.668700	2556.391801
409.049661	2558.105793
409.430560	2557.921791
409.811399	2560.056719
410.192176	2557.652089
410.572891	2560.344065
410.953545	2559.991184
411.334138	2558.738458
411.714669	2561.987481
412.095139	2561.783315
412.475547	2557.896585
412.855894	2560.230639
413.236180	2564.243398
413.616405	2561.984961
413.996568	2556.815257
414.376670	2560.964127
414.756711	2559.078736
415.136691	2560.341545
415.516609	2561.543860
415.896466	2562.458829
416.276262	2561.750547
416.655997	2561.364899
417.035670	2559.439178
417.415283	2559.333314
417.794834	2557.480690
418.174324	2562.121072
418.553753	2561.107800
418.933121	2564.573593
419.312428	2560.785166
419.691674	2563.605692
420.070859	2560.664178
420.449983	2561.412790
420.829045	2562.736093
421.208047	2563.449416
421.586988	2562.000084
421.965867	2565.377657
422.344686	2562.819272
422.723444	2563.746844
423.102141	2564.881104
423.480777	2564.563511
423.859352	2565.604509
424.237866	2564.971844
424.616319	2564.150136
424.994712	2564.654252
425.373044	2564.732390
425.751314	2564.230795
426.129524	2565.279355
426.507673	2566.138872
426.885762	2564.258521
427.263789	2562.584858
427.641756	2566.143913
428.019662	2566.438820
428.397508	2566.716084
428.775292	2563.046124
429.153016	2564.321536
429.530679	2563.933367
429.908282	2565.838923
430.285824	2565.428069
430.663305	2564.364385
431.040726	2564.689540
431.418086	2565.360013
431.795385	2567.802452
432.172624	2566.287586
432.549802	2566.965621
432.926920	2567.071485
433.303977	2567.799932
433.680974	2565.294478
434.057910	2567.747000
434.434786	2568.472926
434.811601	2571.129614
435.188355	2566.746331
435.565050	2569.327401
435.941683	2568.084757
436.318257	2564.538305
436.694770	2563.792214
437.071222	2567.487380
437.447614	2563.124262
437.823946	2566.461505
438.200218	2564.303892
438.576429	2567.124417
438.952580	2566.690878
439.328670	2568.921588
439.704700	2566.211968
440.080670	2569.087947
440.456580	2569.178687
440.832429	2568.399829
441.208218	2569.844120
441.583947	2566.769016
441.959616	2568.722463
442.335224	2568.563667
442.710773	2571.469892
443.086261	2569.776064
443.461689	2568.445199
443.837057	2568.026784
444.212365	2570.186918
444.587612	2569.193811
444.962800	2570.484346
445.337927	2571.439645
445.712995	2570.118862
446.088002	2568.102401
446.462949	2571.308575
446.837837	2572.483164
447.212664	2565.884293
447.587431	2571.522824
447.962139	2572.853688
448.336786	2572.352094
448.711374	2570.862433
449.085901	2573.735890
449.460369	2571.089285
449.834776	2573.307392
450.209124	2570.257494
450.583412	2572.238668
450.957640	2572.160530
451.331808	2571.875705
451.705917	2570.628019
452.079965	2572.173133
452.453954	2571.273287
452.827883	2572.261353
453.201752	2573.083061
453.575562	2571.984089
453.949311	2570.501990
454.323001	2572.296641
454.696632	2572.420149
455.070202	2572.934347
455.443713	2574.492063
455.817164	2569.529048
456.190556	2569.216496
456.563888	2571.916034
456.937160	2570.438976
457.310373	2574.476940
457.683526	2573.067937
458.056619	2575.535582
458.429653	2574.587845
458.802628	2576.175809
459.175542	2575.603638
459.548398	2576.997517
459.921194	2576.662280
460.293930	2580.070100
460.666607	2581.340471
461.039224	2582.290728
461.411782	2580.312076
461.784280	2581.342992
462.156719	2581.519432
462.529099	2581.443815
462.901419	2579.969277
463.273680	2580.029771
463.645882	2579.087075
464.018024	2578.653536
464.390106	2582.313414
464.762130	2583.913980
465.134094	2585.857345
465.505999	2586.910946
465.877845	2586.351378
466.249631	2591.198447
466.621358	2585.239803
466.993026	2591.382449
467.364634	2589.769280
467.736184	2584.902046
468.107674	2587.137798
468.479105	2585.728795
468.850477	2585.983374
469.221790	2588.514033
469.593043	2583.656881
469.964238	2586.684094
470.335373	2582.230235
470.706449	2586.321131
471.077467	2587.546131
471.448425	2592.572162
471.819324	2590.631317
472.190164	2590.149887
472.560945	2589.207192
472.931667	2588.539239
473.302330	2584.387848
473.672934	2587.200812
474.043479	2586.578230
474.413965	2587.863724
474.784393	2583.881212
475.154761	2585.012952
475.525070	2586.860534
475.895321	2584.655030
476.265513	2583.636717
476.635645	2588.297263
477.005719	2590.404466
477.375734	2589.076122
477.745691	2591.924373
478.115588	2592.241966
478.485427	2591.074939
478.855207	2596.852101
479.224928	2594.016452
479.594591	2596.378233
479.964194	2597.701536
480.333739	2597.804879
480.703226	2595.879159
481.072653	2597.388984
481.442022	2597.036103
481.811333	2597.736824
482.180584	2594.374374
482.549777	2597.734303
482.918912	2595.990064
483.287988	2596.973089
483.657005	2598.341762
484.025964	2597.633480
484.394864	2598.069540
484.763706	2598.548450
485.132489	2596.126175
485.501213	2595.755650
485.869879	2596.685743
486.238487	2596.342945
486.607036	2597.033583
486.975527	2597.426793
487.343959	2597.177256
487.712333	2597.807400
488.080648	2596.045517
488.448905	2598.888727
488.817104	2599.012236
489.185244	2599.728080
489.553326	2602.578852
489.921350	2601.772267
490.289315	2606.468102
490.657222	2608.371138
491.025070	2607.216714
491.392861	2608.260232
491.760593	2606.284100
492.128267	2608.580346
492.495883	2599.528954
492.863440	2605.727053
493.230939	2604.572628
493.598380	2603.070365
493.965763	2600.622884
494.333088	2602.258739
494.700354	2602.795622
495.067563	2604.345777
495.434713	2600.663214
495.801805	2608.487084
496.168839	2606.599172
496.535815	2606.636981
496.902733	2609.205449
497.269593	2611.234513
497.636395	2611.116046
498.003139	2613.044287
498.369825	2612.860285
498.736453	2614.912035
499.103023	2615.280039
499.469535	2617.379680
499.835989	2618.597118
500.202385	2619.033178
500.568723	2618.934876
500.935003	2624.593571
501.301226	2626.103397
501.667390	2624.225567
502.033497	2629.302009
502.399546	2627.585496
502.765537	2632.956845
503.131470	2634.338121
503.497345	2633.450878
503.863163	2636.019346
504.228923	2636.442803
504.594625	2640.516055
504.960269	2639.389357
505.325856	2642.711478
505.691385	2642.212404
506.056856	2647.475368
506.422270	2650.157262
506.787625	2653.270175
507.152924	2655.490803
507.518164	2657.224960
507.883347	2656.486431
508.248472	2658.071874
508.613540	2661.323418
508.978550	2663.223933
509.343503	2666.571259
509.708398	2668.870025
510.073236	2672.910510
510.438016	2675.526869
510.802738	2673.424708
511.167403	2680.371418
511.532010	2680.898218
511.896561	2687.255113
512.261053	2693.612008
512.625488	2688.832994
512.989866	2689.861390
513.354186	2693.173428
513.718449	2696.016639
514.082655	2702.083667
514.446803	2704.241281
514.810894	2708.382589
515.174927	2712.085317
515.538904	2712.276880
515.902822	2719.747870
516.266684	2718.648899
516.630488	2724.501678
516.994235	2723.763149
517.357925	2730.036865
517.721558	2732.920405
518.085133	2739.138669
518.448651	2738.216137
518.812112	2741.094636
519.175516	2742.554050
519.538863	2744.578074
519.902152	2750.264495
520.265385	2751.010586
520.628560	2758.453850
520.991678	2759.144488
521.354739	2762.728748
521.717743	2764.104983
522.080690	2766.950714
522.443580	2774.482198
522.806413	2774.832558
523.169189	2776.496139
523.531908	2780.917231
523.894569	2781.660801
524.257174	2788.650361
524.619722	2792.471556
524.982213	2791.511216
525.344647	2793.807462
525.707025	2798.611681
526.069345	2799.871970
526.431608	2804.749286
526.793815	2808.358752
527.155964	2812.704227
527.518057	2813.402427
527.880093	2812.560554
528.242072	2816.515339
528.603995	2816.490133
528.965860	2819.847542
529.327669	2820.931390
529.689421	2825.113027
530.051117	2826.915239
530.412755	2825.448264
530.774337	2830.633090
531.135862	2832.707525
531.497331	2835.218020
531.858743	2834.108966
532.220098	2841.668176
532.581396	2839.954184
532.942638	2841.108608
533.303824	2848.141018
533.664953	2847.314268
534.026025	2849.887777
534.387040	2854.056812
534.747999	2854.863396
535.108902	2861.502596
535.469748	2858.024200
535.830537	2865.036445
536.191270	2863.884541
536.551947	2863.806403
536.912567	2868.434183
537.273131	2872.772095
537.633638	2868.504759
537.994089	2873.498022
538.354483	2872.232692
538.714821	2877.384751
539.075103	2884.235679
539.435328	2885.390103
539.795497	2885.594270
540.155609	2886.305073
540.515665	2893.650034
540.875665	2894.018038
541.235609	2895.658934
541.595496	2900.669841
541.955328	2906.908269
542.315102	2906.010943
542.674821	2902.739234
543.034483	2908.256777
543.394090	2910.802560
543.753640	2914.815318
544.113134	2922.787903
544.472571	2916.584763
544.831953	2932.187135
545.191278	2926.651948
545.550548	2930.231167
545.909761	2935.521858
546.268918	2941.805656
546.628019	2949.425360
546.987064	2948.409568
547.346053	2943.040739
547.704986	2955.474745
548.063863	2958.156639
548.422684	2960.682257
548.781449	2960.160497
549.140158	2969.106025
549.498811	2974.313537
549.857408	2973.811942
550.215949	2981.416523
550.574434	2987.385249
550.932864	2990.450270
551.291237	3000.008298
551.649555	3004.565501
552.007817	3013.195956
552.366022	3014.121008
552.724173	3018.002697
553.082267	3028.082484
553.440305	3037.738814
553.798288	3035.089688
554.156215	3046.399516
554.514086	3053.378994
554.871902	3058.001732
555.229661	3064.678740
555.587365	3068.212589
555.945014	3077.243816
556.302606	3082.138776
556.660143	3091.187647
557.017625	3097.174018
557.375050	3102.815069
557.732421	3113.653550
558.089735	3115.584312
558.446994	3123.675363
558.804197	3135.796818
559.161345	3143.441728
559.518437	3141.425266
559.875474	3148.729898
560.232455	3160.679953
560.589381	3170.006088
560.946251	3175.513548
561.303065	3190.349664
561.659825	3196.376364
562.016528	3197.394677
562.373177	3198.186138
562.729770	3215.752038
563.086307	3218.519632
563.442789	3230.918350
563.799216	3241.663569
564.155587	3250.498191
564.511904	3259.607556
564.868164	3268.676592
565.224370	3285.498923
565.580520	3286.542441
565.936615	3302.192703
566.292654	3308.232006
566.648638	3322.621979
567.004567	3333.972137
567.360441	3348.793130
567.716260	3356.957278
568.072023	3377.016029
568.427732	3386.780744
568.783385	3392.328534
569.138982	3414.315527
569.494525	3425.514450
569.850013	3435.004422
570.205445	3455.506795
570.560823	3469.218733
570.916145	3484.659788
571.271412	3502.870956
571.626625	3514.072400
571.981782	3531.340872
572.336884	3544.883932
572.691931	3573.701688
573.046923	3583.836928
573.401860	3596.712035
573.756743	3615.654170
574.111570	3640.895227
574.466342	3657.760408
574.821059	3681.070703
575.175722	3690.275850
575.530330	3710.132955
575.884882	3730.526943
576.239380	3748.075199
576.593823	3771.355248
576.948211	3794.370636
577.302544	3809.925116
577.656823	3834.420082
578.011047	3865.955020
578.365216	3887.639544
578.719330	3910.755755
579.073389	3933.231739
579.427394	3966.493272
579.781344	3998.628107
580.135239	4019.064945
580.489080	4055.096592
580.842866	4070.371288
581.196597	4124.556130
581.550273	4153.351201
581.903895	4189.992828
582.257463	4240.956373
582.610975	4259.893467
582.964434	4311.570335
583.317837	4334.353830
583.671186	4369.402452
584.024481	4417.096809
584.377721	4436.676650
584.730906	4489.129856
585.084037	4527.213253
585.437113	4557.434970
585.790135	4599.226135
586.143103	4620.630875
586.496016	4667.198533
586.848874	4716.238878
587.201679	4768.694604
587.554428	4784.191111
587.907124	4851.639229
588.259765	4877.341552
588.612352	4948.464671
588.964884	4965.985201
589.317362	5035.525398
589.669786	5080.298406
590.022155	5113.776708
590.374470	5186.664231
590.726731	5208.585689
591.078937	5228.210901
591.431090	5282.020177
591.783188	5307.084794
592.135232	5333.976829
592.487222	5402.735647
592.839157	5464.386438
593.191038	5492.223689
593.542866	5527.486561
593.894639	5538.856883
594.246358	5608.482779
594.598022	5661.687117
594.949633	5685.660324
595.301190	5730.226645
595.652692	5773.346154
596.004141	5850.541343
596.355535	5825.711140
596.706876	5867.456935
597.058162	5908.441516
597.409395	6003.527759
597.760573	6063.404064
598.111698	6091.034628
598.462768	6144.657382
598.813785	6203.165013
599.164748	6212.413010
599.515657	6303.569675
599.866511	6316.916129
600.217312	6430.838645
600.568060	6393.682820
600.918753	6527.991762
601.269392	6591.906031
601.619978	6615.508713
601.970510	6696.764551
602.320988	6781.355113
602.671412	6879.213991
603.021783	6914.895278
603.372100	6939.407889
603.722363	7011.372880
604.072572	7087.227122
604.422728	7157.694891
604.772830	7198.109822
605.122878	7282.138295
605.472872	7339.988056
605.822813	7441.179137
606.172701	7488.253431
606.522534	7596.161850
606.872314	7704.493726
607.222041	7739.431442
607.571714	7861.636573
607.921333	7865.699743
608.270899	7979.140828
608.620411	8104.105991
608.969870	8154.063826
609.319276	8231.558963
609.668627	8318.765883
610.017926	8463.343655
610.367171	8575.090912
610.716362	8671.066920
611.065500	8744.574505
611.414585	8854.166669
611.763616	8992.032144
612.112594	9068.450995
612.461518	9188.337196
612.810389	9329.224843
613.159207	9393.217250
613.507971	9491.766766
613.856682	9663.813785
614.205340	9739.789015
614.553945	9954.620307
614.902496	9953.256674
615.250994	10134.864242
615.599439	10247.592003
615.947830	10386.387572
616.296169	10510.856181
616.644454	10626.585950
616.992686	10776.199834
617.340864	10989.884263
617.688990	11041.104907
618.037063	11282.447627
618.385082	11390.421580
618.733048	11563.529762
619.080961	11671.397852
619.428821	11780.637135
619.776628	11898.521997
620.124382	11963.749487
620.472083	12083.731469
620.819731	12196.451669
621.167326	12210.685367
621.514868	12298.174592
621.862357	12271.148966
622.209793	12366.086496
622.557176	12359.149868
622.904506	12377.056047
623.251783	12391.751010
623.599007	12415.661203
623.946179	12456.900362
624.293297	12532.091692
624.640363	12477.541366
624.987376	12571.198443
625.334336	12598.569388
625.681243	12594.889345
626.028097	12682.673478
626.374899	12744.415010
626.721647	12846.810927
627.068343	12920.341197
627.414987	12961.156899
627.761577	12999.915810
628.108115	13195.648690
628.454600	13146.787307
628.801032	13299.788847
629.147412	13393.909709
629.493739	13495.579700
629.840014	13501.044311
630.186236	13701.465464
630.532405	13689.316284
630.878521	13849.647661
631.224585	13924.493672
631.570597	13943.163586
631.916556	14098.040435
632.262462	14182.439432
632.608316	14292.018993
632.954117	14357.276730
633.299866	14443.218321
633.645562	14501.796528
633.991206	14443.112457
634.336797	14388.239497
634.682336	14469.238236
635.027823	14477.480523
635.373257	14499.840561
635.718639	14510.860523
636.063968	14551.582964
636.409245	14437.113483
636.754470	14536.411611
637.099642	14545.326892
637.444762	14464.998626
637.789829	14607.282673
638.134845	14578.180092
638.479808	14636.382733
638.824719	14693.120920
639.169577	14643.957067
639.514383	14760.347227
639.859137	14732.383947
640.203839	14911.478499
640.548489	14858.609398
640.893086	14960.541528
641.237632	14971.269104
641.582125	15098.417086
641.926566	15154.086548
642.270955	15232.892386
642.615292	15332.238404
642.959576	15415.414922
643.303809	15496.559855
643.647990	15638.493542
643.992118	15723.600822
644.336195	15799.291226
644.680219	15931.089673
645.024192	16148.441541
645.368112	16458.109540
645.711981	16568.876293
646.055797	17017.715425
646.399562	17095.165193
646.743274	17612.788349
647.086935	17908.948576
647.430544	17970.193554
647.774101	18107.081045
648.117606	18320.526020
648.461059	18535.748001
648.804460	18455.218089
649.147810	18260.485877
649.491108	18228.650991
649.834354	18143.634452
650.177548	17833.240527
650.520690	17720.558136
650.863781	17807.689439
651.206820	17823.155699
651.549807	17710.223770
651.892742	17571.904591
652.235626	17566.114826
652.578458	17586.365141
652.921238	17388.406591
653.263967	17624.519114
653.606644	17556.607210
653.949269	17619.740100
654.291843	17491.760327
654.634365	17758.863343
654.976836	17670.242379
655.319255	17743.528153
655.661622	17822.422211
656.003938	17798.945557
656.346203	17807.644068
656.688416	18003.200508
657.030577	17970.155745
657.372687	17966.697513
657.714746	18177.798351
658.056753	18327.266042
658.398708	18112.127240
658.740612	18217.840236
659.082465	18446.141491
659.424266	18430.413091
659.766016	18583.933870
660.107715	18591.092308
660.449362	18719.608964
660.790958	18796.075706
661.132503	18873.187716
661.473996	18964.598958
661.815438	19101.264639
662.156829	19283.033523
662.498168	19231.190297
662.839456	19318.485438
663.180693	19477.939655
663.521879	19639.521238
663.863013	19696.476194
664.204097	19762.006153
664.545129	20087.881461
664.886110	20145.716099
665.227040	20265.098184
665.567918	20394.330683
665.908746	20512.563385
666.249522	20673.812252
666.590248	20745.936040
666.930922	20874.936647
667.271545	20935.054927
667.612118	21047.218079
667.952639	20995.881489
668.293109	21102.849733
668.633528	21105.035073
668.973896	21142.120321
669.314213	21230.786656
669.654480	21155.842342
669.994695	21241.834344
670.334859	21247.694686
670.674973	21255.500912
671.015035	21424.855955
671.355047	21460.065894
671.695008	21498.093838
672.034918	21505.365703
672.374777	21636.705404
672.714585	21595.178900
673.054342	21805.820993
673.394049	21710.891024
673.733705	21948.626799
674.073310	21821.743477
674.412864	21921.391965
674.752368	21750.083475
675.091820	22006.342969
675.431223	21817.027478
675.770574	21705.242412
676.109875	21681.090243
676.449125	21562.320659
676.788324	21595.695618
677.127473	21311.903862
677.466571	21333.250628
677.805619	21177.287410
678.144616	21240.115311
678.483562	21246.908266
678.822458	21110.852564
679.161303	21117.375818
679.500098	21121.398658
679.838842	21111.134869
680.177535	21274.695106
680.516179	21522.760204
680.854771	21756.601687
681.193314	22386.889591
681.531805	23193.383465
681.870247	23734.944541
682.208638	24278.370843
682.546978	24449.144971
682.885268	24572.547376
683.223508	24278.519557
683.561697	24119.786225
683.899836	24041.930645
684.237925	23763.013685
684.575963	23699.999262
684.913951	23448.911992
685.251889	23598.984621
685.589776	23667.186392
685.927614	23700.392472
686.265401	23850.392005
686.603137	23950.902530
686.940824	24353.758778
687.278460	24645.021524
687.616046	24761.436890
687.953582	25224.597940
688.291068	25151.302084
688.628504	25380.883792
688.965889	25380.500664
689.303224	25159.710729
689.640510	24996.838610
689.977745	24531.419122
690.314930	24021.077912
690.652065	23724.776533
690.989150	23273.661320
691.326185	22691.836548
691.663170	22261.596753
692.000105	21787.135956
692.336990	21362.486800
692.673825	21088.033782
693.010610	20778.829569
693.347345	20419.816236
693.684030	19980.890533
694.020665	19835.977524
694.357251	19394.168281
694.693786	19398.115504
695.030272	19272.747049
695.366707	18909.529394
695.703093	18734.608917
696.039429	18760.170088
696.375716	18603.682590
696.711952	18616.250187
697.048139	18526.205097
697.384276	18422.669879
697.720363	18548.676040
698.056400	18422.727852
698.392388	18291.443603
698.728326	18300.976425
699.064214	18172.502619
699.400053	18155.866812
699.735842	17924.293848
700.071581	17754.790091
700.407270	17560.128456
700.742910	17456.986448
701.078501	17289.373124
701.414042	17101.161645
701.749533	16916.720949
702.084974	16688.465065
702.420366	16872.169752
702.755709	16567.512661
703.091002	16379.086933
703.426246	16414.649753
703.761440	16364.699480
704.096584	16188.922007
704.431679	16188.183478
704.766725	16142.903834
705.101721	16119.369207
705.436668	16216.920575
705.771565	15989.748539
706.106413	16280.363496
706.441212	16305.327290
706.775961	16425.727688
707.110661	16508.843712
707.445311	16805.621480
707.779913	16693.176023
708.114465	16912.599806
708.448967	17154.444121
708.783421	17721.142910
709.117825	17962.972101
709.452180	18148.010173
709.786485	18481.870669
710.120742	19111.914077
710.454949	19122.319018
710.789107	19481.821343
711.123216	20043.342867
711.457275	20127.222626
711.791286	20561.265972
712.125247	20618.505753
712.459159	20394.552494
712.793023	20928.952610
713.126837	20077.499205
713.460602	20327.076650
713.794318	20060.591175
714.127985	19793.798190
714.461602	19119.296847
714.795171	19113.091186
715.128691	18336.249378
715.462162	17926.726205
715.795584	17627.342160
716.128957	17441.716793
716.462281	17145.556566
716.795556	16973.741440
717.128782	16601.469873
717.461960	16179.328691
717.795088	16138.371837
718.128167	15822.379711
718.461198	15469.093128
718.794180	15368.028076
719.127113	15106.596358
719.459997	14969.487056
719.792833	14697.783987
720.125619	14690.870045
720.458357	14436.563998
720.791046	14305.176405
721.123686	14193.275392
721.456278	14017.568496
721.788821	13991.278878
722.121315	13790.066264
722.453761	13858.550339
722.786158	13800.808963
723.118506	13832.769878
723.450805	13720.720152
723.783056	13865.524775
724.115259	13788.069967
724.447412	13738.855702
724.779518	13949.951499
725.111574	13979.573319
725.443582	14157.253828
725.775542	14153.581347
726.107453	14552.490372
726.439315	14458.084683
726.771129	14800.951201
727.102895	15104.660555
727.434612	15285.799295
727.766281	15379.993255
728.097901	15599.142295
728.429473	15632.045906
728.760996	15631.589682
729.092471	15714.269646
729.423897	15631.768642
729.755276	15547.069696
730.086606	15662.754095
730.417887	16118.504649
730.749120	16560.800364
731.080305	16715.087398
731.411442	17007.209661
731.742530	17093.128566
732.073570	17184.580138
732.404562	17445.971527
732.735506	17274.549611
733.066401	17029.161365
733.397249	16589.015702
733.728048	16072.791466
734.058798	15398.945473
734.389501	14834.237939
734.720156	14470.765706
735.050762	14031.209858
735.381320	13742.568512
735.711831	13550.485427
736.042293	13254.395777
736.372707	13273.768931
736.703073	13095.420470
737.033391	13268.029577
737.363661	13245.011669
737.693883	13333.259587
738.024056	13478.301145
738.354182	13639.676042
738.684260	13885.575965
739.014290	14075.720726
739.344272	14226.635228
739.674207	14465.646414
740.004093	14557.723089
740.333931	14548.981728
740.663722	14588.106123
740.993464	14588.234673
741.323159	14455.082676
741.652806	14220.684146
741.982405	14053.151480
742.311956	13766.418211
742.641460	13679.753215
742.970915	13428.643259
743.300323	13134.970842
743.629683	12953.993419
743.958996	12719.894837
744.288260	12484.132675
744.617477	12232.720250
744.946647	12182.283506
745.275768	11948.426900
745.604842	11793.378651
745.933869	11649.347845
746.262847	11619.186621
746.591778	11567.792058
746.920662	11485.654018
747.249498	11491.605100
747.578286	11595.677200
747.907027	11720.808721
748.235720	11913.741241
748.564365	11930.845876
748.892963	11843.845643
749.221514	11903.681618
749.550017	11784.849019
749.878473	11751.993299
750.206881	11562.345091
750.535242	11488.393885
750.863555	11420.275293
751.191821	11332.113074
751.520039	11358.853875
751.848210	11280.050558
752.176334	11319.298461
752.504411	11239.759136
752.832440	11090.614079
753.160421	11139.276337
753.488356	11041.122551
753.816243	10969.616304
754.144082	10836.723927
754.471875	10786.380444
754.799620	10738.678526
755.127318	10710.299350
755.454969	10681.867243
755.782572	10645.921295
756.110129	10660.162555
756.437638	10584.101626
756.765100	10580.650956
757.092515	10586.980124
757.419882	10601.415468
757.747203	10604.238515
758.074477	10669.929790
758.401703	10638.203289
758.728882	10782.813828
759.056014	10822.822945
759.383099	10925.758266
759.710138	11011.919147
760.037129	11094.808319
760.364073	11109.823396
760.690970	11101.941552
761.017820	11105.540935
761.344623	11291.844338
761.671379	11606.815630
761.998088	12203.925179
762.324751	13718.262589
762.651366	16352.147007
762.977935	19609.060066
763.304456	21498.900423
763.630931	21821.020071
763.957359	20729.902651
764.283740	18997.855450
764.610074	17279.091691
764.936362	15406.154323
765.262602	14045.438515
765.588796	12722.589334
765.914943	11815.206847
766.241044	11072.617160
766.567097	10499.621969
766.893104	10008.802628
767.219064	9696.059526
767.544978	9357.659471
767.870845	9074.412160
768.196665	8908.338908
768.522438	8729.998008
768.848165	8585.465607
769.173846	8434.024304
769.499479	8328.419693
769.825066	8187.688322
770.150607	8019.344030
770.476101	7965.547357
770.801548	7864.202521
771.126949	7732.310813
771.452303	7660.035790
771.777611	7513.804520
772.102872	7490.481621
772.428087	7384.289716
772.753256	7276.507326
773.078378	7194.202927
773.403453	7066.747435
773.728482	6973.559185
774.053465	6913.566934
774.378401	6836.792682
774.703291	6748.844712
775.028135	6657.950187
775.352932	6625.628829
775.677683	6548.325256
776.002388	6475.377239
776.327046	6474.563092
776.651658	6397.410753
776.976224	6328.780485
777.300743	6316.747251
777.625216	6254.332725
777.949643	6216.932405
778.274024	6221.550102
778.598359	6158.860833
778.922647	6164.103633
779.246889	6123.640812
779.571086	6133.123222
779.895236	6138.068594
780.219339	6140.992463
780.543397	6137.498943
780.867409	6188.071799
781.191374	6182.955028
781.515294	6154.883362
781.839167	6201.652667
782.162995	6175.317680
782.486776	6132.513242
782.810511	6089.862560
783.134201	6023.188259
783.457844	6011.482700
783.781441	5967.433098
784.104993	5924.288383
784.428498	5900.536986
784.751958	5887.825717
785.075372	5868.719744
785.398739	5832.685576
785.722061	5854.425552
786.045337	5857.369586
786.368568	5963.543848
786.691752	5992.366645
787.014891	6231.876905
787.337983	6497.381875
787.661030	6903.038484
787.984031	7286.524098
788.306987	7515.820981
788.629897	7586.903771
788.952760	7506.610793
789.275579	7341.780186
789.598351	7067.402785
789.921078	6817.543036
790.243759	6569.578760
790.566395	6375.348144
790.888984	6201.017482
791.211529	6071.825312
791.534027	5920.401653
791.856480	5794.904649
792.178888	5739.590588
792.501249	5678.307801
792.823566	5584.683492
793.145836	5582.843471
793.468062	5567.001645
793.790241	5530.811202
794.112375	5570.565741
794.434464	5669.594167
794.756507	5697.312951
795.078505	5811.994160
795.400457	6009.655282
795.722364	6231.307255
796.044226	6408.017341
796.366042	6552.486728
796.687812	6496.106463
797.009538	6520.503127
797.331218	6441.276354
797.652852	6375.990891
797.974442	6260.586276
798.295986	6196.707295
798.617484	6077.466363
798.938938	5974.168079
799.260346	5908.144088
799.581709	5782.952073
799.903026	5735.068673
800.224299	5664.006048
800.545526	5562.946037
800.866708	5503.682232
801.187845	5456.602896
801.508936	5380.902410
801.829983	5359.308627
802.150984	5262.029481
802.471940	5230.918000
802.792851	5216.379313
803.113717	5195.803843
803.434538	5174.356254
803.755314	5140.386439
804.076045	5135.108351
804.396731	5101.090645
804.717372	5112.229074
805.037967	5117.839878
805.358518	5145.069671
805.679024	5194.785530
805.999485	5208.252973
806.319901	5223.000868
806.640272	5241.116255
806.960598	5281.906751
807.280879	5273.465339
807.601115	5307.488086
807.921306	5277.173107
808.241453	5268.272950
808.561554	5279.013129
808.881611	5244.675309
809.201623	5247.831072
809.521590	5196.381055
809.841513	5184.990568
810.161390	5199.456159
810.481223	5118.490187
810.801011	5100.909163
811.120755	5083.917954
811.440453	5034.668402
811.760107	5006.528681
812.079716	4980.249146
812.399281	4933.016055
812.718801	4931.077731
813.038276	4897.087752
813.357707	4863.513667
813.677093	4886.241709
813.996434	4827.920600
814.315731	4846.658569
814.634983	4850.245350
814.954191	4857.403788
815.273354	4909.650307
815.592473	4950.879384
815.911547	5021.430332
816.230577	5071.526798
816.549562	5151.759282
816.868502	5200.134194
817.187399	5260.272639
817.506250	5333.686963
817.825058	5358.620510
818.143821	5509.880331
818.462539	5672.102141
818.781213	5893.960801
819.099843	6247.862404
819.418429	6847.361461
819.736970	7434.582787
820.055466	8107.256712
820.373919	8993.257145
820.692327	10427.762842
821.010691	13113.712296
821.329011	19133.575915
821.647286	28000.728596
821.965517	37310.746643
822.283704	41889.939232
822.601847	42954.998929
822.919945	38610.043552
823.237999	33929.667443
823.556010	29180.824903
823.873976	24904.424177
824.191897	21082.075138
824.509775	18281.157129
824.827609	15791.356450
825.145398	14410.723043
825.463144	13790.734217
825.780845	14149.843332
826.098502	15411.515590
826.416116	17716.464719
826.733685	19753.806717
827.051210	20085.418858
827.368692	18642.885123
827.686129	16246.302940
828.003522	13962.095639
828.320872	11929.787233
828.638177	10423.934086
828.955439	9271.745607
829.272656	8285.902602
829.589830	7509.015423
829.906960	6842.952972
830.224046	6349.476942
830.541088	5982.964893
830.858086	5746.741465
831.175041	5556.011930
831.491952	5512.010218
831.808819	5557.148710
832.125642	5812.405014
832.442421	6361.205187
832.759157	7458.072043
833.075849	9150.669694
833.392497	10857.054901
833.709101	11807.566979
834.025662	11473.855197
834.342179	10449.291089
834.658653	9238.388292
834.975083	8214.222435
835.291469	7379.750157
835.607811	6704.595984
835.924110	6224.277366
836.240366	5764.587149
836.556578	5345.490824
836.872746	5017.687275
837.188871	4765.405251
837.504952	4559.211977
837.820990	4404.554418
838.136984	4301.699756
838.452935	4264.811113
838.768842	4303.814520
839.084706	4601.293008
839.400526	5329.787630
839.716303	6165.910887
840.032037	6652.767881
840.347727	6458.552388
840.663373	5883.513010
840.978977	5349.153223
841.294537	4946.934681
841.610054	4644.203310
841.925527	4417.343825
842.240957	4230.508581
842.556344	4057.526428
842.871687	3908.315836
843.186987	3770.664610
843.502244	3660.134791
843.817458	3579.466247
844.132629	3511.360259
844.447756	3470.032880
844.762840	3426.862959
845.077881	3391.400962
845.392879	3355.928883
845.707833	3334.871983
846.022745	3306.747386
846.337613	3293.766415
846.652438	3276.331584
846.967221	3267.915378
847.281960	3248.338057
847.596656	3240.244484
847.911309	3230.217629
848.225919	3217.292111
848.540485	3211.101574
848.855009	3202.561859
849.169490	3191.042823
849.483928	3185.759694
849.798323	3179.458251
850.112675	3168.133299
850.426984	3172.446006
850.741251	3162.335972
851.055474	3157.670384
851.369654	3163.374450
851.683792	3158.850014
851.997887	3163.752537
852.311938	3161.920077
852.625947	3162.623318
852.939914	3155.326248
853.253837	3167.089780
853.567718	3160.488389
853.881555	3152.853562
854.195350	3158.850014
854.509103	3154.812050
854.822812	3156.765497
855.136479	3148.152686
855.450103	3150.358191
855.763685	3146.536996
856.077224	3148.200577
856.390720	3154.249962
856.704173	3167.740089
857.017584	3170.807631
857.330953	3177.439269
857.644278	3183.425639
857.957561	3185.376566
858.270802	3181.031091
858.584000	3184.086031
858.897155	3177.320802
859.210268	3166.689009
859.523339	3156.878923
859.836367	3154.761639
860.149352	3149.659991
860.462295	3145.037253
860.775195	3135.665748
861.088054	3131.955459
861.400869	3132.699029
861.713642	3130.853967
862.026373	3138.652632
862.339062	3143.691265
862.651708	3152.762821
862.964312	3168.312260
863.276873	3178.820545
863.589392	3206.617468
863.901869	3227.318966
864.214303	3249.563057
864.526696	3266.554266
864.839045	3283.676545
865.151353	3295.087197
865.463619	3293.894964
865.775842	3293.461425
866.088023	3297.781694
866.400162	3292.090231
866.712258	3293.481590
867.024313	3294.227680
867.336325	3290.245169
867.648296	3293.773977
867.960224	3289.846918
868.272110	3293.242135
868.583954	3291.578554
868.895755	3300.007363
869.207515	3298.500058
869.519233	3315.506391
869.830909	3321.608708
870.142542	3334.932477
870.454134	3338.408353
870.765684	3348.793130
871.077191	3367.833568
871.388657	3378.780433
871.700081	3395.703587
872.011463	3416.523552
872.322803	3432.892179
872.634101	3451.889767
872.945357	3472.223261
873.256571	3495.450377
873.567744	3508.784229
873.878874	3511.657687
874.189963	3526.191333
874.501010	3529.049668
874.812015	3527.602857
875.122979	3545.718243
875.433900	3538.030483
875.744780	3538.761451
876.055618	3547.722102
876.366415	3546.111453
876.677169	3551.331568
876.987882	3567.493507
877.298554	3586.458328
877.609183	3625.297898
877.919771	3668.762726
878.230317	3735.613467
878.540822	3833.981502
878.851285	3982.866940
879.161707	4199.074467
879.472087	4568.124737
879.782425	5184.418397
880.092722	6340.775911
880.402977	8184.061212
880.713191	10374.792918
881.023363	12484.009167
881.333494	13634.561791
881.643583	13983.152538
881.953631	13565.666862
882.263637	12776.277623
882.573602	11843.538132
882.883526	10975.355658
883.193408	10103.707390
883.503248	9252.944623
883.813048	8501.366558
884.122806	7786.916591
884.432522	7081.946514
884.742197	6480.128526
885.051831	5966.984435
885.361424	5517.069016
885.670975	5158.401002
885.980485	4863.128019
886.289954	4611.829020
886.599382	4414.016664
886.908768	4248.923916
887.218113	4099.156277
887.527417	3975.007781
887.836680	3860.034185
888.145901	3765.419289
888.455082	3698.747509
888.764221	3636.690905
889.073319	3581.444900
889.382376	3548.994993
889.691392	3531.630738
890.000366	3523.698483
890.309300	3519.910056
890.618193	3522.836446
890.927044	3515.279756
891.235855	3527.496992
891.544625	3543.343859
891.853353	3569.772108
892.162041	3629.628249
892.470687	3718.221486
892.779293	3832.028055
893.087858	3995.033765
893.396381	4272.526599
893.704864	4667.443029
894.013306	5209.530905
894.321707	5735.965998
894.630068	6042.644593
894.938387	6052.033742
895.246665	5866.889805
895.554903	5568.287139
895.863100	5250.712091
896.171256	5003.158670
896.479371	4782.751862
896.787446	4574.388370
897.095480	4395.616452
897.403473	4259.419599
897.711425	4124.762818
898.019336	4014.578318
898.327207	3900.849887
898.635038	3805.756082
898.942827	3706.939384
899.250576	3625.980974
899.558284	3547.585990
899.865952	3499.016994
900.173579	3441.419290
900.481165	3397.581417
900.788711	3357.693287
901.096216	3329.296467
901.403681	3302.575831
901.711105	3293.809265
902.018489	3291.591157
902.325832	3325.775221
902.633135	3386.354767
902.940397	3554.935993
903.247619	3965.439671
903.554800	4692.530331
903.861941	5583.045117
904.169041	6196.046904
904.476101	6336.397668
904.783121	6061.304424
905.090100	5680.843502
905.397039	5312.163756
905.703938	4976.301923
906.010796	4684.809804
906.317614	4451.290955
906.624391	4234.609560
906.931129	4054.726067
907.237826	3887.022002
907.544483	3727.766911
907.851099	3568.050554
908.157675	3419.918769
908.464211	3292.934624
908.770707	3197.984492
909.077163	3124.426495
909.383578	3070.037487
909.689954	3031.996940
909.996289	3005.039369
910.302584	2985.842656
910.608839	2973.890080
910.915054	2963.792649
911.221229	2955.802420
911.527363	2965.342803
911.833458	2969.534523
912.139513	2986.412306
912.445527	2994.788183
912.751502	3029.115920
913.057436	3068.641087
913.363331	3127.025210
913.669186	3212.969322
913.975000	3324.320848
914.280775	3500.486490
914.586510	3762.588681
914.892205	4119.590594
915.197859	4595.911577
915.503475	5131.990397
915.809050	5576.282409
916.114585	5825.887580
916.420081	5867.860227
916.725536	5795.136542
917.030952	5569.439043
917.336328	5377.406369
917.641665	5185.774468
917.946961	4979.223271
918.252218	4790.011123
918.557435	4583.457406
918.862612	4403.412597
919.167750	4240.517792
919.472848	4064.082449
919.777906	3905.964138
920.082925	3760.854524
920.387904	3621.108699
920.692843	3519.781506
920.997743	3428.980243
921.302603	3343.310875
921.607423	3282.872481
921.912204	3221.214129
922.216946	3176.126049
922.521647	3132.164667
922.826310	3095.016404
923.130932	3060.502144
923.435516	3026.015611
923.740059	2998.942094
924.044564	2966.073771
924.349028	2947.267746
924.653454	2919.954775
924.957840	2893.420662
925.262186	2875.222096
925.566493	2856.761391
925.870761	2836.271621
926.174989	2824.674447
926.479178	2809.351859
926.783328	2794.188069
927.087438	2785.250103
927.391509	2771.883483
927.695541	2761.423089
927.999533	2753.967223
928.303486	2744.762076
928.607400	2739.972980
928.911275	2735.269583
929.215110	2730.442678
929.518906	2725.562841
929.822663	2726.976885
930.126381	2726.203068
930.430060	2730.551063
930.733699	2731.597102
931.037299	2734.936867
931.340861	2730.961917
931.644383	2736.434090
931.947866	2736.360993
932.251309	2733.724469
932.554714	2733.542988
932.858080	2730.752709
933.161407	2725.572924
933.464694	2721.456822
933.767943	2722.079404
934.071153	2718.212839
934.374323	2711.951726
934.677455	2710.126828
934.980548	2709.136242
935.283602	2706.338401
935.586617	2705.209183
935.889593	2708.871581
936.192530	2708.251519
936.495428	2712.428115
936.798287	2721.673591
937.101108	2734.551219
937.403890	2756.152563
937.706632	2781.030657
938.009336	2811.348156
938.312002	2838.298165
938.614628	2858.886237
938.917216	2878.271994
939.219765	2886.128633
939.522275	2894.189438
939.824747	2895.613563
940.127179	2888.195506
940.429573	2884.092006
940.731929	2880.989176
941.034246	2872.930892
941.336524	2869.863350
941.638763	2865.263297
941.940964	2859.440764
942.243126	2842.794874
942.545250	2834.844974
942.847335	2819.635813
943.149381	2807.524441
943.451389	2796.990950
943.753359	2786.694393
944.055290	2776.549071
944.357182	2767.091867
944.659036	2761.841505
944.960851	2762.093563
945.262628	2758.710948
945.564367	2757.236411
945.866067	2757.929570
946.167729	2756.250865
946.469352	2755.293046
946.770937	2752.611152
947.072484	2746.738208
947.373992	2749.183168
947.675462	2743.521952
947.976893	2738.296796
948.278286	2735.680437
948.579641	2730.571228
948.880958	2729.227760
949.182236	2727.349930
949.483476	2726.981926
949.784678	2725.134343
950.085841	2725.121740
950.386967	2729.938563
950.688054	2737.575911
950.989103	2742.377610
951.290114	2749.551172
951.591087	2759.419231
951.892021	2771.880963
952.192917	2785.698766
952.493776	2794.992133
952.794596	2797.850467
953.095378	2799.793832
953.396122	2799.987916
953.696828	2792.093469
953.997496	2789.658592
954.298126	2778.517642
954.598718	2770.197217
954.899272	2762.116248
955.199788	2752.480082
955.500266	2741.601272
955.800706	2725.855228
956.101108	2709.569781
956.401472	2703.001157
956.701798	2688.971626
957.002087	2676.709019
957.302337	2670.707526
957.602550	2659.798469
957.902724	2652.057777
958.202861	2644.029740
958.502960	2636.183184
958.803022	2629.760754
959.103045	2624.003756
959.403031	2616.129474
959.702979	2611.111005
960.002889	2609.674276
960.302762	2602.586414
960.602596	2602.402412
960.902393	2596.350507
961.202153	2596.342945
961.501875	2591.997470
961.801559	2588.083014
962.101205	2588.458580
962.400814	2585.300297
962.700385	2584.382807
962.999918	2579.941551
963.299414	2581.521953
963.598873	2582.182344
963.898293	2579.583629
964.197677	2576.034657
964.497022	2574.582804
964.796331	2576.110274
965.095601	2576.238823
965.394835	2576.261508
965.694030	2573.783781
965.993189	2575.344018
966.292309	2572.654563
966.591393	2573.093143
966.890439	2571.313616
967.189447	2574.842424
967.488419	2571.537947
967.787353	2574.368555
968.086249	2571.467371
968.385108	2574.608010
968.683930	2573.418298
968.982714	2574.953329
969.281462	2576.755542
969.580172	2576.974832
969.878844	2580.271746
970.177480	2584.037488
970.476078	2585.340627
970.774639	2589.517222
971.073162	2592.451174
971.371649	2592.141143
971.670098	2591.130392
971.968510	2595.347317
972.266885	2593.408993
972.565223	2596.206834
972.863524	2602.578852
973.161788	2598.765219
973.460014	2598.394694
973.758204	2600.529623
974.056356	2603.929881
974.354471	2604.129007
974.652550	2602.856116
974.950591	2600.554829
975.248595	2600.612802
975.546563	2602.019284
975.844493	2600.630446
976.142386	2598.026690
976.440243	2597.671289
976.738062	2594.926381
977.035845	2593.056112
977.333590	2590.638879
977.631299	2588.773652
977.928971	2586.147211
978.226606	2584.675194
978.524204	2584.319793
978.821765	2581.955492
979.119290	2584.977663
979.416777	2580.790985
979.714228	2582.172261
980.011642	2585.244845
980.309020	2587.672160
980.606360	2592.627614
980.903664	2602.649428
981.200931	2610.760645
981.498162	2625.974847
981.795356	2655.848725
982.092513	2691.930783
982.389633	2730.702298
982.686717	2768.828544
982.983764	2794.631690
983.280775	2811.096099
983.577749	2809.107363
983.874686	2799.277113
984.171587	2785.219856
984.468451	2771.023967
984.765279	2752.943868
985.062070	2739.738566
985.358824	2722.028992
985.655543	2703.434697
985.952224	2684.243024
986.248869	2659.697646
986.545478	2635.994140
986.842050	2618.546707
987.138586	2600.978286
987.435086	2589.839856
987.731549	2581.680749
988.027975	2575.490212
988.324366	2568.820765
988.620719	2565.864129
988.917037	2561.231308
989.213318	2561.422872
989.509563	2556.043961
989.805772	2557.515978
990.101944	2556.268292
990.398080	2557.515978
990.694180	2553.793086
990.990244	2557.253838
991.286271	2557.831050
991.582262	2557.568910
991.878217	2556.464897
992.174136	2555.113868
992.470019	2559.895403
992.765865	2561.679971
993.061676	2563.003274
993.357450	2563.532595
993.653188	2569.435786
993.948890	2573.153637
994.244556	2579.381983
994.540186	2586.963878
994.835780	2598.752616
995.131337	2611.839452
995.426859	2627.028448
995.722345	2640.518576
996.017795	2658.099600
996.313208	2674.710202
996.608586	2679.884946
996.903928	2681.762776
997.199234	2680.847807
997.494504	2679.325378
997.789738	2670.639470
998.084936	2663.181083
998.380099	2652.733292
998.675225	2642.855151
998.970316	2630.295116
999.265371	2617.893877
999.560390	2605.868205
999.855373	2597.346134
1000.150320	2589.713827
1000.445232	2580.271746
1000.740108	2571.038873
1001.034948	2568.513255
1001.329752	2564.994530
1001.624521	2560.923798
1001.919254	2555.877603
1002.213951	2552.205122
1002.508613	2548.794782
1002.803239	2549.243444
1003.097829	2545.505429
1003.392384	2544.784544
1003.686903	2549.082127
1003.981386	2543.196580
1004.275834	2543.254554
1004.570246	2545.845707
1004.864623	2544.083823
1005.158964	2544.615665
1005.453270	2540.618030
1005.747540	2540.978473
1006.041775	2543.806560
1006.335974	2543.070552
1006.630138	2540.469316
1006.924266	2540.895294
1007.218359	2542.392516
1007.512416	2544.590459
1007.806438	2541.288504
1008.100425	2539.887063
1008.394376	2537.769778
1008.688292	2539.324974
1008.982172	2539.808925
1009.276017	2539.526620
1009.569827	2537.449665
1009.863602	2540.764224
1010.157341	2538.946888
1010.451045	2537.757175
1010.744714	2541.056611
1011.038347	2537.459747
1011.331945	2537.409336
1011.625508	2537.021167
1011.919036	2538.709953
1012.212528	2534.465302
1012.505986	2536.459078
1012.799408	2537.376568
1013.092795	2535.927237
1013.386147	2536.761548
1013.679464	2536.675848
1013.972745	2534.775333
1014.265992	2536.401105
1014.559204	2539.229192
1014.852380	2535.523944
1015.145521	2538.631816
1015.438628	2537.699202
1015.731699	2538.097453
1016.024736	2534.072092
1016.317737	2536.484284
1016.610703	2538.301620
1016.903635	2533.905734
1017.196531	2535.740714
1017.489393	2536.154088
1017.782219	2532.973120
1018.075011	2536.822041
1018.367768	2539.229192
1018.660490	2536.804397
1018.953177	2536.804397
1019.245829	2536.804397
