Dividing Wavelength (nm)	Counts (n)	Blue Motor Position (mm): 34.500000	Red Motor Position (mm): 0.000000	
326.493990	2097.329208
326.888308	2097.329208
327.282561	2097.329208
327.676750	2073.857596
328.070874	2075.223748
328.464933	2085.134657
328.858929	2091.778898
329.252859	2105.369848
329.646726	2119.805192
330.040528	2137.076185
330.434265	2157.069402
330.827938	2176.629078
331.221547	2196.256811
331.615091	2215.098123
332.008571	2237.251474
332.401986	2257.897520
332.795338	2277.159768
333.188625	2297.342028
333.581847	2315.401962
333.975006	2334.840651
334.368100	2350.995028
334.761129	2368.591176
335.154095	2383.465100
335.546996	2429.175763
335.939833	2511.180212
336.332606	2523.798220
336.725315	2537.421939
337.117960	2547.564740
337.510540	2552.810061
337.903056	2563.462019
338.295508	2567.094170
338.687896	2578.023392
339.080220	2583.382138
339.472480	2587.941862
339.864676	2590.338931
340.256807	2595.725403
340.648875	2597.804879
341.040879	2598.520723
341.432818	2597.636001
341.824694	2602.767895
342.216506	2600.030549
342.608253	2599.511310
342.999937	2598.049375
343.391557	2597.509972
343.783113	2597.109200
344.174605	2595.475866
344.566033	2593.925712
344.957397	2594.008891
345.348697	2590.464959
345.739934	2589.683581
346.131106	2586.197623
346.522215	2585.443970
346.913260	2582.436922
347.304241	2584.602097
347.695159	2582.046232
348.086012	2578.880388
348.476802	2575.747311
348.867528	2577.504153
349.258191	2572.543657
349.648789	2574.381158
350.039324	2572.042063
350.429796	2572.896538
350.820203	2569.816393
351.210548	2571.588359
351.600828	2568.987123
351.991045	2570.751527
352.381198	2569.100549
352.771288	2568.077195
353.161314	2566.925292
353.551276	2566.496793
353.941175	2565.302040
354.331010	2566.645507
354.720782	2569.529047
355.110490	2573.307392
355.500135	2568.651887
355.889717	2569.014850
356.279235	2570.524675
356.668689	2571.263204
357.058080	2571.626167
357.447408	2567.782288
357.836672	2567.358831
358.225873	2569.017370
358.615010	2568.253636
359.004084	2573.156158
359.393095	2575.054152
359.782043	2573.675397
360.170927	2575.543144
360.559748	2576.395099
360.948505	2577.635223
361.337199	2578.472054
361.725830	2579.739905
362.114398	2581.108578
362.502903	2580.377611
362.891344	2581.980697
363.279722	2582.883064
363.668037	2581.222004
364.056289	2580.254102
364.444478	2582.547827
364.832603	2580.833835
365.220665	2584.312231
365.608665	2584.549165
365.996601	2584.130750
366.384474	2587.853642
366.772284	2584.148394
367.160031	2584.460945
367.547715	2587.543611
367.935336	2584.839032
368.322893	2585.302818
368.710388	2587.319279
369.097820	2589.897830
369.485189	2588.569486
369.872495	2588.904722
370.259738	2587.601584
370.646918	2590.059147
371.034035	2591.823550
371.421090	2590.717017
371.808081	2591.526122
372.195010	2591.321956
372.581875	2590.495206
372.968678	2590.495206
373.355418	2592.191555
373.742096	2593.098962
374.128710	2598.074581
374.515262	2597.751947
374.901751	2597.220106
375.288177	2594.321442
375.674540	2594.679364
376.060841	2597.961155
376.447079	2595.080136
376.833254	2598.765219
377.219367	2595.163315
377.605417	2598.253542
377.991404	2594.510485
378.377329	2599.045003
378.763191	2594.891092
379.148991	2600.340580
379.534727	2602.611620
379.920402	2600.368306
380.306013	2600.751434
380.691563	2605.769902
381.077049	2603.171188
381.462474	2603.405601
381.847835	2604.580190
382.233134	2604.156733
382.618371	2605.270828
383.003545	2605.903493
383.388657	2605.870726
383.773706	2610.493464
384.158693	2608.315685
384.543618	2609.795264
384.928480	2609.162599
385.313280	2611.037908
385.698017	2612.028495
386.082692	2612.393979
386.467305	2614.533948
386.851856	2612.991355
387.236344	2615.970677
387.620770	2615.459000
388.005133	2616.729371
388.389435	2615.741305
388.773674	2616.784824
389.157851	2614.949844
389.541965	2617.477982
389.926018	2620.192644
390.310008	2621.430247
390.693936	2621.432767
391.077802	2621.505864
391.461606	2621.170627
391.845348	2625.483335
392.229027	2624.641462
392.612645	2624.170114
392.996200	2625.934518
393.379694	2625.755557
393.763125	2627.550208
394.146494	2628.830661
394.529801	2630.257307
394.913047	2631.772174
395.296230	2632.425003
395.679351	2632.800569
396.062410	2633.108080
396.445408	2632.573717
396.828343	2635.507669
397.211217	2632.929119
397.594028	2636.836013
397.976778	2631.192441
398.359466	2634.199490
398.742092	2633.914664
399.124656	2639.908596
399.507158	2641.098309
399.889598	2642.076292
400.271977	2643.024029
400.654294	2643.621406
401.036549	2646.504946
401.418742	2646.986376
401.800874	2647.205667
402.182944	2649.577529
402.564952	2655.324445
402.946898	2652.508960
403.328783	2654.916111
403.710606	2658.679333
404.092367	2659.725372
404.474067	2662.455157
404.855705	2664.267452
405.237282	2666.654438
405.618797	2672.177022
406.000250	2673.346570
406.381642	2678.042405
406.762972	2683.164217
407.144240	2683.554906
407.525447	2691.507327
407.906593	2693.148222
408.287677	2701.982844
408.668700	2708.440562
409.049661	2714.578167
409.430560	2724.146277
409.811399	2735.335118
410.192176	2743.758886
410.572891	2755.633324
410.953545	2776.143258
411.334138	2782.535442
411.714669	2805.921354
412.095139	2816.727067
412.475547	2843.656911
412.855894	2863.922350
413.236180	2894.073491
413.616405	2917.887902
413.996568	2956.971968
414.376670	2987.871720
414.756711	3021.269364
415.136691	3073.175605
415.516609	3124.779376
415.896466	3180.539579
416.276262	3250.200763
416.655997	3328.923422
417.035670	3396.447157
417.415283	3509.757172
417.794834	3588.068976
418.174324	3650.329747
418.553753	3724.527970
418.933121	3855.686190
419.312428	3933.889610
419.691674	4018.384389
420.070859	4174.692926
420.449983	4237.556114
420.829045	4414.309051
421.208047	4500.926156
421.586988	4686.216286
421.965867	4850.149568
422.344686	4977.423579
422.723444	5222.229572
423.102141	5106.051140
423.480777	5474.128468
423.859352	5516.857288
424.237866	5911.604840
424.616319	6010.144274
424.994712	6328.777964
425.373044	6446.098217
425.751314	6797.131404
426.129524	6732.581949
426.507673	7221.185703
426.885762	7324.753689
427.263789	7569.521873
427.641756	7822.938156
428.019662	8032.042697
428.397508	8244.315603
428.775292	8545.126294
429.153016	8736.851457
429.530679	8975.976069
429.908282	9183.477523
430.285824	9268.219319
430.663305	9765.670299
431.040726	9812.149737
431.418086	9936.399056
431.795385	10424.702862
432.172624	10844.210041
432.549802	10842.143167
432.926920	11144.972841
433.303977	11295.756273
433.680974	11632.835545
434.057910	12004.078718
434.434786	12234.716547
434.811601	12392.184549
435.188355	13247.043254
435.565050	13252.162546
435.941683	13443.149180
436.318257	14199.392833
436.694770	14279.310245
437.071222	14870.362848
437.447614	14477.185615
437.823946	14680.875957
438.200218	14998.098125
438.576429	15040.509352
438.952580	15437.049034
439.328670	15594.759012
439.704700	16077.872949
440.080670	15943.437979
440.456580	16574.416521
440.832429	16889.670118
441.208218	16286.097809
441.583947	16791.549099
441.959616	17048.221968
442.335224	17415.641425
442.710773	17692.993107
443.086261	18311.653589
443.461689	17899.229231
443.837057	18167.552206
444.212365	18880.482265
444.587612	19030.320481
444.962800	18805.492581
445.337927	19311.009407
445.712995	18299.055745
446.088002	20109.971797
446.462949	20415.707696
446.837837	20703.237467
447.212664	20838.022798
447.587431	23654.006295
447.962139	26458.425385
448.336786	28693.970429
448.711374	27249.160613
449.085901	23943.504637
449.460369	24088.853705
449.834776	24201.273957
450.209124	26672.772726
450.583412	26274.405626
450.957640	26784.966126
451.331808	25607.345026
451.705917	24391.764037
452.079965	24513.800289
452.453954	24951.231291
452.827883	24932.188332
453.201752	24800.397447
453.575562	25000.884136
453.949311	26176.483733
454.323001	26287.893233
454.696632	26115.450483
455.070202	27721.431029
455.443713	27949.631461
455.817164	28561.748525
456.190556	29147.739810
456.563888	28599.806716
456.937160	29071.683922
457.310373	27424.431450
457.683526	27897.238749
458.056619	27925.683459
458.429653	27919.102233
458.802628	28559.336333
459.175542	28716.585045
459.548398	30088.933315
459.921194	31729.559191
460.293930	32471.362458
460.666607	34545.416659
461.039224	36343.112285
461.411782	36716.913843
461.784280	35470.201209
462.156719	34955.781706
462.529099	34410.631329
462.901419	33095.928653
463.273680	32074.401840
463.645882	32206.613661
464.018024	32219.856772
464.390106	33167.142512
464.762130	36058.725673
465.134094	40364.123116
465.505999	45814.898438
465.877845	50321.032106
466.249631	51340.940708
466.621358	49537.898938
466.993026	47369.527270
467.364634	45246.795688
467.736184	43326.703367
468.107674	42053.842268
468.479105	41254.731163
468.850477	40537.493437
469.221790	39088.461655
469.593043	37326.908582
469.964238	36426.203103
470.335373	36384.669037
470.706449	38290.401631
471.077467	41082.041397
471.448425	45684.355239
471.819324	48352.736272
472.190164	46330.598394
472.560945	42732.242943
472.931667	39630.547011
473.302330	38536.067140
473.672934	37692.661937
474.043479	38244.920341
474.413965	37449.156563
474.784393	37081.641324
475.154761	38010.415947
475.525070	38041.202273
475.895321	37574.824966
476.265513	38182.349540
476.635645	39182.887508
477.005719	39038.614726
477.375734	39540.141478
477.745691	40259.141087
478.115588	41644.001501
478.485427	43748.947892
478.855207	47219.507572
479.224928	49846.425115
479.594591	51380.163406
479.964194	50311.244706
480.333739	50458.496810
480.703226	50544.748431
481.072653	51209.497663
481.442022	51654.177843
481.811333	51866.037375
482.180584	50572.321022
482.549777	50064.079453
482.918912	49519.085352
483.287988	49210.942303
483.657005	48395.402078
484.025964	47724.369048
484.394864	47712.539980
484.763706	47281.259187
485.132489	46400.433498
485.501213	46236.699342
485.869879	46394.351346
486.238487	45977.669734
486.607036	46159.393248
486.975527	45611.906296
487.343959	45831.834194
487.712333	45884.544499
488.080648	45785.576567
488.448905	46257.153824
488.817104	46066.729278
489.185244	47086.564784
489.553326	48876.355881
489.921350	51598.551231
490.289315	54407.106588
490.657222	54892.017698
491.025070	55126.759026
491.392861	54227.389454
491.760593	52984.714784
492.128267	51311.182777
492.495883	49779.246699
492.863440	48374.123367
493.230939	47014.070471
493.598380	45906.443271
493.965763	45572.920533
494.333088	44750.022744
494.700354	44260.680460
495.067563	43957.064367
495.434713	43805.323116
495.801805	43881.247934
496.168839	43488.952903
496.535815	43157.285309
496.902733	43181.240873
497.269593	42730.622213
497.636395	42672.545600
498.003139	43082.111623
498.369825	42523.009853
498.736453	42841.562885
499.103023	42356.223278
499.469535	42214.299674
499.835989	42321.850171
500.202385	41970.678352
500.568723	42003.317303
500.935003	42170.202181
501.301226	41976.395021
501.667390	42597.676903
502.033497	42844.232176
502.399546	42263.279525
502.765537	41565.087279
503.131470	41948.701442
503.497345	42323.785974
503.863163	40949.786725
504.228923	41594.252874
504.594625	41991.568894
504.960269	41255.898190
505.325856	41961.274080
505.691385	41316.936481
506.056856	41461.186577
506.422270	41903.343661
506.787625	41458.280352
507.152924	41668.012517
507.518164	41764.220417
507.883347	40953.829731
508.248472	41204.044881
508.613540	41700.812784
508.978550	41993.613082
509.343503	41758.740683
509.708398	41943.325052
510.073236	42482.789007
510.438016	42483.464522
510.802738	41939.108127
511.167403	42564.669948
511.532010	42791.302581
511.896561	43091.120165
512.261053	43961.649297
512.625488	43493.704191
512.989866	43371.398237
513.354186	43202.723750
513.718449	43203.706775
514.082655	43891.423503
514.446803	43543.246130
514.810894	44084.991208
515.174927	43990.295653
515.538904	43896.263011
515.902822	44568.495835
516.266684	44004.055483
516.630488	44435.048931
516.994235	44263.861428
517.357925	44843.057238
517.721558	45025.788982
518.085133	45335.310788
518.448651	45458.819057
518.812112	45225.292646
519.175516	45323.282594
519.538863	45658.521846
519.902152	45644.489794
520.265385	46099.370750
520.628560	46117.304654
520.991678	45904.545277
521.354739	46148.153995
521.717743	46467.198540
522.080690	46342.193048
522.443580	46890.330309
522.806413	46931.030064
523.169189	46883.895276
523.531908	47073.402331
523.894569	46908.135664
524.257174	47075.456601
524.619722	47366.154738
524.982213	47328.809870
525.344647	47268.926004
525.707025	47309.557704
526.069345	47718.480980
526.431608	47624.602093
526.793815	47940.284188
527.155964	47483.626225
527.518057	47633.900501
527.880093	47415.782377
528.242072	47931.641129
528.603995	47648.781987
528.965860	47649.180238
529.327669	47729.120335
529.689421	47623.762741
530.051117	47587.761340
530.412755	47735.928414
530.774337	47815.092173
531.135862	47597.097557
531.497331	47797.526272
531.858743	47701.174699
532.220098	48028.395995
532.581396	47739.371522
532.942638	47382.772902
533.303824	47713.351606
533.664953	47684.364972
534.026025	47396.706651
534.387040	47861.110346
534.747999	47835.970112
535.108902	47980.479828
535.469748	47488.685023
535.830537	47590.150847
536.191270	47785.533367
536.551947	47426.368800
536.912567	47755.951877
537.273131	47890.147392
537.633638	47355.969087
537.994089	47689.852268
538.354483	47271.008000
538.714821	47857.707567
539.075103	48208.206391
539.435328	47952.035117
539.795497	47835.188733
540.155609	47829.502311
540.515665	48305.077203
540.875665	47750.981299
541.235609	48070.802181
541.595496	48044.109272
541.955328	48713.607270
542.315102	48068.579033
542.674821	47821.118872
543.034483	47880.876710
543.394090	47869.899598
543.753640	47808.384918
544.113134	48819.174073
544.472571	47795.570305
544.831953	49058.384384
545.191278	48259.152292
545.550548	47973.122264
545.909761	48449.002146
546.268918	48618.581520
546.628019	48941.303586
546.987064	48495.438734
547.346053	47741.660206
547.704986	48631.683479
548.063863	48180.785035
548.422684	48338.127008
548.781449	48186.297537
549.140158	48585.234287
549.498811	48427.373075
549.857408	47840.103858
550.215949	48692.464671
550.574434	48622.700143
550.932864	48354.069657
551.291237	49082.334906
551.649555	48683.113330
552.007817	48922.968910
552.366022	48552.403773
552.724173	48736.000075
553.082267	49101.130848
553.440305	49378.669053
553.798288	48667.074899
554.156215	48999.763327
554.514086	49205.777641
554.871902	48941.616138
555.229661	48955.000401
555.587365	48761.087377
555.945014	48866.656701
556.302606	48785.037899
556.660143	49010.959730
557.017625	49076.068752
557.375050	48872.713647
557.732421	49196.350683
558.089735	49167.462351
558.446994	49083.443960
558.804197	49543.577798
559.161345	49461.112083
559.518437	48686.279175
559.875474	48997.701495
560.232455	49166.529737
560.589381	49344.916007
560.946251	49035.855468
561.303065	49708.725998
561.659825	49476.099433
562.016528	49161.130662
562.373177	48877.490140
562.729770	49335.509214
563.086307	48854.716728
563.442789	49295.487494
563.799216	49338.294452
564.155587	49114.948651
564.511904	49128.557246
564.868164	49217.357171
565.224370	49438.016037
565.580520	49170.313123
565.936615	49375.160410
566.292654	49080.739381
566.648638	49335.925109
567.004567	49280.578281
567.360441	49342.065235
567.716260	49178.371408
568.072023	49468.204986
568.427732	49414.665412
568.783385	48956.905958
569.138982	49341.598928
569.494525	49312.448456
569.850013	49053.988498
570.205445	49024.338952
570.560823	48963.731680
570.916145	48841.337506
571.271412	48864.947750
571.626625	48590.172097
571.981782	48631.181884
572.336884	48323.802569
572.691931	48646.963216
573.046923	48237.329137
573.401860	48047.292760
573.756743	48018.447278
574.111570	48128.591448
574.466342	47976.640989
574.821059	48078.784848
575.175722	47593.581352
575.530330	47611.376626
575.884882	47301.010427
576.239380	47259.897297
576.593823	47217.788539
576.948211	47135.799213
577.302544	46649.317784
577.656823	46667.861669
578.011047	46873.838174
578.365216	46608.250025
578.719330	46364.459825
579.073389	46212.413583
579.427394	46289.850748
579.781344	46262.573064
580.135239	45883.637091
580.489080	45970.022304
580.842866	45440.267611
581.196597	45882.512914
581.550273	45808.788560
581.903895	45680.158478
582.257463	46085.437000
582.610975	45453.583818
582.964434	45722.118522
583.317837	45354.094127
583.671186	45184.945771
584.024481	45397.964768
584.377721	44897.045475
584.730906	45200.480087
585.084037	45229.559983
585.437113	44930.748109
585.790135	44941.072392
586.143103	44531.851688
586.496016	44663.675340
586.848874	44665.923695
587.201679	44670.254046
587.554428	44151.549562
587.907124	44336.154095
588.259765	44083.214201
588.612352	44316.796064
588.964884	43698.082650
589.317362	43972.671779
589.669786	43916.483079
590.022155	43674.432077
590.374470	44078.649436
590.726731	43623.309736
591.078937	43122.355154
591.431090	43234.916558
591.783188	42851.630069
592.135232	42530.508569
592.487222	42786.372333
592.839157	42863.438972
593.191038	42505.015454
593.542866	42274.077676
593.894639	41666.958916
594.246358	41922.187494
594.598022	41897.173288
594.949633	41509.811027
595.301190	41448.916409
595.652692	41295.274643
596.004141	41592.964859
596.355535	40622.940995
596.706876	40560.193753
597.058162	40392.401468
597.409395	40855.058403
597.760573	40919.154154
598.111698	40510.351865
598.462768	40519.488957
598.813785	40551.822917
599.164748	39987.707720
599.515657	40374.263397
599.866511	39857.393893
600.217312	40477.559159
600.568060	39451.260895
600.918753	40200.540194
601.269392	40125.913473
601.619978	39776.949680
601.970510	39995.057722
602.320988	40167.714721
602.671412	40465.846038
603.021783	40216.659283
603.372100	39871.166325
603.722363	39958.201846
604.072572	40027.353874
604.422728	40056.322865
604.772830	39846.058858
605.122878	39957.876692
605.472872	39877.860977
605.822813	40149.874077
606.172701	39969.388167
606.522534	40235.009083
606.872314	40478.925312
607.222041	40231.916335
607.571714	40601.690011
607.921333	40077.150392
608.270899	40345.758192
608.620411	40684.294358
608.969870	40473.049847
609.319276	40487.366724
609.668627	40528.744515
610.017926	41009.978102
610.367171	41159.334888
610.716362	41242.942424
611.065500	41183.320698
611.414585	41356.935516
611.763616	41662.132011
612.112594	41601.623041
612.461518	41810.727582
612.810389	42103.953857
613.159207	41973.140956
613.507971	42038.081100
613.856682	42522.770398
614.205340	42400.759352
614.553945	43104.597690
614.902496	42556.548650
615.250994	43036.146382
615.599439	43083.601284
615.947830	43288.980413
616.296169	43367.387999
616.644454	43475.251047
616.992686	43640.066531
617.340864	44141.885670
617.688990	43863.760171
618.037063	44470.284076
618.385082	44417.326754
618.733048	44717.240120
619.080961	44741.538482
619.428821	44755.835194
619.776628	44872.522782
620.124382	44697.372933
620.472083	44831.878479
620.819731	44955.089320
621.167326	44619.119102
621.514868	44600.476915
621.862357	44173.909600
622.209793	44207.224065
622.557176	43849.793654
622.904506	43584.409672
623.251783	43255.600412
623.599007	43027.838561
623.946179	42807.640961
624.293297	42759.321501
624.640363	42174.474558
624.987376	42134.089875
625.334336	41913.920001
625.681243	41551.619836
626.028097	41517.962573
626.374899	41376.412014
626.721647	41344.050327
627.068343	41223.153375
627.414987	40998.448983
627.761577	40762.643971
628.108115	41095.196287
628.454600	40536.192820
628.801032	40751.664338
629.147412	40698.724661
629.493739	40680.238750
629.840014	40340.591009
630.186236	40663.237458
630.532405	40271.391091
630.878521	40474.123613
631.224585	40353.009892
631.570597	40071.262324
631.916556	40219.699099
632.262462	40178.376761
632.608316	40186.861023
632.954117	40082.320095
633.299866	40064.776880
633.645562	40002.213640
633.991206	39505.213844
634.336797	39064.969878
634.682336	39068.102956
635.027823	38835.045372
635.373257	38631.102973
635.718639	38395.028259
636.063968	38261.155377
636.409245	37676.807508
636.754470	37723.579334
637.099642	37471.057855
637.444762	36995.911461
637.789829	37152.000708
638.134845	36807.142935
638.479808	36744.171362
638.824719	36650.579820
639.169577	36264.336695
639.514383	36330.942940
639.859137	36014.918046
640.203839	36252.565600
640.548489	35895.876239
640.893086	35958.280683
641.237632	35694.015837
641.582125	35815.542932
641.926566	35738.393114
642.270955	35709.950924
642.615292	35727.068162
642.959576	35698.149583
643.303809	35695.573553
643.647990	35851.924940
643.992118	35802.919883
644.336195	35784.255011
644.680219	35875.388990
645.024192	36168.471593
645.368112	36692.398712
645.711981	36686.603905
646.055797	37556.752430
646.399562	37478.359967
646.743274	38435.062582
647.086935	38851.229997
647.430544	38751.256354
647.774101	38870.451916
648.117606	39119.878126
648.461059	39416.494577
648.804460	39037.626660
649.147810	38403.532685
649.491108	38160.604522
649.834354	37791.408059
650.177548	36964.101781
650.520690	36529.667745
650.863781	36543.939252
651.206820	36398.842241
651.549807	35944.112520
651.892742	35454.941636
652.235626	35269.709479
652.578458	35138.584026
652.921238	34527.654153
653.263967	34867.435484
653.606644	34523.215417
653.949269	34466.509998
654.291843	34048.346287
654.634365	34453.871826
654.976836	34055.973553
655.319255	34060.878595
655.661622	34062.426230
656.003938	33841.671582
656.346203	33707.130748
656.688416	33919.426339
657.030577	33717.190370
657.372687	33567.727720
657.714746	33804.021725
658.056753	33949.557316
658.398708	33401.682195
658.740612	33446.669452
659.082465	33724.956268
659.424266	33548.120152
659.766016	33662.244314
660.107715	33527.340516
660.449362	33675.560522
660.790958	33628.942452
661.132503	33638.288751
661.473996	33671.807383
661.815438	33788.996566
662.156829	33983.721215
662.498168	33755.848458
662.839456	33771.158443
663.180693	33917.099847
663.521879	34067.474945
663.863013	34035.985378
664.204097	34022.235631
664.545129	34485.928523
664.886110	34424.441570
665.227040	34520.785581
665.567918	34632.192561
665.908746	34679.735683
666.249522	34852.566601
666.590248	34851.449986
666.930922	34952.474709
667.271545	34921.625368
667.612118	34979.580993
667.952639	34778.360817
668.293109	34828.827808
668.633528	34726.096654
668.973896	34654.945809
669.314213	34698.234197
669.654480	34427.529276
669.994695	34437.765339
670.334859	34331.772559
670.674973	34222.077051
671.015035	34378.544384
671.355047	34319.923327
671.695008	34273.143940
672.034918	34180.094322
672.374777	34256.677011
672.714585	34083.296607
673.054342	34301.185358
673.394049	34059.880447
673.733705	34350.742421
674.073310	34000.185624
674.412864	34056.752411
674.752368	33685.579815
675.091820	33986.209025
675.431223	33567.367278
675.770574	33264.038530
676.109875	33128.663385
676.449125	32850.363966
676.788324	32777.972997
677.127473	32240.033991
677.466571	32166.334842
677.805619	31819.047233
678.144616	31805.673052
678.483562	31730.910220
678.822458	31401.122976
679.161303	31324.711687
679.500098	31257.644176
679.838842	31121.885903
680.177535	31277.831477
680.516179	31552.463456
680.854771	31799.941260
681.193314	32651.419871
681.531805	33768.065695
681.870247	34509.417779
682.208638	35227.121811
682.546978	35420.187921
682.885268	35521.028642
683.223508	35021.783012
683.561697	34679.085374
683.899836	34493.833052
684.237925	33981.997141
684.575963	33826.197760
684.913951	33365.254817
685.251889	33510.276211
685.589776	33508.116076
685.927614	33509.381406
686.265401	33638.331601
686.603137	33711.385482
686.940824	34238.269238
687.278460	34595.253506
687.616046	34710.055703
687.953582	35325.424311
688.291068	35178.220098
688.628504	35463.735929
688.965889	35391.491153
689.303224	35032.487903
689.640510	34695.398548
689.977745	33954.001093
690.314930	33154.239679
690.652065	32655.901457
690.989150	31949.000618
691.326185	31023.180111
691.663170	30322.200107
692.000105	29587.162067
692.336990	28909.741896
692.673825	28444.962635
693.010610	27921.423684
693.347345	27345.890273
693.684030	26680.105085
694.020665	26401.404894
694.357251	25717.438784
694.693786	25679.839338
695.030272	25438.315137
695.366707	24889.477156
695.703093	24606.807057
696.039429	24587.983389
696.375716	24327.824562
696.711952	24289.657986
697.048139	24121.099446
697.384276	23942.960192
697.720363	24078.521860
698.056400	23865.520507
698.392388	23647.591427
698.728326	23606.435447
699.064214	23400.088417
699.400053	23343.982895
699.735842	22979.005877
700.071581	22702.874155
700.407270	22423.863933
700.742910	22221.990928
701.078501	21967.503399
701.414042	21686.569978
701.749533	21381.073534
702.084974	21022.337465
702.420366	21239.497769
702.755709	20797.081067
703.091002	20489.399283
703.426246	20495.909933
703.761440	20399.399563
704.096584	20132.170518
704.431679	20076.856458
704.766725	19989.856225
705.101721	19923.887686
705.436668	20009.940182
705.771565	19677.561785
706.106413	20034.077226
706.441212	20023.848725
706.775961	20152.561986
707.110661	20205.521828
707.445311	20560.429141
707.779913	20402.802342
708.114465	20630.281889
708.448967	20914.630692
708.783421	21588.080955
709.117825	21869.833564
709.452180	22080.712591
709.786485	22462.935396
710.120742	23261.184464
710.454949	23287.799236
710.789107	23734.858841
711.123216	24438.646768
711.457275	24564.778957
711.791286	25084.279944
712.125247	25159.123434
712.459159	24863.663928
712.793023	25531.296699
713.126837	24438.011582
713.460602	24712.179775
713.794318	24341.418033
714.127985	23970.956240
714.461602	23074.016504
714.795171	23021.301158
715.128691	22012.699864
715.462162	21481.301755
715.795584	21055.115047
716.128957	20791.031682
716.462281	20401.647918
716.795556	20160.620270
717.128782	19655.814248
717.461960	19106.998952
717.795088	19029.818886
718.128167	18620.651114
718.461198	18166.402823
718.794180	18020.854629
719.127113	17653.712436
719.459997	17452.928319
719.792833	17097.073269
720.125619	17068.557983
720.458357	16743.900113
720.791046	16576.319556
721.123686	16409.540543
721.456278	16177.680234
721.788821	16137.625746
722.121315	15873.156733
722.453761	15954.349557
722.786158	15869.917791
723.118506	15878.631426
723.450805	15736.848974
723.783056	15896.421658
724.115259	15795.253262
724.447412	15715.761827
724.779518	15957.832994
725.111574	15979.852754
725.443582	16183.149886
725.775542	16163.575085
726.107453	16621.069879
726.439315	16501.244173
726.771129	16901.229483
727.102895	17264.883198
727.434612	17461.868806
727.766281	17582.843895
728.097901	17845.117486
728.429473	17886.712046
728.760996	17876.871714
729.092471	17961.699209
729.423897	17843.254779
729.755276	17701.237914
730.086606	17836.003079
730.417887	18356.277883
730.749120	18866.407364
731.080305	19032.470533
731.411442	19349.796044
731.742530	19427.381923
732.073570	19513.494913
732.404562	19813.350305
732.735506	19633.345825
733.066401	19340.590898
733.397249	18812.267892
733.728048	18181.664916
734.058798	17355.006426
734.389501	16674.551480
734.720156	16225.727471
735.050762	15694.155442
735.381320	15332.924001
735.711831	15108.827069
736.042293	14747.514970
736.372707	14749.720475
736.703073	14548.797726
737.033391	14732.625922
737.363661	14693.546897
737.693883	14790.815961
738.024056	14959.142608
738.354182	15124.409275
738.684260	15398.852211
739.014290	15621.915707
739.344272	15791.769824
739.674207	16066.772328
740.004093	16185.236923
740.333931	16188.145669
740.663722	16232.132257
740.993464	16216.363528
741.323159	16055.006275
741.652806	15780.943947
741.982405	15570.495938
742.311956	15249.200518
742.641460	15134.415966
742.970915	14829.156456
743.300323	14496.117669
743.629683	14288.210402
743.958996	14017.535728
744.288260	13741.209921
744.617477	13453.201240
744.946647	13378.403120
745.275768	13098.997168
745.604842	12911.564548
745.933869	12747.084301
746.262847	12688.107842
746.591778	12615.384156
746.920662	12515.034948
747.249498	12509.625790
747.578286	12624.511165
747.907027	12770.744956
748.235720	12994.100839
748.564365	13014.880475
748.892963	12907.864341
749.221514	12975.239362
749.550017	12813.698107
749.878473	12777.369032
750.206881	12553.272100
750.535242	12462.296917
750.863555	12379.584185
751.191821	12277.810851
751.520039	12295.969087
751.848210	12209.228473
752.176334	12239.992115
752.504411	12150.325111
752.832440	11983.059627
753.160421	12042.394007
753.488356	11926.956625
753.816243	11844.944614
754.144082	11690.143382
754.471875	11636.046760
754.799620	11573.201216
755.127318	11551.367979
755.454969	11512.271310
755.782572	11470.427213
756.110129	11480.229736
756.437638	11397.017930
756.765100	11390.260263
757.092515	11387.406970
757.419882	11403.546224
757.747203	11403.848694
758.074477	11478.467853
758.401703	11429.346850
758.728882	11590.464647
759.056014	11632.497788
759.383099	11742.152967
759.710138	11840.878923
760.037129	11924.297417
760.364073	11946.198710
760.690970	11928.468972
761.017820	11928.395875
761.344623	12115.168104
761.671379	12452.920371
761.998088	13105.482613
762.324751	14699.835737
762.651366	17570.699755
762.977935	21142.074951
763.304456	23225.722467
763.630931	23629.564261
763.957359	22450.871915
764.283740	20584.568706
764.610074	18747.703314
764.936362	16658.495405
765.262602	15169.666234
765.588796	13715.109347
765.914943	12715.627501
766.241044	11874.279088
766.567097	11242.335166
766.893104	10700.877434
767.219064	10346.900214
767.544978	9976.095622
767.870845	9658.936469
768.196665	9477.848140
768.522438	9286.667422
768.848165	9118.746587
769.173846	8948.675701
769.499479	8827.556938
769.825066	8678.941202
770.150607	8493.935897
770.476101	8428.960465
770.801548	8325.064805
771.126949	8187.385852
771.452303	8092.445802
771.777611	7933.069723
772.102872	7914.475427
772.428087	7797.911347
772.753256	7671.753952
773.078378	7588.196827
773.403453	7438.479599
773.728482	7335.899680
774.053465	7269.870647
774.378401	7184.808737
774.703291	7092.225426
775.028135	6992.171125
775.352932	6955.952956
775.677683	6872.247117
776.002388	6784.747809
776.327046	6790.376258
776.651658	6703.865016
776.976224	6626.243850
777.300743	6610.427230
777.625216	6546.888527
777.949643	6505.999728
778.274024	6506.241703
778.598359	6438.382731
778.922647	6442.342558
779.246889	6398.552575
779.571086	6403.697072
779.895236	6413.348361
780.219339	6409.968268
780.543397	6408.236631
780.867409	6451.766995
781.191374	6456.188087
781.515294	6424.416215
781.839167	6471.586291
782.162995	6438.246620
782.486776	6393.950001
782.810511	6356.262335
783.134201	6278.434482
783.457844	6273.166476
783.781441	6224.910031
784.104993	6178.770870
784.428498	6152.254401
784.751958	6134.398634
785.075372	6108.106496
785.398739	6075.689356
785.722061	6095.359938
786.045337	6100.277584
786.368568	6203.951433
786.691752	6230.989662
787.014891	6477.759184
787.337983	6753.495176
787.661030	7192.146137
787.984031	7597.538085
788.306987	7849.230294
788.629897	7922.044720
788.952760	7841.451793
789.275579	7665.800349
789.598351	7372.412757
789.921078	7107.968950
790.243759	6835.847465
790.566395	6639.171889
790.888984	6449.173321
791.211529	6310.526467
791.534027	6147.273741
791.856480	6019.321694
792.178888	5962.129804
792.501249	5893.814608
792.823566	5790.017250
793.145836	5781.961486
793.468062	5762.502632
793.790241	5727.690944
794.112375	5769.030927
794.434464	5864.160020
794.756507	5890.351335
795.078505	6013.564697
795.400457	6222.644032
795.722364	6454.239681
796.044226	6639.403782
796.366042	6798.603421
796.687812	6738.223000
797.009538	6767.053359
797.331218	6681.089083
797.652852	6616.216995
797.974442	6497.298696
798.295986	6429.671617
798.617484	6300.093799
798.938938	6190.604979
799.260346	6133.463500
799.581709	5994.693137
799.903026	5944.072391
800.224299	5873.299632
800.545526	5755.021560
800.866708	5695.815729
801.187845	5645.588192
801.508936	5565.396037
801.829983	5541.803437
802.150984	5433.615235
802.471940	5405.354526
802.792851	5391.151075
803.113717	5367.472776
803.434538	5346.715825
803.755314	5307.795597
804.076045	5300.185975
804.396731	5264.824801
804.717372	5276.681595
805.037967	5278.211585
805.358518	5302.693949
805.679024	5361.471282
805.999485	5369.126274
806.319901	5380.342842
806.640272	5400.464607
806.960598	5449.199962
807.280879	5439.031955
807.601115	5468.356347
807.921306	5437.499444
808.241453	5430.106592
808.561554	5444.216781
808.881611	5415.681330
809.201623	5416.218213
809.521590	5365.168968
809.841513	5353.697823
810.161390	5366.502354
810.481223	5278.007418
810.801011	5268.706490
811.120755	5245.802007
811.440453	5195.345098
811.760107	5163.714378
812.079716	5136.562724
812.399281	5086.191515
812.718801	5083.260084
813.038276	5052.060383
813.357707	5014.052603
813.677093	5035.684194
813.996434	4975.875945
814.315731	4997.184902
814.634983	4999.108103
814.954191	5001.056508
815.273354	5061.084048
815.592473	5103.177683
815.911547	5170.252755
816.230577	5227.943720
816.549562	5315.460671
816.868502	5363.064287
817.187399	5421.302217
817.506250	5504.249362
817.825058	5533.258682
818.143821	5680.684705
818.462539	5854.748186
818.781213	6084.612198
819.099843	6449.690039
819.418429	7068.753814
819.736970	7679.766866
820.055466	8384.741984
820.373919	9309.463520
820.692327	10804.344596
821.010691	13603.142800
821.329011	19948.420461
821.647286	29395.711647
821.965517	39352.396306
822.283704	44315.954192
822.601847	45489.118912
822.919945	40935.096803
823.237999	35991.607751
823.556010	30971.130197
823.873976	26444.262264
824.191897	22362.835725
824.509775	19377.018275
824.827609	16694.063266
825.145398	15188.028637
825.463144	14501.698226
825.780845	14835.488146
826.098502	16119.651512
826.416116	18514.983488
826.733685	20610.775144
827.051210	20952.341043
827.368692	19482.358226
827.686129	16983.238974
828.003522	14612.233086
828.320872	12482.612767
828.638177	10898.208360
828.955439	9691.827477
829.272656	8665.004933
829.589830	7839.158068
829.906960	7124.314891
830.224046	6606.724502
830.541088	6208.886723
830.858086	5957.320543
831.175041	5760.755873
831.491952	5708.121185
831.808819	5750.335807
832.125642	6001.407954
832.442421	6567.665642
832.759157	7694.970986
833.075849	9437.047562
833.392497	11209.199661
833.709101	12218.340359
834.025662	11898.970660
834.342179	10857.584222
834.658653	9600.597716
834.975083	8538.620685
835.291469	7671.196904
835.607811	6957.477905
835.924110	6449.906809
836.240366	5970.770342
836.556578	5527.184091
836.872746	5182.278428
837.188871	4917.350669
837.504952	4701.115416
837.820990	4539.042320
838.136984	4425.560906
838.452935	4385.740832
838.768842	4424.610648
839.084706	4722.288262
839.400526	5471.101255
839.716303	6347.941911
840.032037	6854.635846
840.347727	6673.870151
840.663373	6084.544143
840.978977	5530.755749
841.294537	5104.279175
841.610054	4787.747645
841.925527	4552.940781
842.240957	4351.120708
842.556344	4166.586751
842.871687	4013.325591
843.186987	3862.627859
843.502244	3749.945468
843.817458	3665.347344
844.132629	3594.619956
844.447756	3546.139179
844.762840	3501.610667
845.077881	3463.549956
845.392879	3430.767332
845.707833	3402.645256
846.022745	3377.552912
846.337613	3366.185110
846.652438	3338.549505
846.967221	3333.669668
847.281960	3310.394661
847.596656	3302.180101
847.911309	3289.002524
848.225919	3280.477933
848.540485	3269.939401
848.855009	3261.205602
849.169490	3248.025505
849.483928	3242.757500
849.798323	3235.533526
850.112675	3226.948441
850.426984	3226.575396
850.741251	3222.126577
851.055474	3216.971998
851.369654	3217.463510
851.683792	3214.431256
851.997887	3219.129612
852.311938	3216.044425
852.625947	3217.710527
852.939914	3214.249775
853.253837	3219.598439
853.567718	3216.137687
853.881555	3210.126111
854.195350	3215.333623
854.509103	3209.760627
854.822812	3209.700133
855.136479	3205.833568
855.450103	3210.244578
855.763685	3204.535471
856.077224	3204.517827
856.390720	3212.888663
856.704173	3221.849314
857.017584	3227.613873
857.330953	3231.314080
857.644278	3241.061151
857.957561	3243.806060
858.270802	3240.027715
858.584000	3240.642736
858.897155	3233.764081
859.210268	3223.064232
859.523339	3213.637274
859.836367	3212.571070
860.149352	3204.414483
860.462295	3200.452137
860.775195	3193.364274
861.088054	3189.825384
861.400869	3185.742050
861.713642	3185.391689
862.026373	3190.684901
862.339062	3196.943493
862.651708	3205.662169
862.964312	3223.207905
863.276873	3231.936663
863.589392	3261.316507
863.901869	3285.745939
864.214303	3304.708239
864.526696	3327.423678
864.839045	3342.068230
865.151353	3354.678677
865.463619	3356.183461
865.775842	3357.146322
866.088023	3360.569265
866.400162	3353.365456
866.712258	3356.405272
867.024313	3355.601208
867.336325	3352.924355
867.648296	3355.054243
867.960224	3351.323789
868.272110	3356.460725
868.583954	3354.638348
868.895755	3364.140923
869.207515	3362.147146
869.519233	3380.335629
869.830909	3387.531876
870.142542	3395.900192
870.454134	3402.042838
870.765684	3415.797626
871.077191	3432.861932
871.388657	3446.730146
871.700081	3460.981488
872.011463	3484.322030
872.322803	3504.922705
872.634101	3520.822505
872.945357	3538.080895
873.256571	3563.763053
873.567744	3584.361208
873.878874	3588.053853
874.189963	3603.242849
874.501010	3606.754013
874.812015	3600.772684
875.122979	3619.677011
875.433900	3613.718367
875.744780	3617.020323
876.055618	3624.125829
876.366415	3625.761684
876.677169	3633.058754
876.987882	3646.662308
877.298554	3670.030576
877.609183	3706.871328
877.919771	3757.161879
878.230317	3822.079338
878.540822	3930.587654
878.851285	4088.466510
879.161707	4313.354904
879.472087	4696.119633
879.782425	5336.096634
880.092722	6539.117588
880.402977	8469.521589
880.713191	10795.605756
881.023363	13056.127196
881.333494	14266.344397
881.643583	14669.576211
881.953631	14231.867946
882.263637	13438.644909
882.573602	12444.345368
882.883526	11533.587829
883.193408	10609.773702
883.503248	9722.139935
883.813048	8917.178571
884.122806	8166.107142
884.432522	7418.919922
884.742197	6778.070801
885.051831	6227.934723
885.361424	5741.975054
885.670975	5357.889542
885.980485	5036.435326
886.289954	4772.568731
886.599382	4559.794230
886.908768	4382.937950
887.218113	4221.716809
887.527417	4089.247889
887.836680	3972.320846
888.145901	3870.839898
888.455082	3795.288126
888.764221	3727.098958
889.073319	3668.777849
889.382376	3636.154022
889.691392	3612.483284
890.000366	3608.001699
890.309300	3604.361986
890.618193	3604.616564
890.927044	3601.705297
891.235855	3608.299127
891.544625	3625.144142
891.853353	3652.668842
892.162041	3713.601269
892.470687	3808.664827
892.779293	3926.073301
893.087858	4102.397739
893.396381	4386.035739
893.704864	4807.594668
894.013306	5359.512794
894.321707	5909.381691
894.630068	6224.847016
894.938387	6240.376291
895.246665	6059.038425
895.554903	5755.641622
895.863100	5428.322023
896.171256	5169.617570
896.479371	4939.599802
896.787446	4724.871854
897.095480	4535.463101
897.403473	4386.507087
897.711425	4245.926950
898.019336	4126.950678
898.327207	4005.947863
898.635038	3907.673089
898.942827	3799.989002
899.250576	3718.266857
899.558284	3634.250987
899.865952	3581.092019
900.173579	3519.317720
900.481165	3473.460864
900.788711	3435.458126
901.096216	3403.625760
901.403681	3376.884959
901.711105	3364.745861
902.018489	3364.587065
902.325832	3400.671644
902.633135	3464.356540
902.940397	3636.501862
903.247619	4057.478537
903.554800	4815.307633
903.861941	5744.341876
904.169041	6401.214304
904.476101	6570.549182
904.783121	6292.970649
905.090100	5906.147791
905.397039	5504.781204
905.703938	5162.633051
906.010796	4851.785422
906.317614	4606.888689
906.624391	4372.273389
906.931129	4182.615099
907.237826	4003.475177
907.544483	3838.097604
907.851099	3665.763239
908.157675	3508.292717
908.464211	3371.422869
908.770707	3272.303702
909.077163	3194.173379
909.383578	3134.420583
909.689954	3092.939448
909.996289	3059.380487
910.302584	3040.710574
910.608839	3028.369829
910.915054	3017.057480
911.221229	3013.291738
911.527363	3019.177285
911.833458	3026.280271
912.139513	3038.033721
912.445527	3054.112482
912.751502	3088.004159
913.057436	3129.913791
913.363331	3185.633665
913.669186	3277.816204
913.975000	3399.802045
914.280775	3590.027465
914.586510	3862.297663
914.892205	4239.933018
915.197859	4727.074838
915.503475	5290.285149
915.809050	5752.480818
916.114585	6015.455129
916.420081	6063.842645
916.725536	5999.877964
917.030952	5766.868272
917.336328	5570.306121
917.641665	5368.670050
917.946961	5150.612420
918.252218	4951.675886
918.557435	4733.898040
918.862612	4541.731776
919.167750	4376.109707
919.472848	4189.420657
919.777906	4023.138197
920.082925	3872.737893
920.387904	3721.830952
920.692843	3615.777678
920.997743	3517.235724
921.302603	3422.540169
921.607423	3358.842670
921.912204	3294.494862
922.216946	3247.012233
922.521647	3196.056250
922.826310	3157.766166
923.130932	3122.044550
923.435516	3083.267995
923.740059	3057.507699
924.044564	3024.825898
924.349028	3001.271107
924.653454	2969.491673
924.957840	2944.003599
925.262186	2925.139602
925.566493	2902.766961
925.870761	2877.568753
926.174989	2869.482743
926.479178	2854.255937
926.783328	2838.822445
927.087438	2825.332317
927.391509	2812.857982
927.695541	2799.493883
927.999533	2792.151442
928.303486	2782.432098
928.607400	2777.632919
928.911275	2775.523197
929.215110	2765.261928
929.518906	2761.092894
929.822663	2763.391660
930.126381	2760.896289
930.430060	2764.241094
930.733699	2766.338214
931.037299	2771.472629
931.340861	2767.621188
931.644383	2771.583535
931.947866	2769.796446
932.251309	2768.556322
932.554714	2766.542381
932.858080	2767.071702
933.161407	2761.549118
933.464694	2758.151380
933.767943	2753.997470
934.071153	2749.475555
934.374323	2745.354411
934.677455	2744.872981
934.980548	2740.837537
935.283602	2737.394429
935.586617	2737.722104
935.889593	2741.303844
936.192530	2740.986252
936.495428	2746.720564
936.798287	2758.695825
937.101108	2769.375509
937.403890	2791.889302
937.706632	2818.010041
938.009336	2847.992304
938.312002	2876.328629
938.614628	2900.248904
938.917216	2917.358581
939.219765	2927.947524
939.522275	2937.109821
939.824747	2936.487239
940.127179	2930.435334
940.429573	2925.943666
940.731929	2923.647420
941.034246	2915.105185
941.336524	2916.025195
941.638763	2908.516397
941.940964	2902.782084
942.243126	2884.591081
942.545250	2876.439535
942.847335	2864.492000
943.149381	2847.546162
943.451389	2835.220540
943.753359	2825.533963
944.055290	2814.551810
944.357182	2806.566622
944.659036	2802.256435
944.960851	2796.504479
945.262628	2791.727986
945.564367	2793.631021
945.866067	2794.031793
946.167729	2792.194292
946.469352	2791.158335
946.770937	2789.792182
947.072484	2781.713733
947.373992	2780.529062
947.675462	2773.783998
947.976893	2772.591766
948.278286	2767.394336
948.579641	2765.372833
948.880958	2764.707401
949.182236	2762.280085
949.483476	2761.642379
949.784678	2758.083325
950.085841	2760.487955
950.386967	2765.743358
950.688054	2767.633791
950.989103	2776.838938
951.290114	2782.754732
951.591087	2793.595733
951.892021	2807.607620
952.192917	2818.660350
952.493776	2831.028821
952.794596	2832.727690
953.095378	2833.277176
953.396122	2833.531754
953.696828	2828.712411
953.997496	2825.347441
954.298126	2818.098261
954.598718	2807.053093
954.899272	2798.100004
955.199788	2785.008127
955.500266	2772.352311
955.800706	2758.547111
956.101108	2743.758886
956.401472	2734.684809
956.701798	2719.478169
957.002087	2706.411498
957.302337	2699.984027
957.602550	2688.132274
957.902724	2679.663136
958.202861	2666.765343
958.502960	2662.613953
958.803022	2654.487613
959.103045	2647.747591
959.403031	2640.258957
959.702979	2636.657052
960.002889	2631.948614
960.302762	2626.065588
960.602596	2625.579117
960.902393	2621.200874
961.202153	2617.863631
961.501875	2614.352467
961.801559	2613.122425
962.101205	2608.794595
962.400814	2609.336519
962.700385	2605.059100
962.999918	2605.222937
963.299414	2601.890735
963.598873	2601.177411
963.898293	2599.755806
964.197677	2597.998964
964.497022	2597.525095
964.796331	2595.062492
965.095601	2596.824375
965.394835	2596.229519
965.694030	2594.568459
965.993189	2593.298088
966.292309	2593.068715
966.591393	2590.003694
966.890439	2591.836153
967.189447	2592.441092
967.488419	2593.734148
967.787353	2590.648962
968.086249	2591.082501
968.385108	2592.889754
968.683930	2593.517378
968.982714	2593.955958
969.281462	2597.164653
969.580172	2599.730600
969.878844	2599.334870
970.177480	2604.204624
970.476078	2605.487598
970.774639	2608.474482
971.073162	2611.264760
971.371649	2611.070676
971.670098	2610.148145
971.968510	2612.109153
972.266885	2612.537652
972.565223	2617.697272
972.863524	2618.239197
973.161788	2622.496451
973.460014	2620.275823
973.758204	2622.395628
974.056356	2620.663992
974.354471	2623.973509
974.652550	2626.625156
974.950591	2622.688015
975.248595	2623.300515
975.546563	2621.924280
975.844493	2622.619959
976.142386	2616.689042
976.440243	2612.819956
976.738062	2612.494802
977.035845	2610.697630
977.333590	2606.286621
977.631299	2606.223606
977.928971	2606.510952
978.226606	2604.441558
978.524204	2600.058275
978.821765	2601.154726
979.119290	2602.331836
979.416777	2602.041969
979.714228	2602.634305
980.011642	2601.983996
980.309020	2608.371138
980.606360	2611.163937
980.903664	2617.873713
981.200931	2631.557925
981.498162	2652.516522
981.795356	2680.363856
982.092513	2714.588249
982.389633	2759.257914
982.686717	2798.876342
982.983764	2824.230825
983.280775	2845.481809
983.577749	2843.440142
983.874686	2835.013853
984.171587	2819.718992
984.468451	2805.092084
984.765279	2785.126595
985.062070	2768.500869
985.358824	2750.244331
985.655543	2730.034345
985.952224	2708.221272
986.248869	2684.921059
986.545478	2659.173366
986.842050	2640.029584
987.138586	2623.270268
987.435086	2608.408947
987.731549	2594.770105
988.027975	2591.208530
988.324366	2588.400607
988.620719	2581.189236
988.917037	2575.570870
989.213318	2574.507187
989.509563	2573.924934
989.805772	2570.403688
990.101944	2570.267577
990.398080	2566.965621
990.694180	2567.810014
990.990244	2571.104408
991.286271	2573.050293
991.582262	2570.368400
991.878217	2571.003585
992.174136	2571.797567
992.470019	2571.968966
992.765865	2573.826631
993.061676	2578.411561
993.357450	2580.339802
993.653188	2577.806622
993.948890	2586.353898
994.244556	2592.756164
994.540186	2602.601537
994.835780	2613.964298
995.131337	2629.682616
995.426859	2642.280459
995.722345	2659.773263
996.017795	2680.371418
996.313208	2693.685105
996.608586	2703.207845
996.903928	2704.027032
997.199234	2703.044007
997.494504	2701.120807
997.789738	2691.512368
998.084936	2685.011800
998.380099	2672.466888
998.675225	2662.760147
998.970316	2650.585760
999.265371	2636.967083
999.560390	2624.212964
999.855373	2615.711058
1000.150320	2604.691096
1000.445232	2593.847574
1000.740108	2589.660895
1001.034948	2581.063207
1001.329752	2575.510377
1001.624521	2575.318813
1001.919254	2566.809345
1002.213951	2562.277348
1002.508613	2561.218705
1002.803239	2563.411607
1003.097829	2553.883827
1003.392384	2559.048489
1003.686903	2558.907336
1003.981386	2557.200906
1004.275834	2557.032027
1004.570246	2556.691749
1004.864623	2555.668395
1005.158964	2554.914743
1005.453270	2555.234856
1005.747540	2550.959957
1006.041775	2550.292004
1006.335974	2551.751418
1006.630138	2548.754453
1006.924266	2547.912580
1007.218359	2550.639844
1007.512416	2549.760163
1007.806438	2550.135729
1008.100425	2548.066335
1008.394376	2547.998279
1008.688292	2547.970553
1008.982172	2548.429298
1009.276017	2549.014072
1009.569827	2547.920142
1009.863602	2550.276881
1010.157341	2546.470810
1010.451045	2546.533824
1010.744714	2543.947712
1011.038347	2544.605583
1011.331945	2545.944009
1011.625508	2546.861499
1011.919036	2545.954092
1012.212528	2545.127342
1012.505986	2543.836807
1012.799408	2542.758000
1013.092795	2541.964018
1013.386147	2544.265305
1013.679464	2545.296221
1013.972745	2544.938299
1014.265992	2542.778165
1014.559204	2544.867723
1014.852380	2541.313709
1015.145521	2543.456200
1015.438628	2541.759852
1015.731699	2543.678011
1016.024736	2544.930737
1016.317737	2543.602393
1016.610703	2545.069369
1016.903635	2544.471992
1017.196531	2542.009389
1017.489393	2545.641540
1017.782219	2544.119112
1018.075011	2546.337219
1018.367768	2546.732950
1018.660490	2544.900490
1018.953177	2544.900490
1019.245829	2544.900490
