Dividing Wavelength (nm)	Counts (n)	Blue Motor Position (mm): 19.000000	Red Motor Position (mm): 0.000000	
326.493990	2133.920423
326.888308	2133.920423
327.282561	2133.920423
327.676750	2103.048397
328.070874	2098.511358
328.464933	2103.623088
328.858929	2106.990579
329.252859	2121.589761
329.646726	2129.763992
330.040528	2144.153965
330.434265	2160.285658
330.827938	2177.420540
331.221547	2194.648683
331.615091	2213.142156
332.008571	2235.300548
332.401986	2252.843763
332.795338	2272.955446
333.188625	2293.039403
333.581847	2313.725778
333.975006	2328.410659
334.368100	2347.267095
334.761129	2364.313757
335.154095	2381.340254
335.546996	2402.687020
335.939833	2419.922725
336.332606	2438.224634
336.725315	2453.743826
337.117960	2459.488221
337.510540	2468.995837
337.903056	2479.294914
338.295508	2486.576861
338.687896	2494.312512
339.080220	2503.265601
339.472480	2506.973369
339.864676	2513.360511
340.256807	2518.464680
340.648875	2519.853518
341.040879	2523.894002
341.432818	2526.147398
341.824694	2526.654034
342.216506	2527.367357
342.608253	2527.808458
342.999937	2525.789476
343.391557	2524.428365
343.783113	2523.014321
344.174605	2523.508354
344.566033	2523.490710
344.957397	2522.936183
345.348697	2518.046264
345.739934	2520.423168
346.131106	2516.322189
346.522215	2513.431088
346.913260	2514.439318
347.304241	2510.323216
347.695159	2505.513955
348.086012	2509.158710
348.476802	2506.882629
348.867528	2505.856754
349.258191	2501.481032
349.648789	2504.956908
350.039324	2499.641011
350.429796	2502.212000
350.820203	2496.717142
351.210548	2497.677482
351.600828	2495.388798
351.991045	2495.885352
352.381198	2493.132882
352.771288	2495.721514
353.161314	2494.287306
353.551276	2493.947028
353.941175	2493.629435
354.331010	2494.869559
354.720782	2492.321256
355.110490	2493.246308
355.500135	2495.119096
355.889717	2492.089363
356.279235	2493.790752
356.668689	2495.540033
357.058080	2494.677995
357.447408	2495.194713
357.836672	2491.998622
358.225873	2494.519199
358.615010	2489.205823
359.004084	2496.616319
359.393095	2494.809065
359.782043	2500.324087
360.170927	2495.040958
360.559748	2499.928357
360.948505	2500.747544
361.337199	2501.591938
361.725830	2496.742348
362.114398	2500.026659
362.502903	2499.293172
362.891344	2501.165960
363.279722	2500.918944
363.668037	2503.870539
364.056289	2503.394150
364.444478	2504.430107
364.832603	2499.126813
365.220665	2504.321723
365.608665	2501.443224
365.996601	2506.388596
366.384474	2503.056393
366.772284	2505.415653
367.160031	2503.890704
367.547715	2505.080416
367.935336	2506.509583
368.322893	2505.314830
368.710388	2504.568739
369.097820	2509.393123
369.485189	2505.760972
369.872495	2506.131497
370.259738	2507.807680
370.646918	2505.266939
371.034035	2505.559326
371.421090	2508.052176
371.808081	2507.323730
372.195010	2509.304903
372.581875	2508.276508
372.968678	2509.115860
373.355418	2510.882784
373.742096	2509.335150
374.128710	2510.340860
374.515262	2507.714419
374.901751	2510.529903
375.288177	2508.921775
375.674540	2507.225427
376.060841	2511.258350
376.447079	2511.003772
376.833254	2511.273474
377.219367	2508.631909
377.605417	2509.486385
377.991404	2508.697444
378.377329	2512.506036
378.763191	2508.974707
379.148991	2511.109636
379.534727	2513.224400
379.920402	2513.859586
380.306013	2514.945954
380.691563	2515.172806
381.077049	2517.252282
381.462474	2515.558454
381.847835	2512.974863
382.233134	2514.693897
382.618371	2511.578463
383.003545	2514.640964
383.388657	2513.549555
383.773706	2513.975532
384.158693	2514.149452
384.543618	2516.208763
384.928480	2515.969308
385.313280	2513.635254
385.698017	2517.214473
386.082692	2516.110461
386.467305	2518.505009
386.851856	2520.080369
387.236344	2516.662467
387.620770	2517.040554
388.005133	2520.912160
388.389435	2518.167252
388.773674	2518.046264
389.157851	2518.351254
389.541965	2520.017355
389.926018	2520.544156
390.310008	2517.063239
390.693936	2520.014834
391.077802	2519.329237
391.461606	2519.843435
391.845348	2518.792355
392.229027	2519.460307
392.612645	2521.441481
392.996200	2519.757736
393.379694	2522.086749
393.763125	2520.884433
394.146494	2521.471728
394.529801	2524.090607
394.913047	2521.771677
395.296230	2522.913498
395.679351	2522.989115
396.062410	2520.554238
396.445408	2520.939886
396.828343	2521.905267
397.211217	2521.809485
397.594028	2521.141532
397.976778	2519.104906
398.359466	2520.236645
398.742092	2520.135822
399.124656	2520.423168
399.507158	2525.613036
399.889598	2524.461132
400.271977	2524.995494
400.654294	2527.105217
401.036549	2524.614887
401.418742	2525.640762
401.800874	2524.438447
402.182944	2525.247552
402.564952	2523.021883
402.946898	2525.469363
403.328783	2524.806451
403.710606	2526.878365
404.092367	2524.415762
404.474067	2526.487676
404.855705	2526.220495
405.237282	2526.429703
405.618797	2527.730320
406.000250	2528.481452
406.381642	2525.928108
406.762972	2525.502130
407.144240	2526.991791
407.525447	2528.499096
407.906593	2526.412059
408.287677	2526.646472
408.668700	2526.681760
409.049661	2526.107069
409.430560	2523.846111
409.811399	2526.737213
410.192176	2526.928777
410.572891	2531.352389
410.953545	2529.033459
411.334138	2529.724097
411.714669	2528.584796
412.095139	2528.839374
412.475547	2529.081350
412.855894	2529.976154
413.236180	2529.572862
413.616405	2530.399611
413.996568	2530.888603
414.376670	2527.702594
414.756711	2528.211751
415.136691	2528.526823
415.516609	2528.030269
415.896466	2530.170239
416.276262	2530.112266
416.655997	2528.625125
417.035670	2525.045906
417.415283	2528.806607
417.794834	2527.929446
418.174324	2528.577234
418.553753	2531.622091
418.933121	2530.119827
419.312428	2532.164015
419.691674	2532.562266
420.070859	2530.749972
420.449983	2531.135620
420.829045	2531.412883
421.208047	2533.320960
421.586988	2530.258459
421.965867	2530.762574
422.344686	2532.342976
422.723444	2536.965714
423.102141	2531.843902
423.480777	2534.412370
423.859352	2530.810465
424.237866	2535.844057
424.616319	2533.787267
424.994712	2535.105528
425.373044	2531.584283
425.751314	2535.715508
426.129524	2535.256763
426.507673	2533.358769
426.885762	2533.691485
427.263789	2535.733152
427.641756	2535.264325
428.019662	2533.762061
428.397508	2534.883718
428.775292	2536.159130
429.153016	2533.880528
429.530679	2538.830941
429.908282	2531.697708
430.285824	2535.649973
430.663305	2535.665097
431.040726	2536.887576
431.418086	2533.560415
431.795385	2535.662576
432.172624	2538.200797
432.549802	2536.196938
432.926920	2534.929088
433.303977	2534.752648
433.680974	2533.628470
434.057910	2539.796322
434.434786	2536.506969
434.811601	2537.968904
435.188355	2539.463606
435.565050	2537.018646
435.941683	2539.042670
436.318257	2537.071578
436.694770	2532.698378
437.071222	2537.326157
437.447614	2534.482946
437.823946	2533.406660
438.200218	2537.802546
438.576429	2539.400592
438.952580	2537.116949
439.328670	2535.647452
439.704700	2540.562577
440.080670	2538.415046
440.456580	2537.724408
440.832429	2538.135262
441.208218	2537.739531
441.583947	2539.183822
441.959616	2539.508976
442.335224	2538.848585
442.710773	2541.381765
443.086261	2539.748431
443.461689	2537.379089
443.837057	2538.435211
444.212365	2540.217258
444.587612	2539.357742
444.962800	2541.225489
445.337927	2540.890252
445.712995	2541.681714
446.088002	2541.626261
446.462949	2540.542413
446.837837	2542.095088
447.212664	2544.290511
447.587431	2540.814635
447.962139	2540.421425
448.336786	2542.936961
448.711374	2541.633823
449.085901	2542.735315
449.460369	2540.877650
449.834776	2544.681200
450.209124	2543.365459
450.583412	2543.317568
450.957640	2542.974770
451.331808	2543.506611
451.705917	2543.869574
452.079965	2539.912269
452.453954	2540.887732
452.827883	2544.091385
453.201752	2543.597352
453.575562	2541.545603
453.949311	2543.579708
454.323001	2540.179450
454.696632	2544.865202
455.070202	2542.223638
455.443713	2542.321940
455.817164	2543.085675
456.190556	2538.659542
456.563888	2541.792619
456.937160	2540.123997
457.310373	2546.312013
457.683526	2541.374203
458.056619	2542.377393
458.429653	2545.470141
458.802628	2542.929399
459.175542	2543.758669
459.548398	2543.060469
459.921194	2545.089534
460.293930	2547.942827
460.666607	2546.420398
461.039224	2546.523742
461.411782	2543.146169
461.784280	2544.414019
462.156719	2544.630789
462.529099	2547.531973
462.901419	2543.904862
463.273680	2546.357384
463.645882	2547.894936
464.018024	2548.343598
464.390106	2547.652960
464.762130	2546.674977
465.134094	2545.795295
465.505999	2548.273022
465.877845	2546.695141
466.249631	2549.003990
466.621358	2547.289997
466.993026	2548.744370
467.364634	2553.989691
467.736184	2547.784030
468.107674	2547.524411
468.479105	2548.434339
468.850477	2549.162786
469.221790	2547.887374
469.593043	2549.409803
469.964238	2549.669422
470.335373	2545.044163
470.706449	2549.704710
471.077467	2549.366953
471.448425	2551.960626
471.819324	2550.571788
472.190164	2551.194371
472.560945	2550.647406
472.931667	2551.065822
473.302330	2547.882333
473.672934	2551.096068
474.043479	2550.939793
474.413965	2549.818136
474.784393	2545.928886
475.154761	2550.090358
475.525070	2545.742363
475.895321	2546.513660
476.265513	2545.777651
476.635645	2551.096068
477.005719	2555.670916
477.375734	2553.097407
477.745691	2552.888199
478.115588	2553.508261
478.485427	2550.249155
478.855207	2553.825853
479.224928	2552.129505
479.594591	2554.755946
479.964194	2553.485575
480.333739	2554.309804
480.703226	2553.563713
481.072653	2556.550597
481.442022	2556.651420
481.811333	2554.796275
482.180584	2556.686708
482.549777	2557.226112
482.918912	2553.747715
483.287988	2557.011863
483.657005	2556.966492
484.025964	2554.897098
484.394864	2555.549928
484.763706	2558.002449
485.132489	2558.352809
485.501213	2558.073025
485.869879	2558.262069
486.238487	2554.695452
486.607036	2558.309960
486.975527	2557.458005
487.343959	2561.352296
487.712333	2559.519837
488.080648	2557.994887
488.448905	2559.134188
488.817104	2559.774415
489.185244	2560.210475
489.553326	2562.753737
489.921350	2563.963614
490.289315	2564.203068
490.657222	2565.690209
491.025070	2568.130127
491.392861	2568.571228
491.760593	2564.608881
492.128267	2568.079716
492.495883	2569.340004
492.863440	2567.557956
493.230939	2568.122566
493.598380	2568.808162
493.965763	2566.373285
494.333088	2568.530899
494.700354	2568.926630
495.067563	2574.187074
495.434713	2569.372772
495.801805	2579.729822
496.168839	2578.638412
496.535815	2579.134966
496.902733	2580.261664
497.269593	2586.860534
497.636395	2588.541759
498.003139	2589.590319
498.369825	2593.290526
498.736453	2597.391505
499.103023	2598.989551
499.469535	2602.639346
499.835989	2606.430294
500.202385	2607.930037
500.568723	2613.865996
500.935003	2618.390431
501.301226	2622.541821
501.667390	2628.268572
502.033497	2639.412043
502.399546	2640.238792
502.765537	2644.884215
503.131470	2649.257416
503.497345	2656.904847
503.863163	2663.231495
504.228923	2667.823986
504.594625	2680.671366
504.960269	2683.489371
505.325856	2693.342307
505.691385	2700.631815
506.056856	2710.459544
506.422270	2720.269630
506.787625	2727.785990
507.152924	2739.622619
507.518164	2747.007910
507.883347	2755.106523
508.248472	2766.018101
508.613540	2781.628034
508.978550	2792.383336
509.343503	2801.971610
509.708398	2817.400062
510.073236	2835.044100
510.438016	2847.750328
510.802738	2862.634335
511.167403	2880.454814
511.532010	2894.842267
511.896561	2916.138621
512.261053	2937.213165
512.625488	2945.699948
512.989866	2962.028245
513.354186	2975.641881
513.718449	2994.175683
514.082655	3022.398583
514.446803	3038.164791
514.810894	3067.020356
515.174927	3085.256730
515.538904	3106.142230
515.902822	3139.638177
516.266684	3151.628562
516.630488	3179.347346
516.994235	3204.200234
517.357925	3238.664083
517.721558	3266.476128
518.085133	3294.452012
518.448651	3324.671208
518.812112	3342.365658
519.175516	3375.672562
519.538863	3420.405241
519.902152	3437.978703
520.265385	3493.247393
520.628560	3506.346831
520.991678	3544.833520
521.354739	3583.186619
521.717743	3606.244857
522.080690	3637.477325
522.443580	3699.060061
522.806413	3725.407651
523.169189	3767.486162
523.531908	3810.792194
523.894569	3828.015297
524.257174	3870.189590
524.619722	3932.203344
524.982213	3955.415337
525.344647	4015.833565
525.707025	4042.649983
526.069345	4100.141822
526.431608	4137.416114
526.793815	4195.273437
527.155964	4205.902709
527.518057	4248.757558
527.880093	4289.873209
528.242072	4345.404039
528.603995	4383.232858
528.965860	4410.805449
529.327669	4467.067246
529.689421	4501.465559
530.051117	4541.658679
530.412755	4623.915186
530.774337	4635.850118
531.135862	4691.975804
531.497331	4733.154470
531.858743	4759.066000
532.220098	4850.885577
532.581396	4867.304615
532.942638	4908.621912
533.303824	4951.290238
533.664953	5016.421945
534.026025	5041.410945
534.387040	5121.882884
534.747999	5171.797869
535.108902	5248.791411
535.469748	5221.816197
535.830537	5304.304598
536.191270	5352.341752
536.551947	5418.295168
536.912567	5470.287108
537.273131	5490.870140
537.633638	5535.708682
537.994089	5592.303196
538.354483	5631.208301
538.714821	5727.393516
539.075103	5787.355521
539.435328	5832.274722
539.795497	5809.375281
540.155609	5934.539569
540.515665	6017.146437
540.875665	5968.433767
541.235609	6057.314350
541.595496	6103.274550
541.955328	6229.061421
542.315102	6227.780968
542.674821	6268.047184
543.034483	6316.003681
543.394090	6373.170365
543.753640	6396.009313
544.113134	6556.963273
544.472571	6543.836108
544.831953	6666.595766
545.191278	6628.101515
545.550548	6691.027718
545.909761	6806.192878
546.268918	6863.714964
546.628019	6951.362985
546.987064	6944.174300
547.346053	6940.993332
547.704986	7059.513379
548.063863	7104.273784
548.422684	7144.955896
548.781449	7158.322515
549.140158	7270.752849
549.498811	7259.579131
549.857408	7209.364198
550.215949	7407.960453
550.574434	7365.022426
550.932864	7486.947773
551.291237	7559.762199
551.649555	7599.395750
552.007817	7651.768298
552.366022	7667.083323
552.724173	7718.014100
553.082267	7753.397959
553.440305	7913.729337
553.798288	7803.486864
554.156215	7973.643450
554.514086	8005.332143
554.871902	7940.603728
555.229661	8018.492075
555.587365	8043.329840
555.945014	8009.987649
556.302606	8155.243456
556.660143	8111.934903
557.017625	8279.409595
557.375050	8244.159327
557.732421	8386.619814
558.089735	8370.939305
558.446994	8403.268225
558.804197	8479.717323
559.161345	8524.412193
559.518437	8449.054505
559.875474	8561.588182
560.232455	8623.070094
560.589381	8622.021534
560.946251	8671.797887
561.303065	8777.210935
561.659825	8773.851006
562.016528	8757.207636
562.373177	8688.363119
562.729770	8831.620108
563.086307	8800.183473
563.442789	8900.648628
563.799216	8854.350671
564.155587	8922.020600
564.511904	8923.507740
564.868164	8941.476933
565.224370	8991.190272
565.580520	8970.902148
565.936615	8992.841249
566.292654	8927.762474
566.648638	9057.584788
567.004567	9062.941014
567.360441	9075.843848
567.716260	9027.962968
568.072023	9140.174012
568.427732	9128.889389
568.783385	9070.205317
569.138982	9158.070108
569.494525	9205.136841
569.850013	9122.287998
570.205445	9222.596877
570.560823	9149.167430
570.916145	9109.546482
571.271412	9186.477010
571.626625	9156.409048
571.981782	9159.703442
572.336884	9163.872476
572.691931	9191.984470
573.046923	9168.830451
573.401860	9143.012181
573.756743	9115.449673
574.111570	9173.690123
574.466342	9172.167695
574.821059	9219.325168
575.175722	9145.905804
575.530330	9167.993619
575.884882	9178.330505
576.239380	9129.320408
576.593823	9120.538717
576.948211	9161.258638
577.302544	9052.072287
577.656823	9096.134492
578.011047	9109.949774
578.365216	9094.380170
578.719330	9038.927478
579.073389	9064.201303
579.427394	9029.974389
579.781344	9020.008028
580.135239	8984.989652
580.489080	8999.558587
580.842866	8924.931866
581.196597	8939.311757
581.550273	8984.495619
581.903895	8974.998085
582.257463	9038.352786
582.610975	8940.806459
582.964434	8969.167991
583.317837	8906.009895
583.671186	8895.373060
584.024481	8910.133559
584.377721	8838.108073
584.730906	8822.157862
585.084037	8853.806226
585.437113	8805.121283
585.790135	8837.707302
586.143103	8739.397240
586.496016	8726.726300
586.848874	8792.422617
587.201679	8783.696379
587.554428	8679.198301
587.907124	8733.874656
588.259765	8708.384061
588.612352	8721.770845
588.964884	8602.532433
589.317362	8622.253427
589.669786	8626.450188
590.022155	8677.925410
590.374470	8693.149694
590.726731	8641.568608
591.078937	8502.291610
591.431090	8618.560782
591.783188	8499.544181
592.135232	8499.720621
592.487222	8498.026794
592.839157	8553.298004
593.191038	8496.252308
593.542866	8443.995707
593.894639	8349.320317
594.246358	8403.220334
594.598022	8421.756657
594.949633	8322.851739
595.301190	8309.046539
595.652692	8332.200558
596.004141	8451.350750
596.355535	8231.574087
596.706876	8212.528607
597.058162	8152.894278
597.409395	8229.953356
597.760573	8290.124568
598.111698	8205.801188
598.462768	8193.573869
598.813785	8158.603385
599.164748	8132.021380
599.515657	8127.575083
599.866511	8039.117956
600.217312	8161.391143
600.568060	8024.922067
600.918753	8129.919219
601.269392	8097.106349
601.619978	8014.953185
601.970510	8081.093124
602.320988	8079.616066
602.671412	8127.088611
603.021783	8069.450579
603.372100	8045.631127
603.722363	8046.946868
604.072572	8026.389043
604.422728	8038.845734
604.772830	7965.426369
605.122878	7978.959347
605.472872	7972.854509
605.822813	8005.589242
606.172701	7942.068183
606.522534	8021.925101
606.872314	8025.151439
607.222041	7995.481728
607.571714	8052.729072
607.921333	8013.503853
608.270899	8016.241200
608.620411	8100.105835
608.969870	8017.234307
609.319276	8006.468923
609.668627	8022.535081
610.017926	8054.138074
610.367171	8105.348635
610.716362	8084.682425
611.065500	8075.915859
611.414585	8101.746731
611.763616	8093.058302
612.112594	8074.038029
612.461518	8092.181142
612.810389	8144.833473
613.159207	8085.972961
613.507971	8035.548819
613.856682	8156.067684
614.205340	8108.413657
614.553945	8198.375568
614.902496	8090.666275
615.250994	8143.966394
615.599439	8128.762274
615.947830	8136.205538
616.296169	8110.535983
616.644454	8126.556770
616.992686	8119.451263
617.340864	8181.402003
617.688990	8090.802386
618.037063	8175.226589
618.385082	8127.519630
618.733048	8210.880150
619.080961	8151.976788
619.428821	8170.462699
619.776628	8169.484715
620.124382	8119.758774
620.472083	8107.014737
620.819731	8136.404664
621.167326	8029.544805
621.514868	8036.609982
621.862357	7928.401615
622.209793	7947.245448
622.557176	7878.973101
622.904506	7854.236159
623.251783	7789.046478
623.599007	7738.702996
623.946179	7740.885815
624.293297	7700.334774
624.640363	7617.216229
624.987376	7607.330526
625.334336	7555.275572
625.681243	7502.875298
626.028097	7492.372054
626.374899	7468.038404
626.721647	7456.869728
627.068343	7395.970069
627.414987	7365.148454
627.761577	7320.314953
628.108115	7357.377516
628.454600	7250.595795
628.801032	7300.888866
629.147412	7261.272959
629.493739	7249.224601
629.840014	7189.494490
630.186236	7243.185299
630.532405	7127.561394
630.878521	7179.976791
631.224585	7140.799464
631.570597	7062.253246
631.916556	7097.226251
632.262462	7092.515293
632.608316	7048.934518
632.954117	7028.845520
633.299866	7019.239601
633.645562	7013.631317
633.991206	6934.863288
634.336797	6874.999587
634.682336	6829.331774
635.027823	6802.885881
635.373257	6794.925899
635.718639	6726.867801
636.063968	6736.531693
636.409245	6636.439584
636.754470	6631.022864
637.099642	6591.061637
637.444762	6541.043309
637.789829	6542.076745
638.134845	6487.163457
638.479808	6472.034954
638.824719	6480.604915
639.169577	6398.030815
639.514383	6429.018788
639.859137	6354.954156
640.203839	6366.700044
640.548489	6349.935687
640.893086	6326.625392
641.237632	6294.067100
641.582125	6315.265152
641.926566	6289.840092
642.270955	6301.623789
642.615292	6294.314116
642.959576	6312.023690
643.303809	6299.529190
643.647990	6308.734337
643.992118	6301.212935
644.336195	6245.044399
644.680219	6268.057266
645.024192	6260.767758
645.368112	6362.273911
645.711981	6372.351178
646.055797	6451.073836
646.399562	6414.475059
646.743274	6537.191867
647.086935	6586.585093
647.430544	6580.127375
647.774101	6604.607218
648.117606	6610.563341
648.461059	6601.322906
648.804460	6561.596093
649.147810	6471.427495
649.491108	6444.575789
649.834354	6418.996974
650.177548	6336.967319
650.520690	6246.224029
650.863781	6226.487912
651.206820	6246.682774
651.549807	6166.377193
651.892742	6108.935766
652.235626	6117.964472
652.578458	6105.361588
652.921238	6017.733731
653.263967	6054.347631
653.606644	5991.418908
653.949269	5998.085834
654.291843	5934.295073
654.634365	5984.570500
654.976836	5938.882523
655.319255	5939.593326
655.661622	5918.765799
656.003938	5915.337814
656.346203	5876.689808
656.688416	5906.084776
657.030577	5861.619279
657.372687	5827.110060
657.714746	5820.886756
658.056753	5863.660946
658.398708	5796.346419
658.740612	5788.426766
659.082465	5841.144632
659.424266	5832.330175
659.766016	5827.157951
660.107715	5805.687677
660.449362	5822.066386
660.790958	5814.378626
661.132503	5798.927489
661.473996	5841.671433
661.815438	5822.872970
662.156829	5824.329864
662.498168	5811.820240
662.839456	5791.423732
663.180693	5827.536038
663.521879	5826.915976
663.863013	5817.184028
664.204097	5836.060629
664.545129	5876.558738
664.886110	5874.844746
665.227040	5908.653244
665.567918	5869.450711
665.908746	5900.910032
666.249522	5896.415843
666.590248	5889.774123
666.930922	5912.275313
667.271545	5927.660915
667.612118	5933.183499
667.952639	5903.226442
668.293109	5927.348363
668.633528	5885.320263
668.973896	5888.022322
669.314213	5876.099993
669.654480	5858.551737
669.994695	5854.188618
670.334859	5847.362896
670.674973	5839.571792
671.015035	5840.668243
671.355047	5836.012738
671.695008	5825.834648
672.034918	5799.527387
672.374777	5811.739582
672.714585	5794.816428
673.054342	5795.144103
673.394049	5794.385410
673.733705	5822.389019
674.073310	5814.318132
674.412864	5770.807933
674.752368	5757.900059
675.091820	5764.972798
675.431223	5701.570206
675.770574	5703.808478
676.109875	5655.925078
676.449125	5658.569163
676.788324	5626.578001
677.127473	5573.378705
677.466571	5559.210542
677.805619	5552.324326
678.144616	5534.294639
678.483562	5515.476012
678.822458	5489.698071
679.161303	5480.984437
679.500098	5471.683508
679.838842	5455.738338
680.177535	5459.534327
680.516179	5477.049816
680.854771	5482.620291
681.193314	5566.066511
681.531805	5670.962840
681.870247	5821.917672
682.208638	5921.881232
682.546978	5934.957985
682.885268	5915.786477
683.223508	5830.074258
683.561697	5775.854128
683.899836	5744.213326
684.237925	5703.737902
684.575963	5666.884547
684.913951	5625.899966
685.251889	5689.831879
685.589776	5653.714532
685.927614	5624.977435
686.265401	5698.152303
686.603137	5680.069685
686.940824	5755.137507
687.278460	5779.871928
687.616046	5790.455830
687.953582	5859.234813
688.291068	5835.238921
688.628504	5902.805506
688.965889	5859.927972
689.303224	5806.292615
689.640510	5762.134628
689.977745	5687.782650
690.314930	5584.965797
690.652065	5529.855903
690.989150	5438.013642
691.326185	5366.512436
691.663170	5317.585517
692.000105	5231.331375
692.336990	5159.079038
692.673825	5131.377897
693.010610	5070.334565
693.347345	4998.793030
693.684030	4985.829703
694.020665	4944.227581
694.357251	4853.690979
694.693786	4864.020303
695.030272	4832.455118
695.366707	4797.214932
695.703093	4761.581536
696.039429	4783.986944
696.375716	4769.891878
696.711952	4746.599227
697.048139	4731.256475
697.384276	4709.713104
697.720363	4725.159200
698.056400	4732.592381
698.392388	4680.847457
698.728326	4662.679139
699.064214	4640.424965
699.400053	4631.797030
699.735842	4600.002473
700.071581	4576.593875
700.407270	4549.840472
700.742910	4528.072769
701.078501	4477.114266
701.414042	4478.220799
701.749533	4446.930357
702.084974	4383.968866
702.420366	4442.970531
702.755709	4382.955594
703.091002	4326.683714
703.426246	4374.151219
703.761440	4333.098583
704.096584	4292.981080
704.431679	4311.638391
704.766725	4297.616421
705.101721	4285.545378
705.436668	4317.783557
705.771565	4264.392697
706.106413	4291.211635
706.441212	4326.771935
706.775961	4334.721834
707.110661	4313.483453
707.445311	4337.696115
707.779913	4367.164180
708.114465	4376.359244
708.448967	4401.479314
708.783421	4458.950988
709.117825	4500.091845
709.452180	4501.957072
709.786485	4550.616809
710.120742	4638.559738
710.454949	4616.061069
710.789107	4687.630330
711.123216	4761.783182
711.457275	4747.191562
711.791286	4823.222245
712.125247	4838.980892
712.459159	4740.373402
712.793023	4817.613961
713.126837	4780.427890
713.460602	4769.667547
713.794318	4687.617727
714.127985	4699.156928
714.461602	4614.117704
714.795171	4582.111418
715.128691	4519.084392
715.462162	4462.290753
715.795584	4415.947426
716.128957	4397.965630
716.462281	4347.503680
716.795556	4318.275070
717.128782	4278.938946
717.461960	4214.523083
717.795088	4224.736460
718.128167	4183.577960
718.461198	4124.009165
718.794180	4119.479688
719.127113	4104.260445
719.459997	4084.194132
719.792833	4036.923232
720.125619	4028.539794
720.458357	3991.026047
720.791046	3997.549300
721.123686	3972.398984
721.456278	3929.355092
721.788821	3948.161116
722.121315	3918.856889
722.453761	3894.006521
722.786158	3907.400867
723.118506	3931.164866
723.450805	3882.207700
723.783056	3903.793921
724.115259	3918.105757
724.447412	3924.477775
724.779518	3916.648863
725.111574	3923.303187
725.443582	3951.137917
725.775542	3936.500927
726.107453	3987.701406
726.439315	3983.721415
726.771129	3999.964013
727.102895	4037.341648
727.434612	4082.777568
727.766281	4095.985391
728.097901	4094.674691
728.429473	4099.025207
728.760996	4105.432513
729.092471	4100.298098
729.423897	4089.429370
729.755276	4095.907253
730.086606	4093.394238
730.417887	4130.028303
730.749120	4195.165052
731.080305	4256.692334
731.411442	4285.719298
731.742530	4254.103702
732.073570	4257.551851
732.404562	4311.950942
732.735506	4307.451713
733.066401	4267.518212
733.397249	4202.872976
733.728048	4126.464207
734.058798	4042.420611
734.389501	3976.769664
734.720156	3909.583686
735.050762	3869.183879
735.381320	3862.033003
735.711831	3808.949653
736.042293	3781.782875
736.372707	3804.914209
736.703073	3776.638377
737.033391	3767.589506
737.363661	3786.014923
737.693883	3809.325219
738.024056	3820.486333
738.354182	3814.222700
738.684260	3878.270559
739.014290	3898.679671
739.344272	3893.951068
739.674207	3931.512706
740.004093	3938.504786
740.333931	3933.380453
740.663722	3935.207871
740.993464	3931.686625
741.323159	3907.050507
741.652806	3880.037484
741.982405	3855.277857
742.311956	3822.926252
742.641460	3812.060045
742.970915	3788.091879
743.300323	3744.742997
743.629683	3714.370045
743.958996	3703.677757
744.288260	3678.441741
744.617477	3645.918737
744.946647	3634.198055
745.275768	3612.475723
745.604842	3606.837192
745.933869	3555.472876
746.262847	3552.627144
746.591778	3589.495623
746.920662	3556.743246
747.249498	3525.682177
747.578286	3573.419383
747.907027	3590.808843
748.235720	3586.838935
748.564365	3610.766772
748.892963	3615.253398
749.221514	3596.172631
749.550017	3574.588931
749.878473	3571.775967
750.206881	3539.991492
750.535242	3540.977038
750.863555	3540.616595
751.191821	3536.555946
751.520039	3516.255219
751.848210	3493.154132
752.176334	3527.423896
752.504411	3534.476470
752.832440	3495.730161
753.160421	3475.807521
753.488356	3486.850169
753.816243	3500.758712
754.144082	3456.739357
754.471875	3442.220834
754.799620	3459.123823
755.127318	3449.880867
755.454969	3449.901032
755.782572	3459.363278
756.110129	3433.514761
756.437638	3422.265426
756.765100	3437.439299
757.092515	3447.430866
757.419882	3451.746094
757.747203	3427.911519
758.074477	3428.161056
758.401703	3444.496915
758.728882	3461.402424
759.056014	3469.861480
759.383099	3475.051348
759.710138	3469.450626
760.037129	3488.937207
760.364073	3521.049357
760.690970	3505.540247
761.017820	3483.107112
761.344623	3498.447343
761.671379	3543.290927
761.998088	3596.833022
762.324751	3722.178792
762.651366	3967.022593
762.977935	4436.217905
763.304456	4874.052199
763.630931	4957.137976
763.957359	4599.947020
764.283740	4265.978140
764.610074	4076.166095
764.936362	3881.517062
765.262602	3725.299266
765.588796	3615.137452
765.914943	3526.808875
766.241044	3440.385854
766.567097	3413.768562
766.893104	3365.320553
767.219064	3337.082529
767.544978	3313.119404
767.870845	3255.425919
768.196665	3240.804052
768.522438	3244.705906
768.848165	3241.666090
769.173846	3205.737786
769.499479	3189.895960
769.825066	3172.546829
770.150607	3152.997235
770.476101	3171.843588
770.801548	3165.474091
771.126949	3125.089407
771.452303	3104.755913
771.777611	3113.693879
772.102872	3115.695217
772.428087	3091.170003
772.753256	3081.490988
773.078378	3074.284659
773.403453	3041.481871
773.728482	3028.548790
774.053465	3050.684497
774.378401	3034.376364
774.703291	3011.214783
775.028135	3010.584639
775.352932	3002.599451
775.677683	2992.439005
776.002388	2987.980105
776.327046	2992.081083
776.651658	2979.712613
776.976224	2968.357413
777.300743	2967.419759
777.625216	2956.273768
777.949643	2955.058850
778.274024	2953.102882
778.598359	2949.095165
778.922647	2950.166410
779.246889	2950.136163
779.571086	2934.228802
779.895236	2926.435178
780.219339	2940.971345
780.543397	2948.654064
780.867409	2954.247224
781.191374	2947.459310
781.515294	2945.563836
781.839167	2945.367231
782.162995	2936.666200
782.486776	2946.713219
782.810511	2945.125256
783.134201	2931.778801
783.457844	2936.010850
783.781441	2929.260745
784.104993	2909.660739
784.428498	2910.409350
784.751958	2921.230187
785.075372	2914.316244
785.398739	2901.627660
785.722061	2916.897315
786.045337	2928.736465
786.368568	2911.031933
786.691752	2904.783422
787.014891	2955.444498
787.337983	2982.291163
787.661030	3010.045235
787.984031	3076.964032
788.306987	3117.767131
788.629897	3111.127932
788.952760	3096.445571
789.275579	3081.314548
789.598351	3020.820702
789.921078	2975.339412
790.243759	2972.024853
790.566395	2954.201853
790.888984	2930.967175
791.211529	2913.900349
791.534027	2905.380799
791.856480	2894.549880
792.178888	2881.122767
792.501249	2871.572301
792.823566	2868.509800
793.145836	2869.538195
793.468062	2861.865559
793.790241	2857.129395
794.112375	2866.692464
794.434464	2876.152189
794.756507	2883.764331
795.078505	2886.652913
795.400457	2902.313257
795.722364	2939.811880
796.044226	2962.658389
796.366042	2963.588482
796.687812	2954.902574
797.009538	2972.362610
797.331218	2960.425158
797.652852	2948.107098
797.974442	2928.507092
798.295986	2924.327976
798.617484	2920.645413
798.938938	2904.823752
799.260346	2890.219529
799.581709	2886.486554
799.903026	2877.498177
800.224299	2874.037425
800.545526	2862.919160
800.866708	2846.187571
801.187845	2838.625840
801.508936	2838.890500
801.829983	2847.009279
802.150984	2831.714418
802.471940	2821.521205
802.792851	2823.318376
803.113717	2821.422902
803.434538	2827.043789
803.755314	2820.397027
804.076045	2812.137097
804.396731	2815.174392
804.717372	2815.938127
805.037967	2808.081489
805.358518	2815.970894
805.679024	2826.189313
805.999485	2822.602532
806.319901	2827.678974
806.640272	2818.302428
806.960598	2821.697645
807.280879	2832.039572
807.601115	2840.513752
807.921306	2826.383398
808.241453	2822.393324
808.561554	2828.725014
808.881611	2833.022597
809.201623	2822.340392
809.521590	2826.275013
809.841513	2819.943324
810.161390	2823.709066
810.481223	2821.808551
810.801011	2809.296407
811.120755	2806.591828
811.440453	2807.491674
811.760107	2807.194246
812.079716	2806.337249
812.399281	2794.750157
812.718801	2790.013993
813.038276	2786.833025
813.357707	2791.964920
813.677093	2798.478091
813.996434	2793.159673
814.315731	2787.006945
814.634983	2786.270937
814.954191	2785.552572
815.273354	2800.096301
815.592473	2806.700212
815.911547	2808.799853
816.230577	2817.896615
816.549562	2824.437512
816.868502	2823.487255
817.187399	2831.840447
817.506250	2851.306862
817.825058	2842.933506
818.143821	2857.454549
818.462539	2869.792773
818.781213	2895.800086
819.099843	2933.086981
819.418429	2989.386587
819.736970	3050.014023
820.055466	3119.859210
820.373919	3223.744788
820.692327	3364.304760
821.010691	3527.028165
821.329011	3962.147797
821.647286	4849.310216
821.965517	6201.294745
822.283704	6918.320742
822.601847	6887.972996
822.919945	6267.921155
823.237999	5774.979488
823.556010	5205.034196
823.873976	4663.412627
824.191897	4263.848252
824.509775	3979.204542
824.827609	3716.139490
825.145398	3595.839915
825.463144	3581.759972
825.780845	3669.471008
826.098502	3777.321453
826.416116	4057.400399
826.733685	4363.789127
827.051210	4421.890946
827.368692	4307.731497
827.686129	4047.179460
828.003522	3732.142633
828.320872	3477.186277
828.638177	3288.654685
828.955439	3153.801299
829.272656	3070.894483
829.589830	3009.231089
829.906960	2958.665795
830.224046	2914.318765
830.541088	2883.439177
830.858086	2867.589789
831.175041	2852.022706
831.491952	2852.287367
831.808819	2865.941332
832.125642	2888.903788
832.442421	2931.118410
832.759157	3009.233609
833.075849	3186.760363
833.392497	3459.544759
833.709101	3661.531191
834.025662	3609.972790
834.342179	3453.228193
834.658653	3280.732512
834.975083	3133.064512
835.291469	3036.786036
835.607811	2957.047585
835.924110	2898.013153
836.240366	2849.209742
836.556578	2807.405974
836.872746	2786.233128
837.188871	2765.493821
837.504952	2745.639237
837.820990	2738.453072
838.136984	2726.046792
838.452935	2722.270968
838.768842	2716.697972
839.084706	2736.308061
839.400526	2812.174906
839.716303	2940.426901
840.032037	3020.982018
840.347727	3006.259329
840.663373	2946.556944
840.978977	2871.569780
841.294537	2800.986065
841.610054	2757.531318
841.925527	2735.662793
842.240957	2713.897611
842.556344	2691.661082
842.871687	2678.014678
843.186987	2665.837771
843.502244	2664.285096
843.817458	2657.552635
844.132629	2648.070224
844.447756	2639.515386
844.762840	2634.058337
845.077881	2636.135293
845.392879	2631.983902
845.707833	2627.905609
846.022745	2621.926801
846.337613	2624.212964
846.652438	2624.452419
846.967221	2625.533746
847.281960	2623.734054
847.596656	2620.220370
847.911309	2620.147273
848.225919	2621.382356
848.540485	2615.524535
848.855009	2614.339864
849.169490	2614.970008
849.483928	2615.166613
849.798323	2613.008999
850.112675	2610.392641
850.426984	2613.603856
850.741251	2610.732918
851.055474	2611.153855
851.369654	2615.625358
851.683792	2615.322889
851.997887	2612.167127
852.311938	2611.978083
852.625947	2614.420523
852.939914	2615.504371
853.253837	2616.008486
853.567718	2612.124277
853.881555	2611.753752
854.195350	2613.823146
854.509103	2612.388937
854.822812	2608.406426
855.136479	2610.846344
855.450103	2612.913217
855.763685	2613.989504
856.077224	2608.615634
856.390720	2607.768720
856.704173	2610.904318
857.017584	2615.204422
857.330953	2618.561830
857.644278	2617.611573
857.957561	2619.171810
858.270802	2613.944133
858.584000	2613.487909
858.897155	2617.639299
859.210268	2619.375977
859.523339	2612.850203
859.836367	2608.756786
860.149352	2608.295521
860.462295	2613.457662
860.775195	2609.548247
861.088054	2608.935747
861.400869	2607.861981
861.713642	2606.589090
862.026373	2603.960128
862.339062	2609.442383
862.651708	2614.506222
862.964312	2616.139556
863.276873	2611.400871
863.589392	2617.573764
863.901869	2622.241873
864.214303	2623.487038
864.526696	2627.053654
864.839045	2628.765126
865.151353	2630.973151
865.463619	2631.351238
865.775842	2630.539612
866.088023	2629.402832
866.400162	2631.893162
866.712258	2633.060189
867.024313	2629.581793
867.336325	2623.534929
867.648296	2630.872328
867.960224	2633.579428
868.272110	2632.198152
868.583954	2623.003087
868.895755	2625.165742
869.207515	2631.308388
869.519233	2637.191414
869.830909	2635.399284
870.142542	2628.172790
870.454134	2632.790487
870.765684	2636.314254
871.077191	2638.013122
871.388657	2644.017137
871.700081	2639.548154
872.011463	2638.665952
872.322803	2641.325161
872.634101	2643.984369
872.945357	2651.316727
873.256571	2655.979795
873.567744	2655.881492
873.878874	2652.188847
874.189963	2652.559372
874.501010	2658.896102
874.812015	2664.582524
875.122979	2664.781649
875.433900	2656.012562
875.744780	2653.537356
876.055618	2660.794097
876.366415	2666.556136
876.677169	2664.229643
876.987882	2658.200423
877.298554	2657.414003
877.609183	2666.571259
877.919771	2672.350942
878.230317	2680.300842
878.540822	2690.143694
878.851285	2703.250694
879.161707	2728.186762
879.472087	2764.588934
879.782425	2807.683237
880.092722	2918.162645
880.402977	3100.586879
880.713191	3353.209180
881.023363	3635.854074
881.333494	3819.828463
881.643583	3986.133607
881.953631	3988.875995
882.263637	3810.588028
882.573602	3592.855552
882.883526	3470.920123
883.193408	3362.033720
883.503248	3262.675098
883.813048	3156.359684
884.122806	3040.750903
884.432522	2963.580920
884.742197	2898.406363
885.051831	2862.760364
885.361424	2828.793069
885.670975	2794.888789
885.980485	2764.009201
886.289954	2748.731984
886.599382	2734.639439
886.908768	2722.540670
887.218113	2706.076261
887.527417	2693.032276
887.836680	2684.835359
888.145901	2680.361335
888.455082	2671.466219
888.764221	2660.393325
889.073319	2654.853097
889.382376	2654.406955
889.691392	2654.553148
890.000366	2658.081956
890.309300	2651.223466
890.618193	2655.763025
890.927044	2656.562048
891.235855	2660.042965
891.544625	2656.781338
891.853353	2657.058602
892.162041	2665.603357
892.470687	2681.508198
892.779293	2693.876669
893.087858	2702.761702
893.396381	2725.139384
893.704864	2763.767226
894.013306	2833.156188
894.321707	2925.278233
894.630068	2967.210551
894.938387	2987.508757
895.246665	2981.585401
895.554903	2937.976900
895.863100	2895.784963
896.171256	2841.728670
896.479371	2784.488889
896.787446	2743.206880
897.095480	2728.310270
897.403473	2724.915053
897.711425	2707.913762
898.019336	2690.693180
898.327207	2679.111129
898.635038	2678.049966
898.942827	2673.500325
899.250576	2664.295178
899.558284	2654.880823
899.865952	2649.156593
900.173579	2649.282622
900.481165	2646.459576
900.788711	2635.984058
901.096216	2633.246712
901.403681	2629.261679
901.711105	2629.417955
902.018489	2625.702625
902.325832	2630.690847
902.633135	2632.808131
902.940397	2646.041160
903.247619	2682.856707
903.554800	2746.947416
903.861941	2868.595499
904.169041	2991.554283
904.476101	3050.220711
904.783121	3042.739638
905.090100	2988.239724
905.397039	2913.222314
905.703938	2847.105061
906.010796	2787.102727
906.317614	2734.704974
906.624391	2700.364634
906.931129	2676.782116
907.237826	2654.185144
907.544483	2637.360293
907.851099	2623.018210
908.157675	2616.346243
908.464211	2607.690582
908.770707	2597.482246
909.077163	2594.533171
909.383578	2592.713314
909.689954	2589.965885
909.996289	2588.415730
910.302584	2586.971440
910.608839	2584.687797
910.915054	2584.521439
911.221229	2586.905905
911.527363	2589.870103
911.833458	2587.460432
912.139513	2590.190217
912.445527	2590.343972
912.751502	2596.511823
913.057436	2600.297730
913.363331	2607.761158
913.669186	2618.909670
913.975000	2630.819396
914.280775	2645.345481
914.586510	2663.165960
914.892205	2697.476053
915.197859	2760.861001
915.503475	2842.230265
915.809050	2904.859040
916.114585	2918.495361
916.420081	2928.355858
916.725536	2938.123093
917.030952	2915.505957
917.336328	2871.572301
917.641665	2824.056905
917.946961	2775.276180
918.252218	2744.091602
918.557435	2719.702500
918.862612	2698.612833
919.167750	2683.149093
919.472848	2666.445230
919.777906	2648.702889
920.082925	2640.107722
920.387904	2628.044241
920.692843	2626.277316
920.997743	2619.743981
921.302603	2612.094030
921.607423	2607.710747
921.912204	2603.400560
922.216946	2596.816813
922.521647	2599.753285
922.826310	2595.591813
923.130932	2591.936976
923.435516	2585.746439
923.740059	2582.855338
924.044564	2583.208218
924.349028	2580.743094
924.653454	2575.621282
924.957840	2570.635581
925.262186	2565.284396
925.566493	2569.503842
925.870761	2562.937739
926.174989	2569.387895
926.479178	2563.293140
926.783328	2563.280537
927.087438	2562.804148
927.391509	2564.200548
927.695541	2561.231308
927.999533	2559.171997
928.303486	2557.836091
928.607400	2557.881462
928.911275	2555.917932
929.215110	2559.451781
929.518906	2559.817265
929.822663	2558.219219
930.126381	2558.443550
930.430060	2556.467418
930.733699	2555.746533
931.037299	2559.905485
931.340861	2558.138560
931.644383	2559.837429
931.947866	2557.067315
932.251309	2556.714434
932.554714	2556.807696
932.858080	2558.617470
933.161407	2555.391132
933.464694	2554.287119
933.767943	2553.500699
934.071153	2556.253169
934.374323	2555.519681
934.677455	2555.620504
934.980548	2552.273178
935.283602	2552.716799
935.586617	2551.637992
935.889593	2555.423899
936.192530	2556.782490
936.495428	2553.583878
936.798287	2555.844835
937.101108	2556.759805
937.403890	2558.458674
937.706632	2562.892368
938.009336	2567.421845
938.312002	2568.273800
938.614628	2570.892680
938.917216	2573.733370
939.219765	2572.631878
939.522275	2577.136149
939.824747	2576.143041
940.127179	2569.556774
940.429573	2566.642987
940.731929	2567.207596
941.034246	2566.832030
941.336524	2570.930488
941.638763	2564.795404
941.940964	2563.905640
942.243126	2565.438151
942.545250	2565.024777
942.847335	2561.987481
943.149381	2558.279713
943.451389	2561.317008
943.753359	2560.555794
944.055290	2557.841132
944.357182	2557.962120
944.659036	2556.474980
944.960851	2554.937428
945.262628	2554.236707
945.564367	2557.165618
945.866067	2557.163097
946.167729	2556.144784
946.469352	2558.471277
946.770937	2554.826522
947.072484	2557.964641
947.373992	2557.233673
947.675462	2556.608570
947.976893	2557.757953
948.278286	2555.670916
948.579641	2552.878116
948.880958	2555.312994
949.182236	2556.114537
949.483476	2553.261244
949.784678	2552.991542
950.085841	2555.020607
950.386967	2554.463559
950.688054	2553.888868
950.989103	2555.035730
951.290114	2555.292829
951.591087	2557.664692
951.892021	2557.226112
952.192917	2561.712738
952.493776	2559.844991
952.794596	2564.634087
953.095378	2563.608212
953.396122	2562.662996
953.696828	2560.971689
953.997496	2560.414641
954.298126	2557.011862
954.598718	2557.246276
954.899272	2552.457180
955.199788	2553.445246
955.500266	2551.469114
955.800706	2549.225800
956.101108	2545.747404
956.401472	2546.949719
956.701798	2543.342774
957.002087	2545.170192
957.302337	2545.984338
957.602550	2546.927034
957.902724	2544.015768
958.202861	2543.105840
958.502960	2543.194060
958.803022	2544.025850
959.103045	2545.845707
959.403031	2542.684903
959.702979	2545.520552
960.002889	2542.601724
960.302762	2541.616179
960.602596	2543.950233
960.902393	2542.793288
961.202153	2541.482588
961.501875	2541.913607
961.801559	2543.486447
962.101205	2539.703061
962.400814	2540.363452
962.700385	2541.109543
962.999918	2540.779347
963.299414	2539.687937
963.598873	2540.522248
963.898293	2540.582742
964.197677	2541.648946
964.497022	2539.128369
964.796331	2541.119625
965.095601	2539.766075
965.394835	2538.447813
965.694030	2538.742721
965.993189	2543.171375
966.292309	2537.663914
966.591393	2542.503422
966.890439	2541.805222
967.189447	2540.794471
967.488419	2540.590304
967.787353	2540.698689
968.086249	2536.905220
968.385108	2541.485109
968.683930	2540.948226
968.982714	2540.391178
969.281462	2540.512166
969.580172	2541.238092
969.878844	2538.493184
970.177480	2544.469472
970.476078	2542.445448
970.774639	2543.055428
971.073162	2539.967721
971.371649	2541.464944
971.670098	2538.233564
971.968510	2537.661393
972.266885	2537.452186
972.565223	2539.887063
972.863524	2538.909079
973.161788	2543.983000
973.460014	2538.770447
973.758204	2541.699358
974.056356	2539.045190
974.354471	2542.916796
974.652550	2543.425953
974.950591	2541.268339
975.248595	2541.318751
975.546563	2541.036446
975.844493	2539.763555
976.142386	2541.419574
976.440243	2543.496529
976.738062	2540.474357
977.035845	2537.875643
977.333590	2537.525282
977.631299	2541.316230
977.928971	2539.377906
978.226606	2539.745911
978.524204	2539.519059
978.821765	2539.657690
979.119290	2536.239788
979.416777	2540.260108
979.714228	2539.463606
980.011642	2540.406302
980.309020	2542.518545
980.606360	2542.669780
980.903664	2539.786240
981.200931	2539.065355
981.498162	2540.217258
981.795356	2543.277239
982.092513	2546.276725
982.389633	2547.700851
982.686717	2552.633620
982.983764	2550.012220
983.280775	2556.101934
983.577749	2554.559341
983.874686	2552.726882
984.171587	2550.344937
984.468451	2546.286808
984.765279	2545.240768
985.062070	2546.848896
985.358824	2545.684390
985.655543	2540.396219
985.952224	2537.101825
986.248869	2540.325643
986.545478	2536.569984
986.842050	2535.614685
987.138586	2534.666948
987.435086	2534.218285
987.731549	2533.441948
988.027975	2537.295910
988.324366	2537.497556
988.620719	2535.990251
988.917037	2537.089222
989.213318	2537.353883
989.509563	2536.693492
989.805772	2538.853626
990.101944	2536.774150
990.398080	2537.119469
990.694180	2533.779705
990.990244	2538.578883
991.286271	2535.347504
991.582262	2534.971938
991.878217	2537.361445
992.174136	2536.244829
992.470019	2536.912782
992.765865	2537.767258
993.061676	2536.073430
993.357450	2536.300282
993.653188	2537.714326
993.948890	2536.237268
994.244556	2538.190715
994.540186	2537.860519
994.835780	2537.870601
995.131337	2537.986548
995.426859	2538.074768
995.722345	2536.822041
996.017795	2538.672145
996.313208	2539.894625
996.608586	2541.285983
996.903928	2540.865047
997.199234	2541.101981
997.494504	2540.857485
997.789738	2539.367824
998.084936	2539.166178
998.380099	2539.907228
998.675225	2539.067875
998.970316	2538.825900
999.265371	2536.822041
999.560390	2535.846578
999.855373	2538.621733
1000.150320	2537.119469
1000.445232	2537.094264
1000.740108	2535.660055
1001.034948	2535.937319
1001.329752	2537.474871
1001.624521	2536.832124
1001.919254	2532.683254
1002.213951	2535.125693
1002.508613	2531.642256
1002.803239	2534.944212
1003.097829	2528.337779
1003.392384	2535.090405
1003.686903	2538.268853
1003.981386	2539.173740
1004.275834	2535.287010
1004.570246	2536.890097
1004.864623	2533.777184
1005.158964	2535.571835
1005.453270	2534.004036
1005.747540	2533.935981
1006.041775	2534.485467
1006.335974	2535.833975
1006.630138	2537.852957
1006.924266	2535.264325
1007.218359	2534.709798
1007.512416	2533.252904
1007.806438	2535.960004
1008.100425	2534.714839
1008.394376	2535.188708
1008.688292	2535.922195
1008.982172	2532.607637
1009.276017	2534.639222
1009.569827	2534.412370
1009.863602	2536.204500
1010.157341	2534.477905
1010.451045	2534.256094
1010.744714	2535.135775
1011.038347	2535.990251
1011.331945	2532.174098
1011.625508	2534.528316
1011.919036	2533.847761
1012.212528	2535.687782
1012.505986	2534.114942
1012.799408	2534.666948
1013.092795	2533.119314
1013.386147	2534.054448
1013.679464	2534.485467
1013.972745	2536.736342
1014.265992	2534.979500
1014.559204	2534.223327
1014.852380	2534.309026
1015.145521	2535.652494
1015.438628	2534.409849
1015.731699	2535.034952
1016.024736	2534.533358
1016.317737	2534.235929
1016.610703	2533.774664
1016.903635	2531.783408
1017.196531	2529.540095
1017.489393	2533.346166
1017.782219	2529.308202
1018.075011	2534.412370
1018.367768	2533.003367
1018.660490	2536.285158
1018.953177	2536.285158
1019.245829	2536.285158
