Dividing Wavelength (nm)	Counts (n)	Blue Motor Position (mm): 41.400000	Red Motor Position (mm): 0.000000	
326.493990	2048.838349
326.888308	2048.838349
327.282561	2048.838349
327.676750	2023.778773
328.070874	2026.198527
328.464933	2032.739424
328.858929	2041.241330
329.252859	2052.712476
329.646726	2062.048693
330.040528	2082.183061
330.434265	2099.333067
330.827938	2118.756632
331.221547	2139.185908
331.615091	2158.722900
332.008571	2181.992866
332.401986	2203.558922
332.795338	2222.848898
333.188625	2241.135683
333.581847	2258.472211
333.975006	2276.998452
334.368100	2294.836574
334.761129	2312.226035
335.154095	2326.926039
335.546996	2377.370345
335.939833	2491.517192
336.332606	2495.623212
336.725315	2510.529903
337.117960	2519.881244
337.510540	2528.224353
337.903056	2539.755993
338.295508	2545.374359
338.687896	2550.861655
339.080220	2560.291133
339.472480	2563.421690
339.864676	2564.810527
340.256807	2567.152143
340.648875	2568.266238
341.040879	2571.268246
341.432818	2572.962073
341.824694	2573.347722
342.216506	2572.924265
342.608253	2572.286559
342.999937	2571.716908
343.391557	2570.141548
343.783113	2569.763461
344.174605	2568.079716
344.566033	2568.939233
344.957397	2566.789180
345.348697	2564.039231
345.739934	2562.375650
346.131106	2562.211813
346.522215	2555.650751
346.913260	2559.151832
347.304241	2557.778118
347.695159	2555.378529
348.086012	2555.875082
348.476802	2551.212015
348.867528	2546.886705
349.258191	2546.130532
349.648789	2547.269833
350.039324	2540.779347
350.429796	2547.027857
350.820203	2543.783875
351.210548	2544.058618
351.600828	2541.051569
351.991045	2543.030222
352.381198	2542.316899
352.771288	2543.123484
353.161314	2541.359080
353.551276	2540.560057
353.941175	2539.070396
354.331010	2540.691127
354.720782	2547.032898
355.110490	2545.913762
355.500135	2543.637681
355.889717	2542.175747
356.279235	2540.655839
356.668689	2543.554502
357.058080	2543.738504
357.447408	2541.354039
357.836672	2542.067362
358.225873	2543.443597
358.615010	2542.987372
359.004084	2547.894936
359.393095	2546.163299
359.782043	2547.726057
360.170927	2546.732950
360.559748	2548.028526
360.948505	2549.278733
361.337199	2548.716644
361.725830	2552.197561
362.114398	2549.878630
362.502903	2550.546583
362.891344	2550.685214
363.279722	2552.265616
363.668037	2553.009186
364.056289	2551.769062
364.444478	2553.104968
364.832603	2553.379711
365.220665	2554.692932
365.608665	2554.256872
365.996601	2555.408776
366.384474	2557.458005
366.772284	2553.664536
367.160031	2555.769218
367.547715	2558.133519
367.935336	2556.427089
368.322893	2558.249466
368.710388	2554.148487
369.097820	2552.245452
369.485189	2553.969526
369.872495	2560.949004
370.259738	2560.351627
370.646918	2560.124775
371.034035	2561.828685
371.421090	2560.044117
371.808081	2562.153839
372.195010	2561.281720
372.581875	2561.853891
372.968678	2562.612584
373.355418	2564.966803
373.742096	2562.615105
374.128710	2563.943449
374.515262	2564.568552
374.901751	2564.215671
375.288177	2565.617112
375.674540	2562.950342
376.060841	2566.562328
376.447079	2564.868501
376.833254	2565.538974
377.219367	2565.954869
377.605417	2565.909499
377.991404	2570.393605
378.377329	2570.489387
378.763191	2568.588872
379.148991	2567.681465
379.534727	2567.527709
379.920402	2574.053483
380.306013	2568.319171
380.691563	2572.760427
381.077049	2571.482495
381.462474	2569.677762
381.847835	2573.146075
382.233134	2573.277145
382.618371	2574.920562
383.003545	2572.082392
383.388657	2576.531210
383.773706	2575.706982
384.158693	2576.609348
384.543618	2575.775037
384.928480	2576.778227
385.313280	2576.516087
385.698017	2579.939030
386.082692	2577.766293
386.467305	2581.458938
386.851856	2580.614545
387.236344	2581.466500
387.620770	2581.595049
388.005133	2579.550861
388.389435	2584.649988
388.773674	2581.431212
389.157851	2587.911615
389.541965	2589.181986
389.926018	2591.518561
390.310008	2595.168356
390.693936	2600.060796
391.077802	2602.818307
391.461606	2607.839296
391.845348	2611.945316
392.229027	2617.699793
392.612645	2623.113992
392.996200	2631.678913
393.379694	2636.732669
393.763125	2649.149031
394.146494	2659.672440
394.529801	2670.828513
394.913047	2682.168589
395.296230	2692.263500
395.679351	2702.870087
396.062410	2720.201574
396.445408	2725.116699
396.828343	2745.818197
397.211217	2761.828902
397.594028	2773.015222
397.976778	2790.641617
398.359466	2814.869402
398.742092	2828.341886
399.124656	2847.334433
399.507158	2874.760831
399.889598	2893.322359
400.271977	2925.172369
400.654294	2945.682303
401.036549	2975.067189
401.418742	2995.839264
401.800874	3037.524565
402.182944	3065.371899
402.564952	3116.350567
402.946898	3134.178607
403.328783	3157.597288
403.710606	3195.723534
404.092367	3250.399889
404.474067	3301.156746
404.855705	3316.731391
405.237282	3334.226716
405.618797	3400.946387
406.000250	3466.199082
406.381642	3535.580482
406.762972	3560.715676
407.144240	3570.024166
407.525447	3633.668733
407.906593	3669.191224
408.287677	3744.972369
408.668700	3794.000111
409.049661	3843.539530
409.430560	3893.462076
409.811399	3917.667177
410.192176	3968.852532
410.572891	4049.168195
410.953545	4150.354235
411.334138	4109.760344
411.714669	4213.267835
412.095139	4183.083927
412.475547	4288.053353
412.855894	4312.376920
413.236180	4418.757869
413.616405	4392.753077
413.996568	4494.002131
414.376670	4522.527500
414.756711	4540.320253
415.136691	4620.318323
415.516609	4709.443402
415.896466	4762.798975
416.276262	4852.725598
416.655997	4970.285305
417.035670	5062.813164
417.415283	5199.380542
417.794834	5264.953351
418.174324	5251.841309
418.553753	5274.599598
418.933121	5429.171458
419.312428	5455.473678
419.691674	5419.273152
420.070859	5625.045490
420.449983	5539.660947
420.829045	5727.721191
421.208047	5673.848901
421.586988	5829.580225
421.965867	5905.081587
422.344686	5992.296069
422.723444	6154.187683
423.102141	5822.484801
423.480777	6178.619635
423.859352	6022.621130
424.237866	6373.306476
424.616319	6368.535024
424.994712	6525.514034
425.373044	6462.839889
425.751314	6749.394197
426.129524	6502.581826
426.507673	6751.738334
426.885762	6793.196783
427.263789	6840.439956
427.641756	6931.284069
428.019662	6996.539285
428.397508	7042.562499
428.775292	7044.780607
429.153016	7184.833943
429.530679	7141.399362
429.908282	7186.162287
430.285824	7136.174206
430.663305	7386.331383
431.040726	7296.009029
431.418086	7292.984337
431.795385	7429.463495
432.172624	7610.768593
432.549802	7492.848443
432.926920	7625.697970
433.303977	7575.243582
433.680974	7629.688044
434.057910	7808.591032
434.434786	7856.421500
434.811601	7814.287536
435.188355	8154.293198
435.565050	8054.891727
435.941683	8062.372799
436.318257	8373.011219
436.694770	8319.343096
437.071222	8531.512658
437.447614	8305.358935
437.823946	8279.056715
438.200218	8424.733458
438.576429	8323.950710
438.952580	8478.512487
439.328670	8485.532294
439.704700	8565.716887
440.080670	8466.365827
440.456580	8715.524856
440.832429	8704.809883
441.208218	8442.685007
441.583947	8557.217502
441.959616	8662.575096
442.335224	8702.080098
442.710773	8779.524824
443.086261	8951.836504
443.461689	8689.033592
443.837057	8840.474895
444.212365	9041.974855
444.587612	9044.946616
444.962800	8932.609543
445.337927	9068.264473
445.712995	8625.993963
446.088002	9268.315101
446.462949	9333.557714
446.837837	9335.390174
447.212664	9389.559892
447.587431	10294.920876
447.962139	11254.796898
448.336786	12006.906805
448.711374	11613.911054
449.085901	10473.730603
449.460369	10456.903232
449.834776	10365.696156
450.209124	11291.146138
450.583412	11060.757845
450.957640	11270.726944
451.331808	10859.542710
451.705917	10381.162416
452.079965	10312.363269
452.453954	10505.358802
452.827883	10457.412388
453.201752	10414.940667
453.575562	10444.050810
453.949311	10787.653336
454.323001	10869.549400
454.696632	10788.696854
455.070202	11370.801410
455.443713	11423.108422
455.817164	11583.467526
456.190556	11894.473951
456.563888	11722.673948
456.937160	11943.947834
457.310373	11449.745879
457.683526	11491.637867
458.056619	11534.003724
458.429653	11605.313366
458.802628	11784.770881
459.175542	11839.858090
459.548398	12380.358002
459.921194	12963.959780
460.293930	13286.676805
460.666607	14110.529893
461.039224	14833.683412
461.411782	15094.369040
461.784280	14709.418970
462.156719	14636.511283
462.529099	14537.616447
462.901419	13957.697232
463.273680	13611.919449
463.645882	13839.409078
464.018024	13795.603971
464.390106	14198.891238
464.762130	15359.453073
465.134094	17014.763830
465.505999	19267.443755
465.877845	21279.854727
466.249631	22193.606711
466.621358	21565.736041
466.993026	20746.097357
467.364634	20039.526714
467.736184	19330.130503
468.107674	18792.138565
468.479105	18651.576072
468.850477	18389.536895
469.221790	17965.311196
469.593043	17323.209348
469.964238	16985.018502
470.335373	17090.028257
470.706449	17953.431717
471.077467	19093.859184
471.448425	21417.405130
471.819324	22903.587695
472.190164	22386.876988
472.560945	20718.844880
472.931667	19320.685902
473.302330	19074.813705
473.672934	18623.610271
474.043479	19064.247447
474.413965	18871.161172
474.784393	18710.766780
475.154761	19343.577781
475.525070	19474.834304
475.895321	19313.063677
476.265513	19820.170986
476.635645	20407.442724
477.005719	20470.497477
477.375734	20848.218531
477.745691	21456.968105
478.115588	22106.349379
478.485427	23369.491134
478.855207	25228.078857
479.224928	26946.242720
479.594591	28119.621689
479.964194	27601.552390
480.333739	27981.257139
480.703226	28274.145657
481.072653	28787.567012
481.442022	29282.862898
481.811333	29581.788197
482.180584	29080.021990
482.549777	28854.742907
482.918912	28674.647686
483.287988	28619.431928
483.657005	28455.549058
484.025964	28106.292878
484.394864	28310.673858
484.763706	28246.366379
485.132489	27751.627540
485.501213	27822.097830
485.869879	28028.465024
486.238487	27990.469848
486.607036	28259.554037
486.975527	27973.655079
487.343959	28302.340831
487.712333	28639.115113
488.080648	28615.215003
488.448905	29036.335351
488.817104	28968.897316
489.185244	29879.561593
489.553326	31004.623623
489.921350	32945.979531
490.289315	35331.277091
490.657222	36001.909349
491.025070	36405.670484
491.392861	36016.775712
491.760593	35233.047688
492.128267	34239.990792
492.495883	33307.672238
492.863440	32479.614827
493.230939	31590.627511
493.598380	31075.363615
493.965763	30979.899284
494.333088	30534.185667
494.700354	30339.307262
495.067563	30328.047845
495.434713	30243.454763
495.801805	30538.727747
496.168839	30391.440355
496.535815	30270.205646
496.902733	30410.972305
497.269593	30239.245400
497.636395	30406.692366
498.003139	30709.277543
498.369825	30477.051750
498.736453	30890.915357
499.103023	30722.432434
499.469535	30837.199342
499.835989	30983.934728
500.202385	30845.187051
500.568723	30923.675296
500.935003	31250.374832
501.301226	31152.833547
501.667390	31862.103728
502.033497	32042.176264
502.399546	31857.468387
502.765537	31466.768882
503.131470	31950.409620
503.497345	32374.821842
503.863163	31366.747348
504.228923	32141.882725
504.594625	32534.696995
504.960269	32041.510832
505.325856	32724.294791
505.691385	32406.757551
506.056856	32710.141752
506.422270	33228.120309
506.787625	32766.335493
507.152924	33234.877976
507.518164	33436.453554
507.883347	33010.276928
508.248472	33178.966539
508.613540	33860.835528
508.978550	34124.976867
509.343503	33966.261179
509.708398	34336.339844
510.073236	34927.944454
510.438016	35037.397986
510.802738	34731.601594
511.167403	35306.555272
511.532010	35551.018467
511.896561	36041.517695
512.261053	36796.990051
512.625488	36568.635864
512.989866	36520.255911
513.354186	36586.736127
513.718449	36535.334002
514.082655	37440.294214
514.446803	37146.566344
514.810894	37758.688450
515.174927	37791.294633
515.538904	37787.286916
515.902822	38442.074827
516.266684	38142.715988
516.630488	38504.769137
516.994235	38523.050881
517.357925	39117.440728
517.721558	39375.431859
518.085133	39742.130431
518.448651	39946.771030
518.812112	39832.949338
519.175516	39997.769863
519.538863	40437.078694
519.902152	40514.011743
520.265385	41061.032388
520.628560	41077.055695
520.991678	41040.129243
521.354739	41262.885229
521.717743	41626.153296
522.080690	41544.584906
522.443580	42223.711508
522.806413	42246.333686
523.169189	42384.151270
523.531908	42622.517189
523.894569	42489.997857
524.257174	42682.741333
524.619722	43031.546330
524.982213	43139.674038
525.344647	43196.399622
525.707025	43325.853932
526.069345	43785.181186
526.431608	43679.410216
526.793815	44083.975415
527.155964	43619.357471
527.518057	43890.276640
527.880093	43737.869957
528.242072	44365.266759
528.603995	44104.059372
528.965860	44027.070871
529.327669	44250.951033
529.689421	44315.679449
530.051117	44276.718891
530.412755	44551.350871
530.774337	44610.261794
531.135862	44553.236262
531.497331	44704.952308
531.858743	44692.278847
532.220098	45103.468122
532.581396	44845.731570
532.942638	44596.121358
533.303824	44849.225090
533.664953	44907.858750
534.026025	44596.570021
534.387040	45151.258261
534.747999	45228.781124
535.108902	45537.932405
535.469748	44876.447320
535.830537	45144.651828
536.191270	45380.542540
536.551947	45114.548578
536.912567	45390.806330
537.273131	45538.681016
537.633638	45175.102918
537.994089	45372.678340
538.354483	45113.792405
538.714821	45785.858871
539.075103	46048.631536
539.435328	45912.643891
539.795497	45663.540314
540.155609	45786.007585
540.515665	46373.382667
540.875665	45683.604107
541.235609	45957.187526
541.595496	46099.960565
541.955328	46654.200142
542.315102	46103.078518
542.674821	45975.128993
543.034483	45871.351799
543.394090	45900.892961
543.753640	45892.514563
544.113134	46946.768547
544.472571	46037.654424
544.831953	47185.341152
545.191278	46440.951773
545.550548	46126.441746
545.909761	46770.348327
546.268918	46909.025428
546.628019	47324.209817
546.987064	46763.210053
547.346053	46053.178657
547.704986	46972.972464
548.063863	46608.073584
548.422684	46812.978844
548.781449	46398.724547
549.140158	46943.821992
549.498811	46703.845425
549.857408	46102.886954
550.215949	46945.236036
550.574434	46772.382432
550.932864	46701.977677
551.291237	47422.119107
551.649555	47180.839402
552.007817	47369.144142
552.366022	47028.142852
552.724173	47096.614324
553.082267	47520.151906
553.440305	47854.440899
553.798288	47105.413658
554.156215	47490.530086
554.514086	47690.242957
554.871902	47324.809715
555.229661	47486.116555
555.587365	47177.063578
555.945014	47314.082139
556.302606	47334.652568
556.660143	47437.136705
557.017625	47655.935384
557.375050	47353.486318
557.732421	47772.048281
558.089735	47833.903239
558.446994	47683.419755
558.804197	48188.288792
559.161345	48040.688849
559.518437	47377.608239
559.875474	47645.432140
560.232455	47873.473776
560.589381	47930.280018
560.946251	47732.593690
561.303065	48396.632119
561.659825	48078.046319
562.016528	47877.844456
562.373177	47462.234089
562.729770	48099.443497
563.086307	47613.635063
563.442789	48163.526645
563.799216	47998.867437
564.155587	47902.573836
564.511904	47875.182727
564.868164	47924.628884
565.224370	48236.240248
565.580520	47967.579515
565.936615	48167.267181
566.292654	47835.781068
566.648638	48182.287299
567.004567	48134.925658
567.360441	48232.797140
567.716260	47935.686655
568.072023	48302.475968
568.427732	48223.183659
568.783385	47767.735574
569.138982	48177.866207
569.494525	48319.661262
569.850013	47914.231505
570.205445	48045.351916
570.560823	47798.726067
570.916145	47678.227367
571.271412	47914.798634
571.626625	47564.027588
571.981782	47647.403232
572.336884	47238.353926
572.691931	47564.690500
573.046923	47233.027947
573.401860	47068.333451
573.756743	47090.937985
574.111570	47232.803616
574.466342	47139.643093
574.821059	47301.975808
575.175722	46790.573436
575.530330	46901.042761
575.884882	46550.460757
576.239380	46428.336285
576.593823	46527.571398
576.948211	46452.934595
577.302544	46013.938315
577.656823	45986.474109
578.011047	46254.499656
578.365216	46077.101452
578.719330	45797.387990
579.073389	45780.671524
579.427394	45832.867631
579.781344	45773.543332
580.135239	45503.922260
580.489080	45571.282158
580.842866	45057.724692
581.196597	45542.618157
581.550273	45546.351132
581.903895	45488.743346
582.257463	45906.493683
582.610975	45337.153329
582.964434	45686.535538
583.317837	45192.247883
583.671186	45155.560885
584.024481	45419.445125
584.377721	44964.004601
584.730906	45176.138875
585.084037	45293.320497
585.437113	44998.997770
585.790135	45132.200178
586.143103	44684.089492
586.496016	44848.728536
586.848874	44956.284074
587.201679	44977.164533
587.554428	44481.039377
587.907124	44751.053660
588.259765	44515.732598
588.612352	44688.432447
588.964884	44137.136903
589.317362	44443.112256
589.669786	44452.511488
590.022155	44295.030883
590.374470	44754.214463
590.726731	44334.772819
591.078937	43661.337680
591.431090	44009.701575
591.783188	43543.364597
592.135232	43324.926360
592.487222	43583.527470
592.839157	43747.183488
593.191038	43372.930748
593.542866	43201.660066
593.894639	42587.317332
594.246358	42884.689956
594.598022	42874.781568
594.949633	42456.892600
595.301190	42434.812346
595.652692	42388.794173
596.004141	42855.836912
596.355535	41761.225972
596.706876	41780.871348
597.058162	41507.945800
597.409395	41993.119049
597.760573	42198.349463
598.111698	41813.273365
598.462768	41728.329923
598.813785	41755.297575
599.164748	41340.662671
599.515657	41619.647687
599.866511	41132.906639
600.217312	41818.659838
600.568060	40755.596438
600.918753	41601.307969
601.269392	41502.292146
601.619978	41221.411656
601.970510	41431.196753
602.320988	41557.018912
602.671412	41822.329798
603.021783	41700.696838
603.372100	41256.233427
603.722363	41381.004505
604.072572	41401.164079
604.422728	41386.779147
604.772830	41168.101454
605.122878	41348.249608
605.472872	41179.007991
605.822813	41448.356841
606.172701	41205.814326
606.522534	41517.198838
606.872314	41736.063053
607.222041	41558.707698
607.571714	41898.063052
607.921333	41393.826680
608.270899	41608.254679
608.620411	41993.640808
608.969870	41723.855898
609.319276	41745.484969
609.668627	41761.021805
610.017926	42167.497602
610.367171	42313.159221
610.716362	42329.248064
611.065500	42234.640730
611.414585	42446.502782
611.763616	42632.672593
612.112594	42522.656972
612.461518	42645.041064
612.810389	43038.500601
613.159207	42813.087928
613.507971	42804.812874
613.856682	43298.573728
614.205340	43125.962100
614.553945	43822.531094
614.902496	43130.486536
615.250994	43570.526334
615.599439	43629.485149
615.947830	43742.195267
616.296169	43722.812030
616.644454	43769.046973
616.992686	43929.058237
617.340864	44379.989448
617.688990	43900.757199
618.037063	44590.926449
618.385082	44405.510290
618.733048	44748.250778
619.080961	44614.423267
619.428821	44640.710364
619.776628	44663.967727
620.124382	44474.760620
620.472083	44591.662457
620.819731	44691.084093
621.167326	44244.203449
621.514868	44232.712139
621.862357	43712.379362
622.209793	43803.709947
622.557176	43352.622459
622.904506	43120.925987
623.251783	42749.483690
623.599007	42438.005917
623.946179	42356.760161
624.293297	42086.236722
624.640363	41543.102807
624.987376	41400.917062
625.334336	41195.522811
625.681243	40783.907558
626.028097	40686.787209
626.374899	40499.571358
626.721647	40484.543678
627.068343	40254.924162
627.414987	39970.240122
627.761577	39711.691944
628.108115	40040.733096
628.454600	39301.082401
628.801032	39523.704796
629.147412	39408.942929
629.493739	39314.018002
629.840014	38887.750636
630.186236	39304.364192
630.532405	38743.349304
630.878521	38990.335596
631.224585	38752.861962
631.570597	38412.697503
631.916556	38583.496836
632.262462	38470.786719
632.608316	38409.423273
632.954117	38272.865978
633.299866	38240.421111
633.645562	38141.869074
633.991206	37625.115517
634.336797	37205.303348
634.682336	37107.663760
635.027823	36865.595114
635.373257	36747.765704
635.718639	36410.749446
636.063968	36306.480741
636.409245	35654.112583
636.754470	35613.390142
637.099642	35377.451540
637.444762	34814.079912
637.789829	34952.809945
638.134845	34582.839665
638.479808	34490.180736
638.824719	34439.827171
639.169577	33933.395376
639.514383	34021.741598
639.859137	33659.403624
640.203839	33806.852333
640.548489	33522.674928
640.893086	33509.245295
641.237632	33237.138933
641.582125	33344.659183
641.926566	33138.758296
642.270955	33175.402443
642.615292	33104.793522
642.959576	32981.035715
643.303809	32983.079903
643.647990	33080.827876
643.992118	33017.697507
644.336195	32859.828733
644.680219	32960.072077
645.024192	33149.604338
645.368112	33679.709391
645.711981	33685.065617
646.055797	34424.421405
646.399562	34227.856734
646.743274	35101.395434
647.086935	35489.183673
647.430544	35450.873425
647.774101	35506.333679
648.117606	35787.375485
648.461059	35940.434998
648.804460	35542.067898
649.147810	35029.937079
649.491108	34677.913306
649.834354	34543.753078
650.177548	33723.300249
650.520690	33219.535224
650.863781	33212.626323
651.206820	33033.239384
651.549807	32620.583133
651.892742	32044.885884
652.235626	31936.778340
652.578458	31808.138176
652.921238	31129.177932
653.263967	31430.374272
653.606644	31137.160599
653.949269	31035.321730
654.291843	30652.481383
654.634365	31021.370337
654.976836	30548.850384
655.319255	30608.905649
655.661622	30502.935554
656.003938	30361.372393
656.346203	30178.194506
656.688416	30412.620763
657.030577	30188.576762
657.372687	30022.813542
657.714746	30177.576965
658.056753	30368.397241
658.398708	29738.129502
658.740612	29820.529682
659.082465	30033.100016
659.424266	29910.731048
659.766016	29928.508677
660.107715	29779.928229
660.449362	29889.023839
660.790958	29872.768638
661.132503	29794.247626
661.473996	29855.931185
661.815438	29936.612331
662.156829	30069.146787
662.498168	29868.090448
662.839456	29830.170888
663.180693	29977.596912
663.521879	30056.702698
663.863013	30019.299857
664.204097	29989.322636
664.545129	30409.243190
664.886110	30332.403402
665.227040	30444.712748
665.567918	30422.503945
665.908746	30523.107732
666.249522	30603.118405
666.590248	30613.722472
666.930922	30731.955174
667.271545	30719.770705
667.612118	30786.003905
667.952639	30591.808576
668.293109	30637.451183
668.633528	30492.933905
668.973896	30457.081219
669.314213	30423.527299
669.654480	30242.673384
669.994695	30232.117208
670.334859	30148.965896
670.674973	29980.525823
671.015035	30178.910350
671.355047	30102.468813
671.695008	30029.906445
672.034918	29936.864389
672.374777	30042.738702
672.714585	29915.767160
673.054342	30040.102179
673.394049	29892.371165
673.733705	30110.627921
674.073310	29823.761061
674.412864	29878.069412
674.752368	29585.180894
675.091820	29811.377467
675.431223	29417.227292
675.770574	29211.039058
676.109875	29063.348374
676.449125	28853.686786
676.788324	28743.330887
677.127473	28270.964689
677.466571	28167.474842
677.805619	27891.615342
678.144616	27828.361464
678.483562	27770.322659
678.822458	27440.853009
679.161303	27385.420481
679.500098	27313.274008
679.838842	27241.858502
680.177535	27333.521802
680.516179	27568.089211
680.854771	27686.369804
681.193314	28449.877760
681.531805	29446.745768
681.870247	30177.647541
682.208638	30920.827044
682.546978	31188.073732
682.885268	31336.321464
683.223508	30899.029094
683.561697	30626.837034
683.899836	30474.758025
684.237925	30058.509952
684.575963	29912.064433
684.913951	29544.755881
685.251889	29715.310719
685.589776	29737.791744
685.927614	29741.088659
686.265401	29911.406562
686.603137	30020.217347
686.940824	30509.312614
687.278460	30843.957009
687.616046	31015.089059
687.953582	31682.038754
688.291068	31600.571187
688.628504	31933.015119
688.965889	31939.727415
689.303224	31700.040714
689.640510	31404.888718
689.977745	30790.351900
690.314930	30048.911595
690.652065	29624.320412
690.989150	28963.021851
691.326185	28124.803995
691.663170	27475.047155
692.000105	26734.869659
692.336990	26132.686188
692.673825	25713.345368
693.010610	25213.462032
693.347345	24707.138622
693.684030	24080.160235
694.020665	23885.627150
694.357251	23202.870917
694.693786	23200.632644
695.030272	22965.475420
695.366707	22465.894554
695.703093	22193.122760
696.039429	22253.556112
696.375716	22013.514010
696.711952	22013.425790
697.048139	21870.163760
697.384276	21712.418494
697.720363	21829.224549
698.056400	21716.058207
698.392388	21556.581305
698.728326	21560.057181
699.064214	21393.005945
699.400053	21406.939694
699.735842	21024.192609
700.071581	20826.503761
700.407270	20574.120914
700.742910	20401.922661
701.078501	20148.607201
701.414042	19944.931982
701.749533	19638.875971
702.084974	19322.210851
702.420366	19558.512417
702.755709	19142.213932
703.091002	18839.422067
703.426246	18902.675945
703.761440	18838.814608
704.096584	18592.743286
704.431679	18520.369961
704.766725	18472.312641
705.101721	18397.088544
705.436668	18528.087967
705.771565	18236.162310
706.106413	18547.498930
706.441212	18625.762844
706.775961	18732.368124
707.110661	18803.453435
707.445311	19163.338887
707.779913	19033.627478
708.114465	19330.097736
708.448967	19638.573501
708.783421	20270.724111
709.117825	20634.191304
709.452180	20861.842250
709.786485	21295.870472
710.120742	22064.291032
710.454949	22171.521416
710.789107	22672.370133
711.123216	23404.844746
711.457275	23605.218008
711.791286	24182.167983
712.125247	24337.833773
712.459159	24062.317071
712.793023	24834.079917
713.126837	23815.098887
713.460602	24076.180244
713.794318	23744.840326
714.127985	23480.197393
714.461602	22587.802257
714.795171	22568.260224
715.128691	21591.246800
715.462162	21066.573590
715.795584	20639.214813
716.128957	20369.404698
716.462281	19992.477625
716.795556	19715.214163
717.128782	19228.707529
717.461960	18629.831055
717.795088	18591.460312
718.128167	18235.801868
718.461198	17788.966593
718.794180	17656.512797
719.127113	17316.708781
719.459997	17125.301210
719.792833	16756.354284
720.125619	16793.595808
720.458357	16455.704909
720.791046	16320.962429
721.123686	16171.489697
721.456278	15947.773371
721.788821	15939.919254
722.121315	15669.025290
722.453761	15769.162770
722.786158	15652.883515
723.118506	15728.503344
723.450805	15606.356186
723.783056	15785.634740
724.115259	15677.058369
724.447412	15672.755744
724.779518	15891.504012
725.111574	15939.760457
725.443582	16206.659307
725.775542	16151.977911
726.107453	16667.627455
726.439315	16594.414778
726.771129	17000.401582
727.102895	17419.379440
727.434612	17694.013940
727.766281	17862.426287
728.097901	18188.742696
728.429473	18283.203837
728.760996	18286.583931
729.092471	18422.652235
729.423897	18307.466911
729.755276	18184.024176
730.086606	18289.187687
730.417887	18869.600935
730.749120	19427.097098
731.080305	19636.410846
731.411442	20041.797753
731.742530	20168.761734
732.073570	20321.622121
732.404562	20649.062707
732.735506	20499.600058
733.066401	20303.405912
733.397249	19810.025664
733.728048	19200.842551
734.058798	18321.360331
734.389501	17572.630517
734.720156	17043.090073
735.050762	16465.036085
735.381320	16073.096456
735.711831	15801.325332
736.042293	15426.500420
736.372707	15459.020903
736.703073	15248.507360
737.033391	15444.958604
737.363661	15442.914417
737.693883	15554.444904
738.024056	15752.501757
738.354182	15965.309025
738.684260	16320.808674
739.014290	16602.087414
739.344272	16816.853171
739.674207	17170.127150
740.004093	17348.715066
740.333931	17412.102535
740.663722	17490.452148
740.993464	17531.202315
741.323159	17382.664717
741.652806	17092.586642
741.982405	16930.521108
742.311956	16581.297696
742.641460	16471.831561
742.970915	16142.311498
743.300323	15795.031451
743.629683	15579.421301
743.958996	15272.105001
744.288260	14955.956599
744.617477	14640.861798
744.946647	14606.803763
745.275768	14293.019662
745.604842	14090.115741
745.933869	13907.653698
746.262847	13881.285943
746.591778	13795.997181
746.920662	13671.498325
747.249498	13681.154656
747.578286	13842.579963
747.907027	14011.745963
748.235720	14275.557106
748.564365	14350.549310
748.892963	14270.248771
749.221514	14374.988824
749.550017	14238.411363
749.878473	14210.526221
750.206881	13982.502230
750.535242	13904.941557
750.863555	13833.616792
751.191821	13721.872055
751.520039	13745.134460
751.848210	13665.330474
752.176334	13714.025499
752.504411	13631.834527
752.832440	13461.826655
753.160421	13579.182196
753.488356	13471.326709
753.816243	13377.480589
754.144082	13211.692162
754.471875	13160.302640
754.799620	13128.477836
755.127318	13111.189199
755.454969	13094.568515
755.782572	13064.087178
756.110129	13080.506216
756.437638	12977.911173
756.765100	12988.963903
757.092515	13007.956450
757.419882	13042.163200
757.747203	13061.148185
758.074477	13151.268892
758.401703	13123.552629
758.728882	13331.454854
759.056014	13363.854350
759.383099	13534.210062
759.710138	13655.890913
760.037129	13781.191312
760.364073	13837.758100
760.690970	13876.534655
761.017820	13882.815933
761.344623	14116.647333
761.671379	14483.255165
761.998088	15178.788202
762.324751	16924.809481
762.651366	20307.055707
762.977935	24760.080819
763.304456	27754.357325
763.630931	28841.066257
763.957359	27688.542541
764.283740	25447.394255
764.610074	23205.709086
764.936362	20584.034343
765.262602	18698.070634
765.588796	16760.994666
765.914943	15470.378623
766.241044	14363.568090
766.567097	13566.203745
766.893104	12846.263961
767.219064	12374.106972
767.544978	11895.126780
767.870845	11498.975267
768.196665	11276.909919
768.522438	11046.582121
768.848165	10839.269710
769.173846	10632.078287
769.499479	10504.617753
769.825066	10339.580458
770.150607	10104.861815
770.476101	10017.165902
770.801548	9901.499148
771.126949	9736.514785
771.452303	9623.159400
771.777611	9427.489534
772.102872	9410.946988
772.428087	9278.062172
772.753256	9114.091082
773.078378	9024.124130
773.403453	8849.148200
773.728482	8732.720232
774.053465	8665.125920
774.378401	8559.354951
774.703291	8428.148840
775.028135	8305.921023
775.352932	8277.211652
775.677683	8169.399016
776.002388	8058.879279
776.327046	8075.986435
776.651658	7972.983059
776.976224	7870.632512
777.300743	7868.910958
777.625216	7786.054554
777.949643	7738.060248
778.274024	7751.903257
778.598359	7667.161461
778.922647	7683.076383
779.246889	7629.836758
779.571086	7638.905793
779.895236	7648.030282
780.219339	7653.348699
780.543397	7655.584451
780.867409	7732.900627
781.191374	7748.961744
781.515294	7706.943726
781.839167	7803.796895
782.162995	7782.172865
782.486776	7727.504072
782.810511	7680.210488
783.134201	7590.263700
783.457844	7584.040396
783.781441	7531.748507
784.104993	7465.096891
784.428498	7440.455731
784.751958	7427.396622
785.075372	7405.187819
785.398739	7340.169537
785.722061	7390.323977
786.045337	7393.290696
786.368568	7547.423975
786.691752	7570.683858
787.014891	7912.801764
787.337983	8261.079960
787.661030	8853.569292
787.984031	9479.171443
788.306987	9878.360252
788.629897	10092.631975
788.952760	10047.460716
789.275579	9832.019445
789.598351	9435.590668
789.921078	9083.733253
790.243759	8669.652876
790.566395	8385.462869
790.888984	8134.869632
791.211529	7924.698887
791.534027	7698.615740
791.856480	7499.538054
792.178888	7423.542660
792.501249	7321.965931
792.823566	7162.466343
793.145836	7168.535893
793.468062	7133.295707
793.790241	7081.790238
794.112375	7151.779097
794.434464	7300.619165
794.756507	7343.920156
795.078505	7503.633992
795.400457	7811.784603
795.722364	8162.059096
796.044226	8450.566851
796.366042	8721.365032
796.687812	8679.185698
797.009538	8755.682687
797.331218	8651.716451
797.652852	8569.502793
797.974442	8421.814630
798.295986	8332.384561
798.617484	8144.876323
798.938938	8001.082450
799.260346	7895.631594
799.581709	7700.700257
799.903026	7622.935418
800.224299	7516.693101
800.545526	7342.743046
800.866708	7251.394818
801.187845	7181.108530
801.508936	7073.184988
801.829983	7031.199738
802.150984	6879.145936
802.471940	6836.044070
802.792851	6822.501010
803.113717	6789.826772
803.434538	6752.141626
803.755314	6693.543254
804.076045	6696.693975
804.396731	6643.943341
804.717372	6672.584657
805.037967	6677.494741
805.358518	6715.971347
805.679024	6795.606455
805.999485	6808.146325
806.319901	6846.822057
806.640272	6863.036928
806.960598	6946.286543
807.280879	6947.577078
807.601115	7031.043463
807.921306	6972.835780
808.241453	6989.917730
808.561554	7007.917169
808.881611	6976.868703
809.201623	6987.636607
809.521590	6933.073679
809.841513	6917.350320
810.161390	6956.504962
810.481223	6825.336659
810.801011	6808.204298
811.120755	6789.947759
811.440453	6708.429781
811.760107	6679.496079
812.079716	6647.893085
812.399281	6579.930770
812.718801	6571.766621
813.038276	6528.999992
813.357707	6466.048584
813.677093	6513.271592
813.996434	6412.319966
814.315731	6460.019364
814.634983	6450.519309
814.954191	6464.289221
815.273354	6568.794861
815.592473	6630.571681
815.911547	6758.049858
816.230577	6842.063208
816.549562	6987.006463
816.868502	7091.635611
817.187399	7184.821340
817.506250	7344.202460
817.825058	7374.562809
818.143821	7641.418809
818.462539	7914.881240
818.781213	8282.048639
819.099843	8823.818923
819.418429	9823.615842
819.736970	10786.531679
820.055466	11979.583751
820.373919	13517.186086
820.692327	15866.525095
821.010691	19995.593058
821.329011	28987.032867
821.647286	42011.438602
821.965517	55504.812797
822.283704	60948.711986
822.601847	62979.510566
822.919945	60351.355420
823.237999	56253.880368
823.556010	50161.643424
823.873976	43441.475316
824.191897	36883.052630
824.509775	31993.128358
824.827609	27405.585096
825.145398	24771.181440
825.463144	23357.097457
825.780845	23646.557990
826.098502	25385.846808
826.416116	29138.169179
826.733685	32770.159209
827.051210	33929.357412
827.368692	32167.217044
827.686129	28225.760663
828.003522	24120.297902
828.320872	20392.412524
828.638177	17551.445068
828.955439	15378.395209
829.272656	13552.973237
829.589830	12064.471741
829.906960	10782.763416
830.224046	9833.118417
830.541088	9072.612468
830.858086	8607.578628
831.175041	8225.275165
831.491952	8102.515507
831.808819	8142.098647
832.125642	8537.299903
832.442421	9421.155324
832.759157	11204.050123
833.075849	14111.966622
833.392497	17331.912901
833.709101	19541.881650
834.025662	19410.100847
834.342179	17740.420282
834.658653	15543.797987
834.975083	13613.265437
835.291469	11989.023312
835.607811	10661.102730
835.924110	9745.450231
836.240366	8871.130152
836.556578	8063.300371
836.872746	7414.377842
837.188871	6909.347488
837.504952	6486.911399
837.820990	6169.971536
838.136984	5948.362413
838.452935	5856.210121
838.768842	5883.202979
839.084706	6296.232275
839.400526	7497.037642
839.716303	9077.580525
840.032037	10192.777017
840.347727	10140.202824
840.663373	9164.001025
840.978977	8123.438816
841.294537	7307.341543
841.610054	6699.496857
841.925527	6266.040805
842.240957	5902.203088
842.556344	5565.156583
842.871687	5275.829640
843.186987	4993.953523
843.502244	4768.412300
843.817458	4597.146659
844.132629	4462.452070
844.447756	4368.532853
844.762840	4294.793375
845.077881	4215.780850
845.392879	4148.196621
845.707833	4099.917491
846.022745	4057.428126
846.337613	4023.851521
846.652438	3982.667814
846.967221	3967.448571
847.281960	3933.287192
847.596656	3914.768513
847.911309	3892.552148
848.225919	3867.079198
848.540485	3850.796271
848.855009	3838.067357
849.169490	3820.929955
849.483928	3806.378664
849.798323	3798.678302
850.112675	3779.458903
850.426984	3785.231024
850.741251	3772.423973
851.055474	3761.701438
851.369654	3767.834002
851.683792	3764.627828
851.997887	3772.429014
852.311938	3775.867081
852.625947	3780.452010
852.939914	3764.622787
853.253837	3778.032256
853.567718	3774.571504
853.881555	3767.501286
854.195350	3777.684417
854.509103	3775.194087
854.822812	3771.564456
855.136479	3765.532715
855.450103	3774.432872
855.763685	3760.574740
856.077224	3765.210081
856.390720	3782.614665
856.704173	3802.312974
857.017584	3812.884273
857.330953	3827.264165
857.644278	3845.891228
857.957561	3854.478834
858.270802	3854.325078
858.584000	3855.240048
858.897155	3849.193184
859.210268	3833.341276
859.523339	3809.907472
859.836367	3809.541988
860.149352	3803.704332
860.462295	3793.732930
860.775195	3784.217752
861.088054	3779.151392
861.400869	3780.726753
861.713642	3780.199952
862.026373	3788.122126
862.339062	3793.468269
862.651708	3809.978048
862.964312	3846.642360
863.276873	3860.651727
863.589392	3915.935540
863.901869	3962.276347
864.214303	4006.295702
864.526696	4040.719221
864.839045	4087.231427
865.151353	4113.934419
865.463619	4120.470275
865.775842	4129.317500
866.088023	4151.458248
866.400162	4141.869973
866.712258	4146.946415
867.024313	4148.405829
867.336325	4147.253926
867.648296	4154.946726
867.960224	4153.515039
868.272110	4163.791431
868.583954	4166.150691
868.895755	4181.921941
869.207515	4181.543854
869.519233	4221.618507
869.830909	4234.339858
870.142542	4261.604939
870.454134	4269.501906
870.765684	4302.196310
871.077191	4337.630580
871.388657	4366.435733
871.700081	4399.288933
872.011463	4442.668062
872.322803	4480.239781
872.634101	4508.321529
872.945357	4549.391809
873.256571	4602.099593
873.567744	4637.175942
873.878874	4654.293179
874.189963	4692.255588
874.501010	4706.380902
874.812015	4699.164490
875.122979	4747.362962
875.433900	4744.953290
875.744780	4757.906535
876.055618	4783.341677
876.366415	4787.281338
876.677169	4808.912930
876.987882	4850.484805
877.298554	4900.775356
877.609183	4984.534127
877.919771	5100.342033
878.230317	5240.065174
878.540822	5457.885870
878.851285	5780.474346
879.161707	6243.227063
879.472087	7009.747108
879.782425	8242.652022
880.092722	10435.400190
880.402977	13763.935443
880.713191	17560.204073
881.023363	21341.079540
881.333494	23574.855138
881.643583	24831.604710
881.953631	24838.916904
882.263637	24001.656867
882.573602	22531.721941
882.883526	20976.956998
883.193408	19279.315672
883.503248	17568.239672
883.813048	15999.215826
884.122806	14557.907091
884.432522	13068.014237
884.742197	11783.618978
885.051831	10675.177632
885.361424	9656.821705
885.670975	8823.032503
885.980485	8125.384701
886.289954	7537.087089
886.599382	7056.493728
886.908768	6671.004255
887.218113	6303.766280
887.527417	6010.625704
887.836680	5738.163942
888.145901	5520.081106
888.455082	5352.873594
888.764221	5197.366601
889.073319	5061.910797
889.382376	4986.152337
889.691392	4926.772586
890.000366	4899.557917
890.309300	4881.140061
890.618193	4882.811204
890.927044	4870.485583
891.235855	4890.128439
891.544625	4922.774951
891.853353	4989.207276
892.162041	5104.410245
892.470687	5289.488646
892.779293	5541.662285
893.087858	5920.275624
893.396381	6495.473799
893.704864	7303.454814
894.013306	8460.167728
894.321707	9637.662800
894.630068	10461.094951
894.938387	10676.964721
895.246665	10438.684502
895.554903	9838.741824
895.863100	9140.267273
896.171256	8581.891429
896.479371	8069.753048
896.787446	7572.254178
897.095480	7136.958105
897.403473	6817.744682
897.711425	6491.841647
898.019336	6227.216358
898.327207	5954.195028
898.635038	5720.391354
898.942827	5470.929856
899.250576	5274.135812
899.558284	5082.849230
899.865952	4957.621927
900.173579	4807.965193
900.481165	4698.365467
900.788711	4608.075881
901.096216	4531.425137
901.403681	4466.490034
901.711105	4437.954583
902.018489	4424.371194
902.325832	4498.355167
902.633135	4615.708188
902.940397	4964.377073
903.247619	5755.770171
903.554800	7197.746859
903.861941	9126.693966
904.169041	10675.165029
904.476101	11328.135604
904.783121	10989.947278
905.090100	10245.232743
905.397039	9407.219054
905.703938	8640.111715
906.010796	7940.293697
906.317614	7381.254941
906.624391	6838.216808
906.931129	6408.667650
907.237826	5998.710937
907.544483	5619.926199
907.851099	5241.653137
908.157675	4881.533271
908.464211	4552.386254
908.770707	4316.825738
909.077163	4109.402422
909.383578	3963.498827
909.689954	3843.468954
909.996289	3771.937501
910.302584	3705.883262
910.608839	3672.684744
910.915054	3643.231802
911.221229	3632.121099
911.527363	3642.286586
911.833458	3653.654388
912.139513	3683.278728
912.445527	3711.536916
912.751502	3792.240748
913.057436	3894.931573
913.363331	4033.936349
913.669186	4236.351279
913.975000	4498.561855
914.280775	4930.072021
914.586510	5508.788921
914.892205	6313.422610
915.197859	7360.301385
915.503475	8582.466121
915.809050	9652.798864
916.114585	10305.237598
916.420081	10572.496889
916.725536	10537.675119
917.030952	10099.465259
917.336328	9691.164565
917.641665	9281.021330
917.946961	8802.711612
918.252218	8373.296045
918.557435	7861.122376
918.862612	7419.852535
919.167750	7044.079887
919.472848	6618.838395
919.777906	6244.114306
920.082925	5875.058995
920.387904	5509.038458
920.692843	5235.684411
920.997743	4987.465558
921.302603	4746.160647
921.607423	4587.989403
921.912204	4417.774844
922.216946	4298.546514
922.521647	4176.389274
922.826310	4070.716607
923.130932	3972.277996
923.435516	3874.643449
923.740059	3800.518323
924.044564	3725.611818
924.349028	3665.034793
924.653454	3601.422993
924.957840	3528.979092
925.262186	3483.969149
925.566493	3420.609407
925.870761	3360.135726
926.174989	3324.613235
926.479178	3290.129222
926.783328	3244.181626
927.087438	3219.633727
927.391509	3179.070082
927.695541	3151.626041
927.999533	3124.426495
928.303486	3101.269955
928.607400	3086.159097
928.911275	3074.503949
929.215110	3057.036351
929.518906	3048.935217
929.822663	3045.446738
930.126381	3042.842982
930.430060	3052.093499
930.733699	3051.710372
931.037299	3062.120354
931.340861	3061.286043
931.644383	3069.147723
931.947866	3064.635890
932.251309	3059.735889
932.554714	3061.422155
932.858080	3054.006617
933.161407	3048.647871
933.464694	3040.125800
933.767943	3033.683206
934.071153	3027.351516
934.374323	3018.441277
934.677455	3012.820390
934.980548	3004.764627
935.283602	2996.726507
935.586617	2993.991681
935.889593	3008.759741
936.192530	3010.148579
936.495428	3025.619880
936.798287	3044.859444
937.101108	3076.638877
937.403890	3126.899181
937.706632	3189.285981
938.009336	3270.733383
938.312002	3340.061851
938.614628	3406.358065
938.917216	3456.615849
939.219765	3490.149604
939.522275	3524.333668
939.824747	3530.725851
940.127179	3529.142929
940.429573	3522.886857
940.731929	3522.539017
941.034246	3506.785412
941.336524	3493.955675
941.638763	3477.834065
941.940964	3466.224288
942.243126	3420.947165
942.545250	3401.637025
942.847335	3364.866849
943.149381	3329.354440
943.451389	3294.893113
943.753359	3259.612597
944.055290	3238.444792
944.357182	3212.215669
944.659036	3196.328473
944.960851	3187.982842
945.262628	3171.152950
945.564367	3170.467353
945.866067	3165.458967
946.167729	3163.190448
946.469352	3159.064263
946.770937	3159.523008
947.072484	3141.909217
947.373992	3144.248312
947.675462	3135.476705
947.976893	3115.120525
948.278286	3111.248919
948.579641	3102.840275
948.880958	3097.408431
949.182236	3101.620315
949.483476	3093.312494
949.784678	3093.327617
950.085841	3095.003801
950.386967	3102.860439
950.688054	3122.291567
950.989103	3144.059269
951.290114	3160.624501
951.591087	3190.223635
951.892021	3219.293449
952.192917	3246.271184
952.493776	3274.179012
952.794596	3278.774023
953.095378	3289.388173
953.396122	3281.309724
953.696828	3276.137500
953.997496	3262.226436
954.298126	3239.233733
954.598718	3220.026937
954.899272	3195.627752
955.199788	3168.445851
955.500266	3135.212044
955.800706	3099.064450
956.101108	3060.650858
956.401472	3032.246477
956.701798	2998.440499
957.002087	2955.865434
957.302337	2928.373502
957.602550	2900.392577
957.902724	2869.946529
958.202861	2844.826459
958.502960	2825.541525
958.803022	2802.294244
959.103045	2782.359001
959.403031	2762.920312
959.702979	2749.324320
960.002889	2738.558936
960.302762	2724.506720
960.602596	2711.969370
960.902393	2703.033925
961.202153	2695.673840
961.501875	2688.971626
961.801559	2679.786644
962.101205	2672.025787
962.400814	2668.373472
962.700385	2661.300733
962.999918	2653.401245
963.299414	2650.530307
963.598873	2647.503095
963.898293	2638.933133
964.197677	2640.725263
964.497022	2635.573204
964.796331	2637.400622
965.095601	2634.113790
965.394835	2631.573048
965.694030	2630.128758
965.993189	2627.454426
966.292309	2625.203551
966.591393	2625.561472
966.890439	2626.481483
967.189447	2624.727162
967.488419	2626.229425
967.787353	2628.399642
968.086249	2625.392594
968.385108	2630.622791
968.683930	2629.233953
968.982714	2636.357103
969.281462	2639.296096
969.580172	2644.208701
969.878844	2651.614156
970.177480	2662.172852
970.476078	2666.019253
970.774639	2673.722136
971.073162	2682.823939
971.371649	2687.560103
971.670098	2694.862214
971.968510	2698.017977
972.266885	2702.786908
972.565223	2706.973587
972.863524	2708.564071
973.161788	2712.312168
973.460014	2713.658157
973.758204	2720.632593
974.056356	2720.556976
974.354471	2723.032182
974.652550	2722.696945
974.950591	2722.512943
975.248595	2716.655122
975.546563	2718.185113
975.844493	2713.353167
976.142386	2707.192877
976.440243	2701.128369
976.738062	2699.840354
977.035845	2692.205526
977.333590	2684.991635
977.631299	2681.704803
977.928971	2675.002589
978.226606	2667.826506
978.524204	2663.024807
978.821765	2660.930208
979.119290	2663.218892
979.416777	2664.375837
979.714228	2664.736279
980.011642	2669.855571
980.309020	2677.008968
980.606360	2690.577234
980.903664	2714.739484
981.200931	2752.734661
981.498162	2800.693678
981.795356	2877.823332
982.092513	2967.218113
982.389633	3070.954977
982.686717	3169.660769
982.983764	3247.342429
983.280775	3296.967548
983.577749	3304.708239
983.874686	3292.629635
984.171587	3256.144284
984.468451	3217.040053
984.765279	3177.061183
985.062070	3127.161321
985.358824	3081.922007
985.655543	3023.487472
985.952224	2972.450830
986.248869	2908.947415
986.545478	2846.243023
986.842050	2789.593057
987.138586	2744.469689
987.435086	2704.021991
987.731549	2675.574760
988.027975	2648.523928
988.324366	2631.172277
988.620719	2616.779782
988.917037	2605.560695
989.213318	2598.059458
989.509563	2590.142326
989.805772	2586.316090
990.101944	2577.486509
990.398080	2579.152610
990.694180	2574.890315
990.990244	2576.642116
991.286271	2577.058011
991.582262	2577.284863
991.878217	2577.042887
992.174136	2582.018506
992.470019	2584.541604
992.765865	2588.206522
993.061676	2591.251379
993.357450	2603.342587
993.653188	2606.800818
993.948890	2628.674385
994.244556	2647.898825
994.540186	2668.875066
994.835780	2697.128213
995.131337	2739.307547
995.426859	2779.987138
995.722345	2828.654437
996.017795	2882.012530
996.313208	2919.183478
996.608586	2945.894032
996.903928	2957.327369
997.199234	2959.154787
997.494504	2955.227728
997.789738	2940.966304
998.084936	2914.129722
998.380099	2885.765669
998.675225	2855.314580
998.970316	2824.334169
999.265371	2787.906791
999.560390	2752.412027
999.855373	2724.640310
1000.150320	2693.314580
1000.445232	2664.206958
1000.740108	2647.495533
1001.034948	2628.429889
1001.329752	2611.816767
1001.624521	2598.293871
1001.919254	2586.968919
1002.213951	2582.515060
1002.508613	2568.488049
1002.803239	2565.332287
1003.097829	2557.531101
1003.392384	2554.277037
1003.686903	2547.814277
1003.981386	2548.109185
1004.275834	2541.328833
1004.570246	2541.177598
1004.864623	2536.698533
1005.158964	2533.595703
1005.453270	2533.131917
1005.747540	2528.032790
1006.041775	2528.564631
1006.335974	2525.108920
1006.630138	2526.868283
1006.924266	2525.613036
1007.218359	2527.553880
1007.512416	2523.823426
1007.806438	2519.939217
1008.100425	2521.232273
1008.394376	2517.590039
1008.688292	2523.357119
1008.982172	2520.357633
1009.276017	2521.136491
1009.569827	2519.120030
1009.863602	2518.878054
1010.157341	2515.616428
1010.451045	2518.580626
1010.744714	2515.064421
1011.038347	2515.760101
1011.331945	2513.693227
1011.625508	2512.904287
1011.919036	2512.203567
1012.212528	2509.062928
1012.505986	2511.724657
1012.799408	2509.962774
1013.092795	2512.047291
1013.386147	2509.171313
1013.679464	2512.274143
1013.972745	2506.829697
1014.265992	2508.122752
1014.559204	2508.584018
1014.852380	2510.507218
1015.145521	2509.420850
1015.438628	2509.690551
1015.731699	2508.213493
1016.024736	2511.122239
1016.317737	2511.999400
1016.610703	2511.633916
1016.903635	2512.521159
1017.196531	2513.153824
1017.489393	2516.541479
1017.782219	2518.638599
1018.075011	2516.022241
1018.367768	2519.435102
1018.660490	2519.823271
1018.953177	2519.823271
1019.245829	2519.823271
