Dividing Wavelength (nm)	Counts (n)	Blue Motor Position (mm): 29.200000	Red Motor Position (mm): 0.000000	
326.493990	2056.067364
326.888308	2056.067364
327.282561	2056.067364
327.676750	2029.634073
328.070874	2030.917047
328.464933	2038.566998
328.858929	2047.147042
329.252859	2057.604916
329.646726	2070.835424
330.040528	2088.492065
330.434265	2105.836155
330.827938	2124.566562
331.221547	2146.488020
331.615091	2165.125165
332.008571	2187.437312
332.401986	2207.196115
332.795338	2228.187479
333.188625	2247.709348
333.581847	2264.859353
333.975006	2281.845521
334.368100	2301.405198
334.761129	2315.780048
335.154095	2332.309992
335.546996	2385.521891
335.939833	2490.272027
336.332606	2497.395177
336.725315	2513.683145
337.117960	2522.243024
337.510540	2531.324663
337.903056	2542.153062
338.295508	2545.954092
338.687896	2552.903322
339.080220	2558.584702
339.472480	2564.392112
339.864676	2566.070816
340.256807	2570.333112
340.648875	2571.661456
341.040879	2571.243040
341.432818	2577.156313
341.824694	2575.182702
342.216506	2576.571539
342.608253	2573.710685
342.999937	2574.988617
343.391557	2572.173133
343.783113	2569.665159
344.174605	2570.988462
344.566033	2567.270611
344.957397	2567.709191
345.348697	2565.296999
345.739934	2566.305230
346.131106	2561.695094
346.522215	2559.139229
346.913260	2559.623180
347.304241	2558.735937
347.695159	2553.780483
348.086012	2555.338199
348.476802	2553.152859
348.867528	2547.322765
349.258191	2544.512322
349.648789	2546.866540
350.039324	2541.908566
350.429796	2547.005172
350.820203	2546.044832
351.210548	2544.550130
351.600828	2543.834286
351.991045	2544.257743
352.381198	2544.257743
352.771288	2542.110212
353.161314	2539.725746
353.551276	2542.692465
353.941175	2541.890922
354.331010	2540.900335
354.720782	2545.742363
355.110490	2544.267826
355.500135	2544.338402
355.889717	2542.717671
356.279235	2540.696168
356.668689	2542.642053
357.058080	2543.269677
357.447408	2543.776313
357.836672	2546.188505
358.225873	2541.659028
358.615010	2548.071376
359.004084	2544.207332
359.393095	2549.306459
359.782043	2546.680018
360.170927	2549.064483
360.559748	2547.610111
360.948505	2550.455842
361.337199	2551.776624
361.725830	2550.556665
362.114398	2550.932231
362.502903	2550.554144
362.891344	2551.968188
363.279722	2549.412323
363.668037	2553.099927
364.056289	2553.823333
364.444478	2552.971378
364.832603	2555.469269
365.220665	2554.299722
365.608665	2555.197047
365.996601	2556.031358
366.384474	2556.386759
366.772284	2557.147974
367.160031	2556.283416
367.547715	2557.342058
367.935336	2555.360885
368.322893	2556.716955
368.710388	2553.941800
369.097820	2558.075546
369.485189	2553.409958
369.872495	2558.849363
370.259738	2557.803324
370.646918	2557.944476
371.034035	2561.196020
371.421090	2558.335165
371.808081	2558.766184
372.195010	2559.177038
372.581875	2560.492779
372.968678	2560.074363
373.355418	2560.084446
373.742096	2557.843653
374.128710	2558.962789
374.515262	2560.207954
374.901751	2562.398335
375.288177	2564.833213
375.674540	2564.137533
376.060841	2564.881104
376.447079	2561.463201
376.833254	2566.184242
377.219367	2563.514951
377.605417	2563.716597
377.991404	2566.305230
378.377329	2565.798594
378.763191	2566.511917
379.148991	2565.596948
379.534727	2568.712381
379.920402	2568.213306
380.306013	2567.389078
380.691563	2566.015363
381.077049	2565.927143
381.462474	2570.078533
381.847835	2564.419838
382.233134	2569.024932
382.618371	2568.172977
383.003545	2571.232958
383.388657	2567.623491
383.773706	2567.860426
384.158693	2568.455282
384.543618	2572.296641
384.928480	2572.881415
385.313280	2569.728173
385.698017	2567.731876
386.082692	2569.874367
386.467305	2570.343194
386.851856	2571.790005
387.236344	2571.268246
387.620770	2568.293965
388.005133	2567.333625
388.389435	2568.505693
388.773674	2566.650549
389.157851	2574.270253
389.541965	2574.202197
389.926018	2572.130283
390.310008	2574.499625
390.693936	2576.163206
391.077802	2575.217990
391.461606	2575.457444
391.845348	2573.428380
392.229027	2576.458113
392.612645	2574.492063
392.996200	2574.905438
393.379694	2578.782085
393.763125	2576.889132
394.146494	2577.771334
394.529801	2580.065059
394.913047	2576.931982
395.296230	2580.017168
395.679351	2580.130594
396.062410	2578.961046
396.445408	2579.800398
396.828343	2577.395768
397.211217	2577.930130
397.594028	2582.966243
397.976778	2579.966757
398.359466	2577.794019
398.742092	2580.987590
399.124656	2579.618917
399.507158	2579.288721
399.889598	2584.045050
400.271977	2580.947261
400.654294	2581.080852
401.036549	2583.230904
401.418742	2584.579412
401.800874	2580.042374
402.182944	2583.729978
402.564952	2581.920204
402.946898	2586.800041
403.328783	2583.906418
403.710606	2587.223498
404.092367	2586.661409
404.474067	2585.055801
404.855705	2585.764083
405.237282	2585.363312
405.618797	2585.050760
406.000250	2588.960175
406.381642	2587.558734
406.762972	2587.997315
407.144240	2584.718044
407.525447	2588.980340
407.906593	2585.882551
408.287677	2589.643251
408.668700	2589.411358
409.049661	2592.229363
409.430560	2592.017635
409.811399	2593.464446
410.192176	2590.865731
410.572891	2592.438571
410.953545	2591.785742
411.334138	2592.315063
411.714669	2592.211719
412.095139	2595.034765
412.475547	2591.553849
412.855894	2596.476535
413.236180	2592.163828
413.616405	2597.840167
413.996568	2595.932091
414.376670	2595.523757
414.756711	2594.497882
415.136691	2597.603233
415.516609	2595.581731
415.896466	2598.684561
416.276262	2598.707246
416.655997	2597.318408
417.035670	2599.629777
417.415283	2601.830241
417.794834	2600.474170
418.174324	2600.101125
418.553753	2600.043152
418.933121	2599.518872
419.312428	2601.920982
419.691674	2602.760334
420.070859	2603.846702
420.449983	2601.127000
420.829045	2603.458533
421.208047	2604.300406
421.586988	2606.142948
421.965867	2606.054728
422.344686	2605.918617
422.723444	2609.228134
423.102141	2609.991869
423.480777	2608.285438
423.859352	2610.291817
424.237866	2613.145111
424.616319	2611.090840
424.994712	2612.943464
425.373044	2611.063114
425.751314	2612.383896
426.129524	2610.798453
426.507673	2612.948506
426.885762	2611.521859
427.263789	2615.403547
427.641756	2614.786006
428.019662	2621.505864
428.397508	2620.263220
428.775292	2621.004269
429.153016	2621.931842
429.530679	2623.436626
429.908282	2628.170270
430.285824	2629.420476
430.663305	2631.240332
431.040726	2632.223357
431.418086	2637.365334
431.795385	2637.503966
432.172624	2643.666777
432.549802	2643.896149
432.926920	2648.755821
433.303977	2653.270175
433.680974	2659.642193
434.057910	2663.148316
434.434786	2668.875066
434.811601	2678.980059
435.188355	2685.271419
435.565050	2691.156966
435.941683	2698.975796
436.318257	2708.483412
436.694770	2717.620503
437.071222	2731.778584
437.447614	2737.933833
437.823946	2748.686614
438.200218	2762.413676
438.576429	2774.300717
438.952580	2791.387708
439.328670	2806.264153
439.704700	2825.385249
440.080670	2837.713391
440.456580	2861.419417
440.832429	2881.531100
441.208218	2894.030641
441.583947	2920.421082
441.959616	2944.938733
442.335224	2970.298258
442.710773	2999.811693
443.086261	3041.136552
443.461689	3049.870351
443.837057	3088.614138
444.212365	3131.773977
444.587612	3163.865962
444.962800	3187.004859
445.337927	3235.800707
445.712995	3225.098338
446.088002	3331.927949
446.462949	3378.374620
446.837837	3422.061260
447.212664	3473.851554
447.587431	3645.391937
447.962139	3834.258766
448.336786	3992.389679
448.711374	3988.006396
449.085901	3879.891290
449.460369	3936.831123
449.834776	3992.170389
450.209124	4228.655957
450.583412	4262.038478
450.957640	4365.697204
451.331808	4360.681256
451.705917	4331.866021
452.079965	4394.290629
452.453954	4518.912993
452.827883	4585.317592
453.201752	4654.807377
453.575562	4742.604112
453.949311	4923.153038
454.323001	5031.726888
454.696632	5101.390593
455.070202	5363.540676
455.443713	5482.456454
455.817164	5629.272498
456.190556	5835.617007
456.563888	5882.421600
456.937160	6060.875926
457.310373	5988.215255
457.683526	6110.317042
458.056619	6232.060907
458.429653	6372.726744
458.802628	6552.721142
459.175542	6691.599889
459.548398	7047.520474
459.921194	7425.380161
460.293930	7695.482663
460.666607	8218.003300
461.039224	8700.756796
461.411782	8963.312691
461.784280	8905.949401
462.156719	9005.020677
462.529099	9091.274819
462.901419	8923.938759
463.273680	8871.505717
463.645882	9128.576837
464.018024	9236.883507
464.390106	9610.629612
464.762130	10452.903076
465.134094	11591.861047
465.505999	13121.445426
465.877845	14526.523388
466.249631	15269.949907
466.621358	15062.899637
466.993026	14721.023706
467.364634	14444.168578
467.736184	14145.150017
468.107674	13943.458493
468.479105	13984.652282
468.850477	13958.503817
469.221790	13800.052790
469.593043	13501.334177
469.964238	13376.197615
470.335373	13584.225870
470.706449	14350.987891
471.077467	15338.842316
471.448425	17276.709745
471.819324	18589.131299
472.190164	18299.126322
472.560945	17077.548880
472.931667	16088.585401
473.302330	16003.150446
473.672934	15754.291366
474.043479	16197.449118
474.413965	16155.186605
474.784393	16116.377282
475.154761	16741.291316
475.525070	16957.977752
475.895321	16922.601455
476.265513	17447.854398
476.635645	18053.647335
477.005719	18194.585394
477.375734	18620.797307
477.745691	19244.088089
478.115588	19930.627708
478.485427	21126.996860
478.855207	22887.566908
479.224928	24528.926271
479.594591	25671.566805
479.964194	25274.238182
480.333739	25695.923140
480.703226	26049.834825
481.072653	26610.554806
481.442022	27130.862376
481.811333	27481.411612
482.180584	27103.309950
482.549777	26974.800856
482.918912	26871.084157
483.287988	26889.406231
483.657005	26784.257844
484.025964	26536.364144
484.394864	26772.504393
484.763706	26766.152540
485.132489	26365.068257
485.501213	26496.821334
485.869879	26738.161533
486.238487	26726.705511
486.607036	27042.760651
486.975527	26824.685377
487.343959	27187.058639
487.712333	27515.973763
488.080648	27536.806331
488.448905	27977.899731
488.817104	27963.058574
489.185244	28869.541214
489.553326	30031.867454
489.921350	31963.798925
490.289315	34316.119776
490.657222	35002.780383
491.025070	35405.752577
491.392861	35043.780087
491.760593	34269.947848
492.128267	33312.975531
492.495883	32409.409198
492.863440	31608.556375
493.230939	30793.845419
493.598380	30303.336109
493.965763	30229.468082
494.333088	29805.267588
494.700354	29637.959254
495.067563	29640.247938
495.434713	29582.907333
495.801805	29872.889626
496.168839	29756.900238
496.535815	29652.838220
496.902733	29806.588371
497.269593	29635.879778
497.636395	29803.977053
498.003139	30112.001635
498.369825	29900.247968
498.736453	30312.097634
499.103023	30179.855566
499.469535	30276.186975
499.835989	30422.274572
500.202385	30295.865119
500.568723	30370.602745
500.935003	30711.808202
501.301226	30630.917848
501.667390	31302.822997
502.033497	31518.448270
502.399546	31326.191266
502.765537	30941.054673
503.131470	31400.631464
503.497345	31837.754955
503.863163	30852.474039
504.228923	31602.252412
504.594625	32013.091327
504.960269	31526.090660
505.325856	32183.878058
505.691385	31885.035937
506.056856	32202.845399
506.422270	32698.526933
506.787625	32248.762749
507.152924	32697.372509
507.518164	32913.481733
507.883347	32477.303458
508.248472	32642.607934
508.613540	33330.521267
508.978550	33561.683377
509.343503	33439.644604
509.708398	33797.044768
510.073236	34404.060185
510.438016	34507.265207
510.802738	34212.919795
511.167403	34765.389928
511.532010	35022.975245
511.896561	35510.071694
512.261053	36257.364779
512.625488	36050.707718
512.989866	35986.097770
513.354186	36037.693979
513.718449	36025.572525
514.082655	36889.495224
514.446803	36601.723477
514.810894	37216.300625
515.174927	37245.521673
515.538904	37248.158197
515.902822	37880.767552
516.266684	37590.308870
516.630488	37948.939075
516.994235	37970.497570
517.357925	38567.105525
517.721558	38813.738935
518.085133	39193.846977
518.448651	39386.529959
518.812112	39283.403075
519.175516	39454.509918
519.538863	39890.347915
519.902152	39966.320624
520.265385	40516.998627
520.628560	40515.246826
520.991678	40483.474953
521.354739	40716.439276
521.717743	41073.128637
522.080690	40992.795329
522.443580	41661.214521
522.806413	41705.730430
523.169189	41829.407578
523.531908	42059.725294
523.894569	41933.146962
524.257174	42125.779533
524.619722	42471.776607
524.982213	42614.554686
525.344647	42633.237203
525.707025	42766.427008
526.069345	43218.706728
526.431608	43121.677119
526.793815	43500.736600
527.155964	43048.020820
527.518057	43330.748893
527.880093	43180.726675
528.242072	43811.735463
528.603995	43540.881829
528.965860	43488.307636
529.327669	43700.696488
529.689421	43763.731076
530.051117	43695.317577
530.412755	43998.154812
530.774337	44059.924070
531.135862	43999.531047
531.497331	44141.051359
531.858743	44140.514476
532.220098	44543.768975
532.581396	44292.976612
532.942638	44056.997680
533.303824	44304.709898
533.664953	44369.897058
534.026025	44046.779262
534.387040	44622.345440
534.747999	44697.481318
535.108902	44996.625908
535.469748	44332.965565
535.830537	44597.815186
536.191270	44830.814796
536.551947	44581.285242
536.912567	44863.163880
537.273131	45026.111616
537.633638	44640.269263
537.994089	44848.710892
538.354483	44591.959885
538.714821	45236.300005
539.075103	45497.875396
539.435328	45361.784407
539.795497	45141.680068
540.155609	45251.201656
540.515665	45832.981057
540.875665	45155.616338
541.235609	45442.768023
541.595496	45543.878446
541.955328	46129.022817
542.315102	45565.459625
542.674821	45456.558099
543.034483	45352.596904
543.394090	45371.597013
543.753640	45348.342170
544.113134	46404.347954
544.472571	45508.696233
544.831953	46647.155129
545.191278	45894.097486
545.550548	45588.774962
545.909761	46234.740854
546.268918	46377.221506
546.628019	46793.199877
546.987064	46227.400934
547.346053	45522.098140
547.704986	46426.498784
548.063863	46088.537310
548.422684	46270.477593
548.781449	45891.254275
549.140158	46407.468429
549.498811	46190.829883
549.857408	45567.282002
550.215949	46415.037721
550.574434	46257.826818
550.932864	46176.114755
551.291237	46898.741474
551.649555	46654.827766
552.007817	46831.638675
552.366022	46495.217273
552.724173	46562.229331
553.082267	46981.794483
553.440305	47320.539857
553.798288	46580.087619
554.156215	46970.461970
554.514086	47171.445212
554.871902	46792.932696
555.229661	46964.793192
555.587365	46655.467992
555.945014	46781.544729
556.302606	46811.605130
556.660143	46895.464724
557.017625	47112.740975
557.375050	46816.457240
557.732421	47221.806339
558.089735	47268.971374
558.446994	47136.865417
558.804197	47629.408833
559.161345	47490.754417
559.518437	46839.749892
559.875474	47110.583361
560.232455	47309.560224
560.589381	47375.127992
560.946251	47169.184254
561.303065	47833.573043
561.659825	47526.690282
562.016528	47329.608893
562.373177	46902.928152
562.729770	47532.492650
563.086307	47060.065959
563.442789	47591.527082
563.799216	47453.485167
564.155587	47340.777569
564.511904	47326.813573
564.868164	47373.751757
565.224370	47682.356072
565.580520	47394.072648
565.936615	47611.207747
566.292654	47251.891945
566.648638	47622.641084
567.004567	47556.569201
567.360441	47653.119900
567.716260	47392.774551
568.072023	47751.361906
568.427732	47673.932304
568.783385	47213.579176
569.138982	47622.429355
569.494525	47752.415507
569.850013	47337.725151
570.205445	47469.700038
570.560823	47249.031090
570.916145	47134.987587
571.271412	47357.988069
571.626625	47013.369751
571.981782	47093.138448
572.336884	46685.477981
572.691931	46993.482399
573.046923	46661.182140
573.401860	46518.134358
573.756743	46518.041097
574.111570	46680.111673
574.466342	46577.360354
574.821059	46739.383039
575.175722	46232.313538
575.530330	46336.249528
575.884882	45970.319732
576.239380	45867.586058
576.593823	45952.549664
576.948211	45886.427370
577.302544	45434.500531
577.656823	45437.041272
578.011047	45704.111521
578.365216	45516.426842
578.719330	45248.381131
579.073389	45218.338374
579.427394	45277.004802
579.781344	45213.703033
580.135239	44954.877592
580.489080	45022.867634
580.842866	44501.657697
581.196597	45003.189490
581.550273	45004.427093
581.903895	44928.098983
582.257463	45386.801133
582.610975	44811.003061
582.964434	45147.185008
583.317837	44646.159851
583.671186	44588.557107
584.024481	44888.006686
584.377721	44417.684676
584.730906	44634.454292
585.084037	44743.098719
585.437113	44454.810254
585.790135	44580.942444
586.143103	44135.107839
586.496016	44304.921627
586.848874	44415.411116
587.201679	44420.568216
587.554428	43923.654120
587.907124	44213.061721
588.259765	43977.309641
588.612352	44139.160926
588.964884	43593.929891
589.317362	43900.575718
589.669786	43905.899176
590.022155	43753.822688
590.374470	44192.887023
590.726731	43772.386737
591.078937	43132.142555
591.431090	43460.805621
591.783188	42988.018487
592.135232	42780.804378
592.487222	43061.034559
592.839157	43198.494222
593.191038	42834.207842
593.542866	42660.683765
593.894639	42049.965620
594.246358	42334.884074
594.598022	42336.613190
594.949633	41923.253698
595.301190	41910.449167
595.652692	41827.217196
596.004141	42311.150322
596.355535	41234.367422
596.706876	41256.503128
597.058162	40967.594601
597.409395	41461.269756
597.760573	41687.708305
598.111698	41274.663885
598.462768	41200.188399
598.813785	41211.442775
599.164748	40824.665287
599.515657	41088.670514
599.866511	40609.377771
600.217312	41302.160859
600.568060	40238.668961
600.918753	41065.433315
601.269392	40979.915181
601.619978	40705.076515
601.970510	40900.874930
602.320988	41054.516697
602.671412	41301.404686
603.021783	41177.924143
603.372100	40745.304923
603.722363	40855.960770
604.072572	40880.004553
604.422728	40876.861394
604.772830	40667.242655
605.122878	40832.589981
605.472872	40679.238081
605.822813	40936.440271
606.172701	40702.750022
606.522534	41016.594617
606.872314	41221.358724
607.222041	41045.964379
607.571714	41378.940152
607.921333	40877.211754
608.270899	41095.806267
608.620411	41492.146824
608.969870	41223.420556
609.319276	41247.976017
609.668627	41275.737651
610.017926	41672.892354
610.367171	41819.436175
610.716362	41839.477282
611.065500	41744.396080
611.414585	41959.759213
611.763616	42132.943013
612.112594	42037.962633
612.461518	42164.808146
612.810389	42545.758060
613.159207	42347.330683
613.507971	42331.546830
613.856682	42803.671052
614.205340	42635.354487
614.553945	43340.223741
614.902496	42660.530009
615.250994	43083.190430
615.599439	43145.826767
615.947830	43247.600101
616.296169	43272.521045
616.644454	43304.194615
616.992686	43464.044562
617.340864	43915.777317
617.688990	43452.868324
618.037063	44130.170028
618.385082	43943.987614
618.733048	44288.679029
619.080961	44132.214216
619.428821	44178.302965
619.776628	44179.865723
620.124382	44002.800235
620.472083	44094.745840
620.819731	44194.336355
621.167326	43751.612142
621.514868	43741.923044
621.862357	43202.569994
622.209793	43290.548211
622.557176	42844.900129
622.904506	42621.140954
623.251783	42246.679005
623.599007	41925.842330
623.946179	41843.507685
624.293297	41587.689292
624.640363	41057.085164
624.987376	40903.433316
625.334336	40697.844980
625.681243	40303.871245
626.028097	40223.542979
626.374899	40020.608810
626.721647	39996.623000
627.068343	39792.002566
627.414987	39502.118575
627.761577	39250.088609
628.108115	39569.876724
628.454600	38834.571504
628.801032	39058.781862
629.147412	38957.767221
629.493739	38865.824137
629.840014	38432.834392
630.186236	38867.548212
630.532405	38313.462389
630.878521	38538.242398
631.224585	38345.637554
631.570597	37972.244330
631.916556	38153.065477
632.262462	38037.638177
632.608316	37974.603590
632.954117	37833.088319
633.299866	37779.964640
633.645562	37693.957514
633.991206	37171.278080
634.336797	36771.239837
634.682336	36647.718965
635.027823	36412.816319
635.373257	36281.552235
635.718639	35967.052291
636.063968	35857.538264
636.409245	35203.904777
636.754470	35170.091238
637.099642	34925.741470
637.444762	34366.581726
637.789829	34523.245664
638.134845	34152.075589
638.479808	34068.452929
638.824719	34009.594937
639.169577	33514.369628
639.514383	33594.735702
639.859137	33224.203333
640.203839	33378.346694
640.548489	33095.366564
640.893086	33092.810699
641.237632	32814.947340
641.582125	32917.738987
641.926566	32732.065730
642.270955	32747.554675
642.615292	32681.412216
642.959576	32569.942222
643.303809	32593.479369
643.647990	32673.800073
643.992118	32631.908085
644.336195	32480.502070
644.680219	32563.035841
645.024192	32772.342028
645.368112	33304.584531
645.711981	33308.733400
646.055797	34054.436001
646.399562	33869.226529
646.743274	34740.537039
647.086935	35140.487062
647.430544	35083.940439
647.774101	35116.468484
648.117606	35402.584212
648.461059	35526.059714
648.804460	35119.440245
649.147810	34606.429744
649.491108	34246.730814
649.834354	34104.653455
650.177548	33272.182514
650.520690	32787.004224
650.863781	32771.122069
651.206820	32593.247476
651.549807	32190.570189
651.892742	31629.348614
652.235626	31526.655269
652.578458	31404.208163
652.921238	30726.109956
653.263967	31024.939473
653.606644	30730.876367
653.949269	30633.501439
654.291843	30263.422773
654.634365	30625.518772
654.976836	30171.262919
655.319255	30251.346689
655.661622	30119.701998
656.003938	29976.429885
656.346203	29794.098912
656.688416	30038.536900
657.030577	29822.069754
657.372687	29650.683126
657.714746	29810.591047
658.056753	29988.846247
658.398708	29389.513548
658.740612	29450.453537
659.082465	29657.062707
659.424266	29550.162519
659.766016	29562.873788
660.107715	29415.553629
660.449362	29522.569763
660.790958	29491.939712
661.132503	29426.858416
661.473996	29499.030095
661.815438	29585.221223
662.156829	29705.268740
662.498168	29505.989408
662.839456	29476.748195
663.180693	29618.243301
663.521879	29709.720079
663.863013	29659.684107
664.204097	29635.564706
664.545129	30048.528467
664.886110	29983.825258
665.227040	30087.436093
665.567918	30087.289899
665.908746	30172.845842
666.249522	30270.094741
666.590248	30280.880289
666.930922	30381.877286
667.271545	30376.125329
667.612118	30425.926888
667.952639	30237.090306
668.293109	30260.851785
668.633528	30127.016712
668.973896	30079.811347
669.314213	30059.855940
669.654480	29877.247704
669.994695	29877.383815
670.334859	29785.352510
670.674973	29627.975249
671.015035	29810.890996
671.355047	29745.003115
671.695008	29685.262921
672.034918	29616.897313
672.374777	29691.690392
672.714585	29560.401102
673.054342	29695.335147
673.394049	29550.969103
673.733705	29756.975855
674.073310	29484.670368
674.412864	29550.906089
674.752368	29240.013090
675.091820	29465.395517
675.431223	29065.740402
675.770574	28851.327526
676.109875	28699.924032
676.449125	28481.838675
676.788324	28393.885664
677.127473	27906.527075
677.466571	27813.396798
677.805619	27539.478142
678.144616	27473.968348
678.483562	27437.125075
678.822458	27109.036701
679.161303	27069.584631
679.500098	26980.169685
679.838842	26914.274242
680.177535	26999.328590
680.516179	27255.031037
680.854771	27384.714719
681.193314	28171.006170
681.531805	29186.470995
681.870247	29937.025706
682.208638	30664.489412
682.546978	30917.913257
682.885268	31045.346064
683.223508	30590.117269
683.561697	30330.376858
683.899836	30148.328190
684.237925	29746.656613
684.575963	29610.941190
684.913951	29236.877492
685.251889	29408.279244
685.589776	29457.178436
685.927614	29447.017990
686.265401	29659.162347
686.603137	29775.799524
686.940824	30273.923497
687.278460	30625.496087
687.616046	30784.312598
687.953582	31447.814143
688.291068	31362.424559
688.628504	31675.623886
688.965889	31651.073466
689.303224	31388.199978
689.640510	31083.989029
689.977745	30446.066298
690.314930	29695.161227
690.652065	29242.634490
690.989150	28580.055475
691.326185	27742.835768
691.663170	27114.965098
692.000105	26369.849792
692.336990	25771.729491
692.673825	25360.845205
693.010610	24861.652507
693.347345	24375.586974
693.684030	23745.190686
694.020665	23565.438263
694.357251	22881.847719
694.693786	22886.828379
695.030272	22663.112054
695.366707	22176.255059
695.703093	21907.697671
696.039429	21969.197227
696.375716	21749.418043
696.711952	21745.707753
697.048139	21610.282197
697.384276	21456.380811
697.720363	21582.155079
698.056400	21466.783232
698.392388	21316.798822
698.728326	21308.531330
699.064214	21140.623098
699.400053	21148.928399
699.735842	20761.689646
700.071581	20562.049872
700.407270	20317.921914
700.742910	20134.449120
701.078501	19891.838550
701.414042	19696.486277
701.749533	19390.783146
702.084974	19070.165761
702.420366	19304.045053
702.755709	18890.693123
703.091002	18607.415564
703.426246	18663.354728
703.761440	18601.174616
704.096584	18362.843986
704.431679	18295.607596
704.766725	18247.429289
705.101721	18181.387653
705.436668	18308.727199
705.771565	18041.833391
706.106413	18345.625925
706.441212	18432.648843
706.775961	18533.045942
707.110661	18616.751781
707.445311	18986.064192
707.779913	18867.397951
708.114465	19159.484925
708.448967	19468.795002
708.783421	20105.243195
709.117825	20466.152002
709.452180	20708.056810
709.786485	21162.116058
710.120742	21930.050147
710.454949	22037.366230
710.789107	22543.757695
711.123216	23255.296396
711.457275	23470.029385
711.791286	24024.299210
712.125247	24172.788917
712.459159	23888.540937
712.793023	24618.527740
713.126837	23588.806532
713.460602	23828.205887
713.794318	23476.487103
714.127985	23206.918963
714.461602	22305.621149
714.795171	22266.642948
715.128691	21298.055812
715.462162	20789.443719
715.795584	20356.617811
716.128957	20091.518654
716.462281	19721.119875
716.795556	19439.490774
717.128782	18970.285380
717.461960	18370.163741
717.795088	18332.284511
718.128167	17995.031319
718.461198	17542.033234
718.794180	17413.549346
719.127113	17089.355263
719.459997	16903.107313
719.792833	16541.775050
720.125619	16591.211125
720.458357	16255.054383
720.791046	16123.210566
721.123686	15982.895090
721.456278	15761.217912
721.788821	15746.941364
722.121315	15487.732795
722.453761	15594.466625
722.786158	15486.994266
723.118506	15558.828187
723.450805	15453.735253
723.783056	15625.421830
724.115259	15529.592016
724.447412	15519.045922
724.779518	15736.241515
725.111574	15790.998528
725.443582	16061.108592
725.775542	16018.493198
726.107453	16530.276178
726.439315	16456.813963
726.771129	16871.612705
727.102895	17294.200029
727.434612	17578.435406
727.766281	17733.032471
728.097901	18047.797076
728.429473	18118.723590
728.760996	18131.719685
729.092471	18250.154033
729.423897	18145.900450
729.755276	18010.721910
730.086606	18134.063821
730.417887	18718.590651
730.749120	19282.531929
731.080305	19486.910388
731.411442	19878.885305
731.742530	19994.282358
732.073570	20142.968670
732.404562	20461.219233
732.735506	20293.016094
733.066401	20075.460058
733.397249	19579.985211
733.728048	18959.356158
734.058798	18089.615968
734.389501	17338.698294
734.720156	16835.805389
735.050762	16260.491268
735.381320	15894.506019
735.711831	15626.127591
736.042293	15261.813485
736.372707	15293.590398
736.703073	15097.287868
737.033391	15299.654907
737.363661	15301.820082
737.693883	15429.832622
738.024056	15638.896834
738.354182	15859.018817
738.684260	16229.987246
739.014290	16503.658885
739.344272	16729.772279
739.674207	17078.410918
740.004093	17246.009118
740.333931	17293.857230
740.663722	17370.954117
740.993464	17406.360661
741.323159	17238.444867
741.652806	16932.771983
741.982405	16763.394255
742.311956	16401.139460
742.641460	16288.777182
742.970915	15962.125536
743.300323	15613.249964
743.629683	15398.758950
743.958996	15084.349746
744.288260	14779.173416
744.617477	14465.396877
744.946647	14439.008957
745.275768	14128.501607
745.604842	13935.639663
745.933869	13755.854473
746.262847	13732.639960
746.591778	13655.774967
746.920662	13533.121173
747.249498	13553.167321
747.578286	13712.624058
747.907027	13882.667219
748.235720	14140.353359
748.564365	14229.831320
748.892963	14149.334175
749.221514	14253.401234
749.550017	14111.727167
749.878473	14082.329679
750.206881	13860.675185
750.535242	13788.959731
750.863555	13708.104664
751.191821	13609.739150
751.520039	13630.627171
751.848210	13559.476325
752.176334	13604.559364
752.504411	13524.301674
752.832440	13353.278009
753.160421	13462.827324
753.488356	13360.534750
753.816243	13261.213937
754.144082	13101.787447
754.471875	13051.171742
754.799620	13014.076411
755.127318	12995.577897
755.454969	12980.146925
755.782572	12946.348509
756.110129	12963.236375
756.437638	12872.485523
756.765100	12875.258158
757.092515	12905.689083
757.419882	12950.487297
757.747203	12971.365235
758.074477	13048.759550
758.401703	13044.885423
758.728882	13242.183582
759.056014	13279.508285
759.383099	13451.852732
759.710138	13576.505343
760.037129	13699.486812
760.364073	13752.479421
760.690970	13784.092497
761.017820	13798.764775
761.344623	14026.745916
761.671379	14410.070214
761.998088	15119.463903
762.324751	16902.789721
762.651366	20331.941363
762.977935	24799.185050
763.304456	27729.181803
763.630931	28731.721109
763.957359	27492.678591
764.283740	25221.439657
764.610074	22947.881793
764.936362	20323.817544
765.262602	18450.066029
765.588796	16539.080553
765.914943	15270.459064
766.241044	14164.029138
766.567097	13401.166450
766.893104	12694.938605
767.219064	12234.522463
767.544978	11757.808270
767.870845	11375.406504
768.196665	11159.130921
768.522438	10929.682804
768.848165	10727.613193
769.173846	10520.593169
769.499479	10396.053984
769.825066	10227.419826
770.150607	9996.910546
770.476101	9920.930275
770.801548	9798.452922
771.126949	9637.027614
771.452303	9525.013176
771.777611	9334.087036
772.102872	9324.327362
772.428087	9185.753604
772.753256	9028.890541
773.078378	8936.387888
773.403453	8758.326772
773.728482	8646.831573
774.053465	8572.910613
774.378401	8474.497208
774.703291	8350.164710
775.028135	8235.344870
775.352932	8193.717542
775.677683	8090.104186
776.002388	7985.212898
776.327046	7995.794280
776.651658	7901.118890
776.976224	7794.717777
777.300743	7798.939743
777.625216	7713.353553
777.949643	7667.141296
778.274024	7682.673091
778.598359	7602.584280
778.922647	7621.050027
779.246889	7572.329795
779.571086	7581.482010
779.895236	7585.711538
780.219339	7595.604803
780.543397	7608.006041
780.867409	7682.163935
781.191374	7693.854370
781.515294	7660.045872
781.839167	7748.671877
782.162995	7721.424441
782.486776	7664.260277
782.810511	7616.112216
783.134201	7524.809358
783.457844	7523.304574
783.781441	7467.262067
784.104993	7404.547592
784.428498	7380.115640
784.751958	7366.045780
785.075372	7337.994279
785.398739	7287.353368
785.722061	7333.653846
786.045337	7334.127714
786.368568	7486.589851
786.691752	7520.973040
787.014891	7862.047427
787.337983	8224.627377
787.661030	8820.428747
787.984031	9450.736815
788.306987	9852.846972
788.629897	10053.255523
788.952760	9985.492333
789.275579	9764.674671
789.598351	9368.152633
789.921078	9011.584259
790.243759	8601.357845
790.566395	8307.972773
790.888984	8057.891213
791.211529	7850.543514
791.534027	7627.648897
791.856480	7430.388547
792.178888	7362.907662
792.501249	7263.354955
792.823566	7103.593228
793.145836	7108.546162
793.468062	7083.340393
793.790241	7040.777931
794.112375	7103.565502
794.434464	7265.242867
794.756507	7305.309958
795.078505	7466.236192
795.400457	7779.869058
795.722364	8134.438614
796.044226	8421.963344
796.366042	8693.850415
796.687812	8639.393350
797.009538	8714.241882
797.331218	8604.800953
797.652852	8514.211418
797.974442	8362.248356
798.295986	8275.785006
798.617484	8081.892147
798.938938	7942.398378
799.260346	7836.685382
799.581709	7636.022253
799.903026	7559.888228
800.224299	7455.806045
800.545526	7280.656195
800.866708	7189.202103
801.187845	7121.718697
801.508936	7018.952255
801.829983	6984.390104
802.150984	6831.902762
802.471940	6783.921060
802.792851	6774.741119
803.113717	6741.812302
803.434538	6707.320727
803.755314	6651.386605
804.076045	6656.296689
804.396731	6604.135870
804.717372	6639.905377
805.037967	6638.272043
805.358518	6684.368354
805.679024	6761.230827
805.999485	6781.287057
806.319901	6821.371792
806.640272	6844.419947
806.960598	6931.568894
807.280879	6925.955570
807.601115	7002.727302
807.921306	6949.129754
808.241453	6961.062165
808.561554	6983.210474
808.881611	6945.631193
809.201623	6956.262987
809.521590	6896.668986
809.841513	6873.308279
810.161390	6908.069556
810.481223	6782.796883
810.801011	6761.813080
811.120755	6739.632003
811.440453	6659.487739
811.760107	6631.015302
812.079716	6598.383913
812.399281	6533.715992
812.718801	6523.928592
813.038276	6479.629452
813.357707	6418.961686
813.677093	6460.142872
813.996434	6362.389858
814.315731	6404.705303
814.634983	6399.870837
814.954191	6412.940028
815.273354	6511.481983
815.592473	6578.788948
815.911547	6703.065993
816.230577	6790.051103
816.549562	6936.053001
816.868502	7033.551437
817.187399	7128.488967
817.506250	7282.816330
817.825058	7308.871533
818.143821	7583.188441
818.462539	7855.602312
818.781213	8219.364412
819.099843	8777.309237
819.418429	9779.551116
819.736970	10756.352811
820.055466	11931.891915
820.373919	13460.780615
820.692327	15808.866898
821.010691	19953.902716
821.329011	28987.269801
821.647286	42062.041704
821.965517	55523.412134
822.283704	60893.206362
822.601847	62831.502289
822.919945	60058.701316
823.237999	55796.751058
823.556010	49526.894099
823.873976	42790.143116
824.191897	36247.358088
824.509775	31425.688519
824.827609	26928.349144
825.145398	24355.379509
825.463144	23003.697449
825.780845	23333.106606
826.098502	25133.138807
826.416116	28946.494428
826.733685	32638.368324
827.051210	33837.822661
827.368692	32024.456608
827.686129	28022.208952
828.003522	23886.532037
828.320872	20158.986936
828.638177	17317.220458
828.955439	15165.973589
829.272656	13361.028783
829.589830	11890.894731
829.906960	10627.377411
830.224046	9688.563330
830.541088	8940.859392
830.858086	8487.941965
831.175041	8115.536807
831.491952	8009.218873
831.808819	8056.010863
832.125642	8457.188406
832.442421	9350.788378
832.759157	11151.110446
833.075849	14091.063478
833.392497	17339.646031
833.709101	19516.688484
834.025662	19344.235652
834.342179	17615.888658
834.658653	15406.542492
834.975083	13467.707161
835.291469	11857.686130
835.607811	10543.858094
835.924110	9633.990319
836.240366	8767.940253
836.556578	7965.186914
836.872746	7323.798390
837.188871	6822.006977
837.504952	6410.212764
837.820990	6104.151711
838.136984	5887.926540
838.452935	5799.030833
838.768842	5825.834648
839.084706	6255.343476
839.400526	7471.446224
839.716303	9059.510509
840.032037	10155.180092
840.347727	10067.365712
840.663373	9078.230834
840.978977	8032.657717
841.294537	7229.944708
841.610054	6629.825590
841.925527	6197.730650
842.240957	5842.152863
842.556344	5506.853118
842.871687	5226.300303
843.186987	4946.765802
843.502244	4726.933686
843.817458	4563.123912
844.132629	4428.010907
844.447756	4339.052185
844.762840	4256.669649
845.077881	4185.034853
845.392879	4124.740133
845.707833	4076.791198
846.022745	4032.880227
846.337613	4003.893592
846.652438	3958.114874
846.967221	3943.498049
847.281960	3909.119900
847.596656	3893.053743
847.911309	3873.673027
848.225919	3852.154862
848.540485	3831.153415
848.855009	3820.511539
849.169490	3799.298364
849.483928	3789.420223
849.798323	3781.651805
850.112675	3761.807303
850.426984	3769.933643
850.741251	3754.406889
851.055474	3748.667535
851.369654	3753.582660
851.683792	3748.967484
851.997887	3754.694234
852.311938	3761.661109
852.625947	3763.261675
852.939914	3751.477978
853.253837	3763.932149
853.567718	3761.015841
853.881555	3751.845983
854.195350	3762.303856
854.509103	3760.443670
854.822812	3761.981222
855.136479	3752.403030
855.450103	3762.102210
855.763685	3744.274169
856.077224	3753.310438
856.390720	3768.920371
856.704173	3792.407106
857.017584	3800.903971
857.330953	3812.284376
857.644278	3831.183662
857.957561	3838.921833
858.270802	3839.073067
858.584000	3842.846371
858.897155	3831.899506
859.210268	3818.374090
859.523339	3798.874907
859.836367	3793.513640
860.149352	3785.828401
860.462295	3783.474182
860.775195	3765.827623
861.088054	3767.420627
861.400869	3762.699587
861.713642	3762.583640
862.026373	3774.987399
862.339062	3782.317237
862.651708	3798.048157
862.964312	3832.517047
863.276873	3848.278214
863.589392	3902.483221
863.901869	3953.600521
864.214303	4000.846215
864.526696	4030.316800
864.839045	4076.713060
865.151353	4103.665589
865.463619	4110.186321
865.775842	4117.942137
866.088023	4135.918891
866.400162	4123.041264
866.712258	4131.555773
867.024313	4137.980723
867.336325	4130.161893
867.648296	4136.528871
867.960224	4138.094149
868.272110	4150.573525
868.583954	4151.801046
868.895755	4164.628262
869.207515	4160.517201
869.519233	4205.557390
869.830909	4218.896283
870.142542	4243.156836
870.454134	4255.215276
870.765684	4283.362559
871.077191	4319.389165
871.388657	4341.361034
871.700081	4383.381572
872.011463	4427.680711
872.322803	4463.228407
872.634101	4495.506916
872.945357	4533.439078
873.256571	4585.932613
873.567744	4619.100884
873.878874	4637.871621
874.189963	4672.088452
874.501010	4678.833516
874.812015	4680.184546
875.122979	4723.072162
875.433900	4722.999065
875.744780	4732.022731
876.055618	4761.800826
876.366415	4762.970374
876.677169	4782.754382
876.987882	4826.753573
877.298554	4876.129154
877.609183	4958.761228
877.919771	5066.011776
878.230317	5212.283375
878.540822	5422.927989
878.851285	5748.248770
879.161707	6210.804882
879.472087	6967.262784
879.782425	8209.019964
880.092722	10393.198171
880.402977	13726.381367
880.713191	17507.947472
881.023363	21265.837798
881.333494	23488.737107
881.643583	24710.246493
881.953631	24678.038561
882.263637	23802.901815
882.573602	22307.181387
882.883526	20730.961293
883.193408	19033.834165
883.503248	17320.923185
883.813048	15769.709735
884.122806	14333.638760
884.432522	12864.974204
884.742197	11601.257758
885.051831	10521.034270
885.361424	9514.323409
885.670975	8702.254018
885.980485	8014.174327
886.289954	7439.888601
886.599382	6967.517362
886.908768	6596.385096
887.218113	6233.916052
887.527417	5944.397545
887.836680	5679.691598
888.145901	5461.056756
888.455082	5303.210667
888.764221	5151.313140
889.073319	5019.325650
889.382376	4949.548519
889.691392	4889.520980
890.000366	4867.329820
890.309300	4849.385833
890.618193	4852.322305
890.927044	4841.428372
891.235855	4861.877813
891.544625	4890.526690
891.853353	4954.007420
892.162041	5071.458743
892.470687	5263.163741
892.779293	5508.766236
893.087858	5878.403800
893.396381	6462.250074
893.704864	7263.743124
894.013306	8426.507944
894.321707	9617.833421
894.630068	10444.978382
894.938387	10646.775771
895.246665	10409.581921
895.554903	9787.138052
895.863100	9080.569929
896.171256	8522.635186
896.479371	8011.946137
896.787446	7507.467789
897.095480	7076.968374
897.403473	6767.481857
897.711425	6445.054698
898.019336	6180.590727
898.327207	5906.248614
898.635038	5678.375857
898.942827	5429.710861
899.250576	5236.387652
899.558284	5042.696439
899.865952	4916.402933
900.173579	4772.840953
900.481165	4666.339017
900.788711	4568.825457
901.096216	4498.637472
901.403681	4431.481741
901.711105	4409.630860
902.018489	4391.187798
902.325832	4466.033810
902.633135	4592.128191
902.940397	4931.692752
903.247619	5734.932562
903.554800	7188.423245
903.861941	9115.943706
904.169041	10643.277210
904.476101	11265.274936
904.783121	10890.248378
905.090100	10139.718873
905.397039	9293.271333
905.703938	8537.294862
906.010796	7842.202925
906.317614	7294.479039
906.624391	6761.757627
906.931129	6330.970866
907.237826	5933.609476
907.544483	5559.873453
907.851099	5187.669942
908.157675	4833.811188
908.464211	4509.609543
908.770707	4273.474336
909.077163	4076.927309
909.383578	3935.742234
909.689954	3820.435922
909.996289	3750.260540
910.302584	3683.646733
910.608839	3652.873009
910.915054	3622.789923
911.221229	3610.383644
911.527363	3621.968215
911.833458	3636.580000
912.139513	3664.470183
912.445527	3693.229966
912.751502	3775.819190
913.057436	3875.689488
913.363331	4010.074047
913.669186	4214.843196
913.975000	4470.243173
914.280775	4892.497781
914.586510	5474.211647
914.892205	6275.238390
915.197859	7319.246228
915.503475	8548.594608
915.809050	9620.875757
916.114585	10277.584348
916.420081	10535.235201
916.725536	10500.380663
917.030952	10048.801663
917.336328	9626.940265
917.641665	9215.561947
917.946961	8728.359633
918.252218	8306.538565
918.557435	7794.069988
918.862612	7360.593772
919.167750	6983.913715
919.472848	6554.762809
919.777906	6180.862949
920.082925	5825.685934
920.387904	5453.429490
920.692843	5188.925189
920.997743	4941.747333
921.302603	4710.340728
921.607423	4549.737128
921.912204	4380.503073
922.216946	4267.861011
922.521647	4145.068585
922.826310	4038.707801
923.130932	3947.372176
923.435516	3848.366435
923.740059	3779.600055
924.044564	3706.100032
924.349028	3646.493429
924.653454	3577.880804
924.957840	3509.689116
925.262186	3463.940645
925.566493	3404.810431
925.870761	3347.636185
926.174989	3314.780465
926.479178	3275.736728
926.783328	3233.731314
927.087438	3203.232333
927.391509	3171.183197
927.695541	3144.573467
927.999533	3117.265536
928.303486	3094.018255
928.607400	3078.705751
928.911275	3067.020356
929.215110	3051.138201
929.518906	3043.485729
929.822663	3040.645039
930.126381	3042.759803
930.430060	3047.415309
930.733699	3047.485885
931.037299	3061.265879
931.340861	3058.546176
931.644383	3067.413566
931.947866	3063.204203
932.251309	3056.413768
932.554714	3058.125240
932.858080	3052.552244
933.161407	3043.692417
933.464694	3037.209493
933.767943	3027.669109
934.071153	3026.728934
934.374323	3017.831297
934.677455	3009.387365
934.980548	3003.428721
935.283602	2998.770695
935.586617	2994.082422
935.889593	3001.553412
936.192530	3008.633712
936.495428	3021.828932
936.798287	3043.112684
937.101108	3079.542582
937.403890	3129.492855
937.706632	3192.139274
938.009336	3274.925102
938.312002	3349.478727
938.614628	3412.747728
938.917216	3464.210347
939.219765	3495.901561
939.522275	3526.624873
939.824747	3532.550749
940.127179	3529.210985
940.429573	3522.168493
940.731929	3519.254706
941.034246	3500.315091
941.336524	3494.253103
941.638763	3474.378354
941.940964	3462.234215
942.243126	3417.120929
942.545250	3392.449522
942.847335	3359.054398
943.149381	3319.594767
943.451389	3289.166362
943.753359	3254.856269
944.055290	3228.622104
944.357182	3204.545553
944.659036	3188.567616
944.960851	3181.038653
945.262628	3166.179852
945.564367	3167.069616
945.866067	3162.570386
946.167729	3161.456291
946.469352	3154.217194
946.770937	3154.217194
947.072484	3137.362096
947.373992	3141.669762
947.675462	3134.775984
947.976893	3118.283849
948.278286	3110.694392
948.579641	3104.796242
948.880958	3095.996908
949.182236	3100.712908
949.483476	3091.142277
949.784678	3090.408789
950.085841	3090.247472
950.386967	3104.768516
950.688054	3121.028758
950.989103	3141.712612
951.290114	3164.299502
951.591087	3187.607277
951.892021	3216.394786
952.192917	3247.972573
952.493776	3273.868981
952.794596	3282.345681
953.095378	3285.020013
953.396122	3279.391565
953.696828	3274.085750
953.997496	3260.058740
954.298126	3237.244998
954.598718	3218.345712
954.899272	3190.296732
955.199788	3159.810354
955.500266	3128.232567
955.800706	3094.401383
956.101108	3055.481155
956.401472	3024.846063
956.701798	2991.950013
957.002087	2951.207408
957.302337	2923.289498
957.602550	2893.667678
957.902724	2863.889582
958.202861	2840.937209
958.502960	2819.061122
958.803022	2799.317443
959.103045	2778.827673
959.403031	2764.213368
959.702979	2747.338105
960.002889	2738.442989
960.302762	2723.445557
960.602596	2710.898125
960.902393	2703.119624
961.202153	2697.183666
961.501875	2687.517253
961.801559	2679.360666
962.101205	2675.403361
962.400814	2669.626198
962.700385	2663.400373
962.999918	2657.703869
963.299414	2652.665236
963.598873	2649.320431
963.898293	2642.600573
964.197677	2642.109060
964.497022	2641.665438
964.796331	2638.227372
965.095601	2633.647483
965.394835	2633.453399
965.694030	2633.108080
965.993189	2629.667492
966.292309	2629.909468
966.591393	2628.311422
966.890439	2627.010804
967.189447	2630.153964
967.488419	2629.027266
967.787353	2633.380302
968.086249	2631.462143
968.385108	2631.673872
968.683930	2634.756537
968.982714	2637.103194
969.281462	2641.972949
969.580172	2651.571306
969.878844	2654.159938
970.177480	2661.608243
970.476078	2670.420180
970.774639	2680.099195
971.073162	2686.095648
971.371649	2693.687626
971.670098	2696.107379
971.968510	2701.156095
972.266885	2707.066848
972.565223	2708.972404
972.863524	2712.836448
973.161788	2716.786192
973.460014	2719.924311
973.758204	2721.111502
974.056356	2723.009497
974.354471	2725.290619
974.652550	2723.828684
974.950591	2721.754250
975.248595	2723.115361
975.546563	2719.253837
975.844493	2716.980277
976.142386	2714.326109
976.440243	2704.813452
976.738062	2704.972248
977.035845	2695.056299
977.333590	2686.761080
977.631299	2684.558096
977.928971	2674.606858
978.226606	2671.567042
978.524204	2667.408091
978.821765	2662.833243
979.119290	2665.106804
979.416777	2663.110507
979.714228	2669.548060
980.011642	2672.726508
980.309020	2681.679597
980.606360	2693.551514
980.903664	2718.848024
981.200931	2753.296749
981.498162	2802.684933
981.795356	2879.076058
982.092513	2966.298102
982.389633	3072.426993
982.686717	3173.111439
982.983764	3243.485946
983.280775	3292.725417
983.577749	3299.407466
983.874686	3286.141670
984.171587	3251.017430
984.468451	3213.516287
984.765279	3167.009122
985.062070	3119.607152
985.358824	3072.540419
985.655543	3019.482275
985.952224	2967.805407
986.248869	2904.299472
986.545478	2844.574401
986.842050	2793.371402
987.138586	2743.620254
987.435086	2704.029553
987.731549	2673.754903
988.027975	2651.140287
988.324366	2632.011629
988.620719	2619.940586
988.917037	2606.669748
989.213318	2601.321084
989.509563	2592.625094
989.805772	2586.434557
990.101944	2581.065728
990.398080	2580.604463
990.694180	2579.586149
990.990244	2579.588670
991.286271	2578.862744
991.582262	2581.955492
991.878217	2583.253589
992.174136	2588.463621
992.470019	2588.498909
992.765865	2589.829774
993.061676	2595.352358
993.357450	2603.287134
993.653188	2610.493464
993.948890	2630.527009
994.244556	2648.123157
994.540186	2669.558143
994.835780	2701.377906
995.131337	2743.864750
995.426859	2779.845986
995.722345	2830.214675
996.017795	2881.400030
996.313208	2920.179106
996.608586	2948.737243
996.903928	2960.949438
997.199234	2958.922894
997.494504	2959.545477
997.789738	2942.337498
998.084936	2916.912438
998.380099	2888.046792
998.675225	2855.750639
998.970316	2824.503047
999.265371	2789.842594
999.560390	2754.897316
999.855373	2723.445557
1000.150320	2692.167718
1000.445232	2665.613440
1000.740108	2646.993938
1001.034948	2628.061885
1001.329752	2612.212497
1001.624521	2605.550612
1001.919254	2591.876482
1002.213951	2583.354412
1002.508613	2573.551888
1002.803239	2567.260528
1003.097829	2561.984961
1003.392384	2558.330124
1003.686903	2554.844166
1003.981386	2551.302756
1004.275834	2543.967877
1004.570246	2544.217414
1004.864623	2539.556867
1005.158964	2540.040818
1005.453270	2537.353883
1005.747540	2535.244160
1006.041775	2535.624767
1006.335974	2534.976979
1006.630138	2530.944056
1006.924266	2529.661082
1007.218359	2530.056813
1007.512416	2527.485824
1007.806438	2524.665299
1008.100425	2523.107582
1008.394376	2524.277130
1008.688292	2526.391894
1008.982172	2526.487676
1009.276017	2525.113962
1009.569827	2522.714372
1009.863602	2522.752181
1010.157341	2522.981553
1010.451045	2519.407375
1010.744714	2519.493075
1011.038347	2522.850483
1011.331945	2518.615914
1011.625508	2518.772190
1011.919036	2520.171110
1012.212528	2516.879237
1012.505986	2518.822602
1012.799408	2515.613907
1013.092795	2515.520646
1013.386147	2514.492250
1013.679464	2512.989987
1013.972745	2516.246572
1014.265992	2514.093999
1014.559204	2518.290760
1014.852380	2515.306397
1015.145521	2511.661643
1015.438628	2514.116684
1015.731699	2514.986283
1016.024736	2514.217508
1016.317737	2518.560462
1016.610703	2516.917045
1016.903635	2520.839063
1017.196531	2518.250431
1017.489393	2521.373425
1017.782219	2523.475587
1018.075011	2526.807789
1018.367768	2524.713190
1018.660490	2524.108251
1018.953177	2524.108251
1019.245829	2524.108251
