Dividing Wavelength (nm)	Counts (n)	Blue Motor Position (mm): 46.400000	Red Motor Position (mm): 0.000000	
326.493990	2132.370268
326.888308	2132.370268
327.282561	2132.370268
327.676750	2097.205700
328.070874	2098.460947
328.464933	2097.485484
328.858929	2108.732298
329.252859	2114.214553
329.646726	2127.523199
330.040528	2140.942750
330.434265	2159.385812
330.827938	2173.634633
331.221547	2190.802283
331.615091	2208.882381
332.008571	2231.975907
332.401986	2249.884606
332.795338	2269.736669
333.188625	2289.528239
333.581847	2307.613379
333.975006	2323.765236
334.368100	2343.249295
334.761129	2361.069774
335.154095	2377.745911
335.546996	2396.675444
335.939833	2427.791966
336.332606	2439.119439
336.725315	2453.103599
337.117960	2463.551391
337.510540	2472.335601
337.903056	2479.733495
338.295508	2487.408651
338.687896	2499.315857
339.080220	2506.358349
339.472480	2512.072497
339.864676	2516.506191
340.256807	2517.988291
340.648875	2524.887110
341.040879	2527.221164
341.432818	2527.828623
341.824694	2528.983047
342.216506	2530.908768
342.608253	2530.928933
342.999937	2529.245187
343.391557	2533.986392
343.783113	2530.114786
344.174605	2529.383819
344.566033	2527.148067
344.957397	2526.911133
345.348697	2522.777387
345.739934	2520.508867
346.131106	2521.186903
346.522215	2519.273785
346.913260	2514.363701
347.304241	2517.406037
347.695159	2514.025944
348.086012	2510.814729
348.476802	2508.745335
348.867528	2508.563853
349.258191	2502.413646
349.648789	2508.420181
350.039324	2503.124448
350.429796	2503.610920
350.820203	2498.726042
351.210548	2502.035559
351.600828	2498.108500
351.991045	2499.124293
352.381198	2497.853922
352.771288	2497.813593
353.161314	2497.944663
353.551276	2501.544047
353.941175	2499.719149
354.331010	2500.442555
354.720782	2497.203613
355.110490	2498.239570
355.500135	2498.053048
355.889717	2501.475991
356.279235	2499.323418
356.668689	2502.171670
357.058080	2497.589262
357.447408	2499.184787
357.836672	2498.453819
358.225873	2498.000116
358.615010	2499.782163
359.004084	2502.068327
359.393095	2501.400374
359.782043	2501.571773
360.170927	2502.910199
360.559748	2504.495642
360.948505	2503.242916
361.337199	2507.638802
361.725830	2505.433297
362.114398	2510.298010
362.502903	2508.851199
362.891344	2508.667197
363.279722	2506.935561
363.668037	2509.352794
364.056289	2508.871364
364.444478	2511.873371
364.832603	2508.155520
365.220665	2511.230624
365.608665	2513.489061
365.996601	2513.839421
366.384474	2511.822959
366.772284	2515.986953
367.160031	2512.659791
367.547715	2513.201715
367.935336	2517.348064
368.322893	2515.031654
368.710388	2515.298835
369.097820	2519.417458
369.485189	2513.668022
369.872495	2519.019207
370.259738	2516.347395
370.646918	2518.719258
371.034035	2518.850328
371.421090	2520.710514
371.808081	2522.295957
372.195010	2524.022552
372.581875	2525.282840
372.968678	2528.347862
373.355418	2534.472864
373.742096	2538.992258
374.128710	2544.756817
374.515262	2551.960626
374.901751	2559.224929
375.288177	2567.638615
375.674540	2581.469020
376.060841	2589.915474
376.447079	2602.273862
376.833254	2613.750049
377.219367	2622.761112
377.605417	2644.586787
377.991404	2654.800165
378.377329	2674.120387
378.763191	2687.368539
379.148991	2716.476162
379.534727	2735.110787
379.920402	2760.064498
380.306013	2777.194339
380.691563	2812.968887
381.077049	2836.380006
381.462474	2857.015969
381.847835	2895.477452
382.233134	2920.403438
382.618371	2933.089501
383.003545	2992.469252
383.388657	3009.430214
383.773706	3048.547048
384.158693	3073.160481
384.543618	3106.853033
384.928480	3147.542706
385.313280	3194.526260
385.698017	3206.594782
386.082692	3265.026797
386.467305	3282.325516
386.851856	3320.723985
387.236344	3350.181968
387.620770	3390.894326
388.005133	3422.436826
388.389435	3461.949389
388.773674	3483.051659
389.157851	3530.766181
389.541965	3554.893143
389.926018	3534.393291
390.310008	3609.572018
390.693936	3631.085142
391.077802	3677.519210
391.461606	3677.652801
391.845348	3742.547574
392.229027	3747.442535
392.612645	3766.273765
392.996200	3845.374510
393.379694	3888.899832
393.763125	3956.836942
394.146494	3929.506326
394.529801	3995.623580
394.913047	4040.890621
395.296230	4009.716125
395.679351	4067.550763
396.062410	4090.183023
396.445408	4076.153492
396.828343	4108.283286
397.211217	4130.565186
397.594028	4055.124318
397.976778	4119.630923
398.359466	4150.893639
398.742092	4178.504038
399.124656	4100.565279
399.507158	4182.264739
399.889598	4206.565621
400.271977	4268.619704
400.654294	4239.239860
401.036549	4246.882249
401.418742	4219.095409
401.800874	4319.278259
402.182944	4340.733410
402.564952	4406.901075
402.946898	4391.911204
403.328783	4389.017582
403.710606	4303.476763
404.092367	4500.681660
404.474067	4460.680104
404.855705	4466.134633
405.237282	4397.963109
405.618797	4508.402187
406.000250	4538.916291
406.381642	4621.114825
406.762972	4582.809618
407.144240	4595.599025
407.525447	4596.201443
407.906593	4654.865350
408.287677	4691.446483
408.668700	4625.326709
409.049661	4674.425027
409.430560	4714.776943
409.811399	4643.255573
410.192176	4804.098628
410.572891	4744.890276
410.953545	4846.325853
411.334138	4729.993666
411.714669	4799.430519
412.095139	4688.429353
412.475547	4833.818750
412.855894	4812.807221
413.236180	4822.458510
413.616405	4773.624853
413.996568	4861.953430
414.376670	4805.452177
414.756711	4759.534828
415.136691	4792.902225
415.516609	4870.520871
415.896466	4906.323145
416.276262	4939.809010
416.655997	4923.901649
417.035670	5101.231797
417.415283	5194.122618
417.794834	5139.254700
418.174324	5092.878605
418.553753	5001.414430
418.933121	5183.987379
419.312428	5251.861474
419.691674	5190.987021
420.070859	5314.298685
420.449983	5229.514039
420.829045	5344.860680
421.208047	5249.603037
421.586988	5323.201363
421.965867	5337.172921
422.344686	5465.669412
422.723444	5318.273635
423.102141	5137.495337
423.480777	5436.135812
423.859352	5204.525039
424.237866	5469.253672
424.616319	5457.222958
424.994712	5567.621707
425.373044	5444.050423
425.751314	5585.283389
426.129524	5389.416918
426.507673	5584.590231
426.885762	5670.370505
427.263789	5596.217652
427.641756	5484.316640
428.019662	5604.301142
428.397508	5612.011587
428.775292	5555.124687
429.153016	5653.117156
429.530679	5584.139047
429.908282	5668.623745
430.285824	5541.049785
430.663305	5814.464326
431.040726	5551.623605
431.418086	5548.246032
431.795385	5653.011291
432.172624	5663.005379
432.549802	5659.063197
432.926920	5671.343447
433.303977	5682.416342
433.680974	5720.033432
434.057910	5735.159414
434.434786	5739.585547
434.811601	5709.835177
435.188355	5942.791938
435.565050	5819.565973
435.941683	5798.713240
436.318257	6015.871025
436.694770	5998.373180
437.071222	6035.385331
437.447614	5966.455114
437.823946	5878.822216
438.200218	6035.881885
438.576429	5895.747890
438.952580	5995.640874
439.328670	6043.511671
439.704700	5947.560869
440.080670	5938.045692
440.456580	6205.622576
440.832429	6091.435400
441.208218	5933.284322
441.583947	6089.665955
441.959616	6092.746100
442.335224	6022.500142
442.710773	6158.810421
443.086261	6189.175812
443.461689	5978.160673
443.837057	6130.569877
444.212365	6283.916736
444.587612	6176.817423
444.962800	6329.594631
445.337927	6309.886240
445.712995	5918.644811
446.088002	6499.993193
446.462949	6327.805022
446.837837	6262.751452
447.212664	6431.020126
447.587431	6577.957158
447.962139	7118.124354
448.336786	8043.554172
448.711374	7788.267620
449.085901	6856.387647
449.460369	6781.912160
449.834776	6712.896243
450.209124	7102.451407
450.583412	7254.742144
450.957640	7403.856954
451.331808	7164.082033
451.705917	6718.368416
452.079965	6645.853938
452.453954	6854.489652
452.827883	6733.000365
453.201752	6821.109652
453.575562	6620.766636
453.949311	6826.080230
454.323001	6717.980247
454.696632	6791.883563
455.070202	6928.881959
455.443713	7085.704694
455.817164	7186.729417
456.190556	7265.568022
456.563888	7343.327820
456.937160	7389.812300
457.310373	7041.342540
457.683526	7062.759882
458.056619	6956.527647
458.429653	6942.203208
458.802628	6883.473766
459.175542	6991.092318
459.548398	7346.566761
459.921194	7508.355032
460.293930	7509.322934
460.666607	8038.649129
461.039224	8344.589194
461.411782	8471.734656
461.784280	8489.348447
462.156719	8379.950368
462.529099	8258.123323
462.901419	7848.017896
463.273680	7741.319354
463.645882	7751.870489
464.018024	7623.124461
464.390106	7780.438708
464.762130	8176.161723
465.134094	8641.641705
465.505999	9663.029886
465.877845	10885.678572
466.249631	11531.646985
466.621358	11155.886939
466.993026	10523.275063
467.364634	10272.321384
467.736184	9910.381661
468.107674	9580.652391
468.479105	9608.333367
468.850477	9370.998364
469.221790	9142.503025
469.593043	8810.328795
469.964238	8676.723095
470.335373	8690.548459
470.706449	8746.248168
471.077467	8729.998008
471.448425	10037.726248
471.819324	11106.463467
472.190164	11129.952723
472.560945	9883.328309
472.931667	9098.483669
473.302330	8955.839180
473.672934	8606.497301
474.043479	8968.442065
474.413965	8901.288854
474.784393	8786.146380
475.154761	8937.607847
475.525070	9030.899440
475.895321	8859.240590
476.265513	9030.680150
476.635645	9204.690699
477.005719	9205.106594
477.375734	9319.941558
477.745691	9555.618021
478.115588	9696.031799
478.485427	9939.713615
478.855207	10472.858484
479.224928	11283.176073
479.594591	11918.200141
479.964194	11725.575132
480.333739	11665.459372
480.703226	11585.612537
481.072653	11669.406596
481.442022	11912.110427
481.811333	12100.405085
482.180584	11904.291598
482.549777	11613.583379
482.918912	11436.157449
483.287988	11455.782661
483.657005	11465.154166
484.025964	11149.850157
484.394864	11283.470981
484.763706	11251.963769
485.132489	11010.447130
485.501213	10982.501493
485.869879	11050.665455
486.238487	10895.019830
486.607036	11001.005049
486.975527	10782.289548
487.343959	10981.258849
487.712333	11025.079079
488.080648	10945.968252
488.448905	10999.099493
488.817104	10935.948958
489.185244	11203.631707
489.553326	11360.182219
489.921350	11899.346226
490.289315	12958.802680
490.657222	13302.798415
491.025070	13207.152603
491.392861	13082.013521
491.760593	12703.463196
492.128267	12353.483611
492.495883	12021.110256
492.863440	11688.721777
493.230939	11353.232988
493.598380	11278.691967
493.965763	11150.129941
494.333088	11049.639580
494.700354	10973.082097
495.067563	11030.019410
495.434713	10862.844666
495.801805	10986.123563
496.168839	10909.619012
496.535815	10849.399908
496.902733	10845.031749
497.269593	10781.490525
497.636395	10885.660928
498.003139	10869.592250
498.369825	10737.332538
498.736453	10895.246682
499.103023	10821.018212
499.469535	10854.763696
499.835989	10849.236071
500.202385	10802.108844
500.568723	10653.397326
500.935003	10878.550381
501.301226	10682.164671
501.667390	10938.519947
502.033497	11041.019207
502.399546	10896.978318
502.765537	10807.402056
503.131470	10877.151460
503.497345	11049.135465
503.863163	10659.187092
504.228923	10972.240225
504.594625	11042.576924
504.960269	10783.380958
505.325856	11001.458752
505.691385	10794.537031
506.056856	10950.717018
506.422270	10972.885493
506.787625	10866.895233
507.152924	10989.213790
507.518164	10965.918618
507.883347	10878.542819
508.248472	10803.767384
508.613540	11042.014835
508.978550	10922.612586
509.343503	10901.490151
509.708398	11017.865188
510.073236	11129.332661
510.438016	11136.745678
510.802738	11083.190980
511.167403	11137.345575
511.532010	11033.906139
511.896561	11263.213104
512.261053	11345.416679
512.625488	11208.103210
512.989866	11189.823987
513.354186	11179.509786
513.718449	11076.529095
514.082655	11271.147880
514.446803	11162.405151
514.810894	11291.597321
515.174927	11154.064562
515.538904	11180.356700
515.902822	11331.518218
516.266684	11220.461599
516.630488	11155.080354
516.994235	11216.789118
517.357925	11277.998808
517.721558	11366.816378
518.085133	11378.153932
518.448651	11392.715305
518.812112	11270.792479
519.175516	11292.620675
519.538863	11405.373643
519.902152	11320.851137
520.265385	11483.670324
520.628560	11393.562219
520.991678	11371.043385
521.354739	11439.030906
521.717743	11373.790814
522.080690	11358.732887
522.443580	11486.248874
522.806413	11444.117431
523.169189	11473.416617
523.531908	11531.326872
523.894569	11346.750065
524.257174	11358.521159
524.619722	11479.115641
524.982213	11417.575756
525.344647	11473.320835
525.707025	11421.538102
526.069345	11519.240705
526.431608	11438.494023
526.793815	11542.472863
527.155964	11334.540390
527.518057	11394.293187
527.880093	11331.550986
528.242072	11397.106150
528.603995	11301.283898
528.965860	11232.913249
529.327669	11280.206834
529.689421	11228.867723
530.051117	11196.427898
530.412755	11301.916563
530.774337	11192.226096
531.135862	11175.076091
531.497331	11196.080058
531.858743	11050.100846
532.220098	11220.557381
532.581396	11087.191135
532.942638	11070.547766
533.303824	11026.755262
533.664953	11042.846626
534.026025	10956.085847
534.387040	11061.503936
534.747999	11068.894267
535.108902	11120.334201
535.469748	10879.067099
535.830537	10986.584828
536.191270	10959.337392
536.551947	10978.599640
536.912567	10983.814714
537.273131	10914.919785
537.633638	10886.094467
537.994089	10877.511903
538.354483	10827.307052
538.714821	10972.910698
539.075103	10979.494445
539.435328	10940.425503
539.795497	10770.273958
540.155609	10927.326065
540.515665	11016.327636
540.875665	10757.262740
541.235609	10821.270270
541.595496	10819.720115
541.955328	10970.012035
542.315102	10852.157420
542.674821	10805.612446
543.034483	10803.845522
543.394090	10807.853239
543.753640	10734.620397
544.113134	10956.032915
544.472571	10813.133848
544.831953	10954.359252
545.191278	10761.290622
545.550548	10787.388675
545.909761	10929.322362
546.268918	10895.922197
546.628019	10993.004737
546.987064	10846.970072
547.346053	10773.217992
547.704986	10864.223421
548.063863	10860.261074
548.422684	10847.920330
548.781449	10763.135684
549.140158	10874.988805
549.498811	10748.165977
549.857408	10602.118709
550.215949	10825.298152
550.574434	10682.434373
550.932864	10783.985896
551.291237	10846.786070
551.649555	10791.782041
552.007817	10808.495986
552.366022	10762.422361
552.724173	10763.906980
553.082267	10741.930070
553.440305	10878.714218
553.798288	10680.291882
554.156215	10843.337921
554.514086	10810.474639
554.871902	10665.831332
555.229661	10696.363081
555.587365	10669.632362
555.945014	10565.640920
556.302606	10691.407626
556.660143	10582.972407
557.017625	10739.207847
557.375050	10636.577517
557.732421	10764.796744
558.089735	10686.883191
558.446994	10681.857160
558.804197	10718.196318
559.161345	10723.423994
559.518437	10574.868752
559.875474	10659.565178
560.232455	10692.841835
560.589381	10642.195882
560.946251	10640.839812
561.303065	10747.435010
561.659825	10677.549494
562.016528	10615.661769
562.373177	10489.131328
562.729770	10610.890317
563.086307	10521.765238
563.442789	10613.506676
563.799216	10490.426905
564.155587	10542.822137
564.511904	10498.230611
564.868164	10489.592594
565.224370	10500.473924
565.580520	10425.292677
565.936615	10432.201578
566.292654	10300.730806
566.648638	10435.052350
567.004567	10388.973684
567.360441	10377.401715
567.716260	10282.081057
568.072023	10373.477177
568.427732	10332.311114
568.783385	10238.787628
569.138982	10302.250714
569.494525	10327.080917
569.850013	10193.371873
570.205445	10285.914855
570.560823	10170.961424
570.916145	10090.428991
571.271412	10160.213684
571.626625	10105.159243
571.981782	10083.694010
572.336884	10056.880112
572.691931	10067.993336
573.046923	10003.965641
573.401860	9970.648655
573.756743	9903.102235
574.111570	9947.212331
574.466342	9927.635010
574.821059	9963.129774
575.175722	9849.330767
575.530330	9854.964257
575.884882	9854.145069
576.239380	9779.387278
576.593823	9760.243497
576.948211	9770.663562
577.302544	9653.025716
577.656823	9666.236060
578.011047	9670.180762
578.365216	9641.115990
578.719330	9564.195544
579.073389	9580.506197
579.427394	9528.184062
579.781344	9500.825720
580.135239	9449.985683
580.489080	9464.617632
580.842866	9361.460501
581.196597	9364.187765
581.550273	9406.803159
581.903895	9376.732677
582.257463	9439.704250
582.610975	9320.632196
582.964434	9348.338378
583.317837	9270.190411
583.671186	9258.396631
584.024481	9250.514787
584.377721	9165.394904
584.730906	9141.230133
585.084037	9173.327160
585.437113	9106.063044
585.790135	9129.305284
586.143103	9027.892392
586.496016	9001.905244
586.848874	9052.054643
587.201679	9044.162716
587.554428	8933.592568
587.907124	8974.887180
588.259765	8947.158313
588.612352	8950.253582
588.964884	8831.221857
589.317362	8842.685441
589.669786	8847.701389
590.022155	8889.752174
590.374470	8907.030729
590.726731	8843.113939
591.078937	8697.845529
591.431090	8808.627406
591.783188	8681.098816
592.135232	8670.572887
592.487222	8672.614554
592.839157	8731.230571
593.191038	8660.346906
593.542866	8601.425900
593.894639	8500.063420
594.246358	8556.171462
594.598022	8576.792302
594.949633	8469.221641
595.301190	8450.234135
595.652692	8470.038308
596.004141	8580.878157
596.355535	8361.953448
596.706876	8346.469544
597.058162	8275.537989
597.409395	8351.614042
597.760573	8412.367508
598.111698	8323.464239
598.462768	8313.709606
598.813785	8271.842823
599.164748	8245.422136
599.515657	8235.594407
599.866511	8141.281980
600.217312	8270.660673
600.568060	8131.837378
600.918753	8231.748006
601.269392	8205.160961
601.619978	8113.565716
601.970510	8177.921086
602.320988	8172.569901
602.671412	8230.969148
603.021783	8163.107656
603.372100	8136.334087
603.722363	8146.156776
604.072572	8114.941951
604.422728	8126.355123
604.772830	8058.110503
605.122878	8064.590907
605.472872	8058.914567
605.822813	8090.910771
606.172701	8033.950773
606.522534	8106.218234
606.872314	8108.121270
607.222041	8077.987773
607.571714	8131.053479
607.921333	8088.765760
608.270899	8096.531657
608.620411	8191.917850
608.969870	8093.416224
609.319276	8083.311231
609.668627	8103.793439
610.017926	8135.504818
610.367171	8182.518618
610.716362	8161.650762
611.065500	8151.470152
611.414585	8181.308742
611.763616	8169.459509
612.112594	8147.434708
612.461518	8161.943149
612.810389	8228.645176
613.159207	8162.177563
613.507971	8111.955068
613.856682	8229.189621
614.205340	8179.390583
614.553945	8264.442410
614.902496	8163.435331
615.250994	8220.178558
615.599439	8194.287192
615.947830	8212.571457
616.296169	8185.288732
616.644454	8202.675672
616.992686	8197.276596
617.340864	8252.000842
617.688990	8154.010893
618.037063	8248.615707
618.385082	8198.488994
618.733048	8284.899412
619.080961	8221.784166
619.428821	8246.284173
619.776628	8243.085561
620.124382	8195.396246
620.472083	8175.962598
620.819731	8206.552319
621.167326	8097.434024
621.514868	8103.765713
621.862357	7998.559353
622.209793	8008.848348
622.557176	7945.551620
622.904506	7911.929645
623.251783	7850.490582
623.599007	7808.132287
623.946179	7810.204201
624.293297	7761.794001
624.640363	7682.042947
624.987376	7666.644743
625.334336	7612.361598
625.681243	7554.400932
626.028097	7548.447329
626.374899	7525.520161
626.721647	7516.655292
627.068343	7446.943696
627.414987	7424.921416
627.761577	7377.746298
628.108115	7415.146618
628.454600	7308.019578
628.801032	7363.293310
629.147412	7321.577762
629.493739	7306.361039
629.840014	7244.261585
630.186236	7303.974052
630.532405	7187.074736
630.878521	7233.360090
631.224585	7192.786363
631.570597	7113.345340
631.916556	7145.434805
632.262462	7148.794734
632.608316	7104.646829
632.954117	7085.142605
633.299866	7072.396048
633.645562	7060.390540
633.991206	6982.666030
634.336797	6929.330622
634.682336	6888.005763
635.027823	6852.170721
635.373257	6842.801737
635.718639	6770.695593
636.063968	6788.047244
636.409245	6679.811151
636.754470	6680.184196
637.099642	6635.287680
637.444762	6581.286840
637.789829	6590.280258
638.134845	6532.238934
638.479808	6518.002715
638.824719	6515.782087
639.169577	6447.361026
639.514383	6471.654347
639.859137	6398.416464
640.203839	6405.917701
640.548489	6391.759620
640.893086	6369.381938
641.237632	6345.396128
641.582125	6365.006217
641.926566	6329.120763
642.270955	6345.983422
642.615292	6342.981415
642.959576	6353.141861
643.303809	6338.552762
643.647990	6346.535429
643.992118	6343.430078
644.336195	6284.435975
644.680219	6316.558207
645.024192	6300.146731
645.368112	6402.593060
645.711981	6416.277272
646.055797	6498.347256
646.399562	6455.590710
646.743274	6580.666778
647.086935	6637.410006
647.430544	6626.705116
647.774101	6648.157746
648.117606	6659.018912
648.461059	6652.788046
648.804460	6606.106961
649.147810	6523.283324
649.491108	6490.311657
649.834354	6465.000024
650.177548	6379.459205
650.520690	6295.392923
650.863781	6272.032216
651.206820	6290.326563
651.549807	6219.006839
651.892742	6156.559546
652.235626	6161.457027
652.578458	6150.449668
652.921238	6061.601852
653.263967	6092.864567
653.606644	6032.700917
653.949269	6035.294590
654.291843	5976.895344
654.634365	6026.132293
654.976836	5983.272403
655.319255	5978.601774
655.661622	5961.066121
656.003938	5951.944153
656.346203	5911.854377
656.688416	5945.110869
657.030577	5902.303911
657.372687	5869.904415
657.714746	5856.494946
658.056753	5900.960443
658.398708	5836.988201
658.740612	5830.694320
659.082465	5875.109406
659.424266	5868.770155
659.766016	5872.709817
660.107715	5845.235529
660.449362	5853.860943
660.790958	5855.615264
661.132503	5838.480383
661.473996	5878.144181
661.815438	5868.409713
662.156829	5860.069124
662.498168	5850.831209
662.839456	5830.737170
663.180693	5868.291246
663.521879	5865.218663
663.863013	5855.015367
664.204097	5877.234253
664.545129	5916.288072
664.886110	5909.999232
665.227040	5944.954593
665.567918	5907.624849
665.908746	5942.388646
666.249522	5942.602895
666.590248	5923.673362
666.930922	5957.774247
667.271545	5965.255319
667.612118	5972.295291
667.952639	5944.863852
668.293109	5966.876050
668.633528	5924.570687
668.973896	5926.118322
669.314213	5921.162867
669.654480	5903.445732
669.994695	5893.900307
670.334859	5882.840016
670.674973	5874.300301
671.015035	5874.164190
671.355047	5878.096290
671.695008	5865.463158
672.034918	5834.084496
672.374777	5848.439182
672.714585	5828.942519
673.054342	5835.410320
673.394049	5828.193908
673.733705	5862.032653
674.073310	5850.221230
674.412864	5809.098017
674.752368	5799.098889
675.091820	5803.719106
675.431223	5740.719807
675.770574	5741.145784
676.109875	5692.702816
676.449125	5698.018713
676.788324	5669.321945
677.127473	5606.935145
677.466571	5604.754846
677.805619	5590.090130
678.144616	5574.893571
678.483562	5557.932609
678.822458	5524.232496
679.161303	5520.396178
679.500098	5506.908571
679.838842	5491.207897
680.177535	5493.751159
680.516179	5512.839488
680.854771	5522.523545
681.193314	5600.419454
681.531805	5707.780907
681.870247	5862.383013
682.208638	5965.600638
682.546978	5977.026414
682.885268	5958.548064
683.223508	5868.679415
683.561697	5815.838040
683.899836	5785.150016
684.237925	5741.735599
684.575963	5700.972829
684.913951	5661.661911
685.251889	5727.340584
685.589776	5693.131314
685.927614	5663.116284
686.265401	5734.645216
686.603137	5720.446806
686.940824	5793.321726
687.278460	5819.634029
687.616046	5827.833466
687.953582	5895.132869
688.291068	5877.400611
688.628504	5946.572803
688.965889	5902.339199
689.303224	5850.783318
689.640510	5800.583508
689.977745	5725.951746
690.314930	5626.512466
690.652065	5570.646399
690.989150	5480.588706
691.326185	5403.252365
691.663170	5348.757492
692.000105	5271.607674
692.336990	5192.529614
692.673825	5168.672353
693.010610	5103.833033
693.347345	5029.990211
693.684030	5020.530486
694.020665	4977.022808
694.357251	4883.781626
694.693786	4894.531887
695.030272	4861.900498
695.366707	4826.748532
695.703093	4791.248727
696.039429	4816.762006
696.375716	4798.485303
696.711952	4773.876910
697.048139	4758.322430
697.384276	4739.196292
697.720363	4750.264146
698.056400	4764.732257
698.392388	4708.503227
698.728326	4687.363149
699.064214	4669.562834
699.400053	4658.525228
699.735842	4627.746463
700.071581	4606.228298
700.407270	4580.120162
700.742910	4559.393458
701.078501	4507.353627
701.414042	4503.862628
701.749533	4478.737517
702.084974	4406.563318
702.420366	4466.046413
702.755709	4407.085077
703.091002	4352.617930
703.426246	4398.270620
703.761440	4356.522304
704.096584	4318.217097
704.431679	4339.185776
704.766725	4325.909897
705.101721	4316.104853
705.436668	4339.422710
705.771565	4289.217859
706.106413	4315.961180
706.441212	4349.898228
706.775961	4355.103219
707.110661	4335.215867
707.445311	4365.576216
707.779913	4389.791399
708.114465	4403.770518
708.448967	4423.715844
708.783421	4483.914782
709.117825	4528.576885
709.452180	4531.843553
709.786485	4573.720417
710.120742	4664.002442
710.454949	4645.766068
710.789107	4712.745358
711.123216	4789.292759
711.457275	4779.079381
711.791286	4852.859188
712.125247	4870.992219
712.459159	4771.946148
712.793023	4847.553374
713.126837	4806.455367
713.460602	4797.139315
713.794318	4715.404567
714.127985	4727.102564
714.461602	4643.217764
714.795171	4614.173157
715.128691	4547.564391
715.462162	4492.222604
715.795584	4445.501190
716.128957	4424.005710
716.462281	4376.465109
716.795556	4346.755068
717.128782	4305.878873
717.461960	4235.476638
717.795088	4251.520111
718.128167	4208.572000
718.461198	4145.171929
718.794180	4142.689161
719.127113	4124.742653
719.459997	4101.959158
719.792833	4059.983991
720.125619	4051.250192
720.458357	4014.664018
720.791046	4021.154503
721.123686	3994.534690
721.456278	3952.854430
721.788821	3967.564517
722.121315	3941.395888
722.453761	3914.816404
722.786158	3929.874331
723.118506	3951.432825
723.450805	3904.277872
723.783056	3922.952826
724.115259	3942.741876
724.447412	3944.297072
724.779518	3937.148716
725.111574	3942.825055
725.443582	3971.736072
725.775542	3958.508084
726.107453	4009.983306
726.439315	4010.857947
726.771129	4022.124925
727.102895	4059.847880
727.434612	4107.791773
727.766281	4119.457003
728.097901	4117.783340
728.429473	4123.973877
728.760996	4133.000063
729.092471	4126.696100
729.423897	4113.455510
729.755276	4116.699492
730.086606	4119.835090
730.417887	4156.088548
730.749120	4220.829566
731.080305	4282.434987
731.411442	4309.969769
731.742530	4284.060759
732.073570	4283.170995
732.404562	4337.557483
732.735506	4331.732430
733.066401	4294.473262
733.397249	4232.446905
733.728048	4148.756189
734.058798	4068.853901
734.389501	3999.164990
734.720156	3934.103859
735.050762	3891.788413
735.381320	3884.801374
735.711831	3830.661902
736.042293	3803.558139
736.372707	3824.693176
736.703073	3795.346099
737.033391	3786.191364
737.363661	3805.763643
737.693883	3828.322807
738.024056	3840.058613
738.354182	3836.849919
738.684260	3895.652458
739.014290	3918.977877
739.344272	3915.101229
739.674207	3958.765183
740.004093	3963.609732
740.333931	3958.399700
740.663722	3956.375676
740.993464	3955.170841
741.323159	3933.509002
741.652806	3904.396339
741.982405	3874.439282
742.311956	3841.888552
742.641460	3835.718180
742.970915	3812.556598
743.300323	3767.995319
743.629683	3735.714290
743.958996	3725.526118
744.288260	3698.840770
744.617477	3668.603930
744.946647	3653.266219
745.275768	3627.717651
745.604842	3623.437712
745.933869	3574.757810
746.262847	3567.669947
746.591778	3609.388016
746.920662	3579.488933
747.249498	3544.669683
747.578286	3592.225408
747.907027	3609.940022
748.235720	3607.177470
748.564365	3631.311994
748.892963	3632.050523
749.221514	3614.852627
749.550017	3590.539142
749.878473	3590.977722
750.206881	3559.732651
750.535242	3554.391548
750.863555	3558.507650
751.191821	3553.247206
751.520039	3533.521171
751.848210	3509.870598
752.176334	3544.692368
752.504411	3550.013306
752.832440	3513.580887
753.160421	3492.650016
753.488356	3500.549504
753.816243	3515.156248
754.144082	3471.633446
754.471875	3456.877989
754.799620	3478.126452
755.127318	3471.930874
755.454969	3467.837457
755.782572	3470.957931
756.110129	3450.921865
756.437638	3440.141358
756.765100	3452.348512
757.092515	3465.795790
757.419882	3470.511789
757.747203	3448.721402
758.074477	3444.696040
758.401703	3462.045171
758.728882	3483.457472
759.056014	3491.407372
759.383099	3494.351406
759.710138	3489.277484
760.037129	3508.426307
760.364073	3539.129455
760.690970	3518.962319
761.017820	3500.085718
761.344623	3520.474665
761.671379	3563.384967
761.998088	3613.536886
762.324751	3742.043459
762.651366	3989.271726
762.977935	4463.911484
763.304456	4907.222991
763.630931	5008.577910
763.957359	4650.502232
764.283740	4303.640600
764.610074	4111.179429
764.936362	3914.317330
765.262602	3755.969646
765.588796	3642.387409
765.914943	3550.961043
766.241044	3463.071046
766.567097	3434.954011
766.893104	3383.347719
767.219064	3355.961650
767.544978	3327.809327
767.870845	3272.860750
768.196665	3253.532966
768.522438	3260.489758
768.848165	3257.139912
769.173846	3218.010475
769.499479	3203.396170
769.825066	3185.207687
770.150607	3168.760923
770.476101	3185.139632
770.801548	3177.953467
771.126949	3133.548463
771.452303	3117.731843
771.777611	3123.461114
772.102872	3128.903040
772.428087	3105.960749
772.753256	3092.384922
773.078378	3086.895105
773.403453	3052.632903
773.728482	3041.650749
774.053465	3061.104562
774.378401	3047.962274
774.703291	3016.303828
775.028135	3019.136956
775.352932	3013.639578
775.677683	3002.344873
776.002388	2996.968482
776.327046	3000.325891
776.651658	2990.379694
776.976224	2976.060297
777.300743	2976.597179
777.625216	2968.884214
777.949643	2964.495890
778.274024	2968.478401
778.598359	2953.644806
778.922647	2960.052113
779.246889	2959.492544
779.571086	2942.455965
779.895236	2939.504369
780.219339	2948.051646
780.543397	2961.413224
780.867409	2966.310705
781.191374	2956.793007
781.515294	2953.291925
781.839167	2955.809982
782.162995	2944.779937
782.486776	2953.397789
782.810511	2949.574074
783.134201	2940.870522
783.457844	2944.754731
783.781441	2937.795418
784.104993	2915.649629
784.428498	2919.503592
784.751958	2931.940118
785.075372	2926.248655
785.398739	2908.370203
785.722061	2926.374684
786.045337	2937.392126
786.368568	2921.749426
786.691752	2913.098806
787.014891	2959.177472
787.337983	2991.796258
787.661030	3020.369518
787.984031	3086.025506
788.306987	3132.880510
788.629897	3125.817854
788.952760	3110.286059
789.275579	3094.839963
789.598351	3035.908875
789.921078	2992.650734
790.243759	2983.599342
790.566395	2963.298616
790.888984	2940.250460
791.211529	2923.067687
791.534027	2913.136614
791.856480	2905.002713
792.178888	2889.546535
792.501249	2878.990359
792.823566	2879.870040
793.145836	2875.572456
793.468062	2868.023328
793.790241	2866.634491
794.112375	2873.510624
794.434464	2888.858417
794.756507	2891.101731
795.078505	2897.849315
795.400457	2912.589649
795.722364	2949.879064
796.044226	2974.217755
796.366042	2977.280256
796.687812	2964.727783
797.009538	2982.170175
797.331218	2972.715491
797.652852	2954.365691
797.974442	2939.645522
798.295986	2933.812907
798.617484	2931.252001
798.938938	2915.929413
799.260346	2899.129768
799.581709	2892.677091
799.903026	2888.140053
800.224299	2881.538662
800.545526	2872.255377
800.866708	2856.108561
801.187845	2848.317458
801.508936	2847.783096
801.829983	2856.411031
802.150984	2840.549040
802.471940	2826.275013
802.792851	2827.973882
803.113717	2829.110662
803.434538	2831.996722
803.755314	2825.982626
804.076045	2822.015238
804.396731	2818.930052
804.717372	2822.025320
805.037967	2815.965853
805.358518	2823.046154
805.679024	2834.776919
805.999485	2830.106290
806.319901	2834.348421
806.640272	2825.244097
806.960598	2829.758450
807.280879	2841.776561
807.601115	2848.357787
807.921306	2835.603668
808.241453	2828.369612
808.561554	2838.792198
808.881611	2838.204903
809.201623	2834.363544
809.521590	2833.080571
809.841513	2829.700477
810.161390	2832.523523
810.481223	2827.220229
810.801011	2815.837304
811.120755	2812.280770
811.440453	2817.107675
811.760107	2813.185657
812.079716	2815.116419
812.399281	2804.537557
812.718801	2796.360806
813.038276	2792.441309
813.357707	2798.934315
813.677093	2804.605613
813.996434	2802.064872
814.315731	2797.706794
814.634983	2789.305711
814.954191	2792.025414
815.273354	2808.242806
815.592473	2815.935606
815.911547	2816.769917
816.230577	2823.207471
816.549562	2832.916733
816.868502	2835.003771
817.187399	2842.273115
817.506250	2859.748274
817.825058	2853.550176
818.143821	2864.910416
818.462539	2881.952037
818.781213	2908.357600
819.099843	2945.503343
819.418429	3004.832682
819.736970	3068.411714
820.055466	3139.504587
820.373919	3244.095926
820.692327	3388.383831
821.010691	3558.363977
821.329011	4009.942977
821.647286	4915.850926
821.965517	6312.495037
822.283704	7073.731953
822.601847	7053.857204
822.919945	6413.106386
823.237999	5900.128653
823.556010	5309.728879
823.873976	4748.711470
824.191897	4336.072863
824.509775	4032.426523
824.827609	3761.971140
825.145398	3638.349445
825.463144	3624.783700
825.780845	3712.658573
826.098502	3822.515398
826.416116	4105.170373
826.733685	4428.152059
827.051210	4494.493644
827.368692	4376.891086
827.686129	4104.552832
828.003522	3777.013943
828.320872	3516.809746
828.638177	3317.732060
828.955439	3179.241482
829.272656	3093.879624
829.589830	3026.650796
829.906960	2976.408136
830.224046	2929.815272
830.541088	2896.662123
830.858086	2879.731408
831.175041	2860.610312
831.491952	2863.355220
831.808819	2873.467775
832.125642	2899.033986
832.442421	2942.546706
832.759157	3033.050541
833.075849	3209.886656
833.392497	3492.390397
833.709101	3701.242880
834.025662	3651.642967
834.342179	3490.941065
834.658653	3311.239054
834.975083	3157.272133
835.291469	3060.252607
835.607811	2972.912096
835.924110	2914.187695
836.240366	2861.739530
836.556578	2818.292346
836.872746	2797.106897
837.188871	2774.993875
837.504952	2756.767584
837.820990	2749.503281
838.136984	2735.078019
838.452935	2727.864128
838.768842	2724.116030
839.084706	2742.826273
839.400526	2824.477842
839.716303	2957.171093
840.032037	3041.328115
840.347727	3021.622245
840.663373	2961.453553
840.978977	2886.907491
841.294537	2812.336222
841.610054	2761.438213
841.925527	2739.781416
842.240957	2720.572099
842.556344	2699.482432
842.871687	2679.332940
843.186987	2672.923113
843.502244	2667.922288
843.817458	2662.319046
844.132629	2650.706748
844.447756	2640.392547
844.762840	2632.490538
845.077881	2637.380458
845.392879	2637.060344
845.707833	2631.920888
846.022745	2622.705659
846.337613	2627.978706
846.652438	2625.168262
846.967221	2626.234467
847.281960	2623.895371
847.596656	2623.328241
847.911309	2621.112654
848.225919	2620.676594
848.540485	2615.569906
848.855009	2617.407406
849.169490	2617.241048
849.483928	2616.348764
849.798323	2615.537138
850.112675	2614.423043
850.426984	2613.775255
850.741251	2613.586212
851.055474	2613.087137
851.369654	2619.897736
851.683792	2616.207612
851.997887	2612.509925
852.311938	2615.834566
852.625947	2615.118722
852.939914	2616.752056
853.253837	2615.222066
853.567718	2611.698299
853.881555	2610.193515
854.195350	2615.527056
854.509103	2616.525204
854.822812	2612.215018
855.136479	2611.768876
855.450103	2614.231479
855.763685	2614.241562
856.077224	2612.827518
856.390720	2612.504884
856.704173	2614.528907
857.017584	2619.600308
857.330953	2616.850359
857.644278	2620.517798
857.957561	2620.548045
858.270802	2615.590070
858.584000	2617.437653
858.897155	2620.207767
859.210268	2619.136522
859.523339	2615.511932
859.836367	2612.066304
860.149352	2610.866509
860.462295	2614.223917
860.775195	2612.280553
861.088054	2609.318875
861.400869	2611.370624
861.713642	2607.219234
862.026373	2609.979266
862.339062	2610.430449
862.651708	2617.210801
862.964312	2617.876233
863.276873	2614.627210
863.589392	2616.666357
863.901869	2624.059209
864.214303	2625.402676
864.526696	2632.939201
864.839045	2630.191772
865.151353	2633.700415
865.463619	2634.522123
865.775842	2635.053965
866.088023	2636.838534
866.400162	2633.700415
866.712258	2637.864408
867.024313	2632.800569
867.336325	2627.446864
867.648296	2631.273100
867.960224	2636.805766
868.272110	2634.466671
868.583954	2628.644138
868.895755	2630.942904
869.207515	2635.336270
869.519233	2639.477578
869.830909	2636.072278
870.142542	2636.495735
870.454134	2634.144037
870.765684	2640.679893
871.077191	2642.585449
871.388657	2645.088382
871.700081	2643.049235
872.011463	2641.494039
872.322803	2646.988897
872.634101	2648.841521
872.945357	2657.361071
873.256571	2662.278717
873.567744	2660.118582
873.878874	2660.852070
874.189963	2659.191010
874.501010	2663.627225
874.812015	2668.784326
875.122979	2669.298523
875.433900	2658.187820
875.744780	2659.203613
876.055618	2663.022287
876.366415	2670.773061
876.677169	2669.212824
876.987882	2663.241577
877.298554	2662.929025
877.609183	2673.505366
877.919771	2680.028619
878.230317	2688.396935
878.540822	2696.155270
878.851285	2712.712940
879.161707	2736.544995
879.472087	2777.060748
879.782425	2826.118737
880.092722	2943.015533
880.402977	3136.797487
880.713191	3401.793301
881.023363	3705.679096
881.333494	3903.400711
881.643583	4078.003595
881.953631	4079.468050
882.263637	3895.213877
882.573602	3674.096267
882.883526	3536.555946
883.193408	3418.509767
883.503248	3314.465393
883.813048	3196.698997
884.122806	3079.640885
884.432522	2990.667040
884.742197	2926.041968
885.051831	2885.954713
885.361424	2845.938033
885.670975	2814.080462
885.980485	2780.075358
886.289954	2761.896958
886.599382	2747.655698
886.908768	2734.084912
887.218113	2715.972046
887.527417	2703.419573
887.836680	2693.798531
888.145901	2687.418951
888.455082	2681.102385
888.764221	2670.170643
889.073319	2662.591268
889.382376	2661.023469
889.691392	2660.771412
890.000366	2659.730413
890.309300	2659.642193
890.618193	2663.344921
890.927044	2664.272493
891.235855	2664.022956
891.544625	2663.143274
891.853353	2664.325425
892.162041	2672.766837
892.470687	2692.175279
892.779293	2704.684903
893.087858	2714.857951
893.396381	2740.479616
893.704864	2779.898918
894.013306	2851.523632
894.321707	2949.216152
894.630068	3000.814883
894.938387	3021.173582
895.246665	3014.262160
895.554903	2970.494863
895.863100	2924.277564
896.171256	2865.139788
896.479371	2800.217289
896.787446	2764.510796
897.095480	2744.948598
897.403473	2736.426528
897.711425	2720.705690
898.019336	2702.053420
898.327207	2687.429033
898.635038	2686.236800
898.942827	2681.936696
899.250576	2671.493946
899.558284	2661.920795
899.865952	2655.808396
900.173579	2653.925525
900.481165	2652.166162
900.788711	2644.690131
901.096216	2636.742752
901.403681	2634.408697
901.711105	2635.192597
902.018489	2632.500621
902.325832	2635.996661
902.633135	2638.439100
902.940397	2652.342602
903.247619	2690.219312
903.554800	2764.435179
903.861941	2894.585168
904.169041	3025.992925
904.476101	3089.372832
904.783121	3086.002821
905.090100	3025.340096
905.397039	2945.301696
905.703938	2869.235726
906.010796	2806.002013
906.317614	2751.181985
906.624391	2714.893239
906.931129	2685.447860
907.237826	2661.658655
907.544483	2645.312713
907.851099	2629.856536
908.157675	2617.979577
908.464211	2611.680655
908.770707	2599.962493
909.077163	2594.525609
909.383578	2594.828078
909.689954	2592.907398
909.996289	2592.640217
910.302584	2589.441605
910.608839	2588.682912
910.915054	2587.657037
911.221229	2591.208530
911.527363	2596.295054
911.833458	2588.539239
912.139513	2594.011411
912.445527	2595.692636
912.751502	2598.268666
913.057436	2605.233020
913.363331	2614.894391
913.669186	2623.003087
913.975000	2636.939357
914.280775	2655.727737
914.586510	2672.802125
914.892205	2712.319730
915.197859	2780.874381
915.503475	2868.285468
915.809050	2937.220727
916.114585	2954.670681
916.420081	2967.306333
916.725536	2980.592294
917.030952	2952.767645
917.336328	2902.772002
917.641665	2849.882736
917.946961	2802.228709
918.252218	2763.868049
918.557435	2736.817217
918.862612	2713.910214
919.167750	2692.301308
919.472848	2679.479133
919.777906	2661.094045
920.082925	2648.667601
920.387904	2635.522792
920.692843	2630.279992
920.997743	2628.644138
921.302603	2621.145422
921.607423	2613.737446
921.912204	2608.489605
922.216946	2605.417022
922.521647	2603.766044
922.826310	2599.720518
923.130932	2595.178438
923.435516	2588.171234
923.740059	2584.057653
924.044564	2581.562282
924.349028	2580.609504
924.653454	2573.030129
924.957840	2573.211610
925.262186	2567.497462
925.566493	2571.444686
925.870761	2564.245918
926.174989	2568.074675
926.479178	2564.470250
926.783328	2562.758778
927.087438	2562.491597
927.391509	2561.034703
927.695541	2560.069322
927.999533	2561.420352
928.303486	2554.909701
928.607400	2557.226112
928.911275	2555.955741
929.215110	2558.093190
929.518906	2558.171328
929.822663	2559.555125
930.126381	2553.069680
930.430060	2559.076215
930.733699	2554.907181
931.037299	2555.996070
931.340861	2557.591595
931.644383	2559.643345
931.947866	2556.167469
932.251309	2558.589744
932.554714	2556.734599
932.858080	2558.448591
933.161407	2555.565051
933.464694	2556.374157
933.767943	2552.535318
934.071153	2557.062274
934.374323	2553.462890
934.677455	2555.005483
934.980548	2552.628579
935.283602	2554.907181
935.586617	2551.151521
935.889593	2552.106820
936.192530	2553.442726
936.495428	2551.736295
936.798287	2554.415668
937.101108	2556.633776
937.403890	2556.989177
937.706632	2564.165260
938.009336	2565.692729
938.312002	2569.806311
938.614628	2571.926116
938.917216	2578.651015
939.219765	2579.896180
939.522275	2579.631520
939.824747	2577.647826
940.127179	2568.470405
940.429573	2569.466033
940.731929	2570.277659
941.034246	2564.422359
941.336524	2566.824468
941.638763	2565.475960
941.940964	2565.864129
942.243126	2564.185424
942.545250	2563.036041
942.847335	2565.460836
943.149381	2561.213664
943.451389	2560.079405
943.753359	2560.618808
944.055290	2558.400700
944.357182	2556.041440
944.659036	2557.130330
944.960851	2558.897254
945.262628	2555.529763
945.564367	2557.168138
945.866067	2555.877603
946.167729	2558.317521
946.469352	2559.066133
946.770937	2560.218036
947.072484	2559.290464
947.373992	2559.776935
947.675462	2558.960268
947.976893	2555.295350
948.278286	2553.230997
948.579641	2556.283416
948.880958	2552.671429
949.182236	2554.710576
949.483476	2552.079093
949.784678	2555.484393
950.085841	2553.009186
950.386967	2552.933569
950.688054	2554.226625
950.989103	2554.675288
951.290114	2556.207798
951.591087	2556.744681
951.892021	2557.112686
952.192917	2558.398180
952.493776	2561.904302
952.794596	2565.019735
953.095378	2560.333983
953.396122	2563.799776
953.696828	2561.304405
953.997496	2559.867676
954.298126	2557.208467
954.598718	2557.208468
954.899272	2553.246121
955.199788	2554.231666
955.500266	2551.446429
955.800706	2547.625234
956.101108	2543.015099
956.401472	2544.638350
956.701798	2543.279759
957.002087	2542.573998
957.302337	2544.086344
957.602550	2544.237579
957.902724	2544.323278
958.202861	2541.802701
958.502960	2542.967208
958.803022	2543.531817
959.103045	2541.782537
959.403031	2541.152393
959.702979	2541.936292
960.002889	2543.252033
960.302762	2539.400592
960.602596	2541.046528
960.902393	2541.222969
961.202153	2540.502084
961.501875	2539.261960
961.801559	2540.779347
962.101205	2536.703574
962.400814	2540.464275
962.700385	2539.647608
962.999918	2540.028215
963.299414	2536.083512
963.598873	2535.743234
963.898293	2537.426980
964.197677	2537.242978
964.497022	2537.419418
964.796331	2535.135775
965.095601	2538.316743
965.394835	2538.200797
965.694030	2535.029911
965.993189	2538.155427
966.292309	2535.733152
966.591393	2536.559901
966.890439	2536.832124
967.189447	2538.536034
967.488419	2535.546629
967.787353	2537.321116
968.086249	2535.186187
968.385108	2538.664583
968.683930	2538.571322
968.982714	2538.455375
969.281462	2536.796836
969.580172	2535.667617
969.878844	2538.594007
970.177480	2537.336239
970.476078	2534.450178
970.774639	2538.331867
971.073162	2537.996630
971.371649	2536.635519
971.670098	2532.746268
971.968510	2534.611495
972.266885	2535.251722
972.565223	2538.654501
972.863524	2538.339429
973.161788	2538.047042
973.460014	2541.026364
973.758204	2538.513348
974.056356	2540.484440
974.354471	2537.147196
974.652550	2537.996630
974.950591	2536.822041
975.248595	2539.057793
975.546563	2539.735828
975.844493	2538.546116
976.142386	2536.501928
976.440243	2538.344470
976.738062	2538.488143
977.035845	2536.070909
977.333590	2536.769109
977.631299	2536.728780
977.928971	2538.425128
978.226606	2538.775488
978.524204	2538.420087
978.821765	2536.307844
979.119290	2537.943698
979.416777	2537.492515
979.714228	2535.839016
980.011642	2538.712474
980.309020	2541.409491
980.606360	2536.317926
980.903664	2538.389840
981.200931	2535.934798
981.498162	2538.717515
981.795356	2541.613658
982.092513	2544.971067
982.389633	2546.296890
982.686717	2548.116747
982.983764	2554.004814
983.280775	2553.326779
983.577749	2554.551779
983.874686	2551.814433
984.171587	2546.927034
984.468451	2545.949050
984.765279	2542.637012
985.062070	2543.430994
985.358824	2541.301107
985.655543	2540.297917
985.952224	2537.933616
986.248869	2539.178781
986.545478	2532.169056
986.842050	2534.208203
987.138586	2530.860877
987.435086	2531.289375
987.731549	2534.031763
988.027975	2532.988244
988.324366	2533.741896
988.620719	2533.741896
988.917037	2532.123686
989.213318	2534.082174
989.509563	2533.336083
989.805772	2533.515044
990.101944	2532.738707
990.398080	2534.377082
990.694180	2534.462781
990.990244	2533.268028
991.286271	2532.017822
991.582262	2533.383974
991.878217	2533.230219
992.174136	2532.085877
992.470019	2532.728624
992.765865	2532.116124
993.061676	2532.804242
993.357450	2537.127031
993.653188	2531.299457
993.948890	2534.230888
994.244556	2533.860363
994.540186	2532.055630
994.835780	2533.837678
995.131337	2533.878008
995.426859	2535.178625
995.722345	2536.297761
996.017795	2538.233564
996.313208	2539.793802
996.608586	2536.998482
996.903928	2537.346321
997.199234	2535.448327
997.494504	2537.525282
997.789738	2538.205838
998.084936	2534.969417
998.380099	2535.082843
998.675225	2532.920188
998.970316	2534.450178
999.265371	2535.619726
999.560390	2534.361958
999.855373	2535.939839
1000.150320	2533.245343
1000.445232	2534.253573
1000.740108	2532.141330
1001.034948	2532.574869
1001.329752	2534.293903
1001.624521	2531.911958
1001.919254	2528.811648
1002.213951	2530.180321
1002.508613	2527.165711
1002.803239	2528.121010
1003.097829	2526.500279
1003.392384	2534.561084
1003.686903	2530.084539
1003.981386	2533.449509
1004.275834	2532.285003
1004.570246	2534.046886
1004.864623	2527.632018
1005.158964	2535.289531
1005.453270	2530.840712
1005.747540	2532.365661
1006.041775	2531.652338
1006.335974	2529.648479
1006.630138	2530.775177
1006.924266	2530.686957
1007.218359	2528.962883
1007.512416	2530.487832
1007.806438	2528.688140
1008.100425	2531.806093
1008.394376	2527.788294
1008.688292	2533.225178
1008.982172	2531.806093
1009.276017	2530.084539
1009.569827	2532.857174
1009.863602	2531.949766
1010.157341	2531.286854
1010.451045	2532.743748
1010.744714	2530.444982
1011.038347	2534.293903
1011.331945	2531.067564
1011.625508	2532.252235
1011.919036	2529.741741
1012.212528	2531.551515
1012.505986	2530.404653
1012.799408	2530.525640
1013.092795	2529.235105
1013.386147	2532.355579
1013.679464	2532.635363
1013.972745	2530.477749
1014.265992	2531.337266
1014.559204	2531.995137
1014.852380	2532.390867
1015.145521	2529.409025
1015.438628	2529.998840
1015.731699	2529.945908
1016.024736	2531.193593
1016.317737	2529.824920
1016.610703	2531.387677
1016.903635	2529.996319
1017.196531	2525.267717
1017.489393	2529.870290
1017.782219	2523.503313
1018.075011	2529.214940
1018.367768	2527.624456
1018.660490	2532.544622
1018.953177	2532.544622
1019.245829	2532.544622
