Dividing Wavelength (nm)	Counts (n)	Blue Motor Position (mm): 18.800000	Red Motor Position (mm): 0.000000	
326.493990	2135.195835
326.888308	2135.195835
327.282561	2135.195835
327.676750	2101.921699
328.070874	2102.471185
328.464933	2103.103850
328.858929	2112.898812
329.252859	2119.396859
329.646726	2131.495628
330.040528	2143.740591
330.434265	2161.747592
330.827938	2180.483041
331.221547	2195.195648
331.615091	2215.342619
332.008571	2236.064282
332.401986	2257.995822
332.795338	2273.245313
333.188625	2294.453447
333.581847	2310.360808
333.975006	2328.123313
334.368100	2348.794565
334.761129	2368.470188
335.154095	2380.077445
335.546996	2401.693913
335.939833	2423.552356
336.332606	2437.637339
336.725315	2451.392128
337.117960	2459.967130
337.510540	2465.847636
337.903056	2480.240131
338.295508	2488.157263
338.687896	2494.982985
339.080220	2504.016733
339.472480	2510.103926
339.864676	2516.609535
340.256807	2517.126253
340.648875	2523.901564
341.040879	2524.098169
341.432818	2526.510361
341.824694	2527.626977
342.216506	2528.438602
342.608253	2525.643283
342.999937	2529.789632
343.391557	2530.205527
343.783113	2524.660258
344.174605	2526.210413
344.566033	2523.987264
344.957397	2521.983405
345.348697	2520.055164
345.739934	2520.574403
346.131106	2518.298322
346.522215	2516.722961
346.913260	2512.511077
347.304241	2512.039729
347.695159	2512.165758
348.086012	2507.028822
348.476802	2507.288442
348.867528	2502.758965
349.258191	2503.946157
349.648789	2500.324088
350.039324	2503.469768
350.429796	2501.924654
350.820203	2496.863335
351.210548	2495.088849
351.600828	2494.509117
351.991045	2493.266472
352.381198	2493.692450
352.771288	2496.666730
353.161314	2496.296206
353.551276	2494.806545
353.941175	2494.100783
354.331010	2494.579693
354.720782	2493.536174
355.110490	2495.446771
355.500135	2495.282934
355.889717	2493.926863
356.279235	2496.258397
356.668689	2496.402070
357.058080	2492.061636
357.447408	2491.988540
357.836672	2492.979126
358.225873	2493.841164
358.615010	2491.928046
359.004084	2496.530619
359.393095	2496.316370
359.782043	2500.918944
360.170927	2496.021463
360.559748	2500.107318
360.948505	2497.871566
361.337199	2501.808707
361.725830	2502.050683
362.114398	2500.866012
362.502903	2500.276197
362.891344	2503.807525
363.279722	2503.154695
363.668037	2503.547905
364.056289	2502.703512
364.444478	2504.901455
364.832603	2502.827020
365.220665	2503.300889
365.608665	2504.213338
365.996601	2506.522186
366.384474	2505.332474
366.772284	2503.825169
367.160031	2504.828358
367.547715	2506.842299
367.935336	2507.752228
368.322893	2509.519152
368.710388	2506.038235
369.097820	2512.445542
369.485189	2509.433452
369.872495	2508.982269
370.259738	2510.108967
370.646918	2506.985972
371.034035	2508.508401
371.421090	2508.430263
371.808081	2506.905314
372.195010	2508.488236
372.581875	2509.657784
372.968678	2509.957733
373.355418	2510.761797
373.742096	2508.011847
374.128710	2509.110819
374.515262	2510.489574
374.901751	2510.121570
375.288177	2513.741118
375.674540	2509.597290
376.060841	2511.933865
376.447079	2511.160048
376.833254	2508.652074
377.219367	2508.566374
377.605417	2508.039573
377.991404	2511.044101
378.377329	2509.299862
378.763191	2508.828514
379.148991	2513.572240
379.534727	2511.265912
379.920402	2512.470748
380.306013	2515.077024
380.691563	2515.641633
381.077049	2515.865965
381.462474	2515.513084
381.847835	2514.462003
382.233134	2515.371932
382.618371	2516.327230
383.003545	2515.177847
383.388657	2514.893022
383.773706	2516.959895
384.158693	2516.382683
384.543618	2513.904956
384.928480	2516.997704
385.313280	2516.919566
385.698017	2517.834535
386.082692	2519.472910
386.467305	2518.996521
386.851856	2517.282529
387.236344	2519.430061
387.620770	2519.490554
388.005133	2518.066428
388.389435	2519.929135
388.773674	2518.875534
389.157851	2517.779083
389.541965	2523.599095
389.926018	2519.283867
390.310008	2520.365195
390.693936	2519.755215
391.077802	2517.978208
391.461606	2520.138343
391.845348	2520.486182
392.229027	2521.113806
392.612645	2520.970133
392.996200	2522.119516
393.379694	2519.964423
393.763125	2522.671523
394.146494	2522.555576
394.529801	2521.837212
394.913047	2522.371574
395.296230	2521.738909
395.679351	2521.401152
396.062410	2522.457273
396.445408	2524.526667
396.828343	2526.056657
397.211217	2519.140194
397.594028	2519.760256
397.976778	2519.840915
398.359466	2523.178158
398.742092	2521.020545
399.124656	2524.128416
399.507158	2523.485669
399.889598	2523.979702
400.271977	2523.672192
400.654294	2526.313756
401.036549	2524.509023
401.418742	2524.408200
401.800874	2525.623118
402.182944	2528.438603
402.564952	2524.435926
402.946898	2526.346524
403.328783	2523.785617
403.710606	2525.774353
404.092367	2525.091276
404.474067	2530.266021
404.855705	2525.648324
405.237282	2527.465660
405.618797	2523.833508
406.000250	2529.240146
406.381642	2525.229908
406.762972	2526.112110
407.144240	2527.584127
407.525447	2530.001360
407.906593	2530.069416
408.287677	2526.817872
408.668700	2526.099507
409.049661	2527.982378
409.430560	2529.308202
409.811399	2531.289375
410.192176	2531.269210
410.572891	2527.994981
410.953545	2528.857018
411.334138	2528.524302
411.714669	2531.017153
412.095139	2531.644776
412.475547	2529.383819
412.855894	2529.527492
413.236180	2533.003367
413.616405	2532.327853
413.996568	2527.760567
414.376670	2528.841895
414.756711	2531.206196
415.136691	2530.301309
415.516609	2531.428007
415.896466	2532.189221
416.276262	2535.266845
416.655997	2528.103366
417.035670	2527.473222
417.415283	2530.104704
417.794834	2527.352234
418.174324	2530.777698
418.553753	2530.215609
418.933121	2531.982534
419.312428	2531.428007
419.691674	2530.142513
420.070859	2532.658048
420.449983	2531.485980
420.829045	2532.542102
421.208047	2531.584283
421.586988	2533.041176
421.965867	2536.385982
422.344686	2531.735517
422.723444	2530.964221
423.102141	2532.673172
423.480777	2533.825075
423.859352	2533.462112
424.237866	2532.796680
424.616319	2535.413039
424.994712	2536.852288
425.373044	2534.069571
425.751314	2535.246681
426.129524	2534.510672
426.507673	2533.520086
426.885762	2534.278779
427.263789	2535.208872
427.641756	2534.505631
428.019662	2531.196114
428.397508	2537.827752
428.775292	2532.627801
429.153016	2534.767771
429.530679	2538.785571
429.908282	2533.464633
430.285824	2535.380271
430.663305	2537.071578
431.040726	2536.693492
431.418086	2536.499408
431.795385	2535.813811
432.172624	2534.891279
432.549802	2539.519059
432.926920	2537.222813
433.303977	2538.944367
433.680974	2537.830272
434.057910	2541.114584
434.434786	2538.783050
434.811601	2537.898328
435.188355	2536.713657
435.565050	2537.810107
435.941683	2539.544264
436.318257	2533.636032
436.694770	2535.188708
437.071222	2535.687782
437.447614	2535.798687
437.823946	2534.354397
438.200218	2537.056455
438.576429	2539.277083
438.952580	2538.614172
439.328670	2538.420087
439.704700	2540.504604
440.080670	2540.149203
440.456580	2538.546116
440.832429	2539.566950
441.208218	2538.062165
441.583947	2538.594007
441.959616	2540.585263
442.335224	2539.541744
442.710773	2538.034439
443.086261	2540.860006
443.461689	2540.257588
443.837057	2542.243802
444.212365	2540.975952
444.587612	2540.885211
444.962800	2543.443597
445.337927	2540.242464
445.712995	2538.750283
446.088002	2543.466282
446.462949	2540.991076
446.837837	2542.566436
447.212664	2542.067362
447.587431	2539.962680
447.962139	2544.837476
448.336786	2546.022147
448.711374	2540.917979
449.085901	2543.630120
449.460369	2539.461085
449.834776	2544.560213
450.209124	2542.631971
450.583412	2541.837989
450.957640	2542.415202
451.331808	2541.117104
451.705917	2543.050387
452.079965	2546.095244
452.453954	2544.033412
452.827883	2543.804039
453.201752	2542.586601
453.575562	2543.657846
453.949311	2542.760521
454.323001	2544.953422
454.696632	2540.829759
455.070202	2542.364790
455.443713	2546.349822
455.817164	2542.208514
456.190556	2541.439738
456.563888	2542.478216
456.937160	2538.299099
457.310373	2542.316899
457.683526	2545.462579
458.056619	2545.013916
458.429653	2543.473844
458.802628	2543.133566
459.175542	2543.914945
459.548398	2546.858979
459.921194	2544.519883
460.293930	2546.609442
460.666607	2544.761859
461.039224	2546.455686
461.411782	2547.380738
461.784280	2546.536345
462.156719	2546.064997
462.529099	2547.237065
462.901419	2547.970553
463.273680	2546.622044
463.645882	2545.117260
464.018024	2547.105995
464.390106	2545.079451
464.762130	2546.105326
465.134094	2546.949719
465.505999	2547.254709
465.877845	2550.339895
466.249631	2548.182282
466.621358	2550.423074
466.993026	2549.230842
467.364634	2553.672098
467.736184	2549.651778
468.107674	2549.704710
468.479105	2545.906201
468.850477	2546.765717
469.221790	2549.694628
469.593043	2546.649771
469.964238	2546.644730
470.335373	2547.000131
470.706449	2549.505584
471.077467	2549.742519
471.448425	2548.482230
471.819324	2548.467107
472.190164	2552.676470
472.560945	2548.585574
472.931667	2549.891233
473.302330	2550.289484
473.672934	2550.418033
474.043479	2550.642365
474.413965	2552.061449
474.784393	2547.695810
475.154761	2547.869730
475.525070	2548.651109
475.895321	2550.128167
476.265513	2547.118598
476.635645	2552.338713
477.005719	2552.202602
477.375734	2552.729402
477.745691	2552.439536
478.115588	2554.297201
478.485427	2551.890050
478.855207	2554.743343
479.224928	2554.395504
479.594591	2553.641851
479.964194	2552.961295
480.333739	2554.357695
480.703226	2553.523384
481.072653	2555.595298
481.442022	2554.133364
481.811333	2553.714948
482.180584	2556.565720
482.549777	2555.439023
482.918912	2554.982798
483.287988	2556.772408
483.657005	2557.752912
484.025964	2553.578837
484.394864	2556.540515
484.763706	2553.770401
485.132489	2555.197047
485.501213	2555.214691
485.869879	2556.162428
486.238487	2555.287788
486.607036	2558.655279
486.975527	2560.326421
487.343959	2558.438509
487.712333	2556.890875
488.080648	2557.924311
488.448905	2559.834909
488.817104	2556.175031
489.185244	2562.652914
489.553326	2559.436657
489.921350	2559.746688
490.289315	2563.066288
490.657222	2563.845147
491.025070	2563.731721
491.392861	2565.932184
491.760593	2563.542677
492.128267	2564.034190
492.495883	2565.518810
492.863440	2567.832699
493.230939	2564.213151
493.598380	2568.246074
493.965763	2560.606205
494.333088	2564.893707
494.700354	2564.785322
495.067563	2566.879921
495.434713	2564.147616
495.801805	2569.960066
496.168839	2570.814542
496.535815	2571.890828
496.902733	2574.895356
497.269593	2577.874678
497.636395	2577.496591
498.003139	2576.662280
498.369825	2581.554720
498.736453	2582.268043
499.103023	2585.655699
499.469535	2587.026892
499.835989	2588.027562
500.202385	2594.369333
500.568723	2592.993098
500.935003	2597.071392
501.301226	2600.426279
501.667390	2602.949377
502.033497	2610.881632
502.399546	2616.817591
502.765537	2616.290791
503.131470	2622.466204
503.497345	2627.595578
503.863163	2631.676392
504.228923	2636.359624
504.594625	2645.738691
504.960269	2646.615852
505.325856	2656.539363
505.691385	2657.792090
506.056856	2666.520847
506.422270	2676.761952
506.787625	2682.677746
507.152924	2690.519260
507.518164	2695.028572
507.883347	2701.889583
508.248472	2707.959132
508.613540	2722.321379
508.978550	2728.469067
509.343503	2738.548854
509.708398	2753.442943
510.073236	2765.564397
510.438016	2775.429935
510.802738	2785.567696
511.167403	2798.702422
511.532010	2811.612817
511.896561	2830.436485
512.261053	2845.927951
512.625488	2850.767459
512.989866	2864.597864
513.354186	2877.117570
513.718449	2890.244735
514.082655	2914.717016
514.446803	2928.489448
514.810894	2951.139353
515.174927	2967.311374
515.538904	2981.839979
515.902822	3010.244361
516.266684	3022.471679
516.630488	3042.724515
516.994235	3061.500293
517.357925	3088.246134
517.721558	3111.846296
518.085133	3137.767909
518.448651	3161.857063
518.812112	3176.272242
519.175516	3201.709904
519.538863	3240.799011
519.902152	3258.044799
520.265385	3296.909574
520.628560	3312.360711
520.991678	3347.096781
521.354739	3375.854043
521.717743	3398.090573
522.080690	3423.124943
522.443580	3476.094867
522.806413	3502.752489
523.169189	3536.404711
523.531908	3577.530444
523.894569	3594.052826
524.257174	3630.129843
524.619722	3680.090199
524.982213	3699.715411
525.344647	3755.662136
525.707025	3780.388996
526.069345	3830.475380
526.431608	3865.884444
526.793815	3917.284049
527.155964	3929.256789
527.518057	3969.880927
527.880093	4008.221423
528.242072	4051.905542
528.603995	4091.034978
528.965860	4111.771764
529.327669	4166.755629
529.689421	4199.422306
530.051117	4232.807348
530.412755	4308.444820
530.774337	4319.792457
531.135862	4374.446127
531.497331	4412.670676
531.858743	4431.708593
532.220098	4513.395450
532.581396	4527.568654
532.942638	4575.285696
533.303824	4612.839771
533.664953	4673.946118
534.026025	4693.740208
534.387040	4773.264410
534.747999	4817.198066
535.108902	4887.907810
535.469748	4868.839646
535.830537	4947.116162
536.191270	4989.958408
536.551947	5050.706833
536.912567	5098.809523
537.273131	5123.755673
537.633638	5167.044061
537.994089	5221.468357
538.354483	5255.682669
538.714821	5345.747923
539.075103	5407.149177
539.435328	5452.436383
539.795497	5435.939207
540.155609	5550.259973
540.515665	5628.685203
540.875665	5593.669349
541.235609	5673.730434
541.595496	5717.361620
541.955328	5840.476679
542.315102	5843.982802
542.674821	5878.623091
543.034483	5925.455410
543.394090	5984.010932
543.753640	6008.563872
544.113134	6155.286655
544.472571	6149.706098
544.831953	6269.380569
545.191278	6234.747842
545.550548	6292.930319
545.909761	6407.258647
546.268918	6456.341842
546.628019	6548.645369
546.987064	6539.813267
547.346053	6548.355502
547.704986	6662.706516
548.063863	6705.720161
548.422684	6746.989567
548.781449	6760.436845
549.140158	6863.422577
549.498811	6853.980496
549.857408	6829.480488
550.215949	7006.561099
550.574434	6975.631100
550.932864	7087.196875
551.291237	7159.033318
551.649555	7203.607200
552.007817	7250.782318
552.366022	7278.440608
552.724173	7330.515727
553.082267	7363.605861
553.440305	7511.470465
553.798288	7423.066271
554.156215	7584.264727
554.514086	7620.997094
554.871902	7566.739156
555.229661	7644.120867
555.587365	7680.797782
555.945014	7649.736713
556.302606	7795.713404
556.660143	7761.937674
557.017625	7921.255779
557.375050	7896.360041
557.732421	8028.017335
558.089735	8024.811162
558.446994	8062.985299
558.804197	8136.122359
559.161345	8190.909619
559.518437	8117.049153
559.875474	8231.014518
560.232455	8298.064385
560.589381	8293.784446
560.946251	8353.199485
561.303065	8449.223383
561.659825	8455.986091
562.016528	8450.508878
562.373177	8387.383549
562.729770	8527.883027
563.086307	8497.331114
563.442789	8599.243081
563.799216	8562.238491
564.155587	8631.856825
564.511904	8633.175087
564.868164	8659.620980
565.224370	8701.399543
565.580520	8692.569962
565.936615	8717.299342
566.292654	8661.282040
566.648638	8796.740365
567.004567	8794.809603
567.360441	8817.938417
567.716260	8785.170917
568.072023	8885.018530
568.427732	8882.157676
568.783385	8827.965272
569.138982	8922.423892
569.494525	8963.799162
569.850013	8895.005056
570.205445	8995.288730
570.560823	8926.925642
570.916145	8890.891475
571.271412	8977.952202
571.626625	8953.129560
571.981782	8962.483421
572.336884	8969.926685
572.691931	8989.665323
573.046923	8974.700657
573.401860	8959.960323
573.756743	8933.683309
574.111570	8987.212801
574.466342	9002.442127
574.821059	9056.929438
575.175722	8972.076737
575.530330	9007.775668
575.884882	9018.394858
576.239380	8973.057241
576.593823	8973.314340
576.948211	9007.931943
577.302544	8915.048684
577.656823	8953.157286
578.011047	8969.457857
578.365216	8966.965007
578.719330	8911.262777
579.073389	8935.062065
579.427394	8907.980986
579.781344	8901.475377
580.135239	8868.564204
580.489080	8890.778049
580.842866	8807.251171
581.196597	8832.116662
581.550273	8883.586843
581.903895	8863.734779
582.257463	8932.894368
582.610975	8840.096808
582.964434	8875.836069
583.317837	8809.643198
583.671186	8800.039800
584.024481	8815.175864
584.377721	8748.922500
584.730906	8736.039831
585.084037	8774.561808
585.437113	8724.036844
585.790135	8754.790403
586.143103	8670.535078
586.496016	8653.279209
586.848874	8715.928148
587.201679	8719.101554
587.554428	8615.087427
587.907124	8668.828648
588.259765	8645.772931
588.612352	8657.990167
588.964884	8544.962457
589.317362	8568.234943
589.669786	8574.783402
590.022155	8623.377605
590.374470	8648.795102
590.726731	8592.513140
591.078937	8464.898851
591.431090	8574.755676
591.783188	8453.531049
592.135232	8456.631359
592.487222	8464.145199
592.839157	8513.150255
593.191038	8454.430895
593.542866	8404.150427
593.894639	8312.018299
594.246358	8368.743883
594.598022	8392.326400
594.949633	8296.191597
595.301190	8273.420705
595.652692	8308.113925
596.004141	8418.903363
596.355535	8208.745221
596.706876	8189.863580
597.058162	8132.656566
597.409395	8204.747586
597.760573	8266.927698
598.111698	8182.894184
598.462768	8171.428080
598.813785	8138.196794
599.164748	8115.047815
599.515657	8107.110519
599.866511	8020.677415
600.217312	8139.041187
600.568060	8011.121908
600.918753	8114.450439
601.269392	8084.614370
601.619978	8002.131010
601.970510	8064.608551
602.320988	8066.115856
602.671412	8122.183569
603.021783	8066.854385
603.372100	8041.588122
603.722363	8040.514356
604.072572	8019.515429
604.422728	8030.608488
604.772830	7964.750855
605.122878	7968.768654
605.472872	7970.386865
605.822813	7996.316039
606.172701	7936.250691
606.522534	8018.590378
606.872314	8017.388062
607.222041	7990.256572
607.571714	8044.653143
607.921333	8010.022937
608.270899	8009.909511
608.620411	8102.886032
608.969870	8005.450610
609.319276	7997.939291
609.668627	8023.041717
610.017926	8052.257724
610.367171	8104.670600
610.716362	8081.375428
611.065500	8065.042090
611.414585	8100.425949
611.763616	8084.359791
612.112594	8072.989469
612.461518	8086.192251
612.810389	8144.914131
613.159207	8089.484124
613.507971	8036.635188
613.856682	8149.889750
614.205340	8110.319213
614.553945	8185.497940
614.902496	8086.212415
615.250994	8144.467989
615.599439	8124.389073
615.947830	8135.915672
616.296169	8112.832228
616.644454	8124.263045
616.992686	8123.852191
617.340864	8181.512908
617.688990	8085.289884
618.037063	8174.014192
618.385082	8130.345197
618.733048	8207.442083
619.080961	8147.356570
619.428821	8169.336001
619.776628	8169.257863
620.124382	8117.873382
620.472083	8106.891228
620.819731	8136.568501
621.167326	8030.908437
621.514868	8035.649642
621.862357	7931.448992
622.209793	7945.400386
622.557176	7879.396558
622.904506	7848.476641
623.251783	7786.208309
623.599007	7746.874706
623.946179	7741.929334
624.293297	7701.481636
624.640363	7626.151674
624.987376	7605.437573
625.334336	7552.223153
625.681243	7504.274218
626.028097	7491.482290
626.374899	7467.390616
626.721647	7463.433310
627.068343	7390.903709
627.414987	7371.026440
627.761577	7317.766649
628.108115	7361.712908
628.454600	7253.401197
628.801032	7299.474823
629.147412	7265.855368
629.493739	7254.154850
629.840014	7190.273348
630.186236	7250.820126
630.532405	7128.453678
630.878521	7182.895619
631.224585	7138.480533
631.570597	7064.221817
631.916556	7094.057886
632.262462	7093.405056
632.608316	7051.558438
632.954117	7033.498505
633.299866	7017.056781
633.645562	7011.140987
633.991206	6935.236334
634.336797	6874.906325
634.682336	6835.474420
635.027823	6800.740870
635.373257	6790.441793
635.718639	6719.618622
636.063968	6736.166210
636.409245	6635.012937
636.754470	6630.801053
637.099642	6587.913437
637.444762	6533.768924
637.789829	6540.309821
638.134845	6486.034238
638.479808	6472.728112
638.824719	6477.008052
639.169577	6408.266878
639.514383	6433.548265
639.859137	6353.373754
640.203839	6363.629982
640.548489	6351.692529
640.893086	6328.810732
641.237632	6298.888963
641.582125	6323.023487
641.926566	6286.444875
642.270955	6299.035157
642.615292	6301.636392
642.959576	6313.631818
643.303809	6304.240148
643.647990	6309.283822
643.992118	6299.844262
644.336195	6245.820737
644.680219	6267.749756
645.024192	6259.900679
645.368112	6360.012954
645.711981	6379.260079
646.055797	6453.506193
646.399562	6413.078660
646.743274	6535.813112
647.086935	6587.709270
647.430544	6580.404638
647.774101	6602.941116
648.117606	6613.068794
648.461059	6609.585357
648.804460	6566.191105
649.147810	6473.411189
649.491108	6442.387928
649.834354	6416.189052
650.177548	6338.678791
650.520690	6250.940028
650.863781	6229.684003
651.206820	6249.619246
651.549807	6171.491444
651.892742	6110.289316
652.235626	6122.793898
652.578458	6111.131188
652.921238	6008.954562
653.263967	6049.203134
653.606644	5994.506615
653.949269	5996.359239
654.291843	5937.032420
654.634365	5986.307178
654.976836	5940.218429
655.319255	5942.048368
655.661622	5920.363844
656.003938	5915.398308
656.346203	5876.639397
656.688416	5913.220529
657.030577	5864.003744
657.372687	5828.216593
657.714746	5818.779553
658.056753	5862.554413
658.398708	5805.460825
658.740612	5790.523886
659.082465	5841.568089
659.424266	5830.719526
659.766016	5829.187015
660.107715	5807.976361
660.449362	5822.424308
660.790958	5814.355941
661.132503	5800.762469
661.473996	5837.033571
661.815438	5827.130225
662.156829	5818.497249
662.498168	5814.676054
662.839456	5789.130007
663.180693	5827.125183
663.521879	5829.512170
663.863013	5818.247712
664.204097	5835.659857
664.545129	5876.629314
664.886110	5873.914653
665.227040	5903.569240
665.567918	5871.883068
665.908746	5894.409464
666.249522	5899.944651
666.590248	5887.135079
666.930922	5914.390077
667.271545	5931.293066
667.612118	5932.114774
667.952639	5905.568058
668.293109	5925.906593
668.633528	5883.863370
668.973896	5891.001644
669.314213	5880.677361
669.654480	5863.930648
669.994695	5851.801632
670.334859	5849.240725
670.674973	5834.190361
671.015035	5842.359550
671.355047	5841.810065
671.695008	5821.726108
672.034918	5799.855062
672.374777	5808.697246
672.714585	5796.328775
673.054342	5801.236338
673.394049	5789.460203
673.733705	5824.155944
674.073310	5812.916691
674.412864	5770.570999
674.752368	5759.384679
675.091820	5763.488178
675.431223	5703.299322
675.770574	5701.184557
676.109875	5653.585983
676.449125	5662.463455
676.788324	5629.194360
677.127473	5572.214198
677.466571	5559.601231
677.805619	5550.053286
678.144616	5536.802613
678.483562	5520.910375
678.822458	5488.157999
679.161303	5479.802286
679.500098	5471.534794
679.838842	5449.988902
680.177535	5459.292352
680.516179	5476.018900
680.854771	5487.598431
681.193314	5564.723043
681.531805	5673.662378
681.870247	5822.678886
682.208638	5921.346869
682.546978	5933.266678
682.885268	5913.951497
683.223508	5830.986707
683.561697	5773.981340
683.899836	5745.052678
684.237925	5701.290422
684.575963	5666.072921
684.913951	5624.896776
685.251889	5688.180901
685.589776	5654.387526
685.927614	5628.987673
686.265401	5695.409916
686.603137	5680.493142
686.940824	5756.410398
687.278460	5779.453512
687.616046	5788.043638
687.953582	5854.400346
688.291068	5837.779662
688.628504	5902.697121
688.965889	5860.729515
689.303224	5808.074663
689.640510	5764.551861
689.977745	5684.531106
690.314930	5591.030305
690.652065	5529.941602
690.989150	5438.779897
691.326185	5366.131829
691.663170	5314.276000
692.000105	5237.978136
692.336990	5160.790509
692.673825	5137.744874
693.010610	5067.181323
693.347345	4998.538452
693.684030	4986.094364
694.020665	4943.700781
694.357251	4853.201987
694.693786	4864.705900
695.030272	4834.529553
695.366707	4797.671157
695.703093	4760.764869
696.039429	4785.196821
696.375716	4768.460191
696.711952	4743.481273
697.048139	4733.993822
697.384276	4713.988003
697.720363	4723.125094
698.056400	4732.005087
698.392388	4681.926264
698.728326	4662.162421
699.064214	4639.212568
699.400053	4634.128564
699.735842	4599.795786
700.071581	4575.628494
700.407270	4551.609917
700.742910	4530.956309
701.078501	4477.343638
701.414042	4476.970593
701.749533	4449.655101
702.084974	4387.732088
702.420366	4442.456333
702.755709	4382.408629
703.091002	4326.502233
703.426246	4375.696333
703.761440	4334.835260
704.096584	4292.907984
704.431679	4309.284172
704.766725	4302.854180
705.101721	4287.425729
705.436668	4317.569308
705.771565	4263.223149
706.106413	4289.779948
706.441212	4326.550124
706.775961	4330.630938
707.110661	4312.190397
707.445311	4343.317002
707.779913	4366.768449
708.114465	4374.161301
708.448967	4400.995363
708.783421	4457.897387
709.117825	4502.312473
709.452180	4505.904295
709.786485	4550.631933
710.120742	4635.111589
710.454949	4619.536944
710.789107	4689.099826
711.123216	4759.600363
711.457275	4752.109208
711.791286	4823.572605
712.125247	4841.035162
712.459159	4740.103700
712.793023	4818.281914
713.126837	4778.542498
713.460602	4772.314153
713.794318	4687.342984
714.127985	4696.472514
714.461602	4612.451602
714.795171	4584.561419
715.128691	4514.280172
715.462162	4464.445846
715.795584	4413.910799
716.128957	4396.526380
716.462281	4347.667517
716.795556	4317.846572
717.128782	4282.739976
717.461960	4213.708936
717.795088	4226.064804
718.128167	4184.014019
718.461198	4126.761635
718.794180	4121.067652
719.127113	4101.084518
719.459997	4081.358483
719.792833	4036.887944
720.125619	4026.311604
720.458357	3992.062004
720.791046	3999.255731
721.123686	3971.965445
721.456278	3932.483128
721.788821	3943.465281
722.121315	3921.158176
722.453761	3894.417375
722.786158	3909.291299
723.118506	3929.970112
723.450805	3882.573184
723.783056	3904.676123
724.115259	3921.715223
724.447412	3926.990791
724.779518	3917.168102
725.111574	3922.312600
725.443582	3949.824697
725.775542	3935.974127
726.107453	3990.547138
726.439315	3984.994307
726.771129	4002.209847
727.102895	4039.111093
727.434612	4082.696909
727.766281	4095.965226
728.097901	4097.026389
728.429473	4100.950927
728.760996	4107.716156
729.092471	4104.346145
729.423897	4086.402157
729.755276	4093.512705
730.086606	4094.939352
730.417887	4133.206750
730.749120	4193.622459
731.080305	4261.204167
731.411442	4283.042446
731.742530	4254.512035
732.073570	4258.348353
732.404562	4314.433711
732.735506	4304.956341
733.066401	4264.969909
733.397249	4205.655693
733.728048	4126.837253
734.058798	4040.530178
734.389501	3976.414263
734.720156	3912.434459
735.050762	3872.034652
735.381320	3863.179865
735.711831	3812.347390
736.042293	3784.293369
736.372707	3804.997388
736.703073	3777.891104
737.033391	3768.375926
737.363661	3784.857978
737.693883	3813.131290
738.024056	3821.126560
738.354182	3812.707833
738.684260	3879.321640
739.014290	3896.411151
739.344272	3894.515677
739.674207	3936.395063
740.004093	3942.653656
740.333931	3934.204682
740.663722	3935.543108
740.993464	3935.104528
741.323159	3911.695930
741.652806	3878.976321
741.982405	3852.911035
742.311956	3825.565296
742.641460	3814.106753
742.970915	3789.606745
743.300323	3747.699633
743.629683	3711.133624
743.958996	3704.552398
744.288260	3678.451824
744.617477	3644.194663
744.946647	3636.574959
745.275768	3610.423973
745.604842	3607.331225
745.933869	3554.956157
746.262847	3550.071279
746.591778	3589.523349
746.920662	3559.379770
747.249498	3526.892054
747.578286	3574.823345
747.907027	3590.763473
748.235720	3589.687187
748.564365	3614.421608
748.892963	3614.235085
749.221514	3597.445522
749.550017	3577.149837
749.878473	3573.069023
750.206881	3540.460319
750.535242	3539.076523
750.863555	3540.379661
751.191821	3535.446892
751.520039	3516.645909
751.848210	3493.587671
752.176334	3527.494472
752.504411	3534.547046
752.832440	3493.864934
753.160421	3477.602172
753.488356	3487.046774
753.816243	3499.248887
754.144082	3455.879840
754.471875	3442.619085
754.799620	3463.565079
755.127318	3452.164510
755.454969	3451.972946
755.782572	3456.179789
756.110129	3434.134823
756.437638	3426.492434
756.765100	3436.607509
757.092515	3449.893470
757.419882	3453.739870
757.747203	3427.210798
758.074477	3431.329421
758.401703	3445.127059
758.728882	3465.019452
759.056014	3470.975575
759.383099	3477.118221
759.710138	3472.371975
760.037129	3491.578771
760.364073	3519.814274
760.690970	3503.523785
761.017820	3484.309427
761.344623	3503.717870
761.671379	3545.705640
761.998088	3596.810337
762.324751	3720.805078
762.651366	3967.007470
762.977935	4435.444088
763.304456	4870.553638
763.630931	4960.190395
763.957359	4600.982977
764.283740	4267.251031
764.610074	4075.329263
764.936362	3881.985890
765.262602	3729.453177
765.588796	3616.269191
765.914943	3530.042775
766.241044	3445.363993
766.567097	3415.875764
766.893104	3366.797611
767.219064	3338.967921
767.544978	3311.612099
767.870845	3259.340375
768.196665	3239.616861
768.522438	3248.857296
768.848165	3242.991913
769.173846	3205.531099
769.499479	3189.164993
769.825066	3172.814011
770.150607	3157.806496
770.476101	3172.420801
770.801548	3167.941735
771.126949	3124.171917
771.452303	3106.800101
771.777611	3113.620782
772.102872	3117.200001
772.428087	3092.735282
772.753256	3082.743715
773.078378	3075.522262
773.403453	3044.700647
773.728482	3028.838657
774.053465	3053.605846
774.378401	3039.944319
774.703291	3012.732170
775.028135	3010.859382
775.352932	3004.467198
775.677683	2992.476814
776.002388	2989.505054
776.327046	2989.225270
776.651658	2979.750421
776.976224	2967.671817
777.300743	2971.729945
777.625216	2960.052113
777.949643	2957.213943
778.274024	2957.024900
778.598359	2946.241872
778.922647	2948.316306
779.246889	2949.740432
779.571086	2936.583021
779.895236	2928.249993
780.219339	2938.874225
780.543397	2952.722275
780.867409	2955.240331
781.191374	2950.035340
781.515294	2945.619289
781.839167	2945.344546
782.162995	2938.722991
782.486776	2948.578446
782.810511	2944.104422
783.134201	2929.762340
783.457844	2939.821962
783.781441	2928.827206
784.104993	2906.910789
784.428498	2907.074627
784.751958	2924.441402
785.075372	2916.647778
785.398739	2901.365520
785.722061	2918.518046
786.045337	2928.537339
786.368568	2914.064187
786.691752	2909.224679
787.014891	2956.876186
787.337983	2985.273005
787.661030	3008.810153
787.984031	3076.167530
788.306987	3122.591515
788.629897	3114.666822
788.952760	3097.375664
789.275579	3083.920824
789.598351	3025.357740
789.921078	2978.646408
790.243759	2970.391519
790.566395	2953.319652
790.888984	2929.341403
791.211529	2914.159968
791.534027	2904.516241
791.856480	2896.480642
792.178888	2879.701161
792.501249	2873.354349
792.823566	2871.461395
793.145836	2865.525437
793.468062	2864.151722
793.790241	2858.417410
794.112375	2867.335211
794.434464	2880.361553
794.756507	2882.196533
795.078505	2887.978736
795.400457	2902.971128
795.722364	2941.006633
796.044226	2963.306177
796.366042	2964.909264
796.687812	2955.038685
797.009538	2975.409988
797.331218	2962.446661
797.652852	2947.517283
797.974442	2929.704366
798.295986	2927.506423
798.617484	2923.465938
798.938938	2907.735018
799.260346	2891.855383
799.581709	2886.053015
799.903026	2878.055225
800.224299	2873.059441
800.545526	2864.053420
800.866708	2850.280987
801.187845	2839.248422
801.508936	2841.675738
801.829983	2851.226204
802.150984	2835.613750
802.471940	2822.990701
802.792851	2821.654795
803.113717	2821.858962
803.434538	2829.425734
803.755314	2822.771411
804.076045	2815.217242
804.396731	2814.236737
804.717372	2814.546768
805.037967	2809.820687
805.358518	2813.478044
805.679024	2827.260558
805.999485	2820.737305
806.319901	2828.087308
806.640272	2820.553303
806.960598	2824.722337
807.280879	2834.456806
807.601115	2838.799760
807.921306	2826.658141
808.241453	2824.175372
808.561554	2828.777946
808.881611	2833.670386
809.201623	2826.393480
809.521590	2825.226453
809.841513	2821.765701
810.161390	2825.196206
810.481223	2818.748570
810.801011	2809.704740
811.120755	2806.841365
811.440453	2812.368990
811.760107	2810.012251
812.079716	2807.199287
812.399281	2797.358954
812.718801	2794.603964
813.038276	2788.915022
813.357707	2792.118675
813.677093	2802.505972
813.996434	2794.515744
814.315731	2790.946607
814.634983	2780.949999
814.954191	2787.989970
815.273354	2799.541774
815.592473	2809.692137
815.911547	2809.495532
816.230577	2816.916111
816.549562	2828.301557
816.868502	2824.056905
817.187399	2837.340346
817.506250	2853.212418
817.825058	2846.318641
818.143821	2856.791638
818.462539	2871.821838
818.781213	2897.861918
819.099843	2933.507917
819.418429	2989.250476
819.736970	3054.523336
820.055466	3121.885754
820.373919	3223.074314
820.692327	3361.212012
821.010691	3527.824667
821.329011	3959.410451
821.647286	4843.429710
821.965517	6191.809814
822.283704	6911.497540
822.601847	6880.068467
822.919945	6262.857316
823.237999	5774.629128
823.556010	5203.390780
823.873976	4663.029499
824.191897	4264.697687
824.509775	3974.433089
824.827609	3714.478430
825.145398	3594.793876
825.463144	3585.150148
825.780845	3673.541740
826.098502	3778.566618
826.416116	4053.823701
826.733685	4361.467676
827.051210	4418.278959
827.368692	4308.744768
827.686129	4049.533679
828.003522	3729.879155
828.320872	3479.212821
828.638177	3288.513533
828.955439	3152.407420
829.272656	3073.437745
829.589830	3006.284534
829.906960	2959.865590
830.224046	2917.771955
830.541088	2882.380535
830.858086	2866.851260
831.175041	2853.812316
831.491952	2852.904908
831.808819	2865.565766
832.125642	2887.981257
832.442421	2934.279213
832.759157	3010.725791
833.075849	3184.559899
833.392497	3464.449802
833.709101	3659.948268
834.025662	3606.305350
834.342179	3449.832976
834.658653	3279.716719
834.975083	3133.334214
835.291469	3039.039432
835.607811	2958.968264
835.924110	2902.663617
836.240366	2852.020186
836.556578	2808.552837
836.872746	2787.390073
837.188871	2765.193872
837.504952	2749.402458
837.820990	2740.340984
838.136984	2730.714901
838.452935	2720.710731
838.768842	2719.016903
839.084706	2734.205900
839.400526	2816.215390
839.716303	2943.590225
840.032037	3022.012934
840.347727	3005.220851
840.663373	2945.614248
840.978977	2874.871736
841.294537	2802.516055
841.610054	2754.937645
841.925527	2736.912999
842.240957	2713.189329
842.556344	2694.118644
842.871687	2677.550892
843.186987	2667.735766
843.502244	2663.743172
843.817458	2659.049857
844.132629	2648.125677
844.447756	2639.288534
844.762840	2633.967597
845.077881	2636.979686
845.392879	2631.963738
845.707833	2631.063892
846.022745	2623.126595
846.337613	2628.356792
846.652438	2626.249590
846.967221	2624.154991
847.281960	2622.375463
847.596656	2621.311780
847.911309	2622.851852
848.225919	2618.229114
848.540485	2613.611417
848.855009	2614.299535
849.169490	2614.662498
849.483928	2613.654267
849.798323	2613.190481
850.112675	2612.373814
850.426984	2613.997066
850.741251	2611.942795
851.055474	2614.377673
851.369654	2620.946296
851.683792	2616.900770
851.997887	2612.194853
852.311938	2612.124277
852.625947	2614.241562
852.939914	2614.826335
853.253837	2615.882457
853.567718	2613.117384
853.881555	2612.532610
854.195350	2613.210646
854.509103	2615.716099
854.822812	2613.447580
855.136479	2610.463217
855.450103	2613.392127
855.763685	2614.415481
856.077224	2614.319699
856.390720	2609.661673
856.704173	2614.276850
857.017584	2616.439505
857.330953	2617.785493
857.644278	2620.283384
857.957561	2620.721965
858.270802	2614.208794
858.584000	2617.717437
858.897155	2620.633745
859.210268	2620.795062
859.523339	2614.516304
859.836367	2610.833742
860.149352	2612.101592
860.462295	2613.767693
860.775195	2610.006992
861.088054	2606.755448
861.400869	2606.339553
861.713642	2602.261259
862.026373	2607.400716
862.339062	2608.645881
862.651708	2614.407920
862.964312	2615.738784
863.276873	2614.014710
863.589392	2617.641820
863.901869	2620.580812
864.214303	2626.554580
864.526696	2629.473408
864.839045	2628.807976
865.151353	2633.531537
865.463619	2631.875518
865.775842	2631.525157
866.088023	2630.738737
866.400162	2632.082205
866.712258	2632.374592
867.024313	2630.083388
867.336325	2627.663634
867.648296	2630.670682
867.960224	2632.120014
868.272110	2634.580097
868.583954	2627.835033
868.895755	2627.025928
869.207515	2632.861063
869.519233	2639.243164
869.830909	2635.893317
870.142542	2630.746299
870.454134	2633.405508
870.765684	2637.503966
871.077191	2641.531848
871.388657	2641.216776
871.700081	2642.678710
872.011463	2642.240130
872.322803	2641.718371
872.634101	2643.944040
872.945357	2652.266985
873.256571	2657.741678
873.567744	2653.116419
873.878874	2654.187665
874.189963	2654.790082
874.501010	2658.896102
874.812015	2664.411125
875.122979	2664.713594
875.433900	2655.410144
875.744780	2655.218581
876.055618	2660.408448
876.366415	2666.926660
876.677169	2663.271824
876.987882	2660.199241
877.298554	2658.669250
877.609183	2666.399860
877.919771	2674.022084
878.230317	2680.378979
878.540822	2691.409024
878.851285	2705.277238
879.161707	2727.034858
879.472087	2764.553646
879.782425	2810.428146
880.092722	2922.122471
880.402977	3103.256170
880.713191	3354.051053
881.023363	3635.102942
881.333494	3813.307730
881.643583	3982.446003
881.953631	3982.514059
882.263637	3806.068633
882.573602	3595.096345
882.883526	3470.738641
883.193408	3361.322918
883.503248	3265.510748
883.813048	3152.810712
884.122806	3043.566388
884.432522	2959.910960
884.742197	2897.902247
885.051831	2862.677185
885.361424	2829.660148
885.670975	2796.529685
885.980485	2767.089346
886.289954	2749.165524
886.599382	2734.379819
886.908768	2724.289950
887.218113	2706.235057
887.527417	2694.849612
887.836680	2684.631193
888.145901	2678.929648
888.455082	2672.623164
888.764221	2661.986330
889.073319	2655.165648
889.382376	2654.563231
889.691392	2656.327634
890.000366	2655.377377
890.309300	2653.310504
890.618193	2655.657161
890.927044	2657.845022
891.235855	2660.660506
891.544625	2659.871566
891.853353	2657.960968
892.162041	2665.386588
892.470687	2685.538600
892.779293	2692.513037
893.087858	2705.710777
893.396381	2724.599981
893.704864	2765.824017
894.013306	2833.859429
894.321707	2923.569282
894.630068	2968.065027
894.938387	2988.247286
895.246665	2980.441059
895.554903	2940.338680
895.863100	2898.013153
896.171256	2844.408043
896.479371	2784.196502
896.787446	2747.111253
897.095480	2728.204406
897.403473	2725.025958
897.711425	2708.664894
898.019336	2689.047243
898.327207	2679.554751
898.635038	2676.116684
898.942827	2674.248936
899.250576	2663.833912
899.558284	2655.700011
899.865952	2650.154742
900.173579	2645.700882
900.481165	2645.408495
900.788711	2637.604789
901.096216	2631.149592
901.403681	2627.303191
901.711105	2629.760754
902.018489	2627.477111
902.325832	2630.842081
902.633135	2632.941722
902.940397	2647.389669
903.247619	2683.958199
903.554800	2747.464134
903.861941	2870.599358
904.169041	2990.062101
904.476101	3046.749876
904.783121	3041.688558
905.090100	2984.146307
905.397039	2913.749114
905.703938	2844.952488
906.010796	2785.038374
906.317614	2739.100860
906.624391	2702.302957
906.931129	2679.307734
907.237826	2655.304280
907.544483	2638.008081
907.851099	2626.942749
908.157675	2614.612086
908.464211	2609.215531
908.770707	2599.977617
909.077163	2593.653489
909.383578	2592.937645
909.689954	2590.664085
909.996289	2590.737182
910.302584	2587.364650
910.608839	2585.559917
910.915054	2584.781058
911.221229	2588.539239
911.527363	2589.189547
911.833458	2589.255082
912.139513	2589.595360
912.445527	2591.243818
912.751502	2596.171546
913.057436	2600.854777
913.363331	2609.129832
913.669186	2615.842128
913.975000	2629.261679
914.280775	2647.659370
914.586510	2664.590086
914.892205	2695.973789
915.197859	2763.522730
915.503475	2842.948629
915.809050	2904.196128
916.114585	2917.426636
916.420081	2924.365784
916.725536	2938.788526
917.030952	2916.824218
917.336328	2870.425438
917.641665	2821.954744
917.946961	2775.926489
918.252218	2743.955491
918.557435	2720.824157
918.862612	2698.905220
919.167750	2681.724967
919.472848	2667.264418
919.777906	2650.817653
920.082925	2639.588483
920.387904	2631.598254
920.692843	2625.493417
920.997743	2622.458642
921.302603	2612.537652
921.607423	2608.471961
921.912204	2602.145313
922.216946	2601.726897
922.521647	2599.155909
922.826310	2594.628952
923.130932	2591.810947
923.435516	2586.066553
923.740059	2584.960019
924.044564	2582.099165
924.349028	2583.056984
924.653454	2573.330077
924.957840	2568.394788
925.262186	2568.533420
925.566493	2567.920919
925.870761	2565.244067
926.174989	2570.219686
926.479178	2566.204407
926.783328	2563.867832
927.087438	2560.775084
927.391509	2563.010836
927.695541	2561.480845
927.999533	2558.773746
928.303486	2559.885320
928.607400	2559.159394
928.911275	2559.764333
929.215110	2556.969013
929.518906	2558.410783
929.822663	2559.787018
930.126381	2555.953220
930.430060	2556.147305
930.733699	2555.912891
931.037299	2559.882800
931.340861	2557.543704
931.644383	2559.048489
931.947866	2559.182079
932.251309	2560.316339
932.554714	2556.187634
932.858080	2560.520506
933.161407	2557.379867
933.464694	2558.098231
933.767943	2557.309291
934.071153	2552.621017
934.374323	2552.096737
934.677455	2556.853066
934.980548	2553.893909
935.283602	2554.269475
935.586617	2552.777293
935.889593	2554.622356
936.192530	2555.837274
936.495428	2554.783673
936.798287	2555.615463
937.101108	2554.826522
937.403890	2560.671740
937.706632	2565.183573
938.009336	2566.113666
938.312002	2570.801939
938.614628	2570.691033
938.917216	2574.678586
939.219765	2577.272260
939.522275	2577.146231
939.824747	2578.698906
940.127179	2570.882597
940.429573	2568.800601
940.731929	2570.257494
941.034246	2566.106104
941.336524	2566.917730
941.638763	2567.391598
941.940964	2566.995868
942.243126	2566.156516
942.545250	2565.107956
942.847335	2563.250290
943.149381	2560.936401
943.451389	2561.919426
943.753359	2560.409600
944.055290	2558.708211
944.357182	2559.101421
944.659036	2558.299877
944.960851	2558.746019
945.262628	2558.257027
945.564367	2560.139898
945.866067	2557.883982
946.167729	2556.996739
946.469352	2558.246945
946.770937	2556.931204
947.072484	2557.717624
947.373992	2557.919270
947.675462	2555.015566
947.976893	2557.430278
948.278286	2555.630586
948.579641	2554.914743
948.880958	2555.769218
949.182236	2553.631769
949.483476	2556.913560
949.784678	2554.607232
950.085841	2554.985319
950.386967	2556.084290
950.688054	2553.525905
950.989103	2554.488765
951.290114	2559.693756
951.591087	2558.892213
951.892021	2556.054043
952.192917	2561.460681
952.493776	2559.892882
952.794596	2560.195351
953.095378	2563.913202
953.396122	2565.140723
953.696828	2561.475804
953.997496	2557.573951
954.298126	2555.411296
954.598718	2560.160063
954.899272	2555.945658
955.199788	2555.149156
955.500266	2555.993549
955.800706	2549.868547
956.101108	2548.457024
956.401472	2546.702703
956.701798	2546.949719
957.002087	2546.944678
957.302337	2549.107333
957.602550	2547.484082
957.902724	2547.133722
958.202861	2542.952084
958.502960	2544.857641
958.803022	2544.978628
959.103045	2545.281097
959.403031	2544.182126
959.702979	2542.211035
960.002889	2543.766231
960.302762	2544.819832
960.602596	2544.918134
960.902393	2543.620037
961.202153	2541.648946
961.501875	2544.900490
961.801559	2540.076106
962.101205	2538.904038
962.400814	2543.073072
962.700385	2543.234389
962.999918	2542.954605
963.299414	2539.682896
963.598873	2541.038967
963.898293	2539.501415
964.197677	2543.761190
964.497022	2541.424615
964.796331	2539.924872
965.095601	2539.929913
965.394835	2540.471837
965.694030	2541.835469
965.993189	2541.306148
966.292309	2539.763555
966.591393	2538.762886
966.890439	2541.354039
967.189447	2543.630120
967.488419	2540.600386
967.787353	2543.428473
968.086249	2538.006713
968.385108	2538.604089
968.683930	2541.611137
968.982714	2540.980993
969.281462	2540.945705
969.580172	2541.737166
969.878844	2541.222969
970.177480	2541.636343
970.476078	2541.331353
970.774639	2542.107691
971.073162	2542.427804
971.371649	2537.752134
971.670098	2538.820859
971.968510	2540.267670
972.266885	2539.919830
972.565223	2541.154913
972.863524	2540.739018
973.161788	2544.091385
973.460014	2543.183978
973.758204	2540.852444
974.056356	2542.715150
974.354471	2540.668442
974.652550	2541.717002
974.950591	2541.517876
975.248595	2540.960829
975.546563	2542.490819
975.844493	2539.468647
976.142386	2541.825387
976.440243	2540.807073
976.738062	2543.685572
977.035845	2539.519059
977.333590	2542.669780
977.631299	2540.837320
977.928971	2539.718184
978.226606	2540.519728
978.524204	2541.338915
978.821765	2537.152237
979.119290	2540.978473
979.416777	2541.162475
979.714228	2542.952084
980.011642	2538.047042
980.309020	2541.863195
980.606360	2539.889583
980.903664	2541.966539
981.200931	2540.875129
981.498162	2541.666590
981.795356	2544.567774
982.092513	2547.121119
982.389633	2546.395193
982.686717	2553.432643
982.983764	2551.827036
983.280775	2557.526060
983.577749	2558.010011
983.874686	2551.617828
984.171587	2551.136398
984.468451	2547.504246
984.765279	2546.077600
985.062070	2541.797660
985.358824	2542.722712
985.655543	2541.427135
985.952224	2541.346477
986.248869	2542.180788
986.545478	2534.901362
986.842050	2538.891435
987.138586	2536.151568
987.435086	2536.963194
987.731549	2534.026722
988.027975	2539.519059
988.324366	2536.627957
988.620719	2539.007382
988.917037	2536.854809
989.213318	2539.186342
989.509563	2540.618030
989.805772	2534.929088
990.101944	2537.076620
990.398080	2538.530992
990.694180	2536.822041
990.990244	2539.420756
991.286271	2534.959335
991.582262	2537.885725
991.878217	2538.026877
992.174136	2539.277083
992.470019	2538.258770
992.765865	2540.088709
993.061676	2538.077289
993.357450	2537.863040
993.653188	2537.001002
993.948890	2539.289686
994.244556	2537.782381
994.540186	2539.425797
994.835780	2537.613502
995.131337	2541.321271
995.426859	2540.149203
995.722345	2541.101981
996.017795	2540.779347
996.313208	2541.114584
996.608586	2541.374203
996.903928	2541.664070
997.199234	2542.110212
997.494504	2542.142979
997.789738	2536.927906
998.084936	2539.566950
998.380099	2541.580891
998.675225	2538.218441
998.970316	2538.518390
999.265371	2537.621064
999.560390	2539.733308
999.855373	2538.198276
1000.150320	2537.991589
1000.445232	2537.794984
1000.740108	2536.895138
1001.034948	2536.401105
1001.329752	2536.776671
1001.624521	2538.029398
1001.919254	2531.291896
1002.213951	2535.791125
1002.508613	2533.676361
1002.803239	2534.412370
1003.097829	2530.860877
1003.392384	2536.257432
1003.686903	2537.961342
1003.981386	2534.356917
1004.275834	2533.837678
1004.570246	2537.124511
1004.864623	2534.850950
1005.158964	2536.743903
1005.453270	2535.065199
1005.747540	2535.647452
1006.041775	2536.857329
1006.335974	2537.663914
1006.630138	2537.316074
1006.924266	2534.699716
1007.218359	2535.370189
1007.512416	2538.102494
1007.806438	2535.226516
1008.100425	2537.444624
1008.394376	2533.827596
1008.688292	2539.312371
1008.982172	2534.356917
1009.276017	2535.902031
1009.569827	2535.327339
1009.863602	2535.876825
1010.157341	2536.990920
1010.451045	2536.232226
1010.744714	2536.370858
1011.038347	2537.565612
1011.331945	2533.164684
1011.625508	2534.533357
1011.919036	2531.251566
1012.212528	2536.980838
1012.505986	2533.192411
1012.799408	2538.863709
1013.092795	2534.152750
1013.386147	2533.946063
1013.679464	2535.997813
1013.972745	2534.142668
1014.265992	2537.124511
1014.559204	2536.660724
1014.852380	2534.157792
1015.145521	2537.406815
1015.438628	2532.854653
1015.731699	2536.353214
1016.024736	2534.160312
1016.317737	2535.733152
1016.610703	2534.414890
1016.903635	2531.589324
1017.196531	2532.272400
1017.489393	2532.690816
1017.782219	2529.895496
1018.075011	2533.933460
1018.367768	2534.750127
1018.660490	2536.068389
1018.953177	2536.068389
1019.245829	2536.068389
