Dividing Wavelength (nm)	Counts (n)	Blue Motor Position (mm): 12.200000	Red Motor Position (mm): 0.000000	
326.493990	2062.386450
326.888308	2062.386450
327.282561	2062.386450
327.676750	2035.229754
328.070874	2036.303520
328.464933	2045.158307
328.858929	2051.167362
329.252859	2063.520710
329.646726	2077.078893
330.040528	2090.899216
330.434265	2107.961001
330.827938	2129.524537
331.221547	2150.692342
331.615091	2169.190856
332.008571	2192.788497
332.401986	2212.680890
332.795338	2234.947667
333.188625	2253.093300
333.581847	2271.027205
333.975006	2289.059412
334.368100	2308.243523
334.761129	2324.380257
335.154095	2340.348111
335.546996	2377.632485
335.939833	2448.697631
336.332606	2462.492748
336.725315	2475.065386
337.117960	2482.755666
337.510540	2491.925525
337.903056	2502.645539
338.295508	2509.562002
338.687896	2513.990656
339.080220	2518.739423
339.472480	2526.291071
339.864676	2526.248221
340.256807	2531.778367
340.648875	2532.753830
341.040879	2532.063192
341.432818	2534.107380
341.824694	2534.593851
342.216506	2532.221988
342.608253	2532.287523
342.999937	2534.087215
343.391557	2535.153419
343.783113	2530.024045
344.174605	2533.545291
344.566033	2529.577903
344.957397	2526.230577
345.348697	2522.893333
345.739934	2523.208405
346.131106	2522.767304
346.522215	2519.034330
346.913260	2519.656913
347.304241	2516.644823
347.695159	2515.760101
348.086012	2515.533249
348.476802	2508.838596
348.867528	2508.853720
349.258191	2503.991527
349.648789	2504.296517
350.039324	2500.321567
350.429796	2501.768378
350.820203	2507.427073
351.210548	2505.181239
351.600828	2504.704850
351.991045	2502.209479
352.381198	2501.980107
352.771288	2500.354334
353.161314	2501.390292
353.551276	2497.506083
353.941175	2497.362410
354.331010	2498.559684
354.720782	2505.755931
355.110490	2503.202586
355.500135	2504.921620
355.889717	2502.643018
356.279235	2504.704850
356.668689	2504.021774
357.058080	2502.995899
357.447408	2502.580004
357.836672	2502.920282
358.225873	2504.374655
358.615010	2506.973369
359.004084	2505.307268
359.393095	2507.873215
359.782043	2503.684017
360.170927	2508.561333
360.559748	2506.819614
360.948505	2507.772392
361.337199	2510.131652
361.725830	2506.650736
362.114398	2508.142917
362.502903	2508.107629
362.891344	2510.073679
363.279722	2508.147958
363.668037	2510.376148
364.056289	2511.568381
364.444478	2513.042919
364.832603	2511.568381
365.220665	2512.558968
365.608665	2510.746673
365.996601	2513.773886
366.384474	2512.992507
366.772284	2511.167609
367.160031	2511.550737
367.547715	2513.431087
367.935336	2512.420336
368.322893	2513.874709
368.710388	2511.449914
369.097820	2510.066117
369.485189	2512.737929
369.872495	2514.046108
370.259738	2512.301869
370.646918	2515.966788
371.034035	2517.670698
371.421090	2516.851510
371.808081	2516.816222
372.195010	2516.246572
372.581875	2516.097858
372.968678	2515.253465
373.355418	2514.066273
373.742096	2517.257323
374.128710	2516.430574
374.515262	2513.627693
374.901751	2518.252951
375.288177	2519.137674
375.674540	2516.896881
376.060841	2519.321676
376.447079	2517.348064
376.833254	2518.792355
377.219367	2520.355112
377.605417	2520.138343
377.991404	2521.375946
378.377329	2518.636079
378.763191	2521.466687
379.148991	2522.348889
379.534727	2521.938035
379.920402	2520.987777
380.306013	2520.962571
380.691563	2523.200844
381.077049	2520.851666
381.462474	2521.509537
381.847835	2520.483662
382.233134	2524.423323
382.618371	2521.209588
383.003545	2522.613549
383.388657	2522.878210
383.773706	2522.729496
384.158693	2522.580782
384.543618	2523.919208
384.928480	2523.500792
385.313280	2523.500792
385.698017	2524.685463
386.082692	2525.146729
386.467305	2523.946934
386.851856	2526.243180
387.236344	2523.720083
387.620770	2524.377953
388.005133	2521.701100
388.389435	2523.223529
388.773674	2517.446367
389.157851	2526.507841
389.541965	2526.228057
389.926018	2529.098994
390.310008	2526.359127
390.693936	2527.773170
391.077802	2525.429034
391.461606	2525.837367
391.845348	2525.741585
392.229027	2529.219981
392.612645	2526.417100
392.996200	2526.457429
393.379694	2527.211082
393.763125	2529.240146
394.146494	2526.752337
394.529801	2529.038500
394.913047	2528.000022
395.296230	2528.531864
395.679351	2529.141843
396.062410	2529.371216
396.445408	2528.002543
396.828343	2529.482121
397.211217	2533.658717
397.594028	2530.530681
397.976778	2528.138654
398.359466	2529.204858
398.742092	2528.458767
399.124656	2526.991791
399.507158	2532.932791
399.889598	2530.989426
400.271977	2532.267359
400.654294	2530.079498
401.036549	2530.639066
401.418742	2533.502442
401.800874	2529.754344
402.182944	2532.670651
402.564952	2532.532019
402.946898	2535.274407
403.328783	2534.611495
403.710606	2532.705939
404.092367	2532.461443
404.474067	2532.847092
404.855705	2534.747607
405.237282	2534.810621
405.618797	2532.713501
406.000250	2533.147040
406.381642	2536.423790
406.762972	2533.106711
407.144240	2531.884231
407.525447	2533.560415
407.906593	2531.554036
408.287677	2535.261804
408.668700	2533.726773
409.049661	2535.962525
409.430560	2535.506300
409.811399	2535.503780
410.192176	2533.852802
410.572891	2533.149561
410.953545	2536.312885
411.334138	2535.902031
411.714669	2535.468492
412.095139	2536.665766
412.475547	2537.530323
412.855894	2537.706764
413.236180	2534.616537
413.616405	2535.332380
413.996568	2539.095602
414.376670	2535.909593
414.756711	2538.079809
415.136691	2537.111908
415.516609	2539.438400
415.896466	2537.076620
416.276262	2538.382278
416.655997	2539.456044
417.035670	2538.165509
417.415283	2537.043852
417.794834	2537.694161
418.174324	2540.310520
418.553753	2537.926054
418.933121	2538.404964
419.312428	2538.924203
419.691674	2541.152392
420.070859	2536.481763
420.449983	2538.594007
420.829045	2534.767771
421.208047	2537.802546
421.586988	2536.368337
421.965867	2537.857998
422.344686	2539.846734
422.723444	2537.416897
423.102141	2539.163657
423.480777	2536.106197
423.859352	2541.931251
424.237866	2540.328164
424.616319	2541.442259
424.994712	2538.964532
425.373044	2537.928575
425.751314	2537.179963
426.129524	2532.945394
426.507673	2537.553009
426.885762	2534.949253
427.263789	2541.316230
427.641756	2539.884542
428.019662	2539.203987
428.397508	2540.335726
428.775292	2540.169367
429.153016	2537.966383
429.530679	2541.487629
429.908282	2540.134079
430.285824	2542.052238
430.663305	2537.300951
431.040726	2539.652649
431.418086	2541.054090
431.795385	2540.025695
432.172624	2539.110725
432.549802	2538.871270
432.926920	2540.129038
433.303977	2540.003009
433.680974	2538.568801
434.057910	2537.966383
434.434786	2539.869419
434.811601	2540.179450
435.188355	2540.033256
435.565050	2537.563091
435.941683	2539.040149
436.318257	2540.555016
436.694770	2541.424615
437.071222	2541.394368
437.447614	2541.343956
437.823946	2540.164326
438.200218	2540.882691
438.576429	2538.994779
438.952580	2542.437887
439.328670	2540.618030
439.704700	2539.945036
440.080670	2536.524613
440.456580	2540.930582
440.832429	2540.383617
441.208218	2537.598379
441.583947	2541.250695
441.959616	2540.917979
442.335224	2542.067362
442.710773	2538.541075
443.086261	2539.287166
443.461689	2542.848741
443.837057	2542.367311
444.212365	2540.847403
444.587612	2538.188194
444.962800	2536.421270
445.337927	2539.783719
445.712995	2534.578728
446.088002	2542.284132
446.462949	2541.056611
446.837837	2538.987217
447.212664	2539.244316
447.587431	2543.466282
447.962139	2539.085519
448.336786	2539.788760
448.711374	2540.565098
449.085901	2538.346990
449.460369	2539.420756
449.834776	2539.967721
450.209124	2541.200283
450.583412	2542.165664
450.957640	2540.628112
451.331808	2541.076775
451.705917	2540.257588
452.079965	2541.285983
452.453954	2538.803215
452.827883	2540.759182
453.201752	2539.937474
453.575562	2542.153062
453.949311	2538.170550
454.323001	2541.044008
454.696632	2542.024512
455.070202	2538.415046
455.443713	2541.059131
455.817164	2541.543082
456.190556	2539.569470
456.563888	2542.526107
456.937160	2542.599204
457.310373	2542.105171
457.683526	2542.198432
458.056619	2540.996117
458.429653	2541.356559
458.802628	2545.583567
459.175542	2541.008720
459.548398	2543.567105
459.921194	2541.550644
460.293930	2543.239430
460.666607	2543.594832
461.039224	2541.036446
461.411782	2541.616179
461.784280	2541.263298
462.156719	2541.580891
462.529099	2542.780685
462.901419	2542.437887
463.273680	2543.466282
463.645882	2536.532175
464.018024	2540.849923
464.390106	2539.793802
464.762130	2544.340922
465.134094	2542.518545
465.505999	2542.611807
465.877845	2541.558205
466.249631	2541.840510
466.621358	2543.546941
466.993026	2544.383772
467.364634	2547.559699
467.736184	2544.847558
468.107674	2544.769420
468.479105	2541.449821
468.850477	2543.672969
469.221790	2544.855120
469.593043	2545.036602
469.964238	2542.306817
470.335373	2545.081972
470.706449	2544.613145
471.077467	2544.492157
471.448425	2547.148845
471.819324	2545.432332
472.190164	2546.690100
472.560945	2545.971736
472.931667	2545.248330
473.302330	2545.313865
473.672934	2543.862013
474.043479	2546.644730
474.413965	2544.877805
474.784393	2543.864533
475.154761	2547.806716
475.525070	2545.760007
475.895321	2545.944009
476.265513	2546.117929
476.635645	2544.804708
477.005719	2545.328988
477.375734	2545.535676
477.745691	2542.997455
478.115588	2544.582898
478.485427	2548.086500
478.855207	2550.017262
479.224928	2546.632127
479.594591	2548.993907
479.964194	2546.667415
480.333739	2549.009031
480.703226	2548.779658
481.072653	2549.813095
481.442022	2547.849565
481.811333	2548.099103
482.180584	2543.972918
482.549777	2546.596839
482.918912	2543.088196
483.287988	2547.731098
483.657005	2549.150183
484.025964	2550.256716
484.394864	2551.549772
484.763706	2549.954247
485.132489	2550.430636
485.501213	2548.875440
485.869879	2547.448794
486.238487	2550.445760
486.607036	2549.069525
486.975527	2548.966181
487.343959	2549.308979
487.712333	2551.882488
488.080648	2549.056922
488.448905	2551.602704
488.817104	2548.835111
489.185244	2549.462735
489.553326	2548.177240
489.921350	2553.228477
490.289315	2554.652602
490.657222	2553.553631
491.025070	2552.527756
491.392861	2555.449105
491.760593	2552.076573
492.128267	2549.926521
492.495883	2554.103117
492.863440	2551.345606
493.230939	2552.379042
493.598380	2556.109496
493.965763	2551.015410
494.333088	2549.629093
494.700354	2551.275029
495.067563	2551.761501
495.434713	2549.989535
495.801805	2548.988866
496.168839	2552.084135
496.535815	2553.475493
496.902733	2549.545914
497.269593	2555.005483
497.636395	2554.062787
498.003139	2554.138405
498.369825	2551.920297
498.736453	2552.011038
499.103023	2551.791748
499.469535	2554.614794
499.835989	2552.734443
500.202385	2550.879299
500.568723	2547.995759
500.935003	2552.583209
501.301226	2548.870399
501.667390	2555.910370
502.033497	2556.255689
502.399546	2556.285936
502.765537	2555.446584
503.131470	2552.830225
503.497345	2555.570093
503.863163	2556.280895
504.228923	2558.012532
504.594625	2557.717624
504.960269	2557.803324
505.325856	2556.054043
505.691385	2557.667213
506.056856	2558.526729
506.422270	2562.635270
506.787625	2557.931873
507.152924	2561.226267
507.518164	2560.147460
507.883347	2562.768860
508.248472	2563.482183
508.613540	2560.749878
508.978550	2563.981258
509.343503	2562.284909
509.708398	2564.465208
510.073236	2562.662996
510.438016	2565.977555
510.802738	2564.555949
511.167403	2565.309602
511.532010	2567.918399
511.896561	2567.215158
512.261053	2570.020560
512.625488	2569.329922
512.989866	2571.265725
513.354186	2572.457958
513.718449	2572.334450
514.082655	2573.481312
514.446803	2572.407546
514.810894	2574.691189
515.174927	2575.573391
515.538904	2578.023392
515.902822	2579.318968
516.266684	2577.625141
516.630488	2581.642940
516.994235	2581.305183
517.357925	2582.419278
517.721558	2582.280646
518.085133	2584.909608
518.448651	2582.136973
518.812112	2582.542786
519.175516	2585.391038
519.538863	2585.985894
519.902152	2588.619897
520.265385	2591.069898
520.628560	2595.614498
520.991678	2594.074426
521.354739	2594.543253
521.717743	2597.963676
522.080690	2596.993254
522.443580	2598.492997
522.806413	2600.864860
523.169189	2602.011722
523.531908	2601.502566
523.894569	2606.639502
524.257174	2606.372320
524.619722	2609.316354
524.982213	2613.656788
525.344647	2609.134873
525.707025	2611.526900
526.069345	2614.418002
526.431608	2614.513784
526.793815	2617.911522
527.155964	2615.348095
527.518057	2622.103241
527.880093	2622.002418
528.242072	2622.138529
528.603995	2623.910495
528.965860	2625.165742
529.327669	2625.080042
529.689421	2627.126751
530.051117	2630.176649
530.412755	2630.471556
530.774337	2632.482977
531.135862	2630.925260
531.497331	2634.159160
531.858743	2636.848616
532.220098	2639.517907
532.581396	2640.369862
532.942638	2642.754328
533.303824	2642.774492
533.664953	2645.973104
534.026025	2647.699700
534.387040	2649.217087
534.747999	2649.643064
535.108902	2650.787406
535.469748	2652.834115
535.830537	2652.098106
536.191270	2653.698673
536.551947	2654.255720
536.912567	2654.033909
537.273131	2659.468273
537.633638	2656.456184
537.994089	2662.722338
538.354483	2664.529592
538.714821	2665.578152
539.075103	2668.249963
539.435328	2667.866836
539.795497	2669.079233
540.155609	2674.803463
540.515665	2674.816066
540.875665	2675.695747
541.235609	2674.942095
541.595496	2675.317661
541.955328	2678.803619
542.315102	2679.005265
542.674821	2683.411233
543.034483	2683.428877
543.394090	2683.746470
543.753640	2680.321006
544.113134	2689.256451
544.472571	2686.345185
544.831953	2691.739220
545.191278	2693.319621
545.550548	2690.718386
545.909761	2693.425486
546.268918	2693.382636
546.628019	2693.864066
546.987064	2696.677030
547.346053	2691.512368
547.704986	2697.851619
548.063863	2699.603420
548.422684	2698.995961
548.781449	2697.589479
549.140158	2700.215920
549.498811	2702.192052
549.857408	2698.456557
550.215949	2702.512165
550.574434	2702.242464
550.932864	2702.000488
551.291237	2707.515511
551.649555	2705.879656
552.007817	2708.430480
552.366022	2709.138762
552.724173	2705.713298
553.082267	2709.247147
553.440305	2712.970039
553.798288	2710.721684
554.156215	2710.459544
554.514086	2713.980790
554.871902	2711.182950
555.229661	2715.331820
555.587365	2713.416181
555.945014	2716.100596
556.302606	2717.587736
556.660143	2723.458160
557.017625	2721.136708
557.375050	2718.840463
557.732421	2723.407748
558.089735	2727.226422
558.446994	2726.523181
558.804197	2730.914026
559.161345	2731.133316
559.518437	2727.992677
559.875474	2728.829509
560.232455	2734.669686
560.589381	2735.274624
560.946251	2736.766806
561.303065	2737.608678
561.659825	2742.974987
562.016528	2742.551530
562.373177	2742.914493
562.729770	2748.505132
563.086307	2746.518918
563.442789	2753.281626
563.799216	2753.440422
564.155587	2756.505444
564.511904	2758.418562
564.868164	2758.433685
565.224370	2764.954417
565.580520	2767.154881
565.936615	2771.848195
566.292654	2770.779471
566.648638	2778.164761
567.004567	2780.725667
567.360441	2784.912346
567.716260	2786.338992
568.072023	2793.749488
568.427732	2797.847946
568.783385	2800.665951
569.138982	2809.913948
569.494525	2811.448979
569.850013	2815.441573
570.205445	2818.516677
570.560823	2823.761998
570.916145	2833.451095
571.271412	2836.558967
571.626625	2845.328054
571.981782	2845.665811
572.336884	2849.749146
572.691931	2856.244673
573.046923	2860.713655
573.401860	2867.458719
573.756743	2877.082282
574.111570	2888.412275
574.466342	2894.474263
574.821059	2905.020357
575.175722	2907.240985
575.530330	2918.734816
575.884882	2924.627924
576.239380	2931.506579
576.593823	2942.274483
576.948211	2952.656740
577.302544	2956.435085
577.656823	2968.327167
578.011047	2982.263436
578.365216	2989.240393
578.719330	3001.359327
579.073389	3010.582118
579.427394	3023.860517
579.781344	3035.278731
580.135239	3046.276008
580.489080	3060.915519
580.842866	3070.355079
581.196597	3089.077925
581.550273	3104.183742
581.903895	3120.108747
582.257463	3143.774444
582.610975	3151.457162
582.964434	3173.552540
583.317837	3184.343129
583.671186	3204.023794
584.024481	3223.119685
584.377721	3236.418249
584.730906	3254.901639
585.084037	3275.681275
585.437113	3291.097124
585.790135	3314.109991
586.143103	3326.881754
586.496016	3351.275898
586.848874	3375.639794
587.201679	3398.435892
587.554428	3410.181781
587.907124	3439.213786
588.259765	3462.393011
588.612352	3488.337309
588.964884	3503.155781
589.317362	3535.547715
589.669786	3561.890264
590.022155	3587.426229
590.374470	3623.150366
590.726731	3640.537306
591.078937	3645.800270
591.431090	3682.202442
591.783188	3697.628373
592.135232	3722.282136
592.487222	3759.251437
592.839157	3792.311324
593.191038	3813.297648
593.542866	3840.875280
593.894639	3850.506404
594.246358	3889.797157
594.598022	3923.104061
594.949633	3937.307512
595.301190	3972.635918
595.652692	4001.642717
596.004141	4047.340777
596.355535	4040.618398
596.706876	4075.692226
597.058162	4097.306173
597.409395	4148.998165
597.760573	4191.621121
598.111698	4211.382444
598.462768	4245.846292
598.813785	4278.202938
599.164748	4297.039209
599.515657	4351.070296
599.866511	4364.724261
600.217312	4435.247483
600.568060	4426.117953
600.918753	4504.611239
601.269392	4543.125655
601.619978	4567.406372
601.970510	4620.323364
602.320988	4668.731044
602.671412	4723.094847
603.021783	4759.542389
603.372100	4783.119866
603.722363	4831.003266
604.072572	4875.786356
604.422728	4917.489301
604.772830	4948.081543
605.122878	5004.378629
605.472872	5041.897416
605.822813	5104.107775
606.172701	5136.474504
606.522534	5200.237538
606.872314	5267.917549
607.222041	5304.715452
607.571714	5375.115165
607.921333	5393.051590
608.270899	5458.465603
608.620411	5535.509557
608.969870	5571.379887
609.319276	5628.609586
609.668627	5689.635274
610.017926	5772.161483
610.367171	5842.896433
610.716362	5905.618469
611.065500	5952.014729
611.414585	6030.447521
611.763616	6105.477534
612.112594	6159.274207
612.461518	6233.066618
612.810389	6330.103788
613.159207	6375.065839
613.507971	6436.073883
613.856682	6548.925153
614.205340	6595.167657
614.553945	6735.291569
614.902496	6733.290231
615.250994	6840.417271
615.599439	6920.811072
615.947830	7000.277301
616.296169	7078.652120
616.644454	7154.080384
616.992686	7253.751557
617.340864	7376.531380
617.688990	7407.554641
618.037063	7562.912920
618.385082	7620.263607
618.733048	7749.780931
619.080961	7816.067063
619.428821	7897.010350
619.776628	7979.786096
620.124382	8029.872480
620.472083	8112.454142
620.819731	8202.567287
621.167326	8219.782828
621.514868	8283.966798
621.862357	8276.984800
622.209793	8363.072585
622.557176	8370.664562
622.904506	8403.827793
623.251783	8409.305007
623.599007	8440.315664
623.946179	8498.014191
624.293297	8528.684571
624.640363	8521.082511
624.987376	8569.540602
625.334336	8609.070810
625.681243	8616.922407
626.028097	8678.575719
626.374899	8726.396104
626.721647	8801.247156
627.068343	8838.914658
627.414987	8869.953042
627.761577	8912.039115
628.108115	9036.162405
628.454600	8991.797731
628.801032	9109.853992
629.147412	9177.523921
629.493739	9241.327284
629.840014	9248.631916
630.186236	9405.391636
630.532405	9396.143639
630.878521	9515.682000
631.224585	9562.879803
631.570597	9582.041229
631.916556	9701.725783
632.262462	9768.261452
632.608316	9840.178552
632.954117	9893.208970
633.299866	9968.445671
633.645562	10023.487509
633.991206	9989.542900
634.336797	9982.820521
634.682336	10033.655517
635.027823	10054.742663
635.373257	10109.103946
635.718639	10112.284914
636.063968	10159.134877
636.409245	10084.077137
636.754470	10153.002313
637.099642	10171.039562
637.444762	10114.273649
637.789829	10222.464372
638.134845	10217.166119
638.479808	10272.938925
638.824719	10336.903606
639.169577	10287.316296
639.514383	10385.578467
639.859137	10372.380726
640.203839	10486.613272
640.548489	10490.893212
640.893086	10566.833153
641.237632	10578.878990
641.582125	10683.987048
641.926566	10703.324914
642.270955	10780.250401
642.615292	10842.964876
642.959576	10897.827753
643.303809	10975.426234
643.647990	11075.016749
643.992118	11142.550566
644.336195	11191.800119
644.680219	11293.850717
645.024192	11424.277970
645.368112	11660.869402
645.711981	11755.033115
646.055797	12058.939074
646.399562	12099.127153
646.743274	12452.474229
647.086935	12685.357892
647.430544	12767.919389
647.774101	12874.723795
648.117606	13067.018609
648.461059	13199.686655
648.804460	13151.122699
649.147810	13076.543869
649.491108	13040.237479
649.834354	13062.594996
650.177548	12871.285728
650.520690	12789.467802
650.863781	12859.582690
651.206820	12880.916853
651.549807	12818.535095
651.892742	12696.410622
652.235626	12750.597985
652.578458	12771.987601
652.921238	12611.010955
653.263967	12811.474959
653.606644	12776.940534
653.949269	12829.146723
654.291843	12760.740786
654.634365	12969.205101
654.976836	12878.350906
655.319255	12993.384995
655.661622	13017.645548
656.003938	13051.504458
656.346203	13055.280282
656.688416	13228.590110
657.030577	13214.449674
657.372687	13220.940159
657.714746	13360.239843
658.056753	13509.881454
658.398708	13351.400180
658.740612	13445.818471
659.082465	13603.593983
659.424266	13624.691212
659.766016	13706.206670
660.107715	13722.043454
660.449362	13839.351104
660.790958	13913.887085
661.132503	13954.657416
661.473996	14061.744127
661.815438	14169.362679
662.156829	14302.877639
662.498168	14283.960709
662.839456	14353.531153
663.180693	14480.986645
663.521879	14594.800776
663.863013	14657.825281
664.204097	14721.426999
664.545129	14980.328057
664.886110	15033.948290
665.227040	15151.833152
665.567918	15221.582557
665.908746	15325.243803
666.249522	15446.780982
666.590248	15527.371388
666.930922	15647.413863
667.271545	15727.308590
667.612118	15826.659650
667.952639	15814.883515
668.293109	15908.752320
668.633528	15919.726912
668.973896	15974.683051
669.314213	16038.592278
669.654480	16017.921027
669.994695	16084.323106
670.334859	16119.306193
670.674973	16114.159175
671.015035	16293.047039
671.355047	16327.435270
671.695008	16360.331320
672.034918	16379.424690
672.374777	16506.398752
672.714585	16508.979823
673.054342	16647.019218
673.394049	16648.549209
673.733705	16821.992627
674.073310	16741.745020
674.412864	16844.748396
674.752368	16761.022392
675.091820	16950.935260
675.431223	16807.965617
675.770574	16771.971778
676.109875	16754.685662
676.449125	16709.423662
676.788324	16734.982312
677.127473	16537.638783
677.466571	16552.517748
677.805619	16467.977598
678.144616	16490.796381
678.483562	16535.791200
678.822458	16428.283553
679.161303	16458.180116
679.500098	16471.337528
679.838842	16490.226731
680.177535	16591.158193
680.516179	16797.336344
680.854771	16932.212415
681.193314	17432.040298
681.531805	18092.320547
681.870247	18591.031814
682.208638	19071.796574
682.546978	19292.558784
682.885268	19448.542166
683.223508	19249.666126
683.561697	19150.670467
683.899836	19120.171487
684.237925	18938.044681
684.575963	18914.373943
684.913951	18748.968644
685.251889	18914.646165
685.589776	18972.392582
685.927614	19047.309170
686.265401	19215.270333
686.603137	19324.965841
686.940824	19686.630821
687.278460	19936.964439
687.616046	20085.209650
687.953582	20539.805780
688.291068	20544.458765
688.628504	20802.172632
688.965889	20871.453209
689.303224	20773.533837
689.640510	20654.736526
689.977745	20330.716363
690.314930	19930.947822
690.652065	19725.235977
690.989150	19378.467607
691.326185	18908.944620
691.663170	18561.001661
692.000105	18139.813257
692.336990	17789.080019
692.673825	17575.072956
693.010610	17308.201833
693.347345	17017.423038
693.684030	16658.820560
694.020665	16567.046354
694.357251	16173.390212
694.693786	16219.839403
695.030272	16113.768485
695.366707	15831.254662
695.703093	15684.698237
696.039429	15765.018942
696.375716	15647.539892
696.711952	15678.618606
697.048139	15612.778616
697.384276	15543.140117
697.720363	15649.846220
698.056400	15612.400529
698.392388	15538.671134
698.728326	15576.323512
699.064214	15502.883983
699.400053	15544.959973
699.735842	15328.245811
700.071581	15222.817640
700.407270	15097.476911
700.742910	15018.976063
701.078501	14883.560589
701.414042	14776.730977
701.749533	14598.226240
702.084974	14411.915276
702.420366	14606.856695
702.755709	14358.579868
703.091002	14174.492053
703.426246	14248.597015
703.761440	14233.879366
704.096584	14097.596813
704.431679	14082.375049
704.766725	14073.356425
705.101721	14046.199729
705.436668	14170.012988
705.771565	13993.091173
706.106413	14241.327671
706.441212	14322.782635
706.775961	14413.815791
707.110661	14506.436911
707.445311	14794.027176
707.779913	14732.636004
708.114465	14976.209435
708.448967	15227.679833
708.783421	15697.999322
709.117825	15993.605022
709.452180	16176.644277
709.786485	16524.098244
710.120742	17107.705063
710.454949	17193.313937
710.789107	17585.399760
711.123216	18122.295248
711.457275	18294.566598
711.791286	18723.692298
712.125247	18862.230768
712.459159	18686.964972
712.793023	19290.189441
713.126837	18562.556857
713.460602	18792.846847
713.794318	18595.468030
714.127985	18437.132949
714.461602	17796.891287
714.795171	17830.528386
715.128691	17120.965818
715.462162	16769.955317
715.795584	16460.025178
716.128957	16293.974612
716.462281	16047.540327
716.795556	15848.437435
717.128782	15522.615059
717.461960	15081.226752
717.795088	15079.109467
718.128167	14832.972610
718.461198	14521.005845
718.794180	14437.141210
719.127113	14198.747565
719.459997	14080.633330
719.792833	13803.662256
720.125619	13860.428169
720.458357	13603.777985
720.791046	13522.287733
721.123686	13409.050815
721.456278	13244.094179
721.788821	13258.148916
722.121315	13058.715828
722.453761	13155.377433
722.786158	13071.543044
723.118506	13154.986743
723.450805	13077.635279
723.783056	13234.180750
724.115259	13165.961335
724.447412	13166.619206
724.779518	13358.241025
725.111574	13397.791398
725.443582	13636.565650
725.775542	13610.654119
726.107453	14036.359397
726.439315	13976.777999
726.771129	14320.251976
727.102895	14661.371733
727.434612	14884.422626
727.766281	15026.295819
728.097901	15284.770900
728.429473	15372.124014
728.760996	15398.816923
729.092471	15519.819739
729.423897	15456.601149
729.755276	15381.515683
730.086606	15488.312527
730.417887	15972.981661
730.749120	16455.805733
731.080305	16647.230947
731.411442	17002.183630
731.742530	17123.889687
732.073570	17279.172349
732.404562	17564.325216
732.735506	17450.543853
733.066401	17307.296946
733.397249	16918.571053
733.728048	16425.999910
734.058798	15739.183028
734.389501	15157.388504
734.720156	14741.584052
735.050762	14278.458290
735.381320	13970.907576
735.711831	13760.993930
736.042293	13455.963793
736.372707	13496.570287
736.703073	13322.935304
737.033391	13504.691586
737.363661	13506.778623
737.693883	13606.371659
738.024056	13772.659160
738.354182	13960.429537
738.684260	14254.321245
739.014290	14495.001053
739.344272	14683.678839
739.674207	14975.753210
740.004093	15134.494104
740.333931	15187.650550
740.663722	15274.739004
740.993464	15320.505119
741.323159	15222.134563
741.652806	14989.104706
741.982405	14872.986768
742.311956	14589.860445
742.641460	14514.822870
742.970915	14258.399538
743.300323	13976.382269
743.629683	13812.030571
743.958996	13557.898444
744.288260	13289.141930
744.617477	13034.165409
744.946647	13019.130168
745.275768	12746.239907
745.604842	12573.285481
745.933869	12431.097216
746.262847	12408.129719
746.591778	12339.958195
746.920662	12244.032599
747.249498	12263.410795
747.578286	12403.766600
747.907027	12565.428842
748.235720	12804.054380
748.564365	12876.394938
748.892963	12805.254175
749.221514	12914.891709
749.550017	12800.893577
749.878473	12782.934466
750.206881	12590.558994
750.535242	12529.631609
750.863555	12466.365128
751.191821	12389.822769
751.520039	12416.245977
751.848210	12352.162829
752.176334	12396.852658
752.504411	12335.002741
752.832440	12186.119824
753.160421	12291.222841
753.488356	12198.342102
753.816243	12127.017336
754.144082	11986.343938
754.471875	11938.886516
754.799620	11921.590317
755.127318	11913.337948
755.454969	11896.744990
755.782572	11880.336035
756.110129	11904.606670
756.437638	11829.185967
756.765100	11831.905670
757.092515	11867.891946
757.419882	11903.812688
757.747203	11914.215109
758.074477	11988.761172
758.401703	11974.179634
758.728882	12149.039617
759.056014	12185.764423
759.383099	12345.379956
759.710138	12462.140641
760.037129	12580.000298
760.364073	12638.185295
760.690970	12665.263853
761.017820	12693.590097
761.344623	12914.533787
761.671379	13276.390331
761.998088	13923.152725
762.324751	15520.235634
762.651366	18557.160302
762.977935	22563.834091
763.304456	25236.812656
763.630931	26212.495216
763.957359	25186.965727
764.283740	23169.485875
764.610074	21158.859472
764.936362	18797.517476
765.262602	17093.783916
765.588796	15384.500046
765.914943	14235.157299
766.241044	13236.270308
766.567097	12507.848783
766.893104	11871.811443
767.219064	11461.428753
767.544978	11035.584843
767.870845	10689.222286
768.196665	10492.387914
768.522438	10283.422004
768.848165	10105.494479
769.173846	9924.786758
769.499479	9806.702770
769.825066	9658.739864
770.150607	9455.437691
770.476101	9381.390703
770.801548	9275.072768
771.126949	9135.455492
771.452303	9034.166108
771.777611	8857.347637
772.102872	8848.865896
772.428087	8726.290240
772.753256	8577.740039
773.078378	8505.601127
773.403453	8340.964604
773.728482	8233.845126
774.053465	8177.132146
774.378401	8079.595901
774.703291	7964.251780
775.028135	7854.021910
775.352932	7832.102973
775.677683	7728.247643
776.002388	7634.890514
776.327046	7650.533215
776.651658	7554.806744
776.976224	7461.081612
777.300743	7461.651263
777.625216	7387.251393
777.949643	7345.359405
778.274024	7363.114349
778.598359	7288.515354
778.922647	7306.345915
779.246889	7254.084273
779.571086	7269.971470
779.895236	7270.044567
780.219339	7281.384642
780.543397	7282.092924
780.867409	7354.924994
781.191374	7370.678600
781.515294	7341.598704
781.839167	7434.076151
782.162995	7408.719147
782.486776	7362.053186
782.810511	7321.386198
783.134201	7241.191522
783.457844	7241.851914
783.781441	7196.176539
784.104993	7136.736294
784.428498	7114.630835
784.751958	7108.624300
785.075372	7079.138591
785.398739	7028.661518
785.722061	7076.096255
786.045337	7083.743685
786.368568	7228.666776
786.691752	7249.433809
787.014891	7566.459372
787.337983	7905.862616
787.661030	8454.567006
787.984031	9032.590748
788.306987	9422.294625
788.629897	9623.184606
788.952760	9579.064427
789.275579	9385.615190
789.598351	9018.737657
789.921078	8689.729272
790.243759	8308.139131
790.566395	8044.285139
790.888984	7804.817728
791.211529	7605.510670
791.534027	7392.532002
791.856480	7208.897891
792.178888	7138.936758
792.501249	7048.039713
792.823566	6900.515387
793.145836	6898.629995
793.468062	6878.097376
793.790241	6833.427711
794.112375	6897.427680
794.434464	7043.462345
794.756507	7081.107162
795.078505	7233.554174
795.400457	7525.179883
795.722364	7852.159204
796.044226	8122.677602
796.366042	8385.525884
796.687812	8334.859767
797.009538	8420.637520
797.331218	8328.802821
797.652852	8250.390193
797.974442	8107.438194
798.295986	8030.041359
798.617484	7850.414965
798.938938	7714.240797
799.260346	7612.298583
799.581709	7431.064062
799.903026	7354.937597
800.224299	7258.228102
800.545526	7093.926816
800.866708	6999.692527
801.187845	6943.854186
801.508936	6842.201840
801.829983	6809.295708
802.150984	6660.934550
802.471940	6618.571214
802.792851	6608.093176
803.113717	6576.825419
803.434538	6541.459204
803.755314	6491.201421
804.076045	6496.305589
804.396731	6440.850376
804.717372	6468.168389
805.037967	6465.287369
805.358518	6508.510222
805.679024	6585.904537
805.999485	6594.512307
806.319901	6631.388348
806.640272	6650.464074
806.960598	6734.492547
807.280879	6733.317958
807.601115	6813.976419
807.921306	6763.116218
808.241453	6779.668847
808.561554	6803.132897
808.881611	6771.668536
809.201623	6780.004083
809.521590	6730.353759
809.841513	6717.428241
810.161390	6751.579538
810.481223	6628.545137
810.801011	6616.542149
811.120755	6598.041115
811.440453	6522.827099
811.760107	6499.438666
812.079716	6467.981866
812.399281	6405.821919
812.718801	6392.979579
813.038276	6355.967428
813.357707	6297.167409
813.677093	6341.138874
813.996434	6246.077836
814.315731	6289.099042
814.634983	6283.553773
814.954191	6294.450227
815.273354	6401.441156
815.592473	6459.275793
815.911547	6581.012097
816.230577	6665.209449
816.549562	6807.901829
816.868502	6906.242138
817.187399	6996.574573
817.506250	7153.525857
817.825058	7182.028541
818.143821	7452.120961
818.462539	7715.506126
818.781213	8069.543840
819.099843	8599.515303
819.418429	9565.841481
819.736970	10504.837043
820.055466	11648.392546
820.373919	13134.577632
820.692327	15441.570949
821.010691	19455.080542
821.329011	28073.018742
821.647286	40384.622968
821.965517	53477.505216
822.283704	59215.344003
822.601847	61406.010175
822.919945	58668.003245
823.237999	54342.796589
823.556010	48170.543931
823.873976	41670.954030
824.191897	35373.595057
824.509775	30703.805371
824.827609	26366.762085
825.145398	23870.954871
825.463144	22556.242113
825.780845	22864.571685
826.098502	24582.498613
826.416116	28219.068531
826.733685	31730.658162
827.051210	32822.335151
827.368692	31088.147981
827.686129	27270.658614
828.003522	23307.006032
828.320872	19732.064220
828.638177	16974.016183
828.955439	14890.565272
829.272656	13138.786996
829.589830	11710.330683
829.906960	10468.056785
830.224046	9557.579030
830.541088	8834.710336
830.858086	8391.340855
831.175041	8023.016511
831.491952	7907.380003
831.808819	7955.530584
832.125642	8357.297943
832.442421	9229.011745
832.759157	10974.602005
833.075849	13808.511846
833.392497	16913.497131
833.709101	19021.884110
834.025662	18870.873826
834.342179	17220.644553
834.658653	15111.750938
834.975083	13243.776586
835.291469	11676.509582
835.607811	10392.137008
835.924110	9499.089042
836.240366	8656.510588
836.556578	7863.131275
836.872746	7236.742704
837.188871	6755.763695
837.504952	6350.623805
837.820990	6045.288678
838.136984	5826.671480
838.452935	5736.328962
838.768842	5769.648468
839.084706	6184.479977
839.400526	7361.876746
839.716303	8894.137978
840.032037	9961.922418
840.347727	9894.073528
840.663373	8948.932799
840.978977	7927.975637
841.294537	7143.567058
841.610054	6562.742956
841.925527	6126.504187
842.240957	5780.439058
842.556344	5455.773627
842.871687	5175.190565
843.186987	4902.708638
843.502244	4680.353424
843.817458	4521.312582
844.132629	4388.712592
844.447756	4294.296822
844.762840	4218.989545
845.077881	4145.524810
845.392879	4086.792847
845.707833	4037.490362
846.022745	3993.574351
846.337613	3965.031337
846.652438	3919.524842
846.967221	3907.332811
847.281960	3875.755023
847.596656	3856.641489
847.911309	3837.414528
848.225919	3815.001558
848.540485	3800.107469
848.855009	3782.286990
849.169490	3762.429885
849.483928	3752.728184
849.798323	3742.696288
850.112675	3726.804051
850.426984	3731.315883
850.741251	3717.049418
851.055474	3715.542113
851.369654	3718.057649
851.683792	3714.175960
851.997887	3723.444122
852.311938	3724.031416
852.625947	3725.536201
852.939914	3714.468347
853.253837	3727.093917
853.567718	3720.610993
853.881555	3714.531362
854.195350	3728.011407
854.509103	3722.851786
854.822812	3721.336919
855.136479	3712.630847
855.450103	3724.739698
855.763685	3710.266546
856.077224	3713.628995
856.390720	3732.331676
856.704173	3748.216352
857.017584	3761.421654
857.330953	3774.763068
857.644278	3794.221922
857.957561	3797.324752
858.270802	3799.326090
858.584000	3804.347079
858.897155	3797.120585
859.210268	3783.975777
859.523339	3759.271602
859.836367	3759.145573
860.149352	3752.662649
860.462295	3743.696957
860.775195	3732.548446
861.088054	3730.882344
861.400869	3723.797003
861.713642	3727.419072
862.026373	3733.508785
862.339062	3740.805856
862.651708	3758.190275
862.964312	3796.689567
863.276873	3804.639466
863.589392	3862.642982
863.901869	3910.118049
864.214303	3952.294862
864.526696	3985.022033
864.839045	4034.011966
865.151353	4059.008527
865.463619	4067.996905
865.775842	4073.063264
866.088023	4094.384825
866.400162	4088.519442
866.712258	4092.065894
867.024313	4093.081686
867.336325	4089.729319
867.648296	4096.315587
867.960224	4091.912139
868.272110	4108.184983
868.583954	4108.951239
868.895755	4126.350781
869.207515	4119.610758
869.519233	4164.164476
869.830909	4175.386085
870.142542	4199.863407
870.454134	4210.875808
870.765684	4244.548195
871.077191	4277.998771
871.388657	4304.384170
871.700081	4342.039069
872.011463	4384.561202
872.322803	4415.150923
872.634101	4448.462868
872.945357	4487.299917
873.256571	4538.883524
873.567744	4564.253131
873.878874	4585.037808
874.189963	4626.534066
874.501010	4632.280981
874.812015	4635.920694
875.122979	4671.859080
875.433900	4676.933001
875.744780	4685.996996
876.055618	4714.368610
876.366415	4714.988672
876.677169	4737.071446
876.987882	4779.883445
877.298554	4832.954192
877.609183	4913.947891
877.919771	5021.032081
878.230317	5164.107588
878.540822	5370.769690
878.851285	5692.513773
879.161707	6154.454864
879.472087	6904.631489
879.782425	8127.151626
880.092722	10281.239185
880.402977	13522.834698
880.713191	17167.800658
881.023363	20780.699837
881.333494	22909.279158
881.643583	24129.777792
881.953631	24172.131046
882.263637	23371.578171
882.573602	21936.190272
882.883526	20415.087634
883.193408	18782.068860
883.503248	17112.088346
883.813048	15595.752119
884.122806	14199.158419
884.432522	12734.153741
884.742197	11502.299908
885.051831	10422.928375
885.361424	9438.726266
885.670975	8630.601578
885.980485	7954.731561
886.289954	7386.701908
886.599382	6913.108189
886.908768	6545.318207
887.218113	6186.161202
887.527417	5904.209467
887.836680	5639.319517
888.145901	5422.318009
888.455082	5259.029995
888.764221	5111.114979
889.073319	4980.014732
889.382376	4909.771295
889.691392	4847.258466
890.000366	4824.936237
890.309300	4803.463442
890.618193	4809.525430
890.927044	4796.131084
891.235855	4819.726205
891.544625	4850.653683
891.853353	4916.896966
892.162041	5029.498698
892.470687	5216.601123
892.779293	5465.823167
893.087858	5831.810936
893.396381	6402.313276
893.704864	7196.567229
894.013306	8333.218872
894.321707	9484.247885
894.630068	10277.780953
894.938387	10476.281427
895.246665	10245.588145
895.554903	9654.291046
895.863100	8967.706056
896.171256	8419.687263
896.479371	7927.237108
896.787446	7433.960204
897.095480	7007.133270
897.403473	6693.376896
897.711425	6377.936776
898.019336	6115.116220
898.327207	5845.991702
898.635038	5617.750941
898.942827	5378.593561
899.250576	5191.269325
899.558284	4999.932331
899.865952	4879.713415
900.173579	4735.748143
900.481165	4627.491885
900.788711	4536.325138
901.096216	4464.178665
901.403681	4402.202720
901.711105	4376.263463
902.018489	4361.555896
902.325832	4430.554169
902.633135	4551.294845
902.940397	4897.864089
903.247619	5681.960117
903.554800	7107.981553
903.861941	8996.919543
904.169041	10492.886988
904.476101	11107.418765
904.783121	10755.402554
905.090100	10029.489003
905.397039	9209.709167
905.703938	8466.622926
906.010796	7779.627083
906.317614	7237.387972
906.624391	6708.860800
906.931129	6286.492766
907.237826	5892.544237
907.544483	5513.575497
907.851099	5148.875742
908.157675	4798.810457
908.464211	4476.151405
908.770707	4245.493411
909.077163	4047.698699
909.383578	3907.763830
909.689954	3793.891726
909.996289	3724.732137
910.302584	3661.758043
910.608839	3624.027527
910.915054	3594.935028
911.221229	3581.192842
911.527363	3590.040068
911.833458	3604.440123
912.139513	3633.625884
912.445527	3664.933970
912.751502	3746.918255
913.057436	3849.737628
913.363331	3981.531034
913.669186	4183.477137
913.975000	4438.730920
914.280775	4862.402092
914.586510	5439.878868
914.892205	6228.048149
915.197859	7251.230980
915.503475	8456.457439
915.809050	9488.253082
916.114585	10125.195309
916.420081	10381.500173
916.725536	10347.825265
917.030952	9910.850488
917.336328	9499.452005
917.641665	9100.469884
917.946961	8632.066033
918.252218	8222.263075
918.557435	7707.387348
918.862612	7285.888913
919.167750	6920.720331
919.472848	6497.770044
919.777906	6128.971832
920.082925	5770.349188
920.387904	5410.675464
920.692843	5147.738962
920.997743	4907.709463
921.302603	4674.349410
921.607423	4513.823948
921.912204	4356.214794
922.216946	4237.031834
922.521647	4117.322075
922.826310	4010.058924
923.130932	3921.627003
923.435516	3822.732167
923.740059	3752.639964
924.044564	3674.923016
924.349028	3616.506125
924.653454	3553.171589
924.957840	3487.230776
925.262186	3439.790998
925.566493	3379.037532
925.870761	3325.344203
926.174989	3287.112092
926.479178	3251.793768
926.783328	3208.170143
927.087438	3181.129394
927.391509	3147.376348
927.695541	3116.247223
927.999533	3090.796958
928.303486	3072.149730
928.607400	3054.367060
928.911275	3041.940616
929.215110	3027.404448
929.518906	3014.685617
929.822663	3013.586646
930.126381	3012.896008
930.430060	3020.722399
930.733699	3025.841691
931.037299	3028.833616
931.340861	3026.623070
931.644383	3036.775953
931.947866	3037.443906
932.251309	3031.011394
932.554714	3030.217412
932.858080	3022.844725
933.161407	3016.434898
933.464694	3010.599762
933.767943	3002.453258
934.071153	2998.286744
934.374323	2987.571771
934.677455	2982.613797
934.980548	2975.951912
935.283602	2969.542085
935.586617	2967.855819
935.889593	2977.250009
936.192530	2979.188333
936.495428	2992.481855
936.798287	3015.835000
937.101108	3046.704506
937.403890	3098.842640
937.706632	3156.793224
938.009336	3235.011767
938.312002	3308.368117
938.614628	3371.059906
938.917216	3424.211312
939.219765	3456.441929
939.522275	3488.599449
939.824747	3491.858555
940.127179	3491.001559
940.429573	3486.159531
940.731929	3483.563337
941.034246	3467.245122
941.336524	3458.072742
941.638763	3437.489711
941.940964	3428.874379
942.243126	3384.819736
942.545250	3359.044316
942.847335	3328.762105
943.149381	3291.409675
943.451389	3260.451950
943.753359	3225.360478
944.055290	3203.292827
944.357182	3175.823579
944.659036	3162.446878
944.960851	3153.604694
945.262628	3142.430976
945.564367	3143.315699
945.866067	3135.461581
946.167729	3128.414048
946.469352	3129.654172
946.770937	3125.679222
947.072484	3111.813528
947.373992	3113.434259
947.675462	3105.181891
947.976893	3085.934765
948.278286	3081.589291
948.579641	3075.192066
948.880958	3068.449523
949.182236	3072.245512
949.483476	3063.846950
949.784678	3065.271076
950.085841	3066.128072
950.386967	3075.681058
950.688054	3095.432299
950.989103	3112.723457
951.290114	3134.937301
951.591087	3162.822444
951.892021	3187.410672
952.192917	3216.659446
952.493776	3239.420256
952.794596	3248.184302
953.095378	3253.545569
953.396122	3248.925351
953.696828	3244.637850
953.997496	3233.131416
954.298126	3209.707695
954.598718	3188.759180
954.899272	3164.241528
955.199788	3134.473515
955.500266	3104.032508
955.800706	3069.460274
956.101108	3032.826209
956.401472	3001.631549
956.701798	2970.865388
957.002087	2928.756629
957.302337	2902.232598
957.602550	2875.726212
957.902724	2846.878209
958.202861	2821.503561
958.502960	2799.108235
958.803022	2778.063938
959.103045	2760.472832
959.403031	2741.966756
959.702979	2727.924622
960.002889	2714.426932
960.302762	2702.912937
960.602596	2692.573531
960.902393	2683.585153
961.202153	2676.068793
961.501875	2667.342556
961.801559	2662.046823
962.101205	2655.881492
962.400814	2650.419402
962.700385	2642.489667
962.999918	2636.709984
963.299414	2631.245373
963.598873	2630.413583
963.898293	2621.074846
964.197677	2627.204889
964.497022	2622.251955
964.796331	2616.076542
965.095601	2614.092847
965.394835	2613.543362
965.694030	2612.414143
965.993189	2609.880963
966.292309	2605.691765
966.591393	2606.720160
966.890439	2608.282918
967.189447	2606.954574
967.488419	2610.531272
967.787353	2609.195367
968.086249	2608.797115
968.385108	2614.163424
968.683930	2616.169803
968.982714	2619.907818
969.281462	2624.754888
969.580172	2629.632204
969.878844	2634.136475
970.177480	2644.173412
970.476078	2651.629279
970.774639	2658.102121
971.073162	2665.197545
971.371649	2671.138544
971.670098	2677.447548
971.968510	2681.593897
972.266885	2684.573219
972.565223	2690.647810
972.863524	2689.085052
973.161788	2695.406659
973.460014	2698.539736
973.758204	2700.578883
974.056356	2704.392516
974.354471	2703.656507
974.652550	2706.557691
974.950591	2707.631457
975.248595	2702.454192
975.546563	2701.987885
975.844493	2698.020497
976.142386	2693.959848
976.440243	2686.509022
976.738062	2680.910821
977.035845	2675.599966
977.333590	2673.167609
977.631299	2666.036897
977.928971	2661.935918
978.226606	2652.899650
978.524204	2652.667757
978.821765	2648.642395
979.119290	2651.210863
979.416777	2648.193733
979.714228	2654.101965
980.011642	2655.984836
980.309020	2661.779642
980.606360	2678.165913
980.903664	2699.805066
981.200931	2736.907958
981.498162	2785.703807
981.795356	2860.907740
982.092513	2946.698096
982.389633	3047.914383
982.686717	3145.155720
982.983764	3218.038202
983.280775	3267.010491
983.577749	3272.681789
983.874686	3263.711056
984.171587	3229.320304
984.468451	3190.326979
984.765279	3151.036226
985.062070	3099.669389
985.358824	3055.650033
985.655543	2997.812875
985.952224	2951.275464
986.248869	2885.374980
986.545478	2828.788028
986.842050	2774.983793
987.138586	2727.881772
987.435086	2687.073632
987.731549	2661.789725
988.027975	2635.429531
988.324366	2617.530914
988.620719	2605.643874
988.917037	2592.625094
989.213318	2584.642427
989.509563	2578.620768
989.805772	2572.321847
990.101944	2567.626012
990.398080	2565.004612
990.694180	2566.322874
990.990244	2565.717935
991.286271	2565.372616
991.582262	2566.615261
991.878217	2568.621640
992.174136	2570.159192
992.470019	2575.028946
992.765865	2580.163362
993.061676	2583.233424
993.357450	2591.120309
993.653188	2598.954262
993.948890	2617.782972
994.244556	2637.753503
994.540186	2657.764363
994.835780	2692.485310
995.131337	2727.856566
995.426859	2767.558173
995.722345	2815.857468
996.017795	2864.723893
996.313208	2901.146230
996.608586	2931.478853
996.903928	2940.913372
997.199234	2938.307095
997.494504	2936.792229
997.789738	2921.772111
998.084936	2898.199675
998.380099	2867.932588
998.675225	2842.290759
998.970316	2809.944195
999.265371	2773.630243
999.560390	2736.456775
999.855373	2709.267312
1000.150320	2680.409226
1000.445232	2655.228663
1000.740108	2634.580097
1001.034948	2616.615945
1001.329752	2603.824017
1001.624521	2590.152408
1001.919254	2579.087075
1002.213951	2571.941240
1002.508613	2562.015208
1002.803239	2559.829868
1003.097829	2551.128836
1003.392384	2546.037271
1003.686903	2543.214224
1003.981386	2536.562422
1004.275834	2535.997813
1004.570246	2531.793490
1004.864623	2531.256607
1005.158964	2524.763601
1005.453270	2525.098838
1005.747540	2522.752181
1006.041775	2522.366533
1006.335974	2522.558097
1006.630138	2518.207581
1006.924266	2519.175482
1007.218359	2517.453928
1007.512416	2517.005266
1007.806438	2514.431757
1008.100425	2518.041223
1008.394376	2514.343536
1008.688292	2519.001562
1008.982172	2516.133146
1009.276017	2517.642972
1009.569827	2516.531397
1009.863602	2514.691376
1010.157341	2515.087107
1010.451045	2514.736746
1010.744714	2510.759276
1011.038347	2513.300018
1011.331945	2507.296003
1011.625508	2509.856909
1011.919036	2508.155520
1012.212528	2510.681138
1012.505986	2507.704337
1012.799408	2504.762823
1013.092795	2507.946312
1013.386147	2505.685355
1013.679464	2505.380365
1013.972745	2505.511435
1014.265992	2507.389265
1014.559204	2502.758965
1014.852380	2506.864985
1015.145521	2503.842813
1015.438628	2504.311640
1015.731699	2505.052690
1016.024736	2510.368587
1016.317737	2508.049656
1016.610703	2509.723319
1016.903635	2513.010151
1017.196531	2513.121057
1017.489393	2514.968639
1017.782219	2512.717764
1018.075011	2518.651202
1018.367768	2514.973681
1018.660490	2517.620286
1018.953177	2517.620286
1019.245829	2517.620286
