Dividing Wavelength (nm)	Counts (n)	Blue Motor Position (mm): 33.400000	Red Motor Position (mm): 0.000000	
326.493990	2053.811447
326.888308	2053.811447
327.282561	2053.811447
327.676750	2025.018897
328.070874	2028.789680
328.464933	2034.788653
328.858929	2042.897349
329.252859	2054.749102
329.646726	2066.810063
330.040528	2087.067939
330.434265	2099.388519
330.827938	2123.838115
331.221547	2144.400982
331.615091	2166.178767
332.008571	2181.700479
332.401986	2205.282997
332.795338	2224.946018
333.188625	2245.337485
333.581847	2265.423962
333.975006	2281.013731
334.368100	2298.551905
334.761129	2316.901705
335.154095	2332.350321
335.546996	2381.985522
335.939833	2486.440750
336.332606	2496.754951
336.725315	2511.903618
337.117960	2522.973992
337.510540	2533.847761
337.903056	2540.784388
338.295508	2548.288146
338.687896	2555.229815
339.080220	2559.504713
339.472480	2563.555280
339.864676	2569.027453
340.256807	2570.529717
340.648875	2572.324367
341.040879	2575.591035
341.432818	2576.127918
341.824694	2576.879050
342.216506	2576.906776
342.608253	2575.127249
342.999937	2577.521797
343.391557	2574.857547
343.783113	2573.612382
344.174605	2571.943760
344.566033	2571.265725
344.957397	2567.744479
345.348697	2567.003429
345.739934	2561.682492
346.131106	2567.434448
346.522215	2560.296174
346.913260	2561.448078
347.304241	2559.396328
347.695159	2557.026986
348.086012	2556.059084
348.476802	2550.975081
348.867528	2549.634134
349.258191	2546.173382
349.648789	2547.224462
350.039324	2544.182126
350.429796	2546.949719
350.820203	2546.251520
351.210548	2545.739843
351.600828	2546.143135
351.991045	2543.919986
352.381198	2545.029040
352.771288	2541.994265
353.161314	2544.353525
353.551276	2542.989893
353.941175	2539.224151
354.331010	2544.522404
354.720782	2546.455686
355.110490	2551.154042
355.500135	2545.351674
355.889717	2543.889739
356.279235	2542.347146
356.668689	2545.505429
357.058080	2545.452497
357.447408	2547.867209
357.836672	2547.869730
358.225873	2550.143290
358.615010	2547.766386
359.004084	2547.224462
359.393095	2549.593805
359.782043	2545.873433
360.170927	2551.005328
360.559748	2549.293856
360.948505	2551.917777
361.337199	2552.038764
361.725830	2550.723023
362.114398	2552.686553
362.502903	2552.036244
362.891344	2553.740154
363.279722	2552.263096
363.668037	2552.888199
364.056289	2552.333672
364.444478	2557.165618
364.832603	2552.729402
365.220665	2555.741492
365.608665	2556.157387
365.996601	2559.514795
366.384474	2554.403065
366.772284	2558.635114
367.160031	2557.639486
367.547715	2556.979095
367.935336	2558.753581
368.322893	2555.529763
368.710388	2554.665205
369.097820	2557.329455
369.485189	2553.591440
369.872495	2560.654096
370.259738	2560.303736
370.646918	2563.288099
371.034035	2562.567214
371.421090	2561.911864
371.808081	2561.556463
372.195010	2561.047306
372.581875	2561.914385
372.968678	2563.908161
373.355418	2563.958572
373.742096	2564.308933
374.128710	2564.192986
374.515262	2565.407904
374.901751	2563.646021
375.288177	2565.425548
375.674540	2565.584345
376.060841	2567.499983
376.447079	2567.557956
376.833254	2565.990157
377.219367	2568.049469
377.605417	2567.462174
377.991404	2566.494273
378.377329	2566.920250
378.763191	2566.285065
379.148991	2569.458471
379.534727	2569.125755
379.920402	2569.284552
380.306013	2569.019891
380.691563	2571.036353
381.077049	2569.014850
381.462474	2567.149623
381.847835	2570.466702
382.233134	2572.314285
382.618371	2569.503842
383.003545	2575.719584
383.388657	2567.875549
383.773706	2572.266394
384.158693	2571.512742
384.543618	2571.600962
384.928480	2572.213462
385.313280	2572.639439
385.698017	2573.851837
386.082692	2573.428380
386.467305	2572.773030
386.851856	2576.977352
387.236344	2573.319995
387.620770	2574.189594
388.005133	2573.239337
388.389435	2574.950808
388.773674	2571.028791
389.157851	2575.354101
389.541965	2577.060531
389.926018	2576.695048
390.310008	2576.367373
390.693936	2575.840572
391.077802	2577.768813
391.461606	2579.533217
391.845348	2580.115471
392.229027	2581.726119
392.612645	2580.750656
392.996200	2580.092785
393.379694	2581.708475
393.763125	2578.865264
394.146494	2582.590677
394.529801	2581.731160
394.913047	2581.400965
395.296230	2582.880543
395.679351	2584.224011
396.062410	2582.265523
396.445408	2585.897674
396.828343	2583.029258
397.211217	2584.886923
397.594028	2586.860534
397.976778	2583.714854
398.359466	2585.133939
398.742092	2587.049578
399.124656	2588.561924
399.507158	2584.831470
399.889598	2589.121492
400.271977	2590.119640
400.654294	2590.996801
401.036549	2590.848087
401.418742	2590.233066
401.800874	2591.437902
402.182944	2588.622418
402.564952	2590.343972
402.946898	2594.452512
403.328783	2594.722214
403.710606	2593.575351
404.092367	2594.523088
404.474067	2594.139961
404.855705	2595.057451
405.237282	2595.246494
405.618797	2596.219437
406.000250	2596.829416
406.381642	2598.407297
406.762972	2595.014601
407.144240	2596.297574
407.525447	2601.731938
407.906593	2597.197420
408.287677	2601.426948
408.668700	2602.001640
409.049661	2604.249995
409.430560	2604.660849
409.811399	2607.246961
410.192176	2606.087495
410.572891	2610.906838
410.953545	2610.380038
411.334138	2610.677466
411.714669	2609.860799
412.095139	2613.843310
412.475547	2616.575616
412.855894	2617.581326
413.236180	2621.238683
413.616405	2622.380504
413.996568	2626.378139
414.376670	2630.143881
414.756711	2632.656897
415.136691	2639.689306
415.516609	2644.727939
415.896466	2649.542241
416.276262	2662.596309
416.655997	2668.028152
417.035670	2676.991324
417.415283	2691.648479
417.794834	2700.694829
418.174324	2711.079606
418.553753	2719.810885
418.933121	2736.010633
419.312428	2754.806575
419.691674	2764.611619
420.070859	2790.200516
420.449983	2800.058492
420.829045	2829.302226
421.208047	2845.875019
421.586988	2876.769730
421.965867	2902.986251
422.344686	2932.671085
422.723444	2972.176088
423.102141	2962.713842
423.480777	3027.795138
423.859352	3034.542722
424.237866	3103.936726
424.616319	3131.746251
424.994712	3186.921680
425.373044	3208.654094
425.751314	3287.396917
426.129524	3278.776544
426.507673	3358.608256
426.885762	3400.613671
427.263789	3455.295066
427.641756	3513.301103
428.019662	3566.490317
428.397508	3622.958802
428.775292	3664.699556
429.153016	3746.351125
429.530679	3781.984521
429.908282	3846.536496
430.285824	3876.523799
430.663305	3999.089373
431.040726	4021.976211
431.418086	4071.034200
431.795385	4164.504754
432.172624	4277.300571
432.549802	4298.032317
432.926920	4398.414292
433.303977	4437.571455
433.680974	4514.617930
434.057910	4641.213906
434.434786	4721.151482
434.811601	4767.202423
435.188355	4968.241118
435.565050	4984.881966
435.941683	5056.927617
436.318257	5257.154686
436.694770	5301.297549
437.071222	5466.599504
437.447614	5427.671714
437.823946	5484.102391
438.200218	5617.294716
438.576429	5629.890039
438.952580	5778.707421
439.328670	5854.289441
439.704700	5963.969825
440.080670	5973.187575
440.456580	6181.563669
440.832429	6240.741774
441.208218	6161.817470
441.583947	6294.664476
441.959616	6425.275731
442.335224	6513.793352
442.710773	6630.554037
443.086261	6811.377704
443.461689	6704.742177
443.837057	6858.603234
444.212365	7065.192239
444.587612	7131.977445
444.962800	7117.486648
445.337927	7277.749970
445.712995	7017.896133
446.088002	7541.966926
446.462949	7661.953949
446.837837	7730.309474
447.212664	7839.024478
447.587431	8594.017925
447.962139	9412.235002
448.336786	10058.258868
448.711374	9812.028749
449.085901	8974.693096
449.460369	9025.691928
449.834776	9023.960292
450.209124	9847.331950
450.583412	9707.434889
450.957640	9943.799470
451.331808	9661.492334
451.705917	9300.233167
452.079965	9292.956261
452.453954	9514.998924
452.827883	9528.151294
453.201752	9531.410400
453.575562	9603.249363
453.949311	9966.991298
454.323001	10077.145551
454.696632	10042.278410
455.070202	10609.599782
455.443713	10710.221212
455.817164	10885.439117
456.190556	11213.638397
456.563888	11095.481313
456.937160	11331.240955
457.310373	10904.686243
457.683526	10978.612243
458.056619	11047.522296
458.429653	11156.960705
458.802628	11350.377175
459.175542	11435.872623
459.548398	11976.856487
459.921194	12547.666337
460.293930	12891.692319
460.666607	13721.488927
461.039224	14442.283187
461.411782	14713.925762
461.784280	14354.952758
462.156719	14301.075426
462.529099	14230.486670
462.901419	13690.397611
463.273680	13373.956823
463.645882	13622.273979
464.018024	13595.702057
464.390106	14023.262479
464.762130	15185.629048
465.134094	16848.894745
465.505999	19114.830384
465.877845	21100.475349
466.249631	21979.372796
466.621358	21376.619675
466.993026	20559.907381
467.364634	19871.442042
467.736184	19191.811324
468.107674	18659.659562
468.479105	18524.254170
468.850477	18273.285367
469.221790	17858.388323
469.593043	17238.868324
469.964238	16916.052996
470.335373	17028.669853
470.706449	17899.803923
471.077467	19058.263597
471.448425	21404.149416
471.819324	22898.002097
472.190164	22370.924256
472.560945	20700.807631
472.931667	19302.247881
473.302330	19057.522547
473.672934	18619.085836
474.043479	19066.248785
474.413965	18872.764259
474.784393	18720.556701
475.154761	19354.305357
475.525070	19492.919443
475.895321	19337.924127
476.265513	19868.135045
476.635645	20444.122160
477.005719	20517.786020
477.375734	20902.690719
477.745691	21506.739417
478.115588	22190.037574
478.485427	23457.008085
478.855207	25336.889642
479.224928	27075.334067
479.594591	28244.677592
479.964194	27707.572897
480.333739	28086.529034
480.703226	28369.829278
481.072653	28898.036337
481.442022	29389.430369
481.811333	29698.296824
482.180584	29177.873307
482.549777	28981.250663
482.918912	28794.866603
483.287988	28736.588343
483.657005	28564.465707
484.025964	28224.767555
484.394864	28422.826928
484.763706	28351.910496
485.132489	27865.113996
485.501213	27938.039327
485.869879	28136.915367
486.238487	28099.527650
486.607036	28375.999650
486.975527	28097.538914
487.343959	28434.376212
487.712333	28747.326001
488.080648	28736.593385
488.448905	29156.168619
488.817104	29096.163765
489.185244	29993.030405
489.553326	31170.220486
489.921350	33105.345528
490.289315	35520.355648
490.657222	36166.077044
491.025070	36567.385658
491.392861	36185.092277
491.760593	35357.082757
492.128267	34354.682083
492.495883	33413.775923
492.863440	32575.900866
493.230939	31687.606708
493.598380	31173.119150
493.965763	31060.242674
494.333088	30607.622676
494.700354	30436.480544
495.067563	30413.059343
495.434713	30331.916931
495.801805	30630.953136
496.168839	30480.809930
496.535815	30356.820231
496.902733	30504.803302
497.269593	30344.413951
497.636395	30489.463071
498.003139	30785.099018
498.369825	30556.356662
498.736453	30967.659363
499.103023	30820.951704
499.469535	30921.570614
499.835989	31058.604299
500.202385	30923.375347
500.568723	31013.634686
500.935003	31339.908245
501.301226	31237.103995
501.667390	31928.939346
502.033497	32126.623153
502.399546	31928.901537
502.765537	31532.548378
503.131470	32006.618485
503.497345	32450.234983
503.863163	31443.864399
504.228923	32214.059446
504.594625	32603.299537
504.960269	32094.884048
505.325856	32798.984526
505.691385	32471.085195
506.056856	32794.220636
506.422270	33280.334060
506.787625	32843.109746
507.152924	33301.287616
507.518164	33516.552447
507.883347	33070.858994
508.248472	33238.003491
508.613540	33934.731282
508.978550	34179.766647
509.343503	34037.258269
509.708398	34408.438427
510.073236	35007.821537
510.438016	35125.635823
510.802738	34816.098894
511.167403	35388.622737
511.532010	35644.650337
511.896561	36118.884283
512.261053	36863.339198
512.625488	36670.240320
512.989866	36624.940512
513.354186	36682.470159
513.718449	36634.488457
514.082655	37540.779534
514.446803	37239.663853
514.810894	37872.673979
515.174927	37877.876450
515.538904	37888.989674
515.902822	38561.797190
516.266684	38244.096113
516.630488	38609.400805
516.994235	38626.455029
517.357925	39219.698013
517.721558	39497.964665
518.085133	39870.949555
518.448651	40068.262838
518.812112	39967.838012
519.175516	40135.032920
519.538863	40572.247152
519.902152	40639.740640
520.265385	41177.422548
520.628560	41210.784904
520.991678	41174.264265
521.354739	41414.019021
521.717743	41783.371761
522.080690	41702.791437
522.443580	42369.612583
522.806413	42413.079932
523.169189	42553.594533
523.531908	42785.427117
523.894569	42649.091631
524.257174	42849.868186
524.619722	43194.178994
524.982213	43331.656300
525.344647	43385.216039
525.707025	43512.537942
526.069345	43968.389319
526.431608	43866.091705
526.793815	44251.800468
527.155964	43805.749093
527.518057	44090.375160
527.880093	43932.579483
528.242072	44574.356176
528.603995	44314.267926
528.965860	44244.155558
529.327669	44459.881655
529.689421	44519.364749
530.051117	44459.637159
530.412755	44749.160706
530.774337	44816.384493
531.135862	44762.590340
531.497331	44911.453093
531.858743	44921.616059
532.220098	45331.406414
532.581396	45064.300877
532.942638	44830.766905
533.303824	45083.192601
533.664953	45147.439587
534.026025	44830.023335
534.387040	45390.665177
534.747999	45462.327700
535.108902	45775.131296
535.469748	45104.244460
535.830537	45374.684720
536.191270	45619.168078
536.551947	45342.068454
536.912567	45634.861190
537.273131	45789.173430
537.633638	45398.693215
537.994089	45617.973325
538.354483	45353.156472
538.714821	46006.280803
539.075103	46288.943340
539.435328	46151.997875
539.795497	45907.138951
540.155609	46028.908022
540.515665	46607.040148
540.875665	45928.039574
541.235609	46217.074130
541.595496	46319.719584
541.955328	46905.247083
542.315102	46333.776842
542.674821	46220.557568
543.034483	46118.015457
543.394090	46138.522871
543.753640	46113.231402
544.113134	47176.136005
544.472571	46275.581762
544.831953	47423.371834
545.191278	46672.774273
545.550548	46355.932713
545.909761	47016.679268
546.268918	47147.610636
546.628019	47581.119620
546.987064	46997.611104
547.346053	46294.700338
547.704986	47200.688945
548.063863	46848.886983
548.422684	47054.626554
548.781449	46635.366391
549.140158	47182.442489
549.498811	46943.138916
549.857408	46315.989130
550.215949	47190.019343
550.574434	47002.001949
550.932864	46942.105479
551.291237	47654.133172
551.649555	47419.719518
552.007817	47591.025487
552.366022	47257.626257
552.724173	47325.011361
553.082267	47762.162578
553.440305	48082.570755
553.798288	47337.117692
554.156215	47729.619410
554.514086	47935.716902
554.871902	47560.526507
555.229661	47717.578614
555.587365	47410.151408
555.945014	47530.135911
556.302606	47553.887307
556.660143	47636.768918
557.017625	47869.886995
557.375050	47558.242864
557.732421	47976.449425
558.089735	48043.395948
558.446994	47918.881969
558.804197	48385.942352
559.161345	48249.826157
559.518437	47586.750589
559.875474	47843.703242
560.232455	48086.134851
560.589381	48139.298859
560.946251	47935.762273
561.303065	48599.036967
561.659825	48280.428482
562.016528	48084.761136
562.373177	47662.894697
562.729770	48304.754570
563.086307	47816.516299
563.442789	48355.297178
563.799216	48220.322804
564.155587	48104.953478
564.511904	48071.034074
564.868164	48125.770923
565.224370	48420.282692
565.580520	48167.304989
565.936615	48355.783649
566.292654	48004.695010
566.648638	48388.956962
567.004567	48323.074123
567.360441	48408.294828
567.716260	48133.428436
568.072023	48498.314713
568.427732	48434.864230
568.783385	47951.810786
569.138982	48366.206235
569.494525	48497.450155
569.850013	48096.128938
570.205445	48233.669259
570.560823	47997.831479
570.916145	47880.617091
571.271412	48107.816853
571.626625	47755.493132
571.981782	47828.030294
572.336884	47409.725431
572.691931	47759.750386
573.046923	47406.466325
573.401860	47239.891478
573.756743	47251.007222
574.111570	47399.892660
574.466342	47302.142166
574.821059	47462.854151
575.175722	46965.481310
575.530330	47066.821105
575.884882	46688.782457
576.239380	46596.693179
576.593823	46685.888835
576.948211	46623.993548
577.302544	46169.664599
577.656823	46164.557910
578.011047	46430.161183
578.365216	46233.546100
578.719330	45964.366129
579.073389	45928.435305
579.427394	45994.297980
579.781344	45920.543379
580.135239	45672.503486
580.489080	45742.711636
580.842866	45232.597278
581.196597	45725.425519
581.550273	45715.708695
581.903895	45649.674621
582.257463	46090.707527
582.610975	45519.575043
582.964434	45855.141969
583.317837	45357.948089
583.671186	45323.171689
584.024481	45586.566936
584.377721	45121.349095
584.730906	45343.666500
585.084037	45460.956506
585.437113	45161.448953
585.790135	45294.091793
586.143103	44832.463253
586.496016	45005.568914
586.848874	45114.868692
587.201679	45144.566129
587.554428	44638.348583
587.907124	44909.353452
588.259765	44671.441237
588.612352	44820.525801
588.964884	44278.329540
589.317362	44601.686792
589.669786	44601.853150
590.022155	44454.164986
590.374470	44899.936577
590.726731	44466.667048
591.078937	43802.658866
591.431090	44137.701512
591.783188	43691.471177
592.135232	43483.846214
592.487222	43732.793515
592.839157	43894.087753
593.191038	43525.597051
593.542866	43329.438193
593.894639	42742.126126
594.246358	43033.862740
594.598022	43013.826674
594.949633	42591.448558
595.301190	42583.264244
595.652692	42519.891899
596.004141	43015.638969
596.355535	41909.390525
596.706876	41913.562079
597.058162	41659.364417
597.409395	42145.374498
597.760573	42361.430790
598.111698	41963.673669
598.462768	41876.413817
598.813785	41908.778024
599.164748	41502.264419
599.515657	41770.937755
599.866511	41277.471808
600.217312	41973.950061
600.568060	40903.718141
600.918753	41746.989753
601.269392	41668.990501
601.619978	41381.049875
601.970510	41585.461102
602.320988	41727.999727
602.671412	41979.893582
603.021783	41860.582073
603.372100	41418.853488
603.722363	41548.673282
604.072572	41560.298183
604.422728	41562.876733
604.772830	41350.636594
605.122878	41501.276353
605.472872	41366.465817
605.822813	41626.491053
606.172701	41367.622762
606.522534	41703.285470
606.872314	41908.909094
607.222041	41752.514858
607.571714	42074.798344
607.921333	41563.945457
608.270899	41799.579070
608.620411	42164.795543
608.969870	41904.944227
609.319276	41932.413474
609.668627	41956.737042
610.017926	42375.382183
610.367171	42493.887107
610.716362	42549.536405
611.065500	42421.700305
611.414585	42654.836026
611.763616	42831.510824
612.112594	42724.406470
612.461518	42861.921585
612.810389	43253.725103
613.159207	43037.331054
613.507971	43026.074157
613.856682	43518.650341
614.205340	43326.282430
614.553945	44031.305440
614.902496	43351.624311
615.250994	43782.945434
615.599439	43831.474101
615.947830	43946.793016
616.296169	43934.389257
616.644454	43989.244573
616.992686	44146.780630
617.340864	44619.454338
617.688990	44122.746929
618.037063	44805.775385
618.385082	44630.348272
618.733048	44956.233662
619.080961	44837.635477
619.428821	44858.024424
619.776628	44870.140837
620.124382	44679.796950
620.472083	44786.848373
620.819731	44887.285801
621.167326	44437.677892
621.514868	44420.331282
621.862357	43898.188731
622.209793	43972.079444
622.557176	43545.812078
622.904506	43304.928103
623.251783	42918.942076
623.599007	42618.191879
623.946179	42537.762790
624.293297	42266.664659
624.640363	41725.640467
624.987376	41572.104565
625.334336	41372.253062
625.681243	40952.735800
626.028097	40860.366738
626.374899	40682.119100
626.721647	40652.620788
627.068343	40445.310898
627.414987	40161.788844
627.761577	39901.287219
628.108115	40224.979708
628.454600	39468.801590
628.801032	39718.482378
629.147412	39596.509140
629.493739	39495.446608
629.840014	39063.984333
630.186236	39481.868260
630.532405	38937.985734
630.878521	39160.620732
631.224585	38945.098802
631.570597	38605.773695
631.916556	38762.891337
632.262462	38650.415633
632.608316	38582.087834
632.954117	38425.610418
633.299866	38404.195597
633.645562	38319.748708
633.991206	37771.540872
634.336797	37375.865747
634.682336	37239.772237
635.027823	37006.986876
635.373257	36880.153966
635.718639	36557.860398
636.063968	36454.388195
636.409245	35786.256349
636.754470	35760.362462
637.099642	35523.077871
637.444762	34952.663752
637.789829	35101.655054
638.134845	34717.287238
638.479808	34645.448275
638.824719	34584.334367
639.169577	34057.606887
639.514383	34169.573434
639.859137	33787.781648
640.203839	33956.962771
640.548489	33655.305166
640.893086	33646.667148
641.237632	33375.879049
641.582125	33472.243225
641.926566	33272.865591
642.270955	33298.111689
642.615292	33235.235898
642.959576	33123.012252
643.303809	33123.939824
643.647990	33222.270050
643.992118	33164.977337
644.336195	33019.419061
644.680219	33106.333594
645.024192	33304.405570
645.368112	33846.276676
645.711981	33853.115001
646.055797	34602.119557
646.399562	34406.956328
646.743274	35266.243686
647.086935	35677.914391
647.430544	35620.611595
647.774101	35664.265467
648.117606	35947.752233
648.461059	36083.618891
648.804460	35677.627045
649.147810	35152.674051
649.491108	34805.966175
649.834354	34656.110315
650.177548	33820.418078
650.520690	33329.634024
650.863781	33316.617765
651.206820	33148.172650
651.549807	32742.150558
651.892742	32156.847391
652.235626	32050.461400
652.578458	31917.939548
652.921238	31234.628788
653.263967	31537.851672
653.606644	31239.133059
653.949269	31158.643476
654.291843	30746.367832
654.634365	31125.800359
654.976836	30669.404537
655.319255	30730.226058
655.661622	30610.712903
656.003938	30473.908591
656.346203	30303.537755
656.688416	30534.594001
657.030577	30299.041046
657.372687	30128.211466
657.714746	30289.908996
658.056753	30488.096918
658.398708	29855.106956
658.740612	29921.166236
659.082465	30145.941204
659.424266	30034.894667
659.766016	30032.628668
660.107715	29892.517359
660.449362	30001.302938
660.790958	29981.718055
661.132503	29903.625541
661.473996	29994.119294
661.815438	30059.278728
662.156829	30175.905822
662.498168	29976.656737
662.839456	29961.588728
663.180693	30092.938512
663.521879	30188.969972
663.863013	30129.040735
664.204097	30113.476173
664.545129	30523.939522
664.886110	30451.876228
665.227040	30572.669836
665.567918	30564.760265
665.908746	30640.536369
666.249522	30740.767111
666.590248	30753.652300
666.930922	30847.022031
667.271545	30844.105723
667.612118	30897.342828
667.952639	30711.588912
668.293109	30755.091549
668.633528	30602.367273
668.973896	30572.188405
669.314213	30547.539684
669.654480	30352.890651
669.994695	30345.099548
670.334859	30263.929409
670.674973	30089.901217
671.015035	30292.520313
671.355047	30222.927185
671.695008	30162.166157
672.034918	30067.468082
672.374777	30164.848051
672.714585	30036.858196
673.054342	30165.611786
673.394049	30022.556443
673.733705	30231.592928
674.073310	29944.847056
674.412864	30018.750372
674.752368	29698.858913
675.091820	29932.166034
675.431223	29529.503870
675.770574	29321.621809
676.109875	29164.060546
676.449125	28951.434759
676.788324	28864.933600
677.127473	28372.768270
677.466571	28279.426266
677.805619	27990.578233
678.144616	27939.589482
678.483562	27882.440442
678.822458	27552.196974
679.161303	27508.296085
679.500098	27423.438343
679.838842	27360.192027
680.177535	27448.573536
680.516179	27695.234673
680.854771	27813.714391
681.193314	28603.985833
681.531805	29632.424067
681.870247	30379.233201
682.208638	31119.637548
682.546978	31383.746119
682.885268	31515.395852
683.223508	31058.364844
683.561697	30793.575718
683.899836	30628.130090
684.237925	30219.358048
684.575963	30072.395810
684.913951	29694.173161
685.251889	29859.291114
685.589776	29885.742048
685.927614	29904.235521
686.265401	30088.875342
686.603137	30201.030933
686.940824	30713.779293
687.278460	31054.468032
687.616046	31222.451881
687.953582	31883.889074
688.291068	31802.330767
688.628504	32127.959058
688.965889	32114.917593
689.303224	31839.947857
689.640510	31531.005785
689.977745	30905.312893
690.314930	30163.151703
690.652065	29704.825119
690.989150	29044.640652
691.326185	28187.896556
691.663170	27540.536785
692.000105	26803.656204
692.336990	26193.021238
692.673825	25784.849094
693.010610	25279.768328
693.347345	24773.034064
693.684030	24157.113449
694.020665	23956.858653
694.357251	23271.554117
694.693786	23281.243215
695.030272	23050.038256
695.366707	22552.965363
695.703093	22273.100666
696.039429	22337.609791
696.375716	22107.937343
696.711952	22107.345007
697.048139	21977.288279
697.384276	21804.724542
697.720363	21925.452614
698.056400	21818.544865
698.392388	21661.114671
698.728326	21654.563692
699.064214	21481.314358
699.400053	21495.600988
699.735842	21105.491297
700.071581	20906.103580
700.407270	20658.313225
700.742910	20475.145420
701.078501	20221.905578
701.414042	20007.800212
701.749533	19717.744822
702.084974	19395.859588
702.420366	19621.126068
702.755709	19212.923676
703.091002	18917.890148
703.426246	18980.561772
703.761440	18910.799765
704.096584	18684.000774
704.431679	18610.256255
704.766725	18553.717194
705.101721	18491.927771
705.436668	18614.311863
705.771565	18342.271037
706.106413	18650.784611
706.441212	18734.548423
706.775961	18839.706892
707.110661	18921.749151
707.445311	19288.911509
707.779913	19169.766358
708.114465	19470.468665
708.448967	19780.945768
708.783421	20416.993190
709.117825	20788.995056
709.452180	21018.579284
709.786485	21472.953604
710.120742	22246.369948
710.454949	22351.989683
710.789107	22863.684442
711.123216	23577.705911
711.457275	23801.308810
711.791286	24362.951322
712.125247	24496.748586
712.459159	24231.460386
712.793023	24978.319931
713.126837	23941.457928
713.460602	24188.655948
713.794318	23850.545760
714.127985	23581.726231
714.461602	22666.971057
714.795171	22649.407677
715.128691	21654.770379
715.462162	21139.090588
715.795584	20712.041843
716.128957	20435.814338
716.462281	20058.194106
716.795556	19779.990470
717.128782	19297.299989
717.461960	18699.855203
717.795088	18666.742383
718.128167	18317.750864
718.461198	17863.779837
718.794180	17734.217142
719.127113	17396.424546
719.459997	17192.935851
719.792833	16830.063515
720.125619	16864.983587
720.458357	16533.242897
720.791046	16397.482103
721.123686	16242.509472
721.456278	16023.257088
721.788821	16011.765778
722.121315	15751.511170
722.453761	15862.046030
722.786158	15737.834519
723.118506	15816.534493
723.450805	15703.400918
723.783056	15884.022940
724.115259	15774.453461
724.447412	15768.255362
724.779518	15991.402037
725.111574	16042.262238
725.443582	16313.453630
725.775542	16266.528050
726.107453	16794.294008
726.439315	16706.010801
726.771129	17131.108619
727.102895	17562.026450
727.434612	17837.540631
727.766281	18000.127925
728.097901	18326.535075
728.429473	18413.048837
728.760996	18423.887317
729.092471	18541.809988
729.423897	18425.669365
729.755276	18299.025498
730.086606	18418.591585
730.417887	19005.495319
730.749120	19570.767462
731.080305	19790.748292
731.411442	20186.854435
731.742530	20300.610592
732.073570	20465.922629
732.404562	20783.021289
732.735506	20624.678646
733.066401	20410.265770
733.397249	19901.817514
733.728048	19282.022772
734.058798	18408.451304
734.389501	17651.630439
734.720156	17122.750386
735.050762	16551.776699
735.381320	16161.669529
735.711831	15883.712909
736.042293	15522.252096
736.372707	15556.529421
736.703073	15343.691906
737.033391	15550.565736
737.363661	15550.601024
737.693883	15675.667010
738.024056	15869.421238
738.354182	16099.615446
738.684260	16457.678521
739.014290	16759.018533
739.344272	16961.690562
739.674207	17322.901838
740.004093	17495.715112
740.333931	17542.476856
740.663722	17629.792161
740.993464	17658.672931
741.323159	17499.344743
741.652806	17195.605142
741.982405	17028.085079
742.311956	16670.841191
742.641460	16561.720375
742.970915	16212.166767
743.300323	15872.355189
743.629683	15654.179092
743.958996	15343.268449
744.288260	15026.658782
744.617477	14718.873654
744.946647	14686.378377
745.275768	14363.242936
745.604842	14155.396162
745.933869	13986.416686
746.262847	13957.724958
746.591778	13874.598852
746.920662	13757.288682
747.249498	13764.540381
747.578286	13932.458695
747.907027	14101.584366
748.235720	14371.727198
748.564365	14443.208238
748.892963	14356.805382
749.221514	14472.018433
749.550017	14328.421165
749.878473	14297.992761
750.206881	14077.036467
750.535242	13999.296834
750.863555	13922.036110
751.191821	13823.388291
751.520039	13839.467051
751.848210	13766.564405
752.176334	13814.856138
752.504411	13732.435793
752.832440	13555.791242
753.160421	13671.062266
753.488356	13553.759657
753.816243	13468.818735
754.144082	13305.029126
754.471875	13254.360489
754.799620	13214.283316
755.127318	13200.851161
755.454969	13179.627903
755.782572	13148.539108
756.110129	13165.863033
756.437638	13074.552613
756.765100	13078.371287
757.092515	13102.394906
757.419882	13141.131132
757.747203	13151.974654
758.074477	13245.911515
758.401703	13232.890214
758.728882	13427.022528
759.056014	13461.209113
759.383099	13635.587666
759.710138	13755.965379
760.037129	13891.673240
760.364073	13945.479996
760.690970	13970.864726
761.017820	13984.087672
761.344623	14220.459815
761.671379	14611.381131
761.998088	15316.363811
762.324751	17118.268801
762.651366	20560.308153
762.977935	25071.969446
763.304456	28082.773375
763.630931	29113.694377
763.957359	27904.429955
764.283740	25613.810305
764.610074	23328.882119
764.936362	20666.167342
765.262602	18766.960522
765.588796	16817.813511
765.914943	15526.670667
766.241044	14405.192897
766.567097	13614.971867
766.893104	12892.103173
767.219064	12421.196390
767.544978	11936.255034
767.870845	11547.161136
768.196665	11327.180305
768.522438	11089.903276
768.848165	10883.299147
769.173846	10675.575883
769.499479	10549.796574
769.825066	10382.783147
770.150607	10147.383947
770.476101	10065.066946
770.801548	9941.286455
771.126949	9777.436352
771.452303	9664.161625
771.777611	9468.958066
772.102872	9454.338719
772.428087	9318.567843
772.753256	9154.715220
773.078378	9063.999657
773.403453	8879.569043
773.728482	8772.600800
774.053465	8686.316410
774.378401	8585.014424
774.703291	8463.283161
775.028135	8343.636416
775.352932	8310.775655
775.677683	8201.611989
776.002388	8092.294568
776.327046	8109.593287
776.651658	8008.349274
776.976224	7913.200015
777.300743	7906.742297
777.625216	7817.455901
777.949643	7767.800536
778.274024	7784.542208
778.598359	7701.947943
778.922647	7721.033751
779.246889	7664.948394
779.571086	7678.970364
779.895236	7687.837753
780.219339	7697.027777
780.543397	7688.238525
780.867409	7779.553986
781.191374	7793.926315
781.515294	7754.570027
781.839167	7848.030499
782.162995	7822.295409
782.486776	7763.129907
782.810511	7716.957978
783.134201	7622.159080
783.457844	7626.711242
783.781441	7566.756800
784.104993	7509.421236
784.428498	7481.097513
784.751958	7467.995555
785.075372	7437.428518
785.398739	7380.624797
785.722061	7426.799245
786.045337	7427.580624
786.368568	7592.075995
786.691752	7611.386135
787.014891	7962.129455
787.337983	8315.990728
787.661030	8919.235362
787.984031	9556.275891
788.306987	9962.270258
788.629897	10170.089304
788.952760	10121.217838
789.275579	9895.656451
789.598351	9492.129729
789.921078	9137.708888
790.243759	8714.377993
790.566395	8422.462418
790.888984	8170.838265
791.211529	7956.929504
791.534027	7734.899445
791.856480	7526.513268
792.178888	7458.997095
792.501249	7356.860798
792.823566	7199.176026
793.145836	7205.016202
793.468062	7169.655029
793.790241	7119.651824
794.112375	7193.545057
794.434464	7348.691608
794.756507	7391.191055
795.078505	7555.421765
795.400457	7864.910803
795.722364	8223.742654
796.044226	8511.615224
796.366042	8786.453890
796.687812	8737.670645
797.009538	8813.413981
797.331218	8707.479174
797.652852	8624.668140
797.974442	8472.674831
798.295986	8376.623206
798.617484	8187.252262
798.938938	8042.974439
799.260346	7941.271681
799.581709	7735.143941
799.903026	7654.049420
800.224299	7548.822895
800.545526	7374.469548
800.866708	7276.068745
801.187845	7205.464865
801.508936	7102.648012
801.829983	7061.555046
802.150984	6910.673312
802.471940	6858.474684
802.792851	6852.369847
803.113717	6815.662685
803.434538	6779.575585
803.755314	6726.434262
804.076045	6732.662608
804.396731	6672.178844
804.717372	6700.973915
805.037967	6709.440533
805.358518	6748.501913
805.679024	6831.978380
805.999485	6845.077818
806.319901	6887.841926
806.640272	6908.051912
806.960598	6992.972669
807.280879	6990.018553
807.601115	7075.163641
807.921306	7019.731113
808.241453	7033.009513
808.561554	7057.970786
808.881611	7012.534866
809.201623	7024.328646
809.521590	6970.196736
809.841513	6949.006246
810.161390	6987.029148
810.481223	6854.875300
810.801011	6842.431212
811.120755	6816.418858
811.440453	6737.224852
811.760107	6702.594646
812.079716	6673.965933
812.399281	6605.116374
812.718801	6595.265960
813.038276	6548.857097
813.357707	6485.946018
813.677093	6534.608276
813.996434	6440.893226
814.315731	6480.809082
814.634983	6468.357432
814.954191	6486.190514
815.273354	6587.956287
815.592473	6658.555126
815.911547	6781.297139
816.230577	6868.733432
816.549562	7014.233735
816.868502	7115.664271
817.187399	7215.287553
817.506250	7374.613221
817.825058	7402.873929
818.143821	7682.378184
818.462539	7951.744678
818.781213	8325.541194
819.099843	8882.835711
819.418429	9897.468745
819.736970	10873.055523
820.055466	12069.719582
820.373919	13635.738901
820.692327	16010.071951
821.010691	20189.233859
821.329011	29235.390352
821.647286	42270.044753
821.965517	55673.991400
822.283704	60997.056651
822.601847	62982.966277
822.919945	60312.069708
823.237999	56173.829365
823.556010	50062.100800
823.873976	43317.664578
824.191897	36757.416993
824.509775	31895.367782
824.827609	27340.385333
825.145398	24732.412446
825.463144	23355.443958
825.780845	23657.676255
826.098502	25459.442613
826.416116	29280.957342
826.733685	32974.789726
827.051210	34168.398845
827.368692	32352.887781
827.686129	28374.331028
828.003522	24206.834349
828.320872	20456.218408
828.638177	17578.561435
828.955439	15397.503703
829.272656	13562.495976
829.589830	12066.773027
829.906960	10786.007399
830.224046	9831.447274
830.541088	9075.710257
830.858086	8608.980069
831.175041	8229.386226
831.491952	8114.657126
831.808819	8164.277203
832.125642	8568.860046
832.442421	9459.591602
832.759157	11284.643049
833.075849	14245.408485
833.392497	17502.477820
833.709101	19696.808911
834.025662	19545.733092
834.342179	17828.814394
834.658653	15608.967504
834.975083	13651.462259
835.291469	12014.168587
835.607811	10685.937974
835.924110	9760.344320
836.240366	8887.675218
836.556578	8073.249088
836.872746	7416.918584
837.188871	6911.114413
837.504952	6491.922306
837.820990	6179.290109
838.136984	5954.986489
838.452935	5853.992013
838.768842	5891.331839
839.084706	6316.946376
839.400526	7542.493726
839.716303	9138.374320
840.032037	10249.999154
840.347727	10177.547691
840.663373	9189.380714
840.978977	8134.108418
841.294537	7310.583005
841.610054	6705.147990
841.925527	6268.536176
842.240957	5906.329272
842.556344	5569.426440
842.871687	5279.784425
843.186987	4993.812370
843.502244	4771.376498
843.817458	4607.599492
844.132629	4466.416937
844.447756	4373.032083
844.762840	4294.049805
845.077881	4216.398392
845.392879	4152.506808
845.707833	4103.990743
846.022745	4060.362077
846.337613	4032.885268
846.652438	3989.937158
846.967221	3968.623160
847.281960	3937.052934
847.596656	3921.241355
847.911309	3900.166811
848.225919	3875.417266
848.540485	3859.232642
848.855009	3846.105477
849.169490	3827.027230
849.483928	3811.969304
849.798323	3806.257677
850.112675	3785.843524
850.426984	3790.317548
850.741251	3778.201135
851.055474	3773.969086
851.369654	3775.665434
851.683792	3774.821041
851.997887	3780.973769
852.311938	3782.181126
852.625947	3783.005354
852.939914	3772.605454
853.253837	3785.755304
853.567718	3782.153399
853.881555	3768.423817
854.195350	3786.839152
854.509103	3784.041312
854.822812	3784.129532
855.136479	3774.354734
855.450103	3784.255561
855.763685	3766.498096
856.077224	3773.233078
856.390720	3787.517187
856.704173	3811.014005
857.017584	3821.182013
857.330953	3831.287005
857.644278	3854.811550
857.957561	3863.487376
858.270802	3862.761449
858.584000	3864.304043
858.897155	3855.240048
859.210268	3842.490970
859.523339	3818.590859
859.836367	3817.706137
860.149352	3809.105928
860.462295	3801.750885
860.775195	3791.802168
861.088054	3786.400572
861.400869	3785.047022
861.713642	3790.894760
862.026373	3797.922129
862.339062	3801.067809
862.651708	3823.899194
862.964312	3857.700131
863.276873	3870.093808
863.589392	3926.249741
863.901869	3970.687512
864.214303	4020.216849
864.526696	4054.191705
864.839045	4098.664764
865.151353	4124.513281
865.463619	4136.291937
865.775842	4145.028256
866.088023	4164.577851
866.400162	4151.117970
866.712258	4158.243641
867.024313	4160.628107
867.336325	4156.307838
867.648296	4162.977284
867.960224	4163.055422
868.272110	4171.174201
868.583954	4176.792567
868.895755	4193.224208
869.207515	4188.155327
869.519233	4232.426740
869.830909	4245.049790
870.142542	4269.138943
870.454134	4282.142600
870.765684	4316.487981
871.077191	4349.988969
871.388657	4373.011918
871.700081	4409.993823
872.011463	4456.122901
872.322803	4488.446780
872.634101	4522.782078
872.945357	4570.715890
873.256571	4620.192294
873.567744	4648.082478
873.878874	4665.045961
874.189963	4707.094225
874.501010	4715.097057
874.812015	4710.411304
875.122979	4757.528448
875.433900	4756.416874
875.744780	4770.481693
876.055618	4796.483965
876.366415	4795.548831
876.677169	4817.626564
876.987882	4862.729767
877.298554	4918.285803
877.609183	4995.082741
877.919771	5109.007777
878.230317	5258.586373
878.540822	5475.824816
878.851285	5798.549403
879.161707	6268.107678
879.472087	7037.498660
879.782425	8276.069831
880.092722	10477.675306
880.402977	13803.553871
880.713191	17566.490392
881.023363	21297.733179
881.333494	23513.915150
881.643583	24741.368056
881.953631	24735.351439
882.263637	23895.056628
882.573602	22423.526176
882.883526	20862.923577
883.193408	19184.496610
883.503248	17471.530177
883.813048	15910.360448
884.122806	14479.801974
884.432522	12998.466478
884.742197	11716.556508
885.051831	10624.965219
885.361424	9618.917269
885.670975	8795.333883
885.980485	8099.944518
886.289954	7516.667895
886.599382	7037.884308
886.908768	6662.386403
887.218113	6297.036339
887.527417	6004.651937
887.836680	5732.565740
888.145901	5512.189179
888.455082	5352.918965
888.764221	5198.745357
889.073319	5063.062701
889.382376	4988.680476
889.691392	4928.423564
890.000366	4903.626128
890.309300	4882.977562
890.618193	4890.899735
890.927044	4880.419176
891.235855	4899.585643
891.544625	4929.152011
891.853353	4988.380527
892.162041	5107.853353
892.470687	5300.435512
892.779293	5552.495725
893.087858	5926.438435
893.396381	6505.702300
893.704864	7316.234139
894.013306	8482.598342
894.321707	9675.655456
894.630068	10505.033648
894.938387	10716.741945
895.246665	10480.102622
895.554903	9865.565803
895.863100	9154.589191
896.171256	8595.500024
896.479371	8083.873320
896.787446	7575.331802
897.095480	7143.219218
897.403473	6821.409601
897.711425	6496.613099
898.019336	6226.271142
898.327207	5953.280058
898.635038	5721.911262
898.942827	5470.576975
899.250576	5274.158497
899.558284	5084.790074
899.865952	4955.189570
900.173579	4807.796314
900.481165	4696.938820
900.788711	4604.607567
901.096216	4530.903377
901.403681	4468.814006
901.711105	4439.925674
902.018489	4425.931431
902.325832	4498.158563
902.633135	4622.475937
902.940397	4969.330007
903.247619	5770.384476
903.554800	7217.994653
903.861941	9150.329416
904.169041	10685.156596
904.476101	11313.914509
904.783121	10962.374687
905.090100	10221.839269
905.397039	9369.203713
905.703938	8614.076676
906.010796	7908.922596
906.317614	7354.040272
906.624391	6818.941956
906.931129	6387.525051
907.237826	5980.149408
907.544483	5605.032110
907.851099	5226.771651
908.157675	4869.605901
908.464211	4545.898289
908.770707	4308.054130
909.077163	4105.550980
909.383578	3956.720995
909.689954	3840.504755
909.996289	3770.561266
910.302584	3708.696226
910.608839	3674.302954
910.915054	3640.796925
911.221229	3628.630100
911.527363	3640.234836
911.833458	3653.414933
912.139513	3683.581198
912.445527	3708.582800
912.751502	3791.804688
913.057436	3895.201274
913.363331	4033.296122
913.669186	4238.796238
913.975000	4498.241742
914.280775	4926.124798
914.586510	5511.627091
914.892205	6315.343289
915.197859	7358.952876
915.503475	8585.460566
915.809050	9656.761211
916.114585	10316.557509
916.420081	10582.846378
916.725536	10535.426765
917.030952	10097.441236
917.336328	9684.545530
917.641665	9265.514740
917.946961	8788.493037
918.252218	8355.621759
918.557435	7843.294335
918.862612	7406.495998
919.167750	7034.587394
919.472848	6604.077897
919.777906	6227.057562
920.082925	5861.342015
920.387904	5495.485316
920.692843	5227.729471
920.997743	4975.528105
921.302603	4742.092435
921.607423	4576.286365
921.912204	4409.459461
922.216946	4294.402686
922.521647	4172.124458
922.826310	4065.665371
923.130932	3968.416472
923.435516	3871.528016
923.740059	3797.407931
924.044564	3721.654512
924.349028	3662.781397
924.653454	3597.198506
924.957840	3526.468597
925.262186	3482.605517
925.566493	3419.344078
925.870761	3362.827702
926.174989	3323.668019
926.479178	3286.832308
926.783328	3243.969897
927.087438	3220.145404
927.391509	3183.423119
927.695541	3149.412974
927.999533	3123.325003
928.303486	3101.353134
928.607400	3087.366453
928.911275	3075.991089
929.215110	3056.076011
929.518906	3046.427243
929.822663	3048.229455
930.126381	3047.117881
930.430060	3054.624159
930.733699	3056.882596
931.037299	3065.281158
931.340861	3064.159501
931.644383	3069.888772
931.947866	3071.469174
932.251309	3063.204203
932.554714	3063.161353
932.858080	3056.980898
933.161407	3048.753735
933.464694	3042.101933
933.767943	3035.069523
934.071153	3032.485932
934.374323	3019.167203
934.677455	3014.947757
934.980548	3008.051459
935.283602	3003.257322
935.586617	2998.944614
935.889593	3008.941223
936.192530	3014.473889
936.495428	3029.365457
936.798287	3051.717933
937.101108	3083.290680
937.403890	3134.350007
937.706632	3195.088349
938.009336	3282.494395
938.312002	3355.911239
938.614628	3416.795774
938.917216	3470.136223
939.219765	3499.969772
939.522275	3531.303063
939.824747	3539.653735
940.127179	3537.627191
940.429573	3530.574617
940.731929	3530.763660
941.034246	3510.868746
941.336524	3498.850636
941.638763	3484.687514
941.940964	3469.619505
942.243126	3426.439502
942.545250	3403.366141
942.847335	3367.117724
943.149381	3329.251097
943.451389	3297.879996
943.753359	3263.259872
944.055290	3239.291706
944.357182	3213.760783
944.659036	3199.703525
944.960851	3190.160621
945.262628	3176.705781
945.564367	3174.767458
945.866067	3169.910306
946.167729	3166.346210
946.469352	3167.205727
946.770937	3159.220539
947.072484	3144.860812
947.373992	3148.349291
947.675462	3140.280924
947.976893	3123.292236
948.278286	3115.014661
948.579641	3105.882611
948.880958	3098.646035
949.182236	3103.261211
949.483476	3097.582351
949.784678	3097.809203
950.085841	3097.713421
950.386967	3109.585338
950.688054	3126.841208
950.989103	3147.789723
951.290114	3167.152795
951.591087	3194.972402
951.892021	3225.005076
952.192917	3251.511463
952.493776	3278.000206
952.794596	3282.728808
953.095378	3289.448667
953.396122	3286.955816
953.696828	3280.404837
953.997496	3268.847991
954.298126	3241.759351
954.598718	3224.067422
954.899272	3196.371322
955.199788	3166.608350
955.500266	3140.134731
955.800706	3102.550408
956.101108	3061.076836
956.401472	3030.035931
956.701798	2997.885972
957.002087	2952.331585
957.302337	2928.915426
957.602550	2898.928122
957.902724	2870.632126
958.202861	2845.247395
958.502960	2822.410968
958.803022	2801.117135
959.103045	2781.864968
959.403031	2764.001639
959.702979	2749.407499
960.002889	2740.424163
960.302762	2725.983778
960.602596	2716.287118
960.902393	2704.702547
961.202153	2698.602751
961.501875	2687.328210
961.801559	2682.909639
962.101205	2676.245233
962.400814	2671.670386
962.700385	2663.443223
962.999918	2658.124806
963.299414	2652.584578
963.598873	2649.900163
963.898293	2640.102681
964.197677	2645.078300
964.497022	2639.217958
964.796331	2639.593524
965.095601	2634.645632
965.394835	2630.446351
965.694030	2629.092801
965.993189	2629.634725
966.292309	2627.189765
966.591393	2628.702111
966.890439	2628.853346
967.189447	2630.322842
967.488419	2628.155146
967.787353	2630.073305
968.086249	2628.177831
968.385108	2629.591875
968.683930	2634.068420
968.982714	2638.630664
969.281462	2644.556540
969.580172	2647.354381
969.878844	2653.643220
970.177480	2664.922802
970.476078	2668.444048
970.774639	2679.872343
971.073162	2687.272757
971.371649	2690.373067
971.670098	2694.670651
971.968510	2701.977803
972.266885	2703.424614
972.565223	2709.514328
972.863524	2712.443238
973.161788	2717.582695
973.460014	2717.554968
973.758204	2723.097717
974.056356	2725.169631
974.354471	2727.808675
974.652550	2726.782801
974.950591	2723.952193
975.248595	2723.183417
975.546563	2722.407079
975.844493	2717.184444
976.142386	2710.555326
976.440243	2706.661035
976.738062	2703.222968
977.035845	2695.300795
977.333590	2689.737882
977.631299	2685.505833
977.928971	2677.321520
978.226606	2668.340704
978.524204	2669.704336
978.821765	2663.806186
979.119290	2667.186280
979.416777	2667.077895
979.714228	2667.735766
980.011642	2672.522341
980.309020	2679.461489
980.606360	2696.745085
980.903664	2718.492623
981.200931	2754.854466
981.498162	2803.236940
981.795356	2880.326264
982.092513	2968.624595
982.389633	3072.006057
982.686717	3169.091118
982.983764	3245.860330
983.280775	3291.674336
983.577749	3302.313691
983.874686	3287.487658
984.171587	3254.107657
984.468451	3213.869167
984.765279	3170.076664
985.062070	3123.844242
985.358824	3080.926379
985.655543	3020.810619
985.952224	2967.555870
986.248869	2904.629667
986.545478	2846.474916
986.842050	2792.877369
987.138586	2742.990110
987.435086	2706.529965
987.731549	2676.497291
988.027975	2648.039977
988.324366	2631.585651
988.620719	2617.866151
988.917037	2604.406270
989.213318	2597.850250
989.509563	2589.930597
989.805772	2585.638055
990.101944	2583.470358
990.398080	2581.179154
990.694180	2575.202866
990.990244	2577.136149
991.286271	2578.053639
991.582262	2577.612538
991.878217	2582.207549
992.174136	2587.399938
992.470019	2587.515884
992.765865	2591.236256
993.061676	2594.558376
993.357450	2601.121959
993.653188	2611.191663
993.948890	2629.065074
994.244556	2649.922848
994.540186	2669.739624
994.835780	2702.444110
995.131337	2740.459451
995.426859	2782.961419
995.722345	2828.576300
996.017795	2880.603528
996.313208	2918.560896
996.608586	2947.378652
996.903928	2960.246197
997.199234	2960.054633
997.494504	2957.980198
997.789738	2940.303392
998.084936	2918.767583
998.380099	2884.951523
998.675225	2857.562934
998.970316	2826.537153
999.265371	2789.124230
999.560390	2755.540063
999.855373	2723.982440
1000.150320	2693.435568
1000.445232	2666.941784
1000.740108	2648.377735
1001.034948	2628.356792
1001.329752	2614.982611
1001.624521	2599.448296
1001.919254	2589.774321
1002.213951	2584.607139
1002.508613	2572.445355
1002.803239	2568.077195
1003.097829	2564.079560
1003.392384	2555.867521
1003.686903	2551.453990
1003.981386	2547.421067
1004.275834	2545.404606
1004.570246	2540.923020
1004.864623	2541.374203
1005.158964	2537.116949
1005.453270	2534.452699
1005.747540	2534.828265
1006.041775	2533.981351
1006.335974	2533.625950
1006.630138	2529.890455
1006.924266	2531.153264
1007.218359	2527.808458
1007.512416	2526.275948
1007.806438	2524.831657
1008.100425	2524.866945
1008.394376	2519.178003
1008.688292	2527.652182
1008.982172	2523.019362
1009.276017	2523.349558
1009.569827	2522.457273
1009.863602	2522.177489
1010.157341	2523.301667
1010.451045	2522.883251
1010.744714	2517.766480
1011.038347	2520.642458
1011.331945	2517.983249
1011.625508	2516.685152
1011.919036	2516.244051
1012.212528	2514.162055
1012.505986	2513.983094
1012.799408	2516.846469
1013.092795	2513.814215
1013.386147	2516.065090
1013.679464	2511.976715
1013.972745	2511.008813
1014.265992	2513.902435
1014.559204	2512.987466
1014.852380	2508.740294
1015.145521	2512.790861
1015.438628	2512.695079
1015.731699	2513.037878
1016.024736	2513.511746
1016.317737	2514.068793
1016.610703	2514.283043
1016.903635	2519.409896
1017.196531	2517.723630
1017.489393	2518.462159
1017.782219	2524.750998
1018.075011	2521.653209
1018.367768	2522.923580
1018.660490	2525.098838
1018.953177	2525.098838
1019.245829	2525.098838
