Dividing Wavelength (nm)	Counts (n)	Blue Motor Position (mm): 36.400000	Red Motor Position (mm): 0.000000	
326.493990	2051.396735
326.888308	2051.396735
327.282561	2051.396735
327.676750	2027.322704
328.070874	2028.290606
328.464933	2032.825124
328.858929	2041.634540
329.252859	2051.603422
329.646726	2068.057748
330.040528	2082.450242
330.434265	2101.009250
330.827938	2122.479524
331.221547	2143.664973
331.615091	2161.893786
332.008571	2185.289781
332.401986	2204.662935
332.795338	2225.760164
333.188625	2243.003431
333.581847	2264.292223
333.975006	2280.509615
334.368100	2297.387398
334.761129	2315.449853
335.154095	2329.660865
335.546996	2383.946530
335.939833	2490.556852
336.332606	2497.601864
336.725315	2511.596108
337.117960	2523.785617
337.510540	2534.344314
337.903056	2542.755479
338.295508	2552.174875
338.687896	2556.669064
339.080220	2560.313818
339.472480	2564.714746
339.864676	2571.477453
340.256807	2574.459296
340.648875	2575.250757
341.040879	2574.950808
341.432818	2577.037846
341.824694	2576.833679
342.216506	2576.712692
342.608253	2576.490881
342.999937	2575.812846
343.391557	2576.654718
343.783113	2572.626837
344.174605	2572.276476
344.566033	2570.421332
344.957397	2571.053997
345.348697	2567.870508
345.739934	2565.571742
346.131106	2564.487894
346.522215	2562.650393
346.913260	2561.634601
347.304241	2562.738613
347.695159	2557.911708
348.086012	2558.841801
348.476802	2556.059084
348.867528	2550.390307
349.258191	2551.126315
349.648789	2549.765204
350.039324	2545.205480
350.429796	2551.408620
350.820203	2551.017931
351.210548	2548.572971
351.600828	2547.973074
351.991045	2546.102806
352.381198	2545.044163
352.771288	2544.897970
353.161314	2544.242620
353.551276	2548.721685
353.941175	2539.526620
354.331010	2544.093906
354.720782	2547.907539
355.110490	2551.542211
355.500135	2546.201108
355.889717	2544.850079
356.279235	2547.839483
356.668689	2546.357384
357.058080	2546.715306
357.447408	2548.837632
357.836672	2547.030378
358.225873	2547.600028
358.615010	2551.149001
359.004084	2547.058104
359.393095	2550.392828
359.782043	2550.173537
360.170927	2550.337375
360.559748	2551.433826
360.948505	2553.757798
361.337199	2553.082283
361.725830	2554.997922
362.114398	2555.202088
362.502903	2556.512788
362.891344	2556.336348
363.279722	2552.167314
363.668037	2551.118754
364.056289	2558.012532
364.444478	2556.724517
364.832603	2558.010011
365.220665	2559.353478
365.608665	2557.029507
365.996601	2557.992367
366.384474	2560.525547
366.772284	2557.843653
367.160031	2559.340876
367.547715	2556.623694
367.935336	2560.039075
368.322893	2557.233673
368.710388	2555.428940
369.097820	2558.146122
369.485189	2557.639486
369.872495	2561.901782
370.259738	2559.721483
370.646918	2564.503017
371.034035	2564.084601
371.421090	2561.584189
371.808081	2561.566545
372.195010	2562.146278
372.581875	2565.642318
372.968678	2564.288768
373.355418	2564.132492
373.742096	2564.157698
374.128710	2565.874211
374.515262	2570.103739
374.901751	2567.739438
375.288177	2566.045610
375.674540	2565.370096
376.060841	2566.007802
376.447079	2565.909499
376.833254	2569.697926
377.219367	2569.803790
377.605417	2566.801783
377.991404	2568.667010
378.377329	2571.185067
378.763191	2568.944274
379.148991	2570.955694
379.534727	2570.025601
379.920402	2572.473081
380.306013	2570.507031
380.691563	2572.715057
381.077049	2569.506362
381.462474	2569.899572
381.847835	2572.309244
382.233134	2574.096333
382.618371	2571.600962
383.003545	2573.067938
383.388657	2571.132134
383.773706	2574.340829
384.158693	2575.762434
384.543618	2574.792012
384.928480	2575.606158
385.313280	2574.071127
385.698017	2576.886612
386.082692	2576.705130
386.467305	2577.791499
386.851856	2579.119843
387.236344	2579.472723
387.620770	2576.488360
388.005133	2575.747311
388.389435	2578.267888
388.773674	2576.478278
389.157851	2579.939030
389.541965	2583.044381
389.926018	2581.486664
390.310008	2581.859710
390.693936	2583.840883
391.077802	2583.351891
391.461606	2585.262489
391.845348	2580.143197
392.229027	2584.874320
392.612645	2582.842735
392.996200	2583.253589
393.379694	2585.506985
393.763125	2589.582758
394.146494	2587.732654
394.529801	2588.088055
394.913047	2589.902871
395.296230	2588.244331
395.679351	2590.270875
396.062410	2590.419589
396.445408	2592.529312
396.828343	2591.516040
397.211217	2593.149374
397.594028	2594.412183
397.976778	2595.294385
398.359466	2595.359920
398.742092	2593.991247
399.124656	2593.623242
399.507158	2597.469643
399.889598	2600.403594
400.271977	2601.338728
400.654294	2600.504417
401.036549	2598.351845
401.418742	2601.134562
401.800874	2604.549943
402.182944	2602.656990
402.564952	2607.660335
402.946898	2611.781478
403.328783	2614.299535
403.710606	2614.234000
404.092367	2619.801954
404.474067	2623.726492
404.855705	2626.829323
405.237282	2631.003398
405.618797	2639.414563
406.000250	2645.302631
406.381642	2655.284116
406.762972	2660.990702
407.144240	2663.959941
407.525447	2678.014678
407.906593	2682.143383
408.287677	2702.134079
408.668700	2713.307796
409.049661	2728.484190
409.430560	2744.867940
409.811399	2758.274889
410.192176	2778.661315
410.572891	2801.182670
410.953545	2826.597647
411.334138	2833.367916
411.714669	2865.439737
412.095139	2876.457179
412.475547	2908.881880
412.855894	2930.815941
413.236180	2965.360448
413.616405	2984.559682
413.996568	3022.151566
414.376670	3048.468910
414.756711	3072.631160
415.136691	3114.182871
415.516609	3158.091321
415.896466	3196.015921
416.276262	3244.098447
416.655997	3302.326294
417.035670	3354.887885
417.415283	3426.903288
417.794834	3474.332984
418.174324	3503.087725
418.553753	3541.433262
418.933121	3632.413486
419.312428	3674.970907
419.691674	3693.451777
420.070859	3808.508552
420.449983	3813.781599
420.829045	3929.450874
421.208047	3942.391516
421.586988	4053.065007
421.965867	4128.694918
422.344686	4205.265003
422.723444	4330.003314
423.102141	4212.622568
423.480777	4431.693470
423.859352	4399.765322
424.237866	4626.037512
424.616319	4673.658772
424.994712	4811.425945
425.373044	4822.428263
425.751314	5037.083114
426.129524	4940.262714
426.507673	5148.490094
426.885762	5224.087237
427.263789	5306.318538
427.641756	5417.415487
428.019662	5510.906206
428.397508	5592.779585
428.775292	5645.081556
429.153016	5796.371624
429.530679	5823.470347
429.908282	5907.208953
430.285824	5915.524337
430.663305	6149.801879
431.040726	6136.417616
431.418086	6183.628022
431.795385	6336.059911
432.172624	6524.581421
432.549802	6481.678681
432.926920	6633.059490
433.303977	6647.089021
433.680974	6730.522638
434.057910	6919.883500
434.434786	7010.016810
434.811601	7018.107862
435.188355	7340.219949
435.565050	7294.980634
435.941683	7345.193047
436.318257	7664.245153
436.694770	7650.412227
437.071222	7882.970736
437.447614	7717.129378
437.823946	7736.338694
438.200218	7898.482367
438.576429	7840.042791
438.952580	8012.412444
439.328670	8050.236221
439.704700	8162.722007
440.080670	8088.473373
440.456580	8345.030295
440.832429	8363.448151
441.208218	8145.345150
441.583947	8281.176520
441.959616	8401.710508
442.335224	8464.644273
442.710773	8560.494252
443.086261	8747.044670
443.461689	8511.640430
443.837057	8673.932816
444.212365	8886.677070
444.587612	8902.057630
444.962800	8810.091861
445.337927	8955.980333
445.712995	8531.772278
446.088002	9177.168519
446.462949	9253.214325
446.837837	9270.928940
447.212664	9329.436571
447.587431	10240.564635
447.962139	11213.114117
448.336786	11968.571350
448.711374	11568.684342
449.085901	10448.166912
449.460369	10441.769688
449.834776	10366.722031
450.209124	11298.763321
450.583412	11066.953423
450.957640	11280.264807
451.331808	10881.738910
451.705917	10398.960209
452.079965	10334.181383
452.453954	10532.238235
452.827883	10497.290436
453.201752	10451.211769
453.575562	10484.846348
453.949311	10841.361789
454.323001	10925.924624
454.696632	10843.937818
455.070202	11429.709813
455.443713	11489.228196
455.817164	11635.784620
456.190556	11962.380813
456.563888	11793.784464
456.937160	12012.068946
457.310373	11512.974551
457.683526	11552.431662
458.056619	11599.936975
458.429653	11676.842298
458.802628	11852.932322
459.175542	11920.720718
459.548398	12475.938279
459.921194	13046.738047
460.293930	13375.617883
460.666607	14208.358525
461.039224	14943.484784
461.411782	15192.248083
461.784280	14812.376976
462.156719	14726.478235
462.529099	14631.371826
462.901419	14055.351944
463.273680	13698.433210
463.645882	13939.874233
464.018024	13891.390936
464.390106	14308.748063
464.762130	15485.527290
465.134094	17171.831060
465.505999	19452.998546
465.877845	21477.893935
466.249631	22365.152135
466.621358	21727.191595
466.993026	20899.582848
467.364634	20183.509629
467.736184	19483.880654
468.107674	18943.017779
468.479105	18787.956928
468.850477	18521.035393
469.221790	18102.670036
469.593043	17469.770814
469.964238	17118.414994
470.335373	17240.867142
470.706449	18124.493191
471.077467	19259.879504
471.448425	21632.228860
471.819324	23128.851655
472.190164	22602.630811
472.560945	20905.143241
472.931667	19496.274331
473.302330	19247.931969
473.672934	18789.837278
474.043479	19235.755062
474.413965	19043.291370
474.784393	18878.740547
475.154761	19513.620942
475.525070	19661.117541
475.895321	19512.090951
476.265513	20024.519199
476.635645	20613.525093
477.005719	20675.395175
477.375734	21062.633928
477.745691	21679.426663
478.115588	22347.767716
478.485427	23634.116422
478.855207	25513.372877
479.224928	27247.333195
479.594591	28446.860629
479.964194	27897.064829
480.333739	28287.499674
480.703226	28582.979345
481.072653	29088.685213
481.442022	29577.067157
481.811333	29887.072913
482.180584	29388.023888
482.549777	29178.541260
482.918912	28979.902154
483.287988	28927.746377
483.657005	28757.471323
484.025964	28407.118693
484.394864	28602.496172
484.763706	28544.976606
485.132489	28048.579228
485.501213	28130.072001
485.869879	28328.980808
486.238487	28280.943653
486.607036	28564.347240
486.975527	28271.221788
487.343959	28614.126114
487.712333	28942.907647
488.080648	28917.311188
488.448905	29345.262300
488.817104	29292.247006
489.185244	30184.647183
489.553326	31358.885669
489.921350	33307.747855
490.289315	35712.461418
490.657222	36400.127735
491.025070	36794.086347
491.392861	36398.824597
491.760593	35594.984890
492.128267	34584.132721
492.495883	33627.006648
492.863440	32798.563590
493.230939	31900.701322
493.598380	31383.141181
493.965763	31265.218510
494.333088	30815.804686
494.700354	30635.606121
495.067563	30624.291251
495.434713	30538.752953
495.801805	30837.670690
496.168839	30703.278570
496.535815	30573.345350
496.902733	30728.456613
497.269593	30532.111232
497.636395	30707.891226
498.003139	30999.491729
498.369825	30763.386768
498.736453	31182.593998
499.103023	31034.560516
499.469535	31136.601031
499.835989	31281.211570
500.202385	31147.996559
500.568723	31231.909086
500.935003	31552.191234
501.301226	31461.140433
501.667390	32154.140291
502.033497	32349.984077
502.399546	32141.590338
502.765537	31756.988109
503.131470	32243.855185
503.497345	32686.987732
503.863163	31672.742866
504.228923	32439.479681
504.594625	32844.604448
504.960269	32334.795080
505.325856	33027.719320
505.691385	32710.103943
506.056856	33026.859804
506.422270	33530.350085
506.787625	33076.595828
507.152924	33542.736200
507.518164	33750.588014
507.883347	33308.614933
508.248472	33468.033862
508.613540	34176.149619
508.978550	34413.620733
509.343503	34283.231289
509.708398	34651.860623
510.073236	35266.389879
510.438016	35369.541969
510.802738	35058.512859
511.167403	35635.616590
511.532010	35883.835443
511.896561	36379.015383
512.261053	37152.303177
512.625488	36926.214989
512.989866	36853.110696
513.354186	36916.871210
513.718449	36897.593838
514.082655	37795.279665
514.446803	37497.264294
514.810894	38122.062381
515.174927	38150.232348
515.538904	38155.258379
515.902822	38799.104466
516.266684	38515.521918
516.630488	38890.634176
516.994235	38891.382787
517.357925	39496.424592
517.721558	39759.658523
518.085133	40153.201239
518.448651	40338.393066
518.812112	40236.637376
519.175516	40402.713148
519.538863	40844.522392
519.902152	40914.218864
520.265385	41460.904273
520.628560	41490.853768
520.991678	41442.640172
521.354739	41680.759074
521.717743	42059.659759
522.080690	41967.361273
522.443580	42650.485510
522.806413	42676.908718
523.169189	42816.677229
523.531908	43056.346286
523.894569	42930.748458
524.257174	43121.276347
524.619722	43465.415756
524.982213	43624.133964
525.344647	43651.920804
525.707025	43785.899550
526.069345	44238.496863
526.431608	44147.335157
526.793815	44527.972520
527.155964	44081.164972
527.518057	44341.074261
527.880093	44191.702352
528.242072	44846.626375
528.603995	44571.084467
528.965860	44492.752498
529.327669	44721.890585
529.689421	44787.176047
530.051117	44733.896093
530.412755	45016.172982
530.774337	45084.430205
531.135862	45033.718718
531.497331	45182.326892
531.858743	45172.355489
532.220098	45585.588953
532.581396	45327.585219
532.942638	45085.105719
533.303824	45330.919943
533.664953	45397.589202
534.026025	45071.421507
534.387040	45634.858670
534.747999	45715.426390
535.108902	46023.645057
535.469748	45371.365120
535.830537	45629.419265
536.191270	45873.453961
536.551947	45609.569721
536.912567	45887.044911
537.273131	46055.041363
537.633638	45653.710064
537.994089	45864.579009
538.354483	45616.322347
538.714821	46261.169103
539.075103	46541.162349
539.435328	46395.722540
539.795497	46165.150246
540.155609	46277.696526
540.515665	46864.640589
540.875665	46174.884714
541.235609	46462.157386
541.595496	46596.622603
541.955328	47160.677307
542.315102	46586.071468
542.674821	46484.104049
543.034483	46367.600463
543.394090	46389.375727
543.753640	46367.484517
544.113134	47449.396791
544.472571	46543.662762
544.831953	47690.235395
545.191278	46920.776357
545.550548	46611.123482
545.909761	47275.973537
546.268918	47425.398378
546.628019	47841.553190
546.987064	47260.550127
547.346053	46542.667134
547.704986	47466.894636
548.063863	47112.496479
548.422684	47320.474322
548.781449	46904.599295
549.140158	47447.415617
549.498811	47201.659367
549.857408	46587.636747
550.215949	47436.388093
550.574434	47281.289433
550.932864	47194.609314
551.291237	47928.069472
551.649555	47682.361113
552.007817	47866.436325
552.366022	47546.113848
552.724173	47583.166329
553.082267	48015.639355
553.440305	48372.114467
553.798288	47610.476780
554.156215	48007.949075
554.514086	48209.627997
554.871902	47822.535437
555.229661	48001.705606
555.587365	47680.906740
555.945014	47815.959252
556.302606	47827.117846
556.660143	47926.874718
557.017625	48163.209052
557.375050	47844.910598
557.732421	48259.409391
558.089735	48333.688272
558.446994	48183.872742
558.804197	48680.368422
559.161345	48527.344197
559.518437	47868.898929
559.875474	48132.662180
560.232455	48355.939925
560.589381	48405.441535
560.946251	48235.821832
561.303065	48884.600688
561.659825	48575.099048
562.016528	48382.733658
562.373177	47941.161348
562.729770	48589.657900
563.086307	48095.967621
563.442789	48657.040483
563.799216	48510.441208
564.155587	48390.623064
564.511904	48352.106128
564.868164	48410.039068
565.224370	48740.383359
565.580520	48464.423035
565.936615	48648.115120
566.292654	48289.374009
566.648638	48649.632507
567.004567	48606.447463
567.360441	48717.567096
567.716260	48422.853681
568.072023	48787.293816
568.427732	48725.532119
568.783385	48250.554604
569.138982	48654.958486
569.494525	48802.697061
569.850013	48392.841171
570.205445	48517.115696
570.560823	48288.406108
570.916145	48159.836520
571.271412	48413.169624
571.626625	48059.704081
571.981782	48127.502559
572.336884	47714.818582
572.691931	48048.111948
573.046923	47701.308290
573.401860	47543.389104
573.756743	47560.965087
574.111570	47712.839929
574.466342	47610.776728
574.821059	47780.048592
575.175722	47261.273532
575.530330	47369.592805
575.884882	47003.884820
576.239380	46897.012358
576.593823	46991.390320
576.948211	46915.034483
577.302544	46465.580330
577.656823	46455.936602
578.011047	46711.691981
578.365216	46533.900567
578.719330	46255.028977
579.073389	46237.021976
579.427394	46290.082641
579.781344	46214.072123
580.135239	45972.893241
580.489080	46039.534774
580.842866	45523.121495
581.196597	46017.426794
581.550273	46011.110228
581.903895	45948.017667
582.257463	46381.456075
582.610975	45800.495862
582.964434	46150.881260
583.317837	45643.660524
583.671186	45598.948010
584.024481	45857.871754
584.377721	45416.420432
584.730906	45618.379138
585.084037	45763.236693
585.437113	45463.078832
585.790135	45579.650473
586.143103	45127.837060
586.496016	45292.561803
586.848874	45403.802424
587.201679	45437.368947
587.554428	44933.893789
587.907124	45203.177104
588.259765	44959.901102
588.612352	45119.889681
588.964884	44576.735601
589.317362	44880.482764
589.669786	44894.547583
590.022155	44737.429941
590.374470	45191.348037
590.726731	44769.814314
591.078937	44103.429228
591.431090	44448.208863
591.783188	43971.129186
592.135232	43758.067340
592.487222	44025.961817
592.839157	44185.736147
593.191038	43819.440867
593.542866	43630.004388
593.894639	43019.692056
594.246358	43323.650948
594.598022	43322.312522
594.949633	42888.422931
595.301190	42863.600289
595.652692	42813.710510
596.004141	43291.402687
596.355535	42184.403111
596.706876	42200.444063
597.058162	41916.191041
597.409395	42427.447220
597.760573	42646.752536
598.111698	42232.112591
598.462768	42143.340392
598.813785	42185.514685
599.164748	41767.560182
599.515657	42053.315467
599.866511	41550.210834
600.217312	42247.273861
600.568060	41171.733606
600.918753	42004.927952
601.269392	41938.871192
601.619978	41645.622232
601.970510	41860.488812
602.320988	41982.845177
602.671412	42266.846141
603.021783	42126.447486
603.372100	41678.228415
603.722363	41803.924545
604.072572	41823.310302
604.422728	41823.403563
604.772830	41601.194543
605.122878	41769.070007
605.472872	41632.898360
605.822813	41884.555280
606.172701	41620.877728
606.522534	41953.825775
606.872314	42164.941737
607.222041	41986.575631
607.571714	42342.609642
607.921333	41818.037255
608.270899	42056.274624
608.620411	42442.900877
608.969870	42165.854185
609.319276	42198.253681
609.668627	42217.934346
610.017926	42630.537665
610.367171	42745.644851
610.716362	42802.075527
611.065500	42686.534802
611.414585	42924.227726
611.763616	43107.377886
612.112594	42979.103206
612.461518	43114.664874
612.810389	43505.427394
613.159207	43286.658961
613.507971	43277.663022
613.856682	43763.221919
614.205340	43599.424749
614.553945	44287.461590
614.902496	43596.631949
615.250994	44032.860636
615.599439	44088.744347
615.947830	44212.910487
616.296169	44208.910331
616.644454	44247.293676
616.992686	44402.488118
617.340864	44861.575917
617.688990	44375.265887
618.037063	45063.915229
618.385082	44878.441097
618.733048	45210.322940
619.080961	45081.874340
619.428821	45101.035765
619.776628	45111.662518
620.124382	44936.484942
620.472083	45038.152412
620.819731	45130.042565
621.167326	44688.349267
621.514868	44677.649418
621.862357	44162.960214
622.209793	44228.467487
622.557176	43806.946367
622.904506	43553.257862
623.251783	43179.983105
623.599007	42858.118034
623.946179	42797.674600
624.293297	42512.196578
624.640363	41987.851043
624.987376	41831.275325
625.334336	41614.798097
625.681243	41202.734181
626.028097	41126.602676
626.374899	40922.377972
626.721647	40900.970712
627.068343	40685.315192
627.414987	40393.530687
627.761577	40144.938788
628.108115	40461.465276
628.454600	39708.412673
628.801032	39943.537130
629.147412	39823.063635
629.493739	39735.208926
629.840014	39297.248604
630.186236	39724.574612
630.532405	39178.451293
630.878521	39399.405066
631.224585	39176.800315
631.570597	38820.171448
631.916556	38986.756377
632.262462	38876.962566
632.608316	38807.946650
632.954117	38679.051908
633.299866	38639.125969
633.645562	38547.318996
633.991206	38003.033177
634.336797	37598.105015
634.682336	37495.603233
635.027823	37249.181551
635.373257	37117.622559
635.718639	36797.042983
636.063968	36677.166865
636.409245	36016.213623
636.754470	35973.542776
637.099642	35757.264673
637.444762	35180.571797
637.789829	35332.267678
638.134845	34939.317297
638.479808	34864.239393
638.824719	34809.512627
639.169577	34295.171262
639.514383	34386.542175
639.859137	34006.570245
640.203839	34167.811551
640.548489	33873.229205
640.893086	33863.088924
641.237632	33583.960236
641.582125	33697.441650
641.926566	33489.531862
642.270955	33520.779455
642.615292	33442.321457
642.959576	33334.473532
643.303809	33340.898483
643.647990	33432.735703
643.992118	33389.152407
644.336195	33229.539394
644.680219	33313.499811
645.024192	33512.254863
645.368112	34054.879622
645.711981	34050.740835
646.055797	34803.082635
646.399562	34605.245073
646.743274	35477.092466
647.086935	35882.607922
647.430544	35822.537533
647.774101	35866.020006
648.117606	36160.864491
648.461059	36304.071069
648.804460	35891.114870
649.147810	35389.794805
649.491108	35039.676588
649.834354	34887.511880
650.177548	34047.658169
650.520690	33555.359249
650.863781	33540.417269
651.206820	33361.058057
651.549807	32953.243834
651.892742	32368.089381
652.235626	32267.732611
652.578458	32139.762920
652.921238	31442.047063
653.263967	31757.512389
653.606644	31455.070884
653.949269	31357.627901
654.291843	30967.724898
654.634365	31323.232108
654.976836	30850.137464
655.319255	30942.186412
655.661622	30813.750415
656.003938	30674.899394
656.346203	30481.513171
656.688416	30738.697717
657.030577	30500.319196
657.372687	30320.065178
657.714746	30487.038276
658.056753	30698.635667
658.398708	30056.339735
658.740612	30108.513157
659.082465	30330.848206
659.424266	30228.036394
659.766016	30233.069986
660.107715	30092.371382
660.449362	30197.794512
660.790958	30185.854539
661.132503	30099.164337
661.473996	30191.203203
661.815438	30256.723080
662.156829	30385.511958
662.498168	30183.699446
662.839456	30158.879325
663.180693	30287.320363
663.521879	30377.657840
663.863013	30325.582721
664.204097	30311.157459
664.545129	30717.993698
664.886110	30659.586890
665.227040	30754.789080
665.567918	30763.059093
665.908746	30841.897698
666.249522	30929.328950
666.590248	30943.313110
666.930922	31041.313141
667.271545	31042.860775
667.612118	31093.771388
667.952639	30907.934293
668.293109	30943.781938
668.633528	30818.925160
668.973896	30759.288310
669.314213	30741.152759
669.654480	30554.690560
669.994695	30538.566430
670.334859	30468.380965
670.674973	30295.892845
671.015035	30487.255045
671.355047	30423.668451
671.695008	30349.502996
672.034918	30262.533010
672.374777	30356.847957
672.714585	30211.261955
673.054342	30342.218529
673.394049	30204.060666
673.733705	30425.329512
674.073310	30137.804781
674.412864	30191.437617
674.752368	29891.204138
675.091820	30128.304727
675.431223	29705.407372
675.770574	29507.809265
676.109875	29362.646719
676.449125	29157.305399
676.788324	29039.642348
677.127473	28554.615293
677.466571	28463.090624
677.805619	28186.048973
678.144616	28116.476009
678.483562	28065.104131
678.822458	27748.222241
679.161303	27685.147324
679.500098	27606.671682
679.838842	27524.115226
680.177535	27609.540099
680.516179	27854.577984
680.854771	27992.887081
681.193314	28778.566032
681.531805	29800.901949
681.870247	30531.032425
682.208638	31279.789965
682.546978	31552.483621
682.885268	31689.209795
683.223508	31238.034088
683.561697	30969.832100
683.899836	30807.663222
684.237925	30380.644724
684.575963	30244.946945
684.913951	29873.492044
685.251889	30043.194927
685.589776	30058.709077
685.927614	30065.958257
686.265401	30245.196482
686.603137	30371.668949
686.940824	30857.174915
687.278460	31201.321885
687.616046	31361.033200
687.953582	32037.427497
688.291068	31939.641715
688.628504	32275.435494
688.965889	32260.279265
689.303224	31998.179594
689.640510	31708.424153
689.977745	31088.037076
690.314930	30333.910707
690.652065	29886.904034
690.989150	29216.158350
691.326185	28364.183185
691.663170	27737.850067
692.000105	26984.699162
692.336990	26375.377417
692.673825	25943.587467
693.010610	25445.463493
693.347345	24943.009169
693.684030	24310.598939
694.020665	24110.896150
694.357251	23418.723042
694.693786	23428.913735
695.030272	23197.865051
695.366707	22704.068908
695.703093	22422.268408
696.039429	22483.649497
696.375716	22236.330490
696.711952	22250.160895
697.048139	22088.135690
697.384276	21933.069798
697.720363	22045.245553
698.056400	21940.830654
698.392388	21775.286724
698.728326	21777.832506
699.064214	21620.712344
699.400053	21620.820729
699.735842	21228.324052
700.071581	21032.606295
700.407270	20775.517531
700.742910	20606.815318
701.078501	20344.763538
701.414042	20145.799278
701.749533	19831.281689
702.084974	19517.732003
702.420366	19750.300594
702.755709	19333.984465
703.091002	19032.213434
703.426246	19103.306307
703.761440	19029.503814
704.096584	18791.402556
704.431679	18719.608964
704.766725	18674.571295
705.101721	18598.407022
705.436668	18722.111897
705.771565	18443.958672
706.106413	18771.255585
706.441212	18835.832766
706.775961	18949.248645
707.110661	19020.754892
707.445311	19399.564836
707.779913	19262.190873
708.114465	19557.857067
708.448967	19873.743328
708.783421	20510.768734
709.117825	20874.845906
709.452180	21107.684199
709.786485	21558.973333
710.120742	22337.743382
710.454949	22436.330707
710.789107	22951.392957
711.123216	23671.539428
711.457275	23884.997005
711.791286	24439.781027
712.125247	24594.831796
712.459159	24320.779550
712.793023	25082.344141
713.126837	24053.421955
713.460602	24310.089783
713.794318	23970.900788
714.127985	23701.090672
714.461602	22798.595584
714.795171	22780.066823
715.128691	21787.728291
715.462162	21277.316506
715.795584	20831.244966
716.128957	20556.731454
716.462281	20183.658343
716.795556	19900.889942
717.128782	19412.679398
717.461960	18812.043561
717.795088	18761.188401
718.128167	18417.454805
718.461198	17961.058983
718.794180	17832.733891
719.127113	17490.487436
719.459997	17302.036502
719.792833	16930.942044
720.125619	16961.509081
720.458357	16625.543903
720.791046	16491.683624
721.123686	16337.734348
721.456278	16113.322343
721.788821	16106.380674
722.121315	15829.044116
722.453761	15935.966989
722.786158	15811.841178
723.118506	15893.742284
723.450805	15782.599966
723.783056	15957.354084
724.115259	15860.105185
724.447412	15835.375805
724.779518	16066.432051
725.111574	16114.237313
725.443582	16382.968621
725.775542	16332.917525
726.107453	16870.927108
726.439315	16782.152388
726.771129	17200.666460
727.102895	17620.017363
727.434612	17912.631138
727.766281	18059.253098
728.097901	18398.570643
728.429473	18488.398963
728.760996	18500.747270
729.092471	18618.057440
729.423897	18511.134567
729.755276	18389.052944
730.086606	18500.974122
730.417887	19083.121527
730.749120	19650.311828
731.080305	19855.597695
731.411442	20275.004051
731.742530	20382.403313
732.073570	20549.948582
732.404562	20882.750435
732.735506	20714.169209
733.066401	20504.515183
733.397249	20010.484626
733.728048	19382.747547
734.058798	18511.106841
734.389501	17745.461436
734.720156	17225.088330
735.050762	16631.005993
735.381320	16250.897952
735.711831	15974.325129
736.042293	15593.221460
736.372707	15632.466842
736.703073	15417.179326
737.033391	15623.450739
737.363661	15615.490757
737.693883	15736.483490
738.024056	15934.595795
738.354182	16143.654966
738.684260	16507.699370
739.014290	16797.492620
739.344272	17020.248605
739.674207	17385.916261
740.004093	17551.021611
740.333931	17609.746012
740.663722	17687.720060
740.993464	17732.387203
741.323159	17577.545642
741.652806	17271.298067
741.982405	17106.943848
742.311956	16743.902634
742.641460	16633.057743
742.970915	16302.272351
743.300323	15955.456090
743.629683	15732.874024
743.958996	15417.005406
744.288260	15098.374236
744.617477	14795.935252
744.946647	14760.445529
745.275768	14440.405357
745.604842	14229.223861
745.933869	14050.779617
746.262847	14021.639228
746.591778	13933.025825
746.920662	13818.299246
747.249498	13824.656141
747.578286	13993.209640
747.907027	14164.371937
748.235720	14427.363892
748.564365	14501.622609
748.892963	14427.406742
749.221514	14528.517164
749.550017	14391.680084
749.878473	14361.607081
750.206881	14140.716322
750.535242	14059.979723
750.863555	13980.763032
751.191821	13874.036763
751.520039	13898.849323
751.848210	13822.138085
752.176334	13863.737686
752.504411	13790.688846
752.832440	13604.622378
753.160421	13725.380698
753.488356	13612.988173
753.816243	13523.268238
754.144082	13364.968445
754.471875	13309.412409
754.799620	13269.645267
755.127318	13242.302049
755.454969	13232.139082
755.782572	13202.028271
756.110129	13220.312536
756.437638	13126.668062
756.765100	13128.319040
757.092515	13152.937514
757.419882	13187.608050
757.747203	13202.103888
758.074477	13293.038742
758.401703	13274.046194
758.728882	13471.737563
759.056014	13507.912883
759.383099	13679.286908
759.710138	13808.826918
760.037129	13929.323098
760.364073	13989.824506
760.690970	14022.181152
761.017820	14032.898645
761.344623	14273.654070
761.671379	14654.314117
761.998088	15358.528022
762.324751	17150.529665
762.651366	20587.313614
762.977935	25113.879078
763.304456	28114.136913
763.630931	29208.576455
763.957359	27993.610487
764.283740	25717.118671
764.610074	23445.567186
764.936362	20768.492683
765.262602	18870.200832
765.588796	16915.301864
765.914943	15599.419558
766.241044	14486.118540
766.567097	13681.542824
766.893104	12955.001650
767.219064	12477.037251
767.544978	11995.780978
767.870845	11601.648447
768.196665	11373.321987
768.522438	11146.094498
768.848165	10929.385376
769.173846	10720.278314
769.499479	10593.112688
769.825066	10424.602038
770.150607	10191.647799
770.476101	10109.484553
770.801548	9981.986210
771.126949	9827.182458
771.452303	9711.001506
771.777611	9503.580710
772.102872	9496.490327
772.428087	9356.424388
772.753256	9193.784162
773.078378	9102.241850
773.403453	8926.842463
773.728482	8805.443917
774.053465	8728.490703
774.378401	8629.351372
774.703291	8504.199687
775.028135	8375.433494
775.352932	8349.527004
775.677683	8241.621106
776.002388	8128.013663
776.327046	8139.646126
776.651658	8041.474696
776.976224	7939.219931
777.300743	7939.358563
777.625216	7851.082918
777.949643	7805.589025
778.274024	7818.552352
778.598359	7731.113538
778.922647	7752.377125
779.246889	7693.317488
779.571086	7707.629323
779.895236	7716.698359
780.219339	7723.314873
780.543397	7722.165490
780.867409	7806.801422
781.191374	7816.082187
781.515294	7779.490971
781.839167	7875.144345
782.162995	7848.864810
782.486776	7792.156870
782.810511	7742.602328
783.134201	7657.951273
783.457844	7656.542270
783.781441	7594.495749
784.104993	7529.505193
784.428498	7507.046853
784.751958	7490.486663
785.075372	7461.522713
785.398739	7408.308293
785.722061	7458.190510
786.045337	7455.909388
786.368568	7615.829912
786.691752	7640.702965
787.014891	7989.449988
787.337983	8348.329730
787.661030	8938.260677
787.984031	9575.149971
788.306987	9990.357046
788.629897	10196.759529
788.952760	10148.750100
789.275579	9922.775338
789.598351	9527.581644
789.921078	9168.255759
790.243759	8753.807378
790.566395	8455.625649
790.888984	8200.644087
791.211529	7990.690112
791.534027	7764.450689
791.856480	7559.069040
792.178888	7488.384501
792.501249	7386.270889
792.823566	7221.440282
793.145836	7226.360448
793.468062	7199.299534
793.790241	7155.028121
794.112375	7216.305867
794.434464	7374.930813
794.756507	7416.036382
795.078505	7579.803306
795.400457	7884.599029
795.722364	8240.602793
796.044226	8532.185652
796.366042	8813.696286
796.687812	8761.636290
797.009538	8840.893311
797.331218	8734.968586
797.652852	8647.116398
797.974442	8497.931012
798.295986	8411.016478
798.617484	8209.995428
798.938938	8070.320178
799.260346	7969.081206
799.581709	7767.321626
799.903026	7686.708535
800.224299	7577.716268
800.545526	7406.009527
800.866708	7303.749721
801.187845	7233.967549
801.508936	7124.377906
801.829983	7086.725527
802.150984	6931.717608
802.471940	6891.088429
802.792851	6878.896398
803.113717	6843.832653
803.434538	6805.494678
803.755314	6748.900164
804.076045	6751.332521
804.396731	6692.706422
804.717372	6726.971145
805.037967	6725.093315
805.358518	6772.071828
805.679024	6854.913109
805.999485	6861.151537
806.319901	6900.102012
806.640272	6925.728718
806.960598	7008.459093
807.280879	7010.193250
807.601115	7088.494972
807.921306	7033.218721
808.241453	7051.518109
808.561554	7078.795792
808.881611	7033.576642
809.201623	7047.308746
809.521590	6986.424210
809.841513	6976.435164
810.161390	7012.625607
810.481223	6877.046295
810.801011	6864.367793
811.120755	6840.835687
811.440453	6757.008860
811.760107	6729.537092
812.079716	6697.137597
812.399281	6633.656867
812.718801	6618.442664
813.038276	6574.987918
813.357707	6515.469535
813.677093	6554.651904
813.996434	6463.323840
814.315731	6503.534604
814.634983	6493.981617
814.954191	6511.363516
815.273354	6615.604495
815.592473	6681.913312
815.911547	6806.177754
816.230577	6891.867287
816.549562	7038.678290
816.868502	7145.286091
817.187399	7247.162769
817.506250	7403.922489
817.825058	7435.119670
818.143821	7701.675721
818.462539	7987.035275
818.781213	8355.218467
819.099843	8911.353518
819.418429	9924.423795
819.736970	10913.228478
820.055466	12114.908485
820.373919	13668.239219
820.692327	16057.763787
821.010691	20255.071329
821.329011	29314.438165
821.647286	42376.589540
821.965517	55801.169629
822.283704	61114.034106
822.601847	63117.471823
822.919945	60496.031494
823.237999	56434.323429
823.556010	50359.107941
823.873976	43638.052590
824.191897	37058.797335
824.509775	32146.533190
824.827609	27548.511890
825.145398	24922.877321
825.463144	23523.931923
825.780845	23808.046313
826.098502	25590.729383
826.416116	29415.004143
826.733685	33085.019596
827.051210	34257.108029
827.368692	32490.475993
827.686129	28501.531943
828.003522	24331.839841
828.320872	20572.656459
828.638177	17688.456068
828.955439	15490.563403
829.272656	13643.371208
829.589830	12140.421764
829.906960	10848.724394
830.224046	9891.850379
830.541088	9128.506261
830.858086	8660.795569
831.175041	8277.032691
831.491952	8160.372830
831.808819	8205.564253
832.125642	8604.989996
832.442421	9507.061627
832.759157	11325.552013
833.075849	14280.706644
833.392497	17540.563738
833.709101	19754.114227
834.025662	19613.430747
834.342179	17910.685253
834.658653	15685.756880
834.975083	13726.373806
835.291469	12086.617529
835.607811	10740.357230
835.924110	9824.271192
836.240366	8929.907485
836.556578	8115.872044
836.872746	7461.684030
837.188871	6949.548170
837.504952	6521.713004
837.820990	6205.254572
838.136984	5982.493545
838.452935	5882.194748
838.768842	5918.854019
839.084706	6343.485531
839.400526	7566.403919
839.716303	9162.309718
840.032037	10282.670872
840.347727	10214.980779
840.663373	9233.216068
840.978977	8172.249788
841.294537	7348.006011
841.610054	6741.671150
841.925527	6298.757893
842.240957	5932.326503
842.556344	5591.443679
842.871687	5304.274351
843.186987	5019.365979
843.502244	4791.873830
843.817458	4620.993838
844.132629	4481.240450
844.447756	4389.473806
844.762840	4311.328360
845.077881	4232.673757
845.392879	4170.392822
845.707833	4118.907517
846.022745	4068.110331
846.337613	4043.000343
846.652438	4000.173221
846.967221	3982.478771
847.281960	3951.256385
847.596656	3936.029579
847.911309	3912.144592
848.225919	3887.415212
848.540485	3869.327552
848.855009	3853.510932
849.169490	3833.991584
849.483928	3822.185202
849.798323	3814.207576
850.112675	3793.939617
850.426984	3801.304743
850.741251	3788.152373
851.055474	3783.675828
851.369654	3788.195222
851.683792	3783.857309
851.997887	3790.657826
852.311938	3790.793937
852.625947	3793.901808
852.939914	3784.857978
853.253837	3794.831901
853.567718	3790.191519
853.881555	3781.306486
854.195350	3797.163435
854.509103	3791.618166
854.822812	3791.129174
855.136479	3781.934109
855.450103	3791.585398
855.763685	3777.820528
856.077224	3779.915127
856.390720	3798.244762
856.704173	3818.328719
857.017584	3830.601408
857.330953	3843.355528
857.644278	3865.095504
857.957561	3870.865104
858.270802	3870.323180
858.584000	3873.627657
858.897155	3868.440309
859.210268	3850.324923
859.523339	3824.826767
859.836367	3828.693332
860.149352	3816.728153
860.462295	3812.281855
860.775195	3800.730051
861.088054	3798.259886
861.400869	3796.739978
861.713642	3794.605049
862.026373	3805.536792
862.339062	3807.898572
862.651708	3832.340607
862.964312	3869.209085
863.276873	3879.596383
863.589392	3938.368675
863.901869	3983.386179
864.214303	4029.028786
864.526696	4063.724527
864.839045	4109.437710
865.151353	4135.926453
865.463619	4143.609171
865.775842	4153.058814
866.088023	4171.262421
866.400162	4161.328827
866.712258	4168.819982
867.024313	4168.961134
867.336325	4168.981299
867.648296	4176.243081
867.960224	4174.284593
868.272110	4186.743804
868.583954	4190.317982
868.895755	4206.280796
869.207515	4198.840053
869.519233	4242.284717
869.830909	4254.534721
870.142542	4284.156541
870.454134	4296.346051
870.765684	4324.200946
871.077191	4360.172099
871.388657	4385.650091
871.700081	4425.092079
872.011463	4467.773008
872.322803	4508.447557
872.634101	4536.564593
872.945357	4572.908792
873.256571	4631.045898
873.567744	4664.395652
873.878874	4681.701933
874.189963	4719.397161
874.501010	4730.127257
874.812015	4729.978543
875.122979	4772.916571
875.433900	4771.482362
875.744780	4787.089775
876.055618	4814.001974
876.366415	4811.894772
876.677169	4832.051826
876.987882	4882.770875
877.298554	4935.229122
877.609183	5020.840517
877.919771	5132.948217
878.230317	5276.898365
878.540822	5496.231407
878.851285	5827.480585
879.161707	6291.486029
879.472087	7062.507824
879.782425	8319.327972
880.092722	10528.815291
880.402977	13873.721691
880.713191	17666.950506
881.023363	21406.680075
881.333494	23628.866061
881.643583	24865.715677
881.953631	24889.550253
882.263637	24059.005033
882.573602	22578.138365
882.883526	21021.722444
883.193408	19326.939453
883.503248	17611.079398
883.813048	16041.463216
884.122806	14598.226240
884.432522	13103.206532
884.742197	11820.280769
885.051831	10711.650380
885.361424	9687.292959
885.670975	8851.366308
885.980485	8155.815627
886.289954	7567.770072
886.599382	7082.790907
886.908768	6703.033226
887.218113	6333.867009
887.527417	6039.395569
887.836680	5765.297952
888.145901	5542.292429
888.455082	5380.541967
888.764221	5222.864757
889.073319	5087.262760
889.382376	5009.593702
889.691392	4951.348211
890.000366	4923.972225
890.309300	4907.023866
890.618193	4909.133589
890.927044	4893.831166
891.235855	4915.061986
891.544625	4949.447696
891.853353	5009.008929
892.162041	5128.005365
892.470687	5319.826310
892.779293	5577.663685
893.087858	5954.016067
893.396381	6533.952926
893.704864	7346.143304
894.013306	8516.086727
894.321707	9708.538902
894.630068	10533.843842
894.938387	10754.648901
895.246665	10516.376244
895.554903	9910.641280
895.863100	9199.440337
896.171256	8634.342114
896.479371	8123.295143
896.787446	7620.074563
897.095480	7180.430495
897.403473	6850.691143
897.711425	6529.569643
898.019336	6257.556543
898.327207	5985.079657
898.635038	5745.183748
898.942827	5496.566643
899.250576	5296.090037
899.558284	5102.885296
899.865952	4979.457685
900.173579	4827.328265
900.481165	4716.395154
900.788711	4623.010299
901.096216	4550.357190
901.403681	4488.333354
901.711105	4460.017193
902.018489	4443.396508
902.325832	4512.094832
902.633135	4637.516219
902.940397	4987.964632
903.247619	5784.401405
903.554800	7242.603046
903.861941	9191.089666
904.169041	10732.062012
904.476101	11376.142512
904.783121	11027.060252
905.090100	10281.171129
905.397039	9441.624929
905.703938	8670.908124
906.010796	7965.829662
906.317614	7403.146152
906.624391	6856.521237
906.931129	6426.800680
907.237826	6014.151991
907.544483	5641.482172
907.851099	5251.243933
908.157675	4898.151435
908.464211	4568.759922
908.770707	4327.530628
909.077163	4123.862972
909.383578	3973.911330
909.689954	3855.431612
909.996289	3784.424439
910.302584	3717.966908
910.608839	3686.189995
910.915054	3653.500633
911.221229	3637.994043
911.527363	3652.147083
911.833458	3666.602592
912.139513	3693.648382
912.445527	3723.403792
912.751502	3807.936381
913.057436	3910.400353
913.363331	4045.354562
913.669186	4257.924897
913.975000	4519.585987
914.280775	4951.174291
914.586510	5533.276326
914.892205	6341.927814
915.197859	7392.433700
915.503475	8635.927557
915.809050	9701.476246
916.114585	10357.557213
916.420081	10625.723912
916.725536	10593.266443
917.030952	10151.134566
917.336328	9735.395649
917.641665	9315.296135
917.946961	8829.853184
918.252218	8408.997496
918.557435	7891.376860
918.862612	7455.357382
919.167750	7070.677014
919.472848	6640.258258
919.777906	6262.774137
920.082925	5897.633282
920.387904	5523.224265
920.692843	5251.438017
920.997743	5000.411241
921.302603	4759.907873
921.607423	4601.045992
921.912204	4430.619704
922.216946	4314.100994
922.521647	4187.331099
922.826310	4082.192794
923.130932	3985.311899
923.435516	3883.215931
923.740059	3816.201353
924.044564	3734.360740
924.349028	3677.393181
924.653454	3609.209055
924.957840	3540.644322
925.262186	3492.224039
925.566493	3426.164759
925.870761	3373.162067
926.174989	3332.732013
926.479178	3297.169194
926.783328	3250.447780
927.087438	3227.321487
927.391509	3188.338244
927.695541	3160.836229
927.999533	3131.358082
928.303486	3114.835700
928.607400	3095.192844
928.911275	3081.317068
929.215110	3063.990622
929.518906	3056.559962
929.822663	3054.520815
930.126381	3052.395969
930.430060	3055.745815
930.733699	3062.226219
931.037299	3069.556056
931.340861	3069.883731
931.644383	3077.135431
931.947866	3074.627457
932.251309	3071.373392
932.554714	3070.758372
932.858080	3064.421641
933.161407	3054.372101
933.464694	3046.119732
933.767943	3041.071017
934.071153	3035.003988
934.374323	3022.857328
934.677455	3020.558562
934.980548	3010.796367
935.283602	3007.973321
935.586617	3003.753875
935.889593	3015.149403
936.192530	3020.394724
936.495428	3030.804707
936.798287	3056.023079
937.101108	3084.724888
937.403890	3140.807725
937.706632	3199.998433
938.009336	3283.926083
938.312002	3357.310159
938.614628	3422.429264
938.917216	3472.929023
939.219765	3507.972603
939.522275	3539.396636
939.824747	3543.787481
940.127179	3544.518448
940.429573	3534.801624
940.731929	3536.717263
941.034246	3520.996424
941.336524	3509.570649
941.638763	3490.373935
941.940964	3480.047132
942.243126	3433.250101
942.545250	3411.512645
942.847335	3374.790360
943.149381	3338.680575
943.451389	3306.719660
943.753359	3269.939401
944.055290	3245.086513
944.357182	3217.264385
944.659036	3205.957077
944.960851	3194.664892
945.262628	3179.420443
945.564367	3180.075793
945.866067	3178.172757
946.167729	3173.560101
946.469352	3169.595234
946.770937	3164.395284
947.072484	3152.311638
947.373992	3153.637461
947.675462	3148.563540
947.976893	3129.613843
948.278286	3122.278964
948.579641	3111.828652
948.880958	3106.916048
949.182236	3109.638271
949.483476	3103.241046
949.784678	3102.837754
950.085841	3102.096704
950.386967	3112.100874
950.688054	3131.786580
950.989103	3151.507574
951.290114	3174.238137
951.591087	3202.665203
951.892021	3230.734348
952.192917	3259.146291
952.493776	3278.874846
952.794596	3291.931435
953.095378	3295.770273
953.396122	3293.113585
953.696828	3282.945578
953.997496	3274.725977
954.298126	3248.698499
954.598718	3227.873493
954.899272	3199.794266
955.199788	3171.581448
955.500266	3142.093219
955.800706	3105.464195
956.101108	3066.606981
956.401472	3036.912065
956.701798	2999.768843
957.002087	2960.253759
957.302337	2933.691919
957.602550	2905.390881
957.902724	2873.024153
958.202861	2846.467355
958.502960	2826.544715
958.803022	2808.421767
959.103045	2785.824794
959.403031	2765.443409
959.702979	2754.809095
960.002889	2741.795357
960.302762	2729.338666
960.602596	2716.715616
960.902393	2707.389482
961.202153	2697.770960
961.501875	2690.998170
961.801559	2685.193281
962.101205	2678.324709
962.400814	2672.865140
962.700385	2665.467246
962.999918	2659.967347
963.299414	2653.000473
963.598873	2651.979639
963.898293	2643.558392
964.197677	2644.511170
964.497022	2641.093267
964.796331	2637.922382
965.095601	2637.423307
965.394835	2633.861732
965.694030	2630.189252
965.993189	2631.706639
966.292309	2630.947945
966.591393	2631.008439
966.890439	2631.396608
967.189447	2631.288223
967.488419	2626.415948
967.787353	2629.627163
968.086249	2632.276289
968.385108	2634.864922
968.683930	2634.272586
968.982714	2641.241982
969.281462	2643.530665
969.580172	2649.829587
969.878844	2656.045330
970.177480	2664.554797
970.476078	2671.352793
970.774639	2680.774710
971.073162	2688.238138
971.371649	2691.330886
971.670098	2698.857329
971.968510	2705.075592
972.266885	2708.546427
972.565223	2713.174206
972.863524	2712.791078
973.161788	2717.633106
973.460014	2720.078066
973.758204	2725.330948
974.056356	2723.271637
974.354471	2730.021742
974.652550	2729.275651
974.950591	2726.039230
975.248595	2726.681977
975.546563	2721.413972
975.844493	2719.934393
976.142386	2712.619679
976.440243	2710.212528
976.738062	2703.391847
977.035845	2694.983202
977.333590	2690.597398
977.631299	2683.663291
977.928971	2678.339833
978.226606	2673.994358
978.524204	2670.662155
978.821765	2664.874911
979.119290	2669.124603
979.416777	2666.949346
979.714228	2670.427742
980.011642	2674.193484
980.309020	2681.553568
980.606360	2696.919005
980.903664	2719.639486
981.200931	2755.149373
981.498162	2804.731642
981.795356	2881.677294
982.092513	2974.782364
982.389633	3078.824218
982.686717	3177.426666
982.983764	3251.272008
983.280775	3300.662713
983.577749	3310.477840
983.874686	3295.729944
984.171587	3261.286261
984.468451	3218.829663
984.765279	3177.083868
985.062070	3131.554687
985.358824	3087.691607
985.655543	3028.725231
985.952224	2974.283290
986.248869	2908.254257
986.545478	2850.689321
986.842050	2797.885755
987.138586	2748.205184
987.435086	2708.526262
987.731549	2677.467713
988.027975	2653.590288
988.324366	2634.728811
988.620719	2620.583333
988.917037	2609.598659
989.213318	2596.456371
989.509563	2592.355392
989.805772	2587.137798
990.101944	2581.736202
990.398080	2582.855338
990.694180	2576.679924
990.990244	2581.116140
991.286271	2579.676890
991.582262	2580.095306
991.878217	2583.971953
992.174136	2584.874320
992.470019	2587.410020
992.765865	2594.790269
993.061676	2596.554673
993.357450	2605.225458
993.653188	2612.207456
993.948890	2631.479787
994.244556	2648.738177
994.540186	2674.047290
994.835780	2704.281610
995.131337	2744.076479
995.426859	2785.315638
995.722345	2832.402535
996.017795	2884.268447
996.313208	2924.043151
996.608586	2948.908642
996.903928	2963.807772
997.199234	2961.957669
997.494504	2958.411217
997.789738	2943.764144
998.084936	2920.413520
998.380099	2889.612070
998.675225	2860.622915
998.970316	2830.940601
999.265371	2792.532050
999.560390	2753.967223
999.855373	2724.582337
1000.150320	2696.160312
1000.445232	2668.973369
1000.740108	2651.150369
1001.034948	2628.019035
1001.329752	2618.130812
1001.624521	2601.346290
1001.919254	2592.075608
1002.213951	2583.505647
1002.508613	2575.376786
1002.803239	2567.741958
1003.097829	2558.778787
1003.392384	2557.805844
1003.686903	2551.650595
1003.981386	2546.770758
1004.275834	2543.614996
1004.570246	2544.466951
1004.864623	2538.404964
1005.158964	2536.222144
1005.453270	2534.926567
1005.747540	2534.704757
1006.041775	2532.090918
1006.335974	2530.502955
1006.630138	2528.103366
1006.924266	2527.750485
1007.218359	2525.217305
1007.512416	2525.411390
1007.806438	2523.009280
1008.100425	2521.990967
1008.394376	2520.042561
1008.688292	2525.560104
1008.982172	2524.718231
1009.276017	2522.779907
1009.569827	2523.606657
1009.863602	2520.569361
1010.157341	2522.442150
1010.451045	2521.000380
1010.744714	2518.701614
1011.038347	2519.271264
1011.331945	2515.618948
1011.625508	2518.068949
1011.919036	2516.445697
1012.212528	2514.613238
1012.505986	2513.854544
1012.799408	2516.037364
1013.092795	2515.986953
1013.386147	2513.625172
1013.679464	2511.984276
1013.972745	2513.836900
1014.265992	2512.942096
1014.559204	2511.911180
1014.852380	2511.901097
1015.145521	2512.576612
1015.438628	2513.065604
1015.731699	2512.909328
1016.024736	2512.080058
1016.317737	2515.490399
1016.610703	2514.593073
1016.903635	2517.985770
1017.196531	2517.877385
1017.489393	2520.198837
1017.782219	2517.181706
1018.075011	2522.459794
1018.367768	2523.276461
1018.660490	2524.173786
1018.953177	2524.173786
1019.245829	2524.173786
