Dividing Wavelength (nm)	Counts (n)	Blue Motor Position (mm): 7.300000	Red Motor Position (mm): 0.000000	
326.493990	2159.123672
326.888308	2159.123672
327.282561	2159.123672
327.676750	2115.724378
328.070874	2117.438371
328.464933	2114.383431
328.858929	2119.563217
329.252859	2123.628908
329.646726	2132.019908
330.040528	2144.340488
330.434265	2158.183497
330.827938	2175.353667
331.221547	2191.830678
331.615091	2209.991435
332.008571	2227.143961
332.401986	2247.477455
332.795338	2264.632501
333.188625	2284.124123
333.581847	2301.052317
333.975006	2319.397076
334.368100	2338.835765
334.761129	2356.804958
335.154095	2372.266177
335.546996	2391.359547
335.939833	2408.285221
336.332606	2423.196954
336.725315	2437.720518
337.117960	2450.164607
337.510540	2460.075515
337.903056	2471.471043
338.295508	2477.341467
338.687896	2492.442243
339.080220	2497.344766
339.472480	2506.653256
339.864676	2509.872033
340.256807	2517.068280
340.648875	2519.682118
341.040879	2523.125226
341.432818	2522.679084
341.824694	2527.069929
342.216506	2526.759898
342.608253	2529.522451
342.999937	2529.928263
343.391557	2529.986237
343.783113	2530.697039
344.174605	2528.340300
344.566033	2528.662934
344.957397	2525.204702
345.348697	2521.320493
345.739934	2520.176151
346.131106	2518.668846
346.522215	2520.148425
346.913260	2518.540297
347.304241	2515.891171
347.695159	2513.889833
348.086012	2511.964112
348.476802	2510.552589
348.867528	2503.958759
349.258191	2501.145796
349.648789	2502.050683
350.039324	2499.898110
350.429796	2501.629746
350.820203	2500.729900
351.210548	2502.385919
351.600828	2498.158912
351.991045	2495.804693
352.381198	2499.046155
352.771288	2497.165805
353.161314	2492.384270
353.551276	2493.372336
353.941175	2493.644559
354.331010	2493.947028
354.720782	2491.809579
355.110490	2494.612460
355.500135	2493.034579
355.889717	2492.215392
356.279235	2493.619353
356.668689	2493.931904
357.058080	2495.517347
357.447408	2492.759836
357.836672	2496.681854
358.225873	2495.943325
358.615010	2494.536843
359.004084	2496.283603
359.393095	2495.809734
359.782043	2495.640856
360.170927	2498.156391
360.559748	2497.634632
360.948505	2499.028511
361.337199	2498.829385
361.725830	2498.594972
362.114398	2499.099087
362.502903	2499.275528
362.891344	2500.815600
363.279722	2501.596979
363.668037	2500.563542
364.056289	2503.079078
364.444478	2499.688902
364.832603	2504.359531
365.220665	2502.040600
365.608665	2504.924140
365.996601	2502.224603
366.384474	2504.034377
366.772284	2506.554954
367.160031	2505.491270
367.547715	2507.510252
367.935336	2506.635612
368.322893	2506.002947
368.710388	2505.410612
369.097820	2505.967659
369.485189	2501.223933
369.872495	2505.637464
370.259738	2507.341374
370.646918	2506.920437
371.034035	2508.410098
371.421090	2508.914214
371.808081	2509.483864
372.195010	2510.587877
372.581875	2510.545027
372.968678	2507.447238
373.355418	2508.664677
373.742096	2507.747187
374.128710	2508.223576
374.515262	2511.580984
374.901751	2511.328926
375.288177	2511.918741
375.674540	2510.504698
376.060841	2510.507218
376.447079	2510.071158
376.833254	2512.327075
377.219367	2511.349091
377.605417	2512.735408
377.991404	2511.936385
378.377329	2510.660973
378.763191	2513.562157
379.148991	2512.264060
379.534727	2512.122908
379.920402	2513.559637
380.306013	2514.046108
380.691563	2517.002745
381.077049	2514.267919
381.462474	2515.001407
381.847835	2517.695904
382.233134	2514.920748
382.618371	2513.605007
383.003545	2515.462673
383.388657	2515.583660
383.773706	2516.317148
384.158693	2517.337982
384.543618	2517.058198
384.928480	2516.712879
385.313280	2514.434277
385.698017	2517.557272
386.082692	2516.949813
386.467305	2517.695904
386.851856	2515.936541
387.236344	2518.091634
387.620770	2516.029802
388.005133	2513.670542
388.389435	2516.637261
388.773674	2515.034174
389.157851	2517.688342
389.541965	2517.196829
389.926018	2519.470390
390.310008	2519.551048
390.693936	2521.360823
391.077802	2517.849659
391.461606	2518.812519
391.845348	2520.216481
392.229027	2520.980215
392.612645	2520.566841
392.996200	2521.789321
393.379694	2518.794875
393.763125	2520.758405
394.146494	2519.825791
394.529801	2522.754702
394.913047	2522.240504
395.296230	2519.646830
395.679351	2520.302180
396.062410	2520.377797
396.445408	2519.964423
396.828343	2524.909795
397.211217	2522.217819
397.594028	2522.860566
397.976778	2522.043899
398.359466	2522.578261
398.742092	2523.347037
399.124656	2524.821575
399.507158	2521.370905
399.889598	2525.620598
400.271977	2524.009949
400.654294	2522.442150
401.036549	2520.682787
401.418742	2525.093797
401.800874	2522.767304
402.182944	2525.759229
402.564952	2523.972140
402.946898	2526.553211
403.328783	2520.929804
403.710606	2523.301667
404.092367	2523.528519
404.474067	2523.336955
404.855705	2523.510875
405.237282	2524.559435
405.618797	2527.256452
406.000250	2526.800228
406.381642	2527.390042
406.762972	2525.015659
407.144240	2525.973478
407.525447	2525.986081
407.906593	2522.691687
408.287677	2527.286699
408.668700	2527.684950
409.049661	2526.911133
409.430560	2530.248377
409.811399	2527.211082
410.192176	2530.762574
410.572891	2530.150074
410.953545	2528.927594
411.334138	2525.507172
411.714669	2527.004394
412.095139	2529.524971
412.475547	2528.103366
412.855894	2527.702594
413.236180	2527.843746
413.616405	2528.065557
413.996568	2531.060002
414.376670	2528.685619
414.756711	2530.848274
415.136691	2530.898686
415.516609	2529.222502
415.896466	2528.554549
416.276262	2531.969931
416.655997	2530.470188
417.035670	2528.330218
417.415283	2532.882380
417.794834	2529.945907
418.174324	2529.121679
418.553753	2532.393388
418.933121	2531.357431
419.312428	2530.530681
419.691674	2532.370703
420.070859	2531.158305
420.449983	2533.757020
420.829045	2530.598737
421.208047	2531.680064
421.586988	2531.054961
421.965867	2529.708973
422.344686	2532.000178
422.723444	2533.220137
423.102141	2530.749972
423.480777	2532.020342
423.859352	2532.471526
424.237866	2530.825589
424.616319	2535.057637
424.994712	2532.194262
425.373044	2533.575538
425.751314	2528.713345
426.129524	2532.262318
426.507673	2529.560259
426.885762	2528.536905
427.263789	2533.174767
427.641756	2532.320291
428.019662	2533.706608
428.397508	2535.148378
428.775292	2533.376413
429.153016	2533.081505
429.530679	2534.815662
429.908282	2533.699047
430.285824	2533.454551
430.663305	2535.173584
431.040726	2534.346835
431.418086	2534.109901
431.795385	2533.613347
432.172624	2535.934798
432.549802	2536.597710
432.926920	2534.669469
433.303977	2533.512524
433.680974	2537.668955
434.057910	2535.410518
434.434786	2535.249201
434.811601	2535.133255
435.188355	2536.638039
435.565050	2537.953780
435.941683	2536.963194
436.318257	2537.190046
436.694770	2537.663914
437.071222	2535.128214
437.447614	2535.045035
437.823946	2538.462937
438.200218	2536.900179
438.576429	2537.701723
438.952580	2537.116949
439.328670	2537.179963
439.704700	2537.419418
440.080670	2535.360107
440.456580	2538.639377
440.832429	2538.969573
441.208218	2538.687268
441.583947	2536.867412
441.959616	2539.045190
442.335224	2535.907072
442.710773	2538.465457
443.086261	2536.718698
443.461689	2537.936136
443.837057	2538.672145
444.212365	2536.627957
444.587612	2536.217103
444.962800	2535.254243
445.337927	2539.299768
445.712995	2533.888090
446.088002	2539.171219
446.462949	2537.195087
446.837837	2539.113246
447.212664	2538.956970
447.587431	2540.733977
447.962139	2540.771785
448.336786	2538.536034
448.711374	2541.061652
449.085901	2540.038298
449.460369	2540.978473
449.834776	2541.540561
450.209124	2540.156765
450.583412	2540.900335
450.957640	2541.049049
451.331808	2540.330684
451.705917	2538.233564
452.079965	2540.565098
452.453954	2540.670962
452.827883	2541.326312
453.201752	2538.841023
453.575562	2540.660880
453.949311	2541.144831
454.323001	2539.662732
454.696632	2540.754141
455.070202	2541.197763
455.443713	2539.761034
455.817164	2539.975283
456.190556	2544.361087
456.563888	2538.687268
456.937160	2540.398740
457.310373	2541.333874
457.683526	2539.791281
458.056619	2542.581560
458.429653	2540.239944
458.802628	2541.782537
459.175542	2542.382434
459.548398	2541.737166
459.921194	2542.863864
460.293930	2544.451828
460.666607	2543.178936
461.039224	2543.274718
461.411782	2540.953267
461.784280	2541.230530
462.156719	2544.114070
462.529099	2542.122815
462.901419	2544.403937
463.273680	2541.873277
463.645882	2537.890766
464.018024	2539.398071
464.390106	2537.497556
464.762130	2543.478885
465.134094	2542.929399
465.505999	2542.488298
465.877845	2542.999975
466.249631	2545.061807
466.621358	2541.865716
466.993026	2542.531148
467.364634	2546.324616
467.736184	2544.794626
468.107674	2542.931920
468.479105	2543.889739
468.850477	2543.292362
469.221790	2541.913607
469.593043	2543.851930
469.964238	2542.120294
470.335373	2544.736653
470.706449	2543.453679
471.077467	2543.541899
471.448425	2543.637681
471.819324	2545.069369
472.190164	2546.120450
472.560945	2542.878988
472.931667	2542.856302
473.302330	2544.348484
473.672934	2540.126518
474.043479	2544.406457
474.413965	2544.295552
474.784393	2543.441076
475.154761	2545.898639
475.525070	2544.328319
475.895321	2544.245140
476.265513	2542.100129
476.635645	2544.295552
477.005719	2542.742877
477.375734	2544.204811
477.745691	2544.585418
478.115588	2545.684390
478.485427	2546.669935
478.855207	2546.634647
479.224928	2542.838658
479.594591	2544.698844
479.964194	2545.457538
480.333739	2544.469472
480.703226	2546.485933
481.072653	2545.026519
481.442022	2545.417209
481.811333	2543.806560
482.180584	2541.636343
482.549777	2545.361756
482.918912	2542.493339
483.287988	2545.102137
483.657005	2547.504246
484.025964	2547.146324
484.394864	2546.122970
484.763706	2546.460728
485.132489	2544.532486
485.501213	2546.576674
485.869879	2548.310831
486.238487	2546.717826
486.607036	2545.878474
486.975527	2545.054246
487.343959	2545.795295
487.712333	2547.844524
488.080648	2545.276056
488.448905	2544.630789
488.817104	2549.586243
489.185244	2546.218752
489.553326	2545.409647
489.921350	2546.112888
490.289315	2547.403423
490.657222	2549.709751
491.025070	2548.729247
491.392861	2545.981818
491.760593	2546.639688
492.128267	2550.027344
492.495883	2544.998793
492.863440	2546.947199
493.230939	2549.293856
493.598380	2546.856458
493.965763	2546.564071
494.333088	2547.988197
494.700354	2547.751263
495.067563	2546.775800
495.434713	2547.194215
495.801805	2545.817980
496.168839	2546.438042
496.535815	2548.973743
496.902733	2546.869061
497.269593	2547.042981
497.636395	2546.858979
498.003139	2548.943496
498.369825	2548.600697
498.736453	2545.797816
499.103023	2548.953578
499.469535	2547.784030
499.835989	2544.955943
500.202385	2544.262784
500.568723	2545.097095
500.935003	2548.419216
501.301226	2543.965356
501.667390	2549.475337
502.033497	2550.324772
502.399546	2549.664381
502.765537	2548.754452
503.131470	2547.819318
503.497345	2548.033567
503.863163	2547.342929
504.228923	2546.090203
504.594625	2548.827549
504.960269	2550.014741
505.325856	2549.382076
505.691385	2548.497354
506.056856	2545.674308
506.422270	2550.037426
506.787625	2551.275029
507.152924	2549.165307
507.518164	2548.686397
507.883347	2550.637323
508.248472	2548.840152
508.613540	2548.953578
508.978550	2550.057591
509.343503	2546.528783
509.708398	2549.823177
510.073236	2549.709751
510.438016	2549.445091
510.802738	2549.281253
511.167403	2547.844524
511.532010	2551.350647
511.896561	2550.526418
512.261053	2548.953578
512.625488	2551.683363
512.989866	2547.577343
513.354186	2550.430636
513.718449	2549.107333
514.082655	2548.464586
514.446803	2547.169010
514.810894	2549.331665
515.174927	2552.666388
515.538904	2550.531459
515.902822	2548.699000
516.266684	2549.752601
516.630488	2550.717982
516.994235	2551.595143
517.357925	2549.394679
517.721558	2551.476676
518.085133	2549.750080
518.448651	2548.648588
518.812112	2547.705893
519.175516	2549.498023
519.538863	2547.143804
519.902152	2551.181768
520.265385	2553.183106
520.628560	2550.410472
520.991678	2551.322920
521.354739	2548.731767
521.717743	2551.716130
522.080690	2552.507592
522.443580	2553.258723
522.806413	2550.660009
523.169189	2552.197561
523.531908	2550.143290
523.894569	2550.786037
524.257174	2550.339895
524.619722	2550.420554
524.982213	2549.989535
525.344647	2553.601522
525.707025	2551.133877
526.069345	2551.418702
526.431608	2548.308310
526.793815	2549.619010
527.155964	2554.403065
527.518057	2548.537683
527.880093	2551.567416
528.242072	2550.521377
528.603995	2554.473642
528.965860	2551.252344
529.327669	2549.245965
529.689421	2553.414999
530.051117	2552.144628
530.412755	2551.212015
530.774337	2548.966181
531.135862	2550.886861
531.497331	2549.911397
531.858743	2549.987015
532.220098	2550.342416
532.581396	2551.595143
532.942638	2551.726213
533.303824	2549.553475
533.664953	2552.787376
534.026025	2548.920811
534.387040	2552.517674
534.747999	2553.084804
535.108902	2550.995245
535.469748	2548.966181
535.830537	2553.941800
536.191270	2551.428785
536.551947	2550.186140
536.912567	2549.505584
537.273131	2549.674463
537.633638	2549.311500
537.994089	2554.634958
538.354483	2552.850390
538.714821	2554.934907
539.075103	2552.938610
539.435328	2550.662529
539.795497	2553.488096
540.155609	2556.323745
540.515665	2555.592778
540.875665	2555.895247
541.235609	2557.969682
541.595496	2555.222253
541.955328	2558.156204
542.315102	2555.532284
542.674821	2556.631255
543.034483	2557.208468
543.394090	2556.679146
543.753640	2557.226112
544.113134	2557.689898
544.472571	2560.780125
544.831953	2557.573951
545.191278	2560.815413
545.550548	2557.591595
545.909761	2560.591082
546.268918	2563.094015
546.628019	2561.281720
546.987064	2561.851370
547.346053	2563.023438
547.704986	2561.934549
548.063863	2565.833882
548.422684	2560.870866
548.781449	2562.022769
549.140158	2561.896741
549.498811	2563.575445
549.857408	2562.315156
550.215949	2564.382029
550.574434	2562.602502
550.932864	2564.984447
551.291237	2563.489745
551.649555	2565.710373
552.007817	2566.373285
552.366022	2565.102914
552.724173	2564.994530
553.082267	2566.350600
553.440305	2565.425548
553.798288	2567.063923
554.156215	2565.589386
554.514086	2565.458316
554.871902	2564.989488
555.229661	2567.469736
555.587365	2564.326577
555.945014	2566.930333
556.302606	2566.658110
556.660143	2567.512586
557.017625	2567.131979
557.375050	2572.311764
557.732421	2568.276321
558.089735	2569.662638
558.446994	2568.477967
558.804197	2570.501990
559.161345	2571.174984
559.518437	2570.093657
559.875474	2567.068964
560.232455	2567.499983
560.589381	2569.587021
560.946251	2569.811352
561.303065	2567.620971
561.659825	2573.067937
562.016528	2570.186918
562.373177	2568.631722
562.729770	2570.587690
563.086307	2570.317988
563.442789	2571.883266
563.799216	2571.603482
564.155587	2569.299675
564.511904	2567.540312
564.868164	2570.524675
565.224370	2570.038204
565.580520	2570.925447
565.936615	2571.492577
566.292654	2570.169274
566.648638	2570.895200
567.004567	2570.650704
567.360441	2570.305385
567.716260	2568.901424
568.072023	2570.847309
568.427732	2569.660117
568.783385	2569.536609
569.138982	2569.163564
569.494525	2570.728842
569.850013	2570.895200
570.205445	2571.369069
570.560823	2570.665828
570.916145	2569.823955
571.271412	2567.525189
571.626625	2569.675241
571.981782	2571.079202
572.336884	2569.014850
572.691931	2565.443192
573.046923	2564.976886
573.401860	2565.481001
573.756743	2567.560477
574.111570	2567.585683
574.466342	2568.281362
574.821059	2569.345045
575.175722	2570.010478
575.530330	2566.912689
575.884882	2570.292782
576.239380	2568.210786
576.593823	2568.427555
576.948211	2567.636094
577.302544	2568.024263
577.656823	2567.260528
578.011047	2567.653738
578.365216	2567.381516
578.719330	2568.601475
579.073389	2565.596947
579.427394	2565.274314
579.781344	2566.169118
580.135239	2567.336146
580.489080	2564.200548
580.842866	2567.200034
581.196597	2569.627350
581.550273	2566.123748
581.903895	2567.618450
582.257463	2566.146433
582.610975	2565.896896
582.964434	2564.697102
583.317837	2566.262380
583.671186	2566.118707
584.024481	2565.639797
584.377721	2565.949828
584.730906	2565.065106
585.084037	2564.525702
585.437113	2566.176680
585.790135	2564.417318
586.143103	2564.235836
586.496016	2565.785991
586.848874	2566.123748
587.201679	2563.315825
587.554428	2564.190466
587.907124	2565.619633
588.259765	2563.557801
588.612352	2565.647359
588.964884	2565.833882
589.317362	2565.556618
589.669786	2563.104097
590.022155	2558.297357
590.374470	2558.849363
590.726731	2562.889848
591.078937	2557.442881
591.431090	2561.899261
591.783188	2564.445044
592.135232	2563.104097
592.487222	2562.060578
592.839157	2564.440003
593.191038	2562.151319
593.542866	2559.971020
593.894639	2560.328942
594.246358	2561.962276
594.598022	2560.288613
594.949633	2563.857749
595.301190	2562.516803
595.652692	2561.344734
596.004141	2561.566545
596.355535	2561.768191
596.706876	2560.500341
597.058162	2558.831719
597.409395	2561.317008
597.760573	2560.356668
598.111698	2562.456309
598.462768	2560.707028
598.813785	2557.541184
599.164748	2560.059240
599.515657	2559.734086
599.866511	2560.386915
600.217312	2559.842470
600.568060	2558.143602
600.918753	2561.889179
601.269392	2560.112172
601.619978	2561.750547
601.970510	2560.328942
602.320988	2560.598643
602.671412	2559.852553
603.021783	2562.584858
603.372100	2560.465053
603.722363	2560.323901
604.072572	2561.120403
604.422728	2560.616287
604.772830	2559.043447
605.122878	2558.771225
605.472872	2560.288613
605.822813	2557.563869
606.172701	2560.512944
606.522534	2560.651576
606.872314	2561.821123
607.222041	2560.477656
607.571714	2558.811554
607.921333	2556.616132
608.270899	2559.421534
608.620411	2555.350802
608.969870	2561.795918
609.319276	2565.289437
609.668627	2568.747669
610.017926	2572.125242
610.367171	2577.715881
610.716362	2574.988617
611.065500	2574.469378
611.414585	2570.401167
611.763616	2567.941084
612.112594	2567.474777
612.461518	2565.952349
612.810389	2565.967472
613.159207	2564.772719
613.507971	2564.518141
613.856682	2563.983778
614.205340	2562.897410
614.553945	2567.472257
614.902496	2564.651731
615.250994	2563.300702
615.599439	2564.331618
615.947830	2565.430589
616.296169	2561.745506
616.644454	2564.876063
616.992686	2563.930846
617.340864	2564.129972
617.688990	2563.759447
618.037063	2565.811197
618.385082	2564.535785
618.733048	2567.273131
619.080961	2565.735579
619.428821	2567.691547
619.776628	2566.816907
620.124382	2566.050651
620.472083	2565.097873
620.819731	2568.301527
621.167326	2565.193655
621.514868	2566.151474
621.862357	2564.399673
622.209793	2566.128789
622.557176	2566.695919
622.904506	2563.814900
623.251783	2564.087122
623.599007	2565.455795
623.946179	2566.625343
624.293297	2565.780950
624.640363	2563.953531
624.987376	2563.240208
625.334336	2560.565876
625.681243	2562.221895
626.028097	2561.241391
626.374899	2566.017884
626.721647	2564.414797
627.068343	2566.033007
627.414987	2564.790363
627.761577	2565.022256
628.108115	2566.368244
628.454600	2566.045610
628.801032	2566.325394
629.147412	2563.920764
629.493739	2568.462843
629.840014	2570.733883
630.186236	2567.696588
630.532405	2567.424366
630.878521	2567.958728
631.224585	2570.817062
631.570597	2566.862277
631.916556	2563.935887
632.262462	2566.723645
632.608316	2568.611557
632.954117	2568.626681
633.299866	2568.218348
633.645562	2566.085939
633.991206	2568.208265
634.336797	2565.644838
634.682336	2568.974521
635.027823	2566.821948
635.373257	2566.247256
635.718639	2566.746331
636.063968	2568.402350
636.409245	2568.581311
636.754470	2567.149623
637.099642	2564.719787
637.444762	2566.650549
637.789829	2568.321691
638.134845	2569.410580
638.479808	2568.510734
638.824719	2566.542164
639.169577	2566.363203
639.514383	2568.402350
639.859137	2567.247925
640.203839	2567.076526
640.548489	2566.579973
640.893086	2568.314129
641.237632	2566.728687
641.582125	2568.477967
641.926566	2569.806311
642.270955	2565.977555
642.615292	2564.712225
642.959576	2565.763306
643.303809	2567.983934
643.647990	2571.051476
643.992118	2569.788667
644.336195	2571.422001
644.680219	2569.292113
645.024192	2569.395457
645.368112	2569.826476
645.711981	2572.916703
646.055797	2571.331260
646.399562	2575.883422
646.743274	2573.204049
647.086935	2575.543144
647.430544	2574.194635
647.774101	2575.961560
648.117606	2576.964749
648.461059	2575.981724
648.804460	2578.822415
649.147810	2576.127918
649.491108	2575.031467
649.834354	2578.575398
650.177548	2578.988773
650.520690	2574.683627
650.863781	2577.758731
651.206820	2575.704461
651.549807	2576.747980
651.892742	2573.725808
652.235626	2578.091447
652.578458	2575.812846
652.921238	2577.448700
653.263967	2577.607497
653.606644	2577.552044
653.949269	2578.598083
654.291843	2579.634040
654.634365	2579.278639
654.976836	2578.615727
655.319255	2579.129925
655.661622	2578.756880
656.003938	2580.221335
656.346203	2576.410222
656.688416	2582.053794
657.030577	2582.126891
657.372687	2582.593198
657.714746	2582.167220
658.056753	2579.644123
658.398708	2584.861717
658.740612	2583.936665
659.082465	2587.470514
659.424266	2581.070769
659.766016	2582.308373
660.107715	2584.642427
660.449362	2582.812488
660.790958	2588.072932
661.132503	2589.096286
661.473996	2588.859352
661.815438	2589.973447
662.156829	2593.625763
662.498168	2592.753643
662.839456	2594.918819
663.180693	2592.713314
663.521879	2592.017635
663.863013	2594.891092
664.204097	2596.940322
664.545129	2597.822523
664.886110	2595.223809
665.227040	2601.222782
665.567918	2602.956939
665.908746	2604.925509
666.249522	2602.147833
666.590248	2600.501897
666.930922	2609.250819
667.271545	2607.108329
667.612118	2610.516149
667.952639	2610.765686
668.293109	2609.278546
668.633528	2608.693772
668.973896	2612.358691
669.314213	2615.451438
669.654480	2613.417333
669.994695	2614.486058
670.334859	2615.698455
670.674973	2616.212653
671.015035	2620.653909
671.355047	2620.318672
671.695008	2619.113837
672.034918	2620.943776
672.374777	2623.976030
672.714585	2624.704476
673.054342	2628.450054
673.394049	2627.179683
673.733705	2631.308388
674.073310	2631.144550
674.412864	2637.693009
674.752368	2635.747124
675.091820	2633.239150
675.431223	2642.035963
675.770574	2636.203348
676.109875	2637.322484
676.449125	2636.437762
676.788324	2633.541619
677.127473	2634.607823
677.466571	2634.829634
677.805619	2642.845068
678.144616	2640.538741
678.483562	2645.075779
678.822458	2643.664256
679.161303	2642.081334
679.500098	2646.280615
679.838842	2648.594504
680.177535	2648.314720
680.516179	2651.510812
680.854771	2654.573313
681.193314	2659.727893
681.531805	2661.348624
681.870247	2673.744821
682.208638	2677.707168
682.546978	2688.908612
682.885268	2695.910774
683.223508	2689.735361
683.561697	2687.429033
683.899836	2690.456246
684.237925	2689.808458
684.575963	2689.861390
684.913951	2702.653318
685.251889	2697.171063
685.589776	2703.457382
685.927614	2708.276725
686.265401	2701.370344
686.603137	2714.913404
686.940824	2718.981615
687.278460	2727.607029
687.616046	2737.439800
687.953582	2745.777868
688.291068	2743.239647
688.628504	2751.028230
688.965889	2762.978285
689.303224	2768.848709
689.640510	2769.269645
689.977745	2759.134405
690.314930	2758.504261
690.652065	2760.934097
690.989150	2746.075296
691.326185	2749.757859
691.663170	2744.053794
692.000105	2740.091447
692.336990	2743.559761
692.673825	2735.171281
693.010610	2734.891497
693.347345	2729.237842
693.684030	2724.910012
694.020665	2724.337841
694.357251	2724.715927
694.693786	2733.411918
695.030272	2721.635782
695.366707	2727.886813
695.703093	2725.973695
696.039429	2727.468397
696.375716	2734.281517
696.711952	2725.484703
697.048139	2732.706156
697.384276	2737.510376
697.720363	2736.136662
698.056400	2738.301837
698.392388	2741.976838
698.728326	2741.243350
699.064214	2743.781571
699.400053	2758.000146
699.735842	2746.816346
700.071581	2746.672673
700.407270	2742.667476
700.742910	2743.592528
701.078501	2746.040008
701.414042	2739.788977
701.749533	2744.303331
702.084974	2741.134966
702.420366	2744.615882
702.755709	2744.358783
703.091002	2738.659759
703.426246	2743.915162
703.761440	2746.907087
704.096584	2748.840369
704.431679	2743.537075
704.766725	2749.246182
705.101721	2744.696541
705.436668	2748.840369
705.771565	2752.006214
706.106413	2761.039962
706.441212	2765.093049
706.775961	2759.005856
707.110661	2762.348141
707.445311	2777.073351
707.779913	2773.564708
708.114465	2785.466872
708.448967	2790.291257
708.783421	2787.470731
709.117825	2813.699855
709.452180	2816.739670
709.786485	2815.139104
710.120742	2838.199862
710.454949	2841.194308
710.789107	2853.479600
711.123216	2865.636342
711.457275	2889.299518
711.791286	2906.542785
712.125247	2901.375602
712.459159	2921.242790
712.793023	2940.096705
713.126837	2914.883374
713.460602	2925.799993
713.794318	2903.034142
714.127985	2924.522060
714.461602	2915.256419
714.795171	2902.310736
715.128691	2895.442164
715.462162	2870.014584
715.795584	2884.815412
716.128957	2874.992724
716.462281	2848.466172
716.795556	2874.962477
717.128782	2854.258458
717.461960	2833.914882
717.795088	2850.298632
718.128167	2851.455576
718.461198	2837.647856
718.794180	2832.732731
719.127113	2845.761593
719.459997	2840.904441
719.792833	2818.073056
720.125619	2828.914057
720.458357	2813.485606
720.791046	2818.670432
721.123686	2839.616427
721.456278	2822.864672
721.788821	2819.645896
722.121315	2813.102478
722.453761	2825.160918
722.786158	2833.428410
723.118506	2830.489417
723.450805	2835.056703
723.783056	2835.964111
724.115259	2825.912050
724.447412	2836.314471
724.779518	2838.751869
725.111574	2839.497959
725.443582	2852.904908
725.775542	2848.919876
726.107453	2870.858978
726.439315	2865.343955
726.771129	2869.671786
727.102895	2888.349261
727.434612	2899.117165
727.766281	2902.998854
728.097901	2916.214239
728.429473	2907.853485
728.760996	2912.287180
729.092471	2912.110739
729.423897	2916.829259
729.755276	2926.901485
730.086606	2918.480237
730.417887	2922.558531
730.749120	2930.029521
731.080305	2972.682723
731.411442	2987.518839
731.742530	2972.574339
732.073570	3006.060203
732.404562	3018.506812
732.735506	2987.589415
733.066401	3020.004035
733.397249	3019.610825
733.728048	2994.836074
734.058798	2965.189048
734.389501	2960.198306
734.720156	2948.079372
735.050762	2912.914803
735.381320	2905.234606
735.711831	2913.393713
736.042293	2908.465985
736.372707	2915.062335
736.703073	2900.586662
737.033391	2901.778895
737.363661	2899.689336
737.693883	2909.151582
738.024056	2931.186466
738.354182	2936.194852
738.684260	2935.267280
739.014290	2950.957871
739.344272	2965.917495
739.674207	2965.241980
740.004093	2975.720019
740.333931	2982.573467
740.663722	2981.867706
740.993464	3003.219513
741.323159	3022.542256
741.652806	2967.266004
741.982405	2959.883234
742.311956	3006.360152
742.641460	2984.897439
742.970915	2947.182047
743.300323	2958.721248
743.629683	2951.325875
743.958996	2939.953032
744.288260	2931.070519
744.617477	2941.868671
744.946647	2952.150104
745.275768	2917.761873
745.604842	2923.907039
745.933869	2929.517844
746.262847	2913.318096
746.591778	2921.630958
746.920662	2921.424271
747.249498	2921.121802
747.578286	2927.196392
747.907027	2949.080041
748.235720	2958.295270
748.564365	2942.035029
748.892963	2944.500153
749.221514	2993.782473
749.550017	2970.701550
749.878473	2938.319698
750.206881	2960.727627
750.535242	2951.877882
750.863555	2939.574946
751.191821	2950.098354
751.520039	2962.504634
751.848210	2939.648042
752.176334	2937.371961
752.504411	2966.850108
752.832440	2955.013479
753.160421	2930.319387
753.488356	2950.564661
753.816243	2976.188846
754.144082	2941.586366
754.471875	2931.022628
754.799620	2951.620783
755.127318	2956.515743
755.454969	2947.900411
755.782572	2939.655604
756.110129	2960.510858
756.437638	2968.521251
756.765100	2947.171964
757.092515	2945.097530
757.419882	2956.389714
757.747203	2954.353088
758.074477	2977.779330
758.401703	2982.298724
758.728882	2950.536935
759.056014	2958.645631
759.383099	3004.691530
759.710138	3001.250942
760.037129	2984.559682
760.364073	2985.421719
760.690970	3015.469517
761.017820	3025.914788
761.344623	2997.722135
761.671379	3016.497912
761.998088	3042.273332
762.324751	3073.049576
762.651366	3164.937208
762.977935	3338.380626
763.304456	3549.428532
763.630931	3674.822193
763.957359	3623.500726
764.283740	3542.955691
764.610074	3467.172025
764.936362	3315.660146
765.262602	3219.220352
765.588796	3125.553193
765.914943	3067.506827
766.241044	3070.730645
766.567097	3050.477810
766.893104	3002.939729
767.219064	2958.948100
767.544978	2967.487814
767.870845	2961.695529
768.196665	2936.978751
768.522438	2927.292174
768.848165	2925.154725
769.173846	2922.377049
769.499479	2917.106523
769.825066	2900.137999
770.150607	2894.005435
770.476101	2887.502347
770.801548	2900.243863
771.126949	2894.673388
771.452303	2879.486912
771.777611	2871.461395
772.102872	2878.108157
772.428087	2872.023484
772.753256	2876.583208
773.078378	2869.598689
773.403453	2855.710310
773.728482	2854.707121
774.053465	2844.798733
774.378401	2845.469206
774.703291	2854.152594
775.028135	2840.944771
775.352932	2830.083605
775.677683	2825.120589
776.002388	2835.807835
776.327046	2843.984586
776.651658	2820.704538
776.976224	2801.759882
777.300743	2808.048721
777.625216	2824.873572
777.949643	2828.994715
778.274024	2809.331695
778.598359	2799.750982
778.922647	2806.866571
779.246889	2811.905204
779.571086	2816.036429
779.895236	2811.653146
780.219339	2802.105201
780.543397	2797.941208
780.867409	2812.008547
781.191374	2823.320897
781.515294	2809.729946
781.839167	2807.156437
782.162995	2814.014927
782.486776	2811.385965
782.810511	2816.512818
783.134201	2823.454487
783.457844	2814.629947
783.781441	2797.512710
784.104993	2798.399953
784.428498	2805.908751
784.751958	2816.628765
785.075372	2807.652991
785.398739	2795.246711
785.722061	2792.605146
786.045337	2811.590132
786.368568	2829.576969
786.691752	2798.573872
787.014891	2802.415232
787.337983	2830.149140
787.661030	2863.715663
787.984031	2894.900240
788.306987	2929.664037
788.629897	2939.837086
788.952760	2930.218564
789.275579	2921.736823
789.598351	2931.529264
789.921078	2910.646284
790.243759	2852.494054
790.566395	2855.226359
790.888984	2865.285982
791.211529	2838.225068
791.534027	2827.114365
791.856480	2832.669717
792.178888	2815.456697
792.501249	2793.590692
792.823566	2798.624284
793.145836	2817.904177
793.468062	2804.187197
793.790241	2785.676080
794.112375	2793.852832
794.434464	2811.257416
794.756507	2826.973213
795.078505	2818.499033
795.400457	2810.284473
795.722364	2842.434432
796.044226	2864.827237
796.366042	2879.726367
796.687812	2884.452449
797.009538	2884.757439
797.331218	2873.833258
797.652852	2870.357383
797.974442	2876.532796
798.295986	2885.695093
798.617484	2862.561238
798.938938	2836.001919
799.260346	2852.725947
799.581709	2860.733820
799.903026	2842.936026
800.224299	2833.095694
800.545526	2831.999243
800.866708	2826.547235
801.187845	2804.212403
801.508936	2822.695794
801.829983	2828.818275
802.150984	2799.791311
802.471940	2793.978861
802.792851	2800.134110
803.113717	2806.390182
803.434538	2809.722384
803.755314	2790.404683
804.076045	2778.273146
804.396731	2787.117850
804.717372	2798.359623
805.037967	2795.483645
805.358518	2788.665485
805.679024	2793.497431
805.999485	2795.264355
806.319901	2795.097997
806.640272	2808.091571
806.960598	2812.250523
807.280879	2798.641928
807.601115	2798.964562
807.921306	2808.744400
808.241453	2826.975733
808.561554	2821.254024
808.881611	2793.905764
809.201623	2806.521252
809.521590	2816.429639
809.841513	2809.626602
810.161390	2822.683191
810.481223	2822.083293
810.801011	2801.197793
811.120755	2794.672019
811.440453	2814.108188
811.760107	2822.400886
812.079716	2809.157775
812.399281	2793.716721
812.718801	2805.278607
813.038276	2794.535908
813.357707	2802.644604
813.677093	2811.053249
813.996434	2792.952986
814.315731	2793.963737
814.634983	2794.515744
814.954191	2801.049079
815.273354	2814.816470
815.592473	2818.194043
815.911547	2809.130049
816.230577	2820.538180
816.549562	2836.576611
816.868502	2858.140146
817.187399	2864.484438
817.506250	2859.208871
817.825058	2849.169413
818.143821	2881.465565
818.462539	2921.590629
818.781213	2937.823145
819.099843	2941.767848
819.418429	3001.649193
819.736970	3069.470357
820.055466	3126.702576
820.373919	3246.780340
820.692327	3363.394832
821.010691	3452.439253
821.329011	3774.276597
821.647286	4348.809339
821.965517	5131.582064
822.283704	5743.626032
822.601847	6112.257886
822.919945	6000.087172
823.237999	5730.995421
823.556010	5383.889293
823.873976	5050.686668
824.191897	4511.779760
824.509775	4156.464114
824.827609	3865.418138
825.145398	3712.086402
825.463144	3707.413253
825.780845	3732.782859
826.098502	3728.376891
826.416116	3892.537025
826.733685	4189.150955
827.051210	4493.356863
827.368692	4587.056790
827.686129	4334.772246
828.003522	3934.199641
828.320872	3688.536652
828.638177	3513.296062
828.955439	3365.055892
829.272656	3211.157027
829.589830	3112.420987
829.906960	3068.822568
830.224046	3008.164885
830.541088	2974.172384
830.858086	2965.398256
831.175041	2942.801284
831.491952	2934.576642
831.808819	2941.848506
832.125642	2966.129223
832.442421	3012.583456
832.759157	3087.406782
833.075849	3231.931622
833.392497	3451.725929
833.709101	3613.194087
834.025662	3735.308477
834.342179	3694.949000
834.658653	3544.946946
834.975083	3380.444014
835.291469	3210.176522
835.607811	3062.117834
835.924110	3037.837116
836.240366	2971.777836
836.556578	2895.515261
836.872746	2859.418079
837.188871	2853.993797
837.504952	2835.215499
837.820990	2803.340283
838.136984	2784.652726
838.452935	2795.453398
838.768842	2796.325518
839.084706	2807.708443
839.400526	2850.278467
839.716303	2928.688574
840.032037	3062.029614
840.347727	3159.459994
840.663373	3110.538117
840.978977	3012.444824
841.294537	2922.757656
841.610054	2839.540809
841.925527	2803.030252
842.240957	2779.409926
842.556344	2764.425096
842.871687	2745.442632
843.186987	2727.765826
843.502244	2715.525904
843.817458	2703.018801
844.132629	2684.865606
844.447756	2693.662420
844.762840	2689.173272
845.077881	2677.044256
845.392879	2670.856240
845.707833	2670.528565
846.022745	2667.100580
846.337613	2672.308092
846.652438	2670.740293
846.967221	2667.894562
847.281960	2660.970537
847.596656	2658.649086
847.911309	2660.791576
848.225919	2658.366781
848.540485	2652.781183
848.855009	2657.277892
849.169490	2654.628766
849.483928	2652.289670
849.798323	2646.638537
850.112675	2647.858496
850.426984	2653.103817
850.741251	2654.638848
851.055474	2649.811943
851.369654	2648.012251
851.683792	2647.868578
851.997887	2649.431336
852.311938	2650.563075
852.625947	2648.357570
852.939914	2650.232879
853.253837	2653.839825
853.567718	2644.367497
853.881555	2644.783392
854.195350	2650.416882
854.509103	2651.130205
854.822812	2649.086017
855.136479	2649.411171
855.450103	2648.430667
855.763685	2641.438587
856.077224	2639.278452
856.390720	2650.116933
856.704173	2652.375370
857.017584	2650.926038
857.330953	2645.620224
857.644278	2651.420071
857.957561	2655.208498
858.270802	2657.388797
858.584000	2657.504744
858.897155	2653.242448
859.210268	2651.838487
859.523339	2655.604229
859.836367	2651.732623
860.149352	2652.277067
860.462295	2648.206336
860.775195	2655.831081
861.088054	2656.703200
861.400869	2646.164668
861.713642	2640.720222
862.026373	2651.483086
862.339062	2650.091727
862.651708	2654.459887
862.964312	2657.338386
863.276873	2654.769918
863.589392	2654.038951
863.901869	2656.851914
864.214303	2665.752072
864.526696	2675.030315
864.839045	2672.913031
865.151353	2671.410767
865.463619	2672.038390
865.775842	2673.671724
866.088023	2679.544668
866.400162	2689.495906
866.712258	2672.877742
867.024313	2669.109480
867.336325	2675.070644
867.648296	2682.624813
867.960224	2680.477282
868.272110	2672.119049
868.583954	2677.923937
868.895755	2689.846266
869.207515	2679.584998
869.519233	2680.696572
869.830909	2681.432581
870.142542	2689.475742
870.454134	2689.357274
870.765684	2692.528160
871.077191	2689.069929
871.388657	2693.261648
871.700081	2699.190045
872.011463	2703.810262
872.322803	2706.129193
872.634101	2703.522917
872.945357	2709.229503
873.256571	2718.719475
873.567744	2716.720657
873.878874	2709.151365
874.189963	2720.778786
874.501010	2723.551421
874.812015	2720.136039
875.122979	2723.652244
875.433900	2720.506564
875.744780	2724.655434
876.055618	2730.137688
876.366415	2729.789849
876.677169	2736.872670
876.987882	2738.425345
877.298554	2731.907133
877.609183	2742.997672
877.919771	2754.257089
878.230317	2768.548760
878.540822	2798.785601
878.851285	2813.846048
879.161707	2829.582010
879.472087	2862.697349
879.782425	2952.865948
880.092722	3136.361427
880.402977	3318.707523
880.713191	3439.712860
881.023363	3648.552740
881.333494	3908.688882
881.643583	4016.594780
881.953631	4011.614120
882.263637	3965.830360
882.573602	3902.253849
882.883526	3789.846200
883.193408	3606.917851
883.503248	3454.836321
883.813048	3380.663304
884.122806	3291.087042
884.432522	3178.205525
884.742197	3086.307811
885.051831	3004.131962
885.361424	2944.545523
885.670975	2919.364960
885.980485	2884.311297
886.289954	2850.167562
886.599382	2830.829695
886.908768	2813.483085
887.218113	2794.435085
887.527417	2770.434152
887.836680	2747.252406
888.145901	2748.840369
888.455082	2755.154414
888.764221	2729.268089
889.073319	2714.449618
889.382376	2715.278887
889.691392	2717.870041
890.000366	2715.409957
890.309300	2707.674307
890.618193	2715.783003
890.927044	2724.206771
891.235855	2721.766852
891.544625	2711.770244
891.853353	2712.743187
892.162041	2723.621997
892.470687	2742.473392
892.779293	2760.503079
893.087858	2779.392282
893.396381	2805.414718
893.704864	2848.287211
894.013306	2932.401384
894.321707	3046.467572
894.630068	3125.550673
894.938387	3125.941362
895.246665	3123.574540
895.554903	3094.096393
895.863100	3023.719365
896.171256	2962.227370
896.479371	2909.149062
896.787446	2860.065867
897.095480	2810.637354
897.403473	2781.406223
897.711425	2756.664240
898.019336	2760.044334
898.327207	2746.077817
898.635038	2732.083574
898.942827	2723.987481
899.250576	2719.135370
899.558284	2701.987885
899.865952	2692.888603
900.173579	2687.431554
900.481165	2687.844928
900.788711	2684.283353
901.096216	2670.495797
901.403681	2659.823675
901.711105	2667.884480
902.018489	2667.433296
902.325832	2664.953049
902.633135	2672.645849
902.940397	2685.558765
903.247619	2716.125801
903.554800	2786.298663
903.861941	2903.807959
904.169041	3050.598797
904.476101	3162.731703
904.783121	3174.001202
905.090100	3111.596759
905.397039	3018.763911
905.703938	2918.881009
906.010796	2837.597444
906.317614	2794.795528
906.624391	2754.219280
906.931129	2722.616287
907.237826	2694.731144
907.544483	2670.521003
907.851099	2657.149342
908.157675	2645.973104
908.464211	2640.828607
908.770707	2630.153964
909.077163	2629.165897
909.383578	2615.832046
909.689954	2612.822477
909.996289	2609.109667
910.302584	2612.240223
910.608839	2612.640995
910.915054	2610.750562
911.221229	2604.905345
911.527363	2607.851899
911.833458	2607.430963
912.139513	2612.983794
912.445527	2614.511263
912.751502	2618.418157
913.057436	2621.435288
913.363331	2629.725466
913.669186	2639.212917
913.975000	2652.072901
914.280775	2679.373269
914.586510	2707.656663
914.892205	2739.579770
915.197859	2784.884619
915.503475	2849.502129
915.809050	2926.591454
916.114585	2980.393168
916.420081	2999.133658
916.725536	2987.077738
917.030952	2955.257975
917.336328	2906.804925
917.641665	2850.099506
917.946961	2809.520738
918.252218	2785.625669
918.557435	2753.798344
918.862612	2729.923439
919.167750	2707.376879
919.472848	2689.039682
919.777906	2679.189267
920.082925	2667.052689
920.387904	2652.564413
920.692843	2644.964874
920.997743	2637.972793
921.302603	2632.354427
921.607423	2630.022894
921.912204	2622.362860
922.216946	2615.781634
922.521647	2614.065121
922.826310	2608.305603
923.130932	2607.173864
923.435516	2600.511979
923.740059	2600.574993
924.044564	2595.191041
924.349028	2595.120465
924.653454	2589.204671
924.957840	2586.999166
925.262186	2584.186202
925.566493	2579.969277
925.870761	2579.356777
926.174989	2579.462641
926.479178	2572.611713
926.783328	2569.566856
927.087438	2572.331929
927.391509	2569.808832
927.695541	2569.967628
927.999533	2565.206258
928.303486	2567.137020
928.607400	2565.586865
928.911275	2563.772050
929.215110	2566.317833
929.518906	2564.618964
929.822663	2565.118038
930.126381	2564.815569
930.430060	2564.926474
930.733699	2561.566545
931.037299	2562.662996
931.340861	2563.237687
931.644383	2565.574262
931.947866	2566.058213
932.251309	2561.874055
932.554714	2562.342883
932.858080	2566.335477
933.161407	2562.899930
933.464694	2561.667368
933.767943	2555.146636
934.071153	2559.640824
934.374323	2559.713921
934.677455	2561.977399
934.980548	2561.869014
935.283602	2558.637635
935.586617	2560.127296
935.889593	2561.972358
936.192530	2559.968499
936.495428	2560.896072
936.798287	2562.030331
937.101108	2563.703994
937.403890	2567.436969
937.706632	2567.368913
938.009336	2572.284038
938.312002	2572.425190
938.614628	2578.467013
938.917216	2587.031934
939.219765	2583.475400
939.522275	2583.238465
939.824747	2581.340471
940.127179	2584.448342
940.429573	2581.088413
940.731929	2577.236972
941.034246	2577.363001
941.336524	2574.940726
941.638763	2574.003072
941.940964	2572.165571
942.243126	2569.370251
942.545250	2573.501477
942.847335	2570.973338
943.149381	2570.204562
943.451389	2566.524520
943.753359	2563.719118
944.055290	2561.503531
944.357182	2564.071998
944.659036	2561.788356
944.960851	2561.926987
945.262628	2562.869683
945.564367	2560.344065
945.866067	2562.605023
946.167729	2562.567214
946.469352	2562.166442
946.770937	2557.518498
947.072484	2561.352296
947.373992	2563.154508
947.675462	2562.794066
947.976893	2558.493962
948.278286	2555.494475
948.579641	2557.800803
948.880958	2556.101934
949.182236	2557.662171
949.483476	2555.232335
949.784678	2559.189641
950.085841	2560.190310
950.386967	2559.207285
950.688054	2558.380536
950.989103	2563.963614
951.290114	2558.884651
951.591087	2561.465722
951.892021	2561.085115
952.192917	2560.883469
952.493776	2564.941597
952.794596	2564.283727
953.095378	2562.002605
953.396122	2564.752554
953.696828	2563.472101
953.997496	2560.391956
954.298126	2559.174518
954.598718	2560.361709
954.899272	2558.292316
955.199788	2556.704352
955.500266	2554.763508
955.800706	2555.068498
956.101108	2552.263096
956.401472	2549.218239
956.701798	2550.831408
957.002087	2548.819988
957.302337	2547.983156
957.602550	2549.308979
957.902724	2548.157076
958.202861	2548.484751
958.502960	2547.683207
958.803022	2544.101468
959.103045	2545.583567
959.403031	2547.136242
959.702979	2542.803370
960.002889	2543.617517
960.302762	2544.950902
960.602596	2542.815973
960.902393	2547.010213
961.202153	2545.797816
961.501875	2543.365459
961.801559	2543.539379
962.101205	2544.323278
962.400814	2545.084492
962.700385	2542.929399
962.999918	2538.291538
963.299414	2537.583256
963.598873	2542.783206
963.898293	2540.953267
964.197677	2542.914276
964.497022	2542.150541
964.796331	2542.110212
965.095601	2545.749925
965.394835	2542.624409
965.694030	2542.286652
965.993189	2542.952084
966.292309	2542.589121
966.591393	2545.117260
966.890439	2542.558874
967.189447	2544.383772
967.488419	2541.371683
967.787353	2542.546272
968.086249	2543.100798
968.385108	2542.629451
968.683930	2539.125849
968.982714	2541.336395
969.281462	2542.616848
969.580172	2541.989224
969.878844	2538.553678
970.177480	2539.914789
970.476078	2542.873947
970.774639	2545.195398
971.073162	2542.437887
971.371649	2542.684903
971.670098	2541.076775
971.968510	2542.304296
972.266885	2542.687424
972.565223	2546.861499
972.863524	2540.852444
973.161788	2543.047866
973.460014	2542.016950
973.758204	2542.833617
974.056356	2544.638350
974.354471	2542.276570
974.652550	2541.979142
974.950591	2541.938812
975.248595	2544.338402
975.546563	2544.708927
975.844493	2541.480067
976.142386	2541.170037
976.440243	2542.042156
976.738062	2541.003678
977.035845	2542.896632
977.333590	2542.503422
977.631299	2540.229861
977.928971	2538.621733
978.226606	2537.162319
978.524204	2540.154244
978.821765	2538.223482
979.119290	2542.261446
979.416777	2542.909235
979.714228	2542.311858
980.011642	2542.233720
980.309020	2541.956457
980.606360	2543.259595
980.903664	2545.452497
981.200931	2541.641384
981.498162	2544.519883
981.795356	2543.529297
982.092513	2545.013916
982.389633	2545.243289
982.686717	2548.502395
982.983764	2549.755122
983.280775	2551.678322
983.577749	2551.063301
983.874686	2551.375853
984.171587	2547.675646
984.468451	2549.316541
984.765279	2545.447456
985.062070	2546.644730
985.358824	2546.281767
985.655543	2544.998793
985.952224	2545.639019
986.248869	2541.759852
986.545478	2542.432846
986.842050	2541.149872
987.138586	2541.986703
987.435086	2540.678524
987.731549	2540.219779
988.027975	2542.395037
988.324366	2538.717515
988.620719	2541.220448
988.917037	2539.372865
989.213318	2542.594163
989.509563	2538.480581
989.805772	2539.897145
990.101944	2538.982176
990.398080	2539.690458
990.694180	2540.832279
990.990244	2538.878832
991.286271	2539.481250
991.582262	2540.340767
991.878217	2539.824048
992.174136	2541.376724
992.470019	2543.617517
992.765865	2537.399253
993.061676	2538.195756
993.357450	2535.007226
993.653188	2535.221475
993.948890	2540.262629
994.244556	2538.863709
994.540186	2543.559543
994.835780	2540.454193
995.131337	2539.090561
995.426859	2542.523586
995.722345	2540.222300
996.017795	2541.303627
996.313208	2544.416540
996.608586	2540.688606
996.903928	2541.880839
997.199234	2540.945705
997.494504	2542.306817
997.789738	2542.533669
998.084936	2541.636343
998.380099	2543.244471
998.675225	2542.763041
998.970316	2542.561395
999.265371	2542.778165
999.560390	2540.595345
999.855373	2539.985365
1000.150320	2538.266332
1000.445232	2539.017464
1000.740108	2540.121477
1001.034948	2541.517876
1001.329752	2540.630633
1001.624521	2541.825387
1001.919254	2538.904038
1002.213951	2541.381765
1002.508613	2536.708615
1002.803239	2538.999820
1003.097829	2540.865047
1003.392384	2539.035108
1003.686903	2539.720705
1003.981386	2541.825387
1004.275834	2542.800850
1004.570246	2541.613658
1004.864623	2540.025695
1005.158964	2541.172557
1005.453270	2540.118956
1005.747540	2538.616692
1006.041775	2537.379089
1006.335974	2539.546785
1006.630138	2538.962011
1006.924266	2540.625592
1007.218359	2538.770447
1007.512416	2536.512010
1007.806438	2534.112421
1008.100425	2536.058307
1008.394376	2536.746424
1008.688292	2540.842362
1008.982172	2540.212217
1009.276017	2540.620551
1009.569827	2538.813297
1009.863602	2543.264636
1010.157341	2540.423946
1010.451045	2539.075437
1010.744714	2538.306661
1011.038347	2542.216076
1011.331945	2537.984027
1011.625508	2538.962011
1011.919036	2540.870088
1012.212528	2540.975952
1012.505986	2539.826569
1012.799408	2535.788605
1013.092795	2540.774306
1013.386147	2539.103163
1013.679464	2540.665921
1013.972745	2538.563760
1014.265992	2539.798843
1014.559204	2538.135262
1014.852380	2541.016281
1015.145521	2541.079296
1015.438628	2539.138452
1015.731699	2539.322454
1016.024736	2538.263811
1016.317737	2539.604758
1016.610703	2535.251722
1016.903635	2541.376724
1017.196531	2539.771116
1017.489393	2538.803215
1017.782219	2539.065355
1018.075011	2539.713143
1018.367768	2537.474871
1018.660490	2541.520397
1018.953177	2541.520397
1019.245829	2541.520397
