Dividing Wavelength (nm)	Counts (n)	Blue Motor Position (mm): 15.000000	Red Motor Position (mm): 0.000000	
326.493990	2063.823179
326.888308	2063.823179
327.282561	2063.823179
327.676750	2039.668490
328.070874	2040.921217
328.464933	2045.891795
328.858929	2055.225491
329.252859	2066.043807
329.646726	2079.483523
330.040528	2092.487180
330.434265	2112.649274
330.827938	2134.318674
331.221547	2153.722075
331.615091	2175.366269
332.008571	2197.600278
332.401986	2212.892619
332.795338	2235.275342
333.188625	2253.302508
333.581847	2271.954777
333.975006	2291.206944
334.368100	2310.078503
334.761129	2324.828919
335.154095	2343.292145
335.546996	2383.800337
335.939833	2464.955352
336.332606	2473.671507
336.725315	2486.418065
337.117960	2499.472133
337.510540	2506.839779
337.903056	2514.197343
338.295508	2522.222860
338.687896	2528.211751
339.080220	2533.794828
339.472480	2538.364634
339.864676	2540.439069
340.256807	2545.026519
340.648875	2546.034750
341.040879	2547.136242
341.432818	2548.318393
341.824694	2549.566078
342.216506	2552.028682
342.608253	2548.968702
342.999937	2548.507436
343.391557	2546.158258
343.783113	2547.678166
344.174605	2543.060469
344.566033	2541.535520
344.957397	2539.909748
345.348697	2538.770447
345.739934	2536.597710
346.131106	2535.702905
346.522215	2535.501259
346.913260	2532.045548
347.304241	2535.526465
347.695159	2529.104035
348.086012	2527.755526
348.476802	2525.146729
348.867528	2522.295957
349.258191	2520.463497
349.648789	2521.280164
350.039324	2516.060049
350.429796	2521.708662
350.820203	2519.646830
351.210548	2515.898732
351.600828	2516.765811
351.991045	2517.625327
352.381198	2516.110461
352.771288	2518.512571
353.161314	2514.613238
353.551276	2518.384021
353.941175	2511.472599
354.331010	2516.677591
354.720782	2519.984588
355.110490	2521.824609
355.500135	2514.341016
355.889717	2519.049453
356.279235	2515.989473
356.668689	2516.977539
357.058080	2518.263033
357.447408	2519.203209
357.836672	2518.300842
358.225873	2520.612211
358.615010	2523.067253
359.004084	2520.707993
359.393095	2521.292767
359.782043	2520.879392
360.170927	2521.406193
360.559748	2521.212108
360.948505	2521.756553
361.337199	2525.242511
361.725830	2523.316790
362.114398	2525.209743
362.502903	2524.753519
362.891344	2524.758560
363.279722	2524.869466
363.668037	2526.507841
364.056289	2527.228726
364.444478	2526.028931
364.832603	2526.381812
365.220665	2527.347193
365.608665	2527.785773
365.996601	2526.719569
366.384474	2526.931298
366.772284	2529.545136
367.160031	2528.171421
367.547715	2529.875331
367.935336	2529.182173
368.322893	2529.424148
368.710388	2523.765453
369.097820	2528.778880
369.485189	2522.658920
369.872495	2531.985054
370.259738	2532.582431
370.646918	2530.114786
371.034035	2533.920857
371.421090	2532.534540
371.808081	2530.571011
372.195010	2533.028573
372.581875	2530.437420
372.968678	2535.241640
373.355418	2532.232071
373.742096	2534.326670
374.128710	2532.496731
374.515262	2533.416742
374.901751	2533.429345
375.288177	2536.718698
375.674540	2536.814480
376.060841	2534.480425
376.447079	2532.342976
376.833254	2536.499407
377.219367	2537.147196
377.605417	2534.041845
377.991404	2536.295241
378.377329	2535.571835
378.763191	2534.775333
379.148991	2537.994110
379.534727	2537.484953
379.920402	2534.462781
380.306013	2537.905889
380.691563	2540.519728
381.077049	2536.960673
381.462474	2534.225847
381.847835	2537.948739
382.233134	2538.546116
382.618371	2537.174922
383.003545	2536.940508
383.388657	2538.785571
383.773706	2540.189532
384.158693	2538.503266
384.543618	2542.720191
384.928480	2537.943698
385.313280	2538.258770
385.698017	2540.091230
386.082692	2541.618699
386.467305	2542.180788
386.851856	2541.722043
387.236344	2539.231713
387.620770	2537.152237
388.005133	2537.754655
388.389435	2537.963863
388.773674	2537.240457
389.157851	2544.401416
389.541965	2540.234903
389.926018	2540.479398
390.310008	2544.285470
390.693936	2539.962680
391.077802	2542.450490
391.461606	2541.754810
391.845348	2544.913093
392.229027	2543.478885
392.612645	2540.368493
392.996200	2545.381921
393.379694	2545.729760
393.763125	2543.430994
394.146494	2545.200439
394.529801	2544.466951
394.913047	2545.071890
395.296230	2545.331509
395.679351	2547.842004
396.062410	2543.985521
396.445408	2547.385779
396.828343	2548.588094
397.211217	2546.611962
397.594028	2548.971222
397.976778	2547.484082
398.359466	2548.537683
398.742092	2545.742363
399.124656	2546.579195
399.507158	2545.984338
399.889598	2546.493495
400.271977	2547.320244
400.654294	2548.499874
401.036549	2548.177240
401.418742	2547.380738
401.800874	2547.957950
402.182944	2551.083466
402.564952	2549.064483
402.946898	2548.391489
403.328783	2550.997766
403.710606	2549.553475
404.092367	2548.204967
404.474067	2550.140770
404.855705	2548.769576
405.237282	2549.966850
405.618797	2551.080945
406.000250	2552.868034
406.381642	2550.546583
406.762972	2550.183620
407.144240	2546.496016
407.525447	2548.421736
407.906593	2546.743032
408.287677	2550.249155
408.668700	2553.505740
409.049661	2552.532797
409.430560	2553.490617
409.811399	2553.651933
410.192176	2554.319886
410.572891	2551.970709
410.953545	2552.205122
411.334138	2550.773435
411.714669	2552.462221
412.095139	2556.772408
412.475547	2551.711089
412.855894	2552.502550
413.236180	2551.743857
413.616405	2554.077911
413.996568	2554.405586
414.376670	2553.263765
414.756711	2553.087324
415.136691	2555.764177
415.516609	2553.636810
415.896466	2553.906512
416.276262	2553.926676
416.655997	2552.923487
417.035670	2552.590771
417.415283	2555.262582
417.794834	2555.456667
418.174324	2552.885678
418.553753	2553.830894
418.933121	2554.037582
419.312428	2557.725186
419.691674	2552.711758
420.070859	2554.587068
420.449983	2552.477345
420.829045	2554.962633
421.208047	2555.562531
421.586988	2555.796944
421.965867	2554.476162
422.344686	2557.949517
422.723444	2556.850546
423.102141	2554.934907
423.480777	2556.815258
423.859352	2554.367777
424.237866	2555.383570
424.616319	2554.128323
424.994712	2557.364743
425.373044	2554.907181
425.751314	2551.756460
426.129524	2550.786037
426.507673	2554.461039
426.885762	2550.410472
427.263789	2556.759805
427.641756	2556.076728
428.019662	2556.792572
428.397508	2556.278375
428.775292	2556.066646
429.153016	2558.912377
429.530679	2558.630073
429.908282	2557.203426
430.285824	2558.841801
430.663305	2557.153015
431.040726	2556.122099
431.418086	2553.772921
431.795385	2560.144940
432.172624	2556.003632
432.549802	2556.273333
432.926920	2555.229815
433.303977	2558.267110
433.680974	2555.953220
434.057910	2558.554456
434.434786	2558.763663
434.811601	2558.483879
435.188355	2556.848025
435.565050	2554.942469
435.941683	2556.931204
436.318257	2558.839281
436.694770	2557.183262
437.071222	2559.308108
437.447614	2554.990360
437.823946	2557.803324
438.200218	2557.147974
438.576429	2556.631255
438.952580	2556.469938
439.328670	2558.761143
439.704700	2558.645196
440.080670	2554.002294
440.456580	2556.618653
440.832429	2557.377346
441.208218	2557.846173
441.583947	2555.708724
441.959616	2556.608570
442.335224	2557.611760
442.710773	2558.393139
443.086261	2555.890206
443.461689	2558.630073
443.837057	2559.308108
444.212365	2557.442881
444.587612	2556.646379
444.962800	2556.059084
445.337927	2553.331820
445.712995	2552.429454
446.088002	2557.573951
446.462949	2557.032027
446.837837	2560.051678
447.212664	2556.976574
447.587431	2556.969013
447.962139	2558.796431
448.336786	2558.861966
448.711374	2559.419013
449.085901	2560.530588
449.460369	2555.786862
449.834776	2561.317008
450.209124	2555.605381
450.583412	2557.505896
450.957640	2559.799621
451.331808	2559.280382
451.705917	2558.577141
452.079965	2560.903633
452.453954	2556.837943
452.827883	2555.998591
453.201752	2559.008159
453.575562	2559.386246
453.949311	2559.678633
454.323001	2557.495813
454.696632	2561.304405
455.070202	2557.916750
455.443713	2558.478838
455.817164	2559.688715
456.190556	2559.600495
456.563888	2559.721483
456.937160	2558.884651
457.310373	2557.508416
457.683526	2560.240722
458.056619	2563.328428
458.429653	2560.165104
458.802628	2560.407080
459.175542	2561.632080
459.548398	2561.314487
459.921194	2561.816082
460.293930	2559.020762
460.666607	2561.100238
461.039224	2560.661658
461.411782	2564.450085
461.784280	2562.012687
462.156719	2560.759960
462.529099	2565.191135
462.901419	2561.009497
463.273680	2562.637790
463.645882	2555.910370
464.018024	2556.860628
464.390106	2558.067984
464.762130	2563.600651
465.134094	2562.990671
465.505999	2563.845147
465.877845	2561.359858
466.249631	2563.414128
466.621358	2563.502348
466.993026	2565.347410
467.364634	2567.492421
467.736184	2564.288768
468.107674	2561.432954
468.479105	2561.596792
468.850477	2563.958572
469.221790	2563.673747
469.593043	2564.268603
469.964238	2563.038562
470.335373	2560.076884
470.706449	2563.749365
471.077467	2564.445044
471.448425	2566.060734
471.819324	2565.382698
472.190164	2566.169118
472.560945	2564.487894
472.931667	2564.981927
473.302330	2562.030331
473.672934	2564.586196
474.043479	2562.809189
474.413965	2565.191135
474.784393	2565.417987
475.154761	2567.414283
475.525070	2564.707184
475.895321	2565.019735
476.265513	2562.698284
476.635645	2565.808676
477.005719	2567.527709
477.375734	2568.228430
477.745691	2564.500497
478.115588	2570.547361
478.485427	2568.283882
478.855207	2570.585169
479.224928	2565.957390
479.594591	2569.924778
479.964194	2566.698440
480.333739	2571.109449
480.703226	2573.277145
481.072653	2571.984089
481.442022	2571.013667
481.811333	2571.187587
482.180584	2567.247925
482.549777	2569.037535
482.918912	2568.785477
483.287988	2571.419480
483.657005	2572.964594
484.025964	2572.636919
484.394864	2571.132134
484.763706	2570.592731
485.132489	2573.294789
485.501213	2573.766137
485.869879	2574.933164
486.238487	2572.011816
486.607036	2573.584656
486.975527	2574.915520
487.343959	2574.550037
487.712333	2577.781416
488.080648	2575.827969
488.448905	2575.122208
488.817104	2574.406364
489.185244	2577.796540
489.553326	2579.739905
489.921350	2583.175451
490.289315	2580.922055
490.657222	2584.770976
491.025070	2583.301480
491.392861	2587.863724
491.760593	2586.041347
492.128267	2583.082190
492.495883	2584.342478
492.863440	2582.847776
493.230939	2582.636047
493.598380	2583.780389
493.965763	2586.187540
494.333088	2581.703434
494.700354	2584.402972
495.067563	2583.225862
495.434713	2584.647468
495.801805	2583.941706
496.168839	2586.525298
496.535815	2587.631831
496.902733	2589.124013
497.269593	2587.470514
497.636395	2587.825915
498.003139	2589.643251
498.369825	2588.188878
498.736453	2592.378077
499.103023	2589.983529
499.469535	2592.836822
499.835989	2593.472008
500.202385	2592.244487
500.568723	2586.724423
500.935003	2594.044179
501.301226	2592.183993
501.667390	2597.502410
502.033497	2599.755806
502.399546	2598.377050
502.765537	2598.142637
503.131470	2601.484922
503.497345	2600.837133
503.863163	2599.201279
504.228923	2604.388626
504.594625	2605.369131
504.960269	2605.565736
505.325856	2605.452310
505.691385	2606.697475
506.056856	2609.361725
506.422270	2612.424226
506.787625	2609.003803
507.152924	2610.377517
507.518164	2614.765842
507.883347	2612.966150
508.248472	2616.245420
508.613540	2613.951695
508.978550	2617.535956
509.343503	2618.990328
509.708398	2621.984774
510.073236	2625.780763
510.438016	2624.109620
510.802738	2623.481997
511.167403	2626.400825
511.532010	2629.123048
511.896561	2633.009777
512.261053	2632.117493
512.625488	2632.838378
512.989866	2633.718059
513.354186	2638.655870
513.718449	2636.233595
514.082655	2641.373052
514.446803	2639.825417
514.810894	2644.914462
515.174927	2644.269194
515.538904	2646.446973
515.902822	2648.269350
516.266684	2650.835297
516.630488	2651.382262
516.994235	2652.824032
517.357925	2655.949548
517.721558	2658.812923
518.085133	2661.031031
518.448651	2663.904489
518.812112	2662.692091
519.175516	2663.302071
519.538863	2664.978254
519.902152	2670.057217
520.265385	2675.310099
520.628560	2678.470903
520.991678	2678.367559
521.354739	2681.848476
521.717743	2686.050277
522.080690	2688.122192
522.443580	2691.250228
522.806413	2695.701567
523.169189	2698.360775
523.531908	2698.239787
523.894569	2701.980324
524.257174	2708.422918
524.619722	2707.724718
524.982213	2714.653784
525.344647	2715.510781
525.707025	2718.543035
526.069345	2723.816082
526.431608	2727.319683
526.793815	2731.894531
527.155964	2734.163050
527.518057	2738.264028
527.880093	2738.994996
528.242072	2746.949937
528.603995	2751.832294
528.965860	2755.265320
529.327669	2758.398397
529.689421	2765.166146
530.051117	2768.581528
530.412755	2773.925151
530.774337	2780.385389
531.135862	2785.071142
531.497331	2793.089097
531.858743	2796.078501
532.220098	2803.587300
532.581396	2810.143321
532.942638	2813.790595
533.303824	2822.239569
533.664953	2831.727021
534.026025	2834.532423
534.387040	2843.132631
534.747999	2853.950948
535.108902	2863.786239
535.469748	2867.660365
535.830537	2876.560522
536.191270	2889.138201
536.551947	2894.204561
536.912567	2903.450037
537.273131	2913.847417
537.633638	2921.041143
537.994089	2936.666200
538.354483	2945.394958
538.714821	2962.388687
539.075103	2976.604741
539.435328	2987.239055
539.795497	2997.137361
540.155609	3012.654032
540.515665	3031.749923
540.875665	3038.376520
541.235609	3052.947975
541.595496	3072.777354
541.955328	3093.355344
542.315102	3104.587034
542.674821	3115.002058
543.034483	3133.263638
543.394090	3150.491781
543.753640	3169.519617
544.113134	3201.692260
544.472571	3206.987992
544.831953	3243.669948
545.191278	3255.030189
545.550548	3271.358486
545.909761	3305.620688
546.268918	3330.483659
546.628019	3364.566900
546.987064	3378.538458
547.346053	3388.676218
547.704986	3431.795728
548.063863	3453.528142
548.422684	3483.510404
548.781449	3504.552181
549.140158	3545.317471
549.498811	3575.208993
549.857408	3588.711723
550.215949	3641.984117
550.574434	3666.063188
550.932864	3704.927964
551.291237	3761.472066
551.649555	3791.262764
552.007817	3831.655010
552.366022	3863.121892
552.724173	3906.571597
553.082267	3958.039257
553.440305	4012.798791
553.798288	4034.349723
554.156215	4091.327365
554.514086	4141.607833
554.871902	4176.265766
555.229661	4240.721959
555.587365	4272.166156
555.945014	4327.646575
556.302606	4384.049525
556.660143	4442.237043
557.017625	4508.782794
557.375050	4550.377355
557.732421	4627.549858
558.089735	4683.647818
558.446994	4738.641766
558.804197	4824.941278
559.161345	4878.367427
559.518437	4906.224843
559.875474	4986.706864
560.232455	5060.128749
560.589381	5132.376046
560.946251	5187.218758
561.303065	5298.252692
561.659825	5348.215568
562.016528	5408.870731
562.373177	5456.043328
562.729770	5569.197067
563.086307	5616.586434
563.442789	5725.598866
563.799216	5795.996058
564.155587	5866.307552
564.511904	5947.712104
564.868164	6030.523138
565.224370	6138.749150
565.580520	6200.588984
565.936615	6299.952647
566.292654	6363.370362
566.648638	6483.937118
567.004567	6571.254944
567.360441	6671.205901
567.716260	6734.028760
568.072023	6863.624223
568.427732	6948.726462
568.783385	7004.713516
569.138982	7141.873230
569.494525	7253.365909
569.850013	7307.754918
570.205445	7429.886952
570.560823	7500.029567
570.916145	7595.662776
571.271412	7728.345945
571.626625	7792.749206
571.981782	7907.279180
572.336884	7959.704660
572.691931	8108.043132
573.046923	8178.901591
573.401860	8266.083305
573.756743	8378.901808
574.111570	8512.489864
574.466342	8614.721943
574.821059	8739.291376
575.175722	8788.603943
575.530330	8915.562882
575.884882	8980.122418
576.239380	9075.997603
576.593823	9206.901245
576.948211	9320.032299
577.302544	9369.768323
577.656823	9477.457451
578.011047	9647.445159
578.365216	9739.176515
578.719330	9813.692330
579.073389	9938.536505
579.427394	10071.600282
579.781344	10185.643784
580.135239	10261.137584
580.489080	10404.301312
580.842866	10440.955542
581.196597	10659.335806
581.550273	10791.136773
581.903895	10908.053733
582.257463	11134.635955
582.610975	11158.989769
582.964434	11361.016530
583.317837	11400.206460
583.671186	11522.857733
584.024481	11717.131199
584.377721	11754.070254
584.730906	11942.841301
585.084037	12108.148297
585.437113	12174.499964
585.790135	12339.968278
586.143103	12378.712066
586.496016	12565.932958
586.848874	12733.410171
587.201679	12899.254050
587.554428	12920.568048
587.907124	13141.594918
588.259765	13225.361251
588.612352	13421.434409
588.964884	13422.004060
589.317362	13641.213594
589.669786	13797.244867
590.022155	13900.749838
590.374470	14174.590356
590.726731	14202.120097
591.078937	14158.244414
591.431090	14400.436569
591.783188	14419.421554
592.135232	14510.573177
592.487222	14726.621908
592.839157	14924.673719
593.191038	14965.131499
593.542866	15057.498040
593.894639	15023.228277
594.246358	15251.030457
594.598022	15399.011008
594.949633	15409.695733
595.301190	15550.633792
595.652692	15681.751683
596.004141	15996.236504
596.355535	15768.449447
596.706876	15914.136272
597.058162	15953.842921
597.409395	16285.989424
597.760573	16508.137951
598.111698	16520.897111
598.462768	16634.098741
598.813785	16794.314172
599.164748	16774.517561
599.515657	17036.158487
599.866511	17001.147673
600.217312	17420.168381
600.568060	17148.177966
600.918753	17624.309906
601.269392	17741.771311
601.619978	17770.158048
601.970510	18012.440943
602.320988	18226.513542
602.671412	18479.138364
603.021783	18577.743333
603.372100	18549.301143
603.722363	18733.802333
604.072572	18895.537671
604.422728	19047.961999
604.772830	19084.338965
605.122878	19302.063879
605.472872	19388.476818
605.822813	19644.877464
606.172701	19688.198620
606.522534	19983.224587
606.872314	20216.070442
607.222041	20291.856628
607.571714	20581.317162
607.921333	20485.802420
608.270899	20739.649722
608.620411	21069.149619
608.969870	21080.656053
609.319276	21239.442317
609.668627	21395.622304
610.017926	21731.557235
610.367171	21954.635854
610.716362	22120.036112
611.065500	22198.592412
611.414585	22465.967650
611.763616	22697.870810
612.112594	22789.932361
612.461518	22992.687569
612.810389	23342.142874
613.159207	23374.943142
613.507971	23503.666484
613.856682	23911.112703
614.205340	23961.025167
614.553945	24472.029288
614.902496	24241.063784
615.250994	24622.618636
615.599439	24803.051615
615.947830	24992.324256
616.296169	25128.836182
616.644454	25302.587111
616.992686	25517.269689
617.340864	25921.691215
617.688990	25775.548165
618.037063	26313.557747
618.385082	26337.634298
618.733048	26667.988671
619.080961	26745.415753
619.428821	26894.044092
619.776628	27039.330146
620.124382	27046.128142
620.472083	27259.678981
620.819731	27465.118603
621.167326	27327.946286
621.514868	27460.692470
621.862357	27271.097194
622.209793	27462.383777
622.557176	27321.997724
622.904506	27304.076423
623.251783	27208.634777
623.599007	27136.528633
623.946179	27219.332106
624.293297	27183.567640
624.640363	26958.548176
624.987376	26980.620868
625.334336	26966.815668
625.681243	26831.800966
626.028097	26884.637299
626.374899	26890.164924
626.721647	26977.399571
627.068343	26951.987114
627.414987	26872.697326
627.761577	26812.720198
628.108115	27141.436197
628.454600	26743.868119
628.801032	27005.715732
629.147412	27052.911014
629.493739	27095.241583
629.840014	26886.575623
630.186236	27272.276824
630.532405	26990.010017
630.878521	27268.087625
631.224585	27210.701650
631.570597	27060.563486
631.916556	27274.091639
632.262462	27286.260985
632.608316	27330.083735
632.954117	27343.508328
633.299866	27417.739318
633.645562	27439.963245
633.991206	27164.358323
634.336797	26972.794477
634.682336	26996.538312
635.027823	26923.416375
635.373257	26928.608763
635.718639	26792.237990
636.063968	26791.295294
636.409245	26412.218169
636.754470	26473.047252
637.099642	26396.247794
637.444762	26061.391670
637.789829	26250.961740
638.134845	26046.938682
638.479808	26073.394658
638.824719	26111.929238
639.169577	25814.077704
639.514383	25970.683668
639.859137	25764.871001
640.203839	25954.163807
640.548489	25805.822814
640.893086	25896.059468
641.237632	25768.964418
641.582125	25901.153554
641.926566	25813.976881
642.270955	25905.355356
642.615292	25930.697236
642.959576	25915.891367
643.303809	25987.942059
643.647990	26118.921318
643.992118	26154.090928
644.336195	26111.296573
644.680219	26243.059731
645.024192	26465.314122
645.368112	26935.447089
645.711981	27014.729315
646.055797	27650.547365
646.399562	27549.444504
646.743274	28306.880390
647.086935	28685.730663
647.430544	28706.850577
647.774101	28817.163626
648.117606	29109.119530
648.461059	29287.402457
648.804460	29037.749395
649.147810	28680.553398
649.491108	28477.929260
649.834354	28408.431913
650.177548	27818.793354
650.520690	27477.209810
650.863781	27523.739660
651.206820	27438.534078
651.549807	27162.276327
651.892742	26738.932829
652.235626	26709.479888
652.578458	26653.087021
652.921238	26143.244885
653.263967	26463.143905
653.606644	26266.304492
653.949269	26239.835913
654.291843	25966.466743
654.634365	26319.135784
654.976836	25966.960776
655.319255	26082.569558
655.661622	26028.730034
656.003938	25962.716125
656.346203	25854.898447
656.688416	26134.458154
657.030577	25969.836755
657.372687	25868.902772
657.714746	26054.412193
658.056753	26262.904233
658.398708	25772.137824
658.740612	25881.409875
659.082465	26100.092608
659.424266	26051.624435
659.766016	26091.789828
660.107715	26009.785378
660.449362	26138.816232
660.790958	26163.477556
661.132503	26144.366542
661.473996	26252.637924
661.815438	26354.494437
662.156829	26512.461513
662.498168	26379.488478
662.839456	26399.423721
663.180693	26548.838480
663.521879	26663.766705
663.863013	26673.589393
664.204097	26685.347885
664.545129	27082.996621
664.886110	27066.459115
665.227040	27188.775152
665.567918	27215.954533
665.908746	27325.907139
666.249522	27432.724148
666.590248	27482.029153
666.930922	27612.421118
667.271545	27651.164906
667.612118	27731.553666
667.952639	27594.338499
668.293109	27666.006063
668.633528	27578.637826
668.973896	27577.175891
669.314213	27593.166431
669.654480	27464.276730
669.994695	27493.409558
670.334859	27445.042208
670.674973	27325.619793
671.015035	27535.732565
671.355047	27504.709304
671.695008	27459.971585
672.034918	27405.030569
672.374777	27545.562815
672.714585	27440.086753
673.054342	27577.916941
673.394049	27478.553278
673.733705	27708.805459
674.073310	27456.450339
674.412864	27543.705150
674.752368	27305.745044
675.091820	27540.476291
675.431223	27200.498355
675.770574	27054.153659
676.109875	26921.034430
676.449125	26773.303416
676.788324	26703.022170
677.127473	26275.943178
677.466571	26224.513326
677.805619	25998.228533
678.144616	25959.003315
678.483562	25934.319305
678.822458	25669.978842
679.161303	25642.670911
679.500098	25577.060294
679.838842	25533.792070
680.177535	25633.664890
680.516179	25883.723765
680.854771	26029.455961
681.193314	26747.112102
681.531805	27726.648623
681.870247	28451.944633
682.208638	29144.488266
682.546978	29410.540201
682.885268	29567.894777
683.223508	29167.906946
683.561697	28929.578836
683.899836	28806.491503
684.237925	28422.544623
684.575963	28306.149422
684.913951	27974.108783
685.251889	28168.283947
685.589776	28191.400158
685.927614	28218.019971
686.265401	28404.099042
686.603137	28523.085396
686.940824	29012.694860
687.278460	29341.345323
687.616046	29509.853452
687.953582	30137.620779
688.291068	30069.870192
688.628504	30402.334288
688.965889	30419.259962
689.303224	30165.884008
689.640510	29929.824418
689.977745	29347.687095
690.314930	28661.757456
690.652065	28272.839998
690.989150	27658.925762
691.326185	26870.390998
691.663170	26294.025797
692.000105	25613.588495
692.336990	25037.588777
692.673825	24656.323791
693.010610	24197.172978
693.347345	23725.404157
693.684030	23145.777329
694.020665	22966.834011
694.357251	22335.817661
694.693786	22344.233867
695.030272	22139.162249
695.366707	21676.923730
695.703093	21419.557702
696.039429	21490.912715
696.375716	21262.568610
696.711952	21275.801639
697.048139	21146.755662
697.384276	21002.858446
697.720363	21119.931682
698.056400	21016.698934
698.392388	20877.227851
698.728326	20882.105167
699.064214	20735.203424
699.400053	20757.555900
699.735842	20394.270189
700.071581	20195.953718
700.407270	19976.668566
700.742910	19818.497323
701.078501	19572.269725
701.414042	19393.928826
701.749533	19100.808415
702.084974	18811.388211
702.420366	19039.238282
702.755709	18652.042379
703.091002	18338.046550
703.426246	18429.578780
703.761440	18372.548207
704.096584	18137.574985
704.431679	18074.661385
704.766725	18039.234676
705.101721	17970.758163
705.436668	18093.442203
705.771565	17838.536259
706.106413	18143.798289
706.441212	18213.933342
706.775961	18337.071087
707.110661	18410.074556
707.445311	18777.998128
707.779913	18659.909099
708.114465	18963.537796
708.448967	19274.975239
708.783421	19900.647966
709.117825	20257.710373
709.452180	20482.813015
709.786485	20917.597411
710.120742	21672.190086
710.454949	21779.964914
710.789107	22278.459413
711.123216	22962.392755
711.457275	23173.367564
711.791286	23722.122366
712.125247	23871.504357
712.459159	23610.496096
712.793023	24358.434448
713.126837	23357.480585
713.460602	23614.627322
713.794318	23291.726294
714.127985	23041.682543
714.461602	22175.226664
714.795171	22160.342657
715.128691	21206.130372
715.462162	20708.152592
715.795584	20285.235073
716.128957	20022.056595
716.462281	19665.538633
716.795556	19382.266116
717.128782	18923.833668
717.461960	18337.058484
717.795088	18291.788922
718.128167	17958.059496
718.461198	17518.982558
718.794180	17395.068476
719.127113	17073.952017
719.459997	16880.026390
719.792833	16529.726692
720.125619	16560.303811
720.458357	16232.916156
720.791046	16103.484531
721.123686	15958.599249
721.456278	15733.441154
721.788821	15725.672736
722.121315	15467.401821
722.453761	15569.248253
722.786158	15463.142046
723.118506	15542.885538
723.450805	15424.602425
723.783056	15606.865342
724.115259	15500.189486
724.447412	15497.694115
724.779518	15709.057093
725.111574	15768.658655
725.443582	16030.420568
725.775542	15992.644682
726.107453	16506.481932
726.439315	16415.000113
726.771129	16832.997466
727.102895	17248.416269
727.434612	17520.494904
727.766281	17683.029266
728.097901	17999.427205
728.429473	18088.262418
728.760996	18097.457483
729.092471	18233.891270
729.423897	18120.369527
729.755276	17995.757245
730.086606	18120.132593
730.417887	18695.348411
730.749120	19252.847094
731.080305	19467.126380
731.411442	19873.496312
731.742530	19991.461832
732.073570	20153.930659
732.404562	20465.791559
732.735506	20322.032975
733.066401	20109.533217
733.397249	19620.836202
733.728048	19000.602879
734.058798	18145.146798
734.389501	17396.943785
734.720156	16886.211886
735.050762	16308.462888
735.381320	15939.689881
735.711831	15677.028122
736.042293	15306.324353
736.372707	15344.879098
736.703073	15128.169976
737.033391	15329.478373
737.363661	15324.860676
737.693883	15453.641992
738.024056	15645.788091
738.354182	15863.228180
738.684260	16227.378449
739.014290	16485.944271
739.344272	16728.385962
739.674207	17058.034574
740.004093	17226.416674
740.333931	17283.419521
740.663722	17369.555196
740.993464	17410.600271
741.323159	17261.838342
741.652806	16979.500959
741.982405	16811.950649
742.311956	16454.865557
742.641460	16354.140783
742.970915	16028.467121
743.300323	15686.651684
743.629683	15469.148581
743.958996	15161.338248
744.288260	14843.979969
744.617477	14535.647877
744.946647	14503.107228
745.275768	14195.196072
745.604842	14001.640970
745.933869	13813.739522
746.262847	13791.752530
746.591778	13708.989387
746.920662	13586.963217
747.249498	13603.379734
747.578286	13764.641204
747.907027	13931.730249
748.235720	14199.160940
748.564365	14269.888328
748.892963	14193.403942
749.221514	14294.854642
749.550017	14162.552080
749.878473	14135.385302
750.206881	13907.628492
750.535242	13825.286285
750.863555	13754.795831
751.191821	13658.688753
751.520039	13672.141073
751.848210	13602.071555
752.176334	13649.471004
752.504411	13573.425198
752.832440	13398.320719
753.160421	13511.653419
753.488356	13401.252150
753.816243	13318.771311
754.144082	13146.835198
754.471875	13099.110594
754.799620	13059.600551
755.127318	13039.299824
755.454969	13027.644677
755.782572	12995.900531
756.110129	13012.722861
756.437638	12917.404724
756.765100	12922.050148
757.092515	12949.751288
757.419882	12992.863236
757.747203	13013.141277
758.074477	13092.216816
758.401703	13070.897777
758.728882	13268.221141
759.056014	13314.345178
759.383099	13484.700890
759.710138	13598.865381
760.037129	13728.037386
760.364073	13784.921766
760.690970	13814.533504
761.017820	13828.958766
761.344623	14056.970154
761.671379	14443.601448
761.998088	15149.594880
762.324751	16931.791479
762.651366	20334.746765
762.977935	24788.341528
763.304456	27744.035563
763.630931	28757.705737
763.957359	27565.394714
764.283740	25299.985876
764.610074	23059.823135
764.936362	20431.511713
765.262602	18571.825018
765.588796	16640.367416
765.914943	15364.703435
766.241044	14260.274848
766.567097	13483.463287
766.893104	12761.121393
767.219064	12304.604583
767.544978	11824.989207
767.870845	11435.239959
768.196665	11215.818696
768.522438	10988.311423
768.848165	10784.351380
769.173846	10577.827910
769.499479	10446.911665
769.825066	10277.367579
770.150607	10051.964987
770.476101	9973.547319
770.801548	9846.545530
771.126949	9691.580461
771.452303	9585.368390
771.777611	9381.433553
772.102872	9374.060865
772.428087	9231.280265
772.753256	9072.448630
773.078378	8982.030495
773.403453	8799.351683
773.728482	8692.428809
774.053465	8614.260678
774.378401	8517.967078
774.703291	8393.198520
775.028135	8273.907176
775.352932	8238.235971
775.677683	8131.630691
776.002388	8027.341821
776.327046	8038.011423
776.651658	7942.418543
776.976224	7844.665529
777.300743	7841.655960
777.625216	7749.639779
777.949643	7705.791823
778.274024	7729.250832
778.598359	7635.926472
778.922647	7652.148905
779.246889	7598.659742
779.571086	7611.313038
779.895236	7617.932073
780.219339	7629.065461
780.543397	7629.244422
780.867409	7705.310392
781.191374	7717.131898
781.515294	7683.663678
781.839167	7782.117413
782.162995	7746.831856
782.486776	7696.947118
782.810511	7646.409551
783.134201	7559.752116
783.457844	7557.294554
783.781441	7504.430494
784.104993	7439.381965
784.428498	7411.315341
784.751958	7398.846047
785.075372	7377.395938
785.398739	7314.172307
785.722061	7360.770212
786.045337	7361.904472
786.368568	7524.990840
786.691752	7548.631331
787.014891	7891.439875
787.337983	8249.094617
787.661030	8837.530861
787.984031	9458.812743
788.306987	9864.456749
788.629897	10073.294109
788.952760	10011.550057
789.275579	9802.269076
789.598351	9398.510461
789.921078	9050.403665
790.243759	8635.927557
790.566395	8347.513063
790.888984	8100.287317
791.211529	7889.670430
791.534027	7674.327461
791.856480	7458.641694
792.178888	7393.976293
792.501249	7296.440048
792.823566	7140.103785
793.145836	7141.474979
793.468062	7111.709486
793.790241	7063.516055
794.112375	7133.653629
794.434464	7287.605426
794.756507	7324.264697
795.078505	7487.678740
795.400457	7795.473950
795.722364	8149.110892
796.044226	8433.079088
796.366042	8709.525883
796.687812	8656.876072
797.009538	8737.912620
797.331218	8626.472873
797.652852	8542.973721
797.974442	8390.067963
798.295986	8302.432545
798.617484	8110.122608
798.938938	7974.482802
799.260346	7870.640074
799.581709	7670.375196
799.903026	7596.804597
800.224299	7488.260993
800.545526	7309.393293
800.866708	7216.172276
801.187845	7147.224415
801.508936	7044.321862
801.829983	7006.684607
802.150984	6853.685588
802.471940	6809.693959
802.792851	6797.045704
803.113717	6763.305261
803.434538	6728.846454
803.755314	6667.808163
804.076045	6669.698596
804.396731	6618.440144
804.717372	6649.576831
805.037967	6652.634290
805.358518	6695.237082
805.679024	6772.938906
805.999485	6787.084384
806.319901	6827.252298
806.640272	6850.839857
806.960598	6931.132835
807.280879	6930.343894
807.601115	7009.537900
807.921306	6956.313398
808.241453	6968.631457
808.561554	6995.228585
808.881611	6952.096473
809.201623	6967.734132
809.521590	6911.343785
809.841513	6886.516103
810.161390	6934.654081
810.481223	6794.802391
810.801011	6780.419979
811.120755	6759.937771
811.440453	6683.702922
811.760107	6652.127654
812.079716	6618.682119
812.399281	6558.163067
812.718801	6544.244442
813.038276	6497.722153
813.357707	6442.360202
813.677093	6480.347817
813.996434	6386.564711
814.315731	6430.697492
814.634983	6424.902686
814.954191	6435.980622
815.273354	6543.876437
815.592473	6605.370952
815.911547	6732.987762
816.230577	6813.058929
816.549562	6958.198790
816.868502	7061.305509
817.187399	7159.290417
817.506250	7313.469066
817.825058	7346.922163
818.143821	7614.562062
818.462539	7890.073722
818.781213	8253.220801
819.099843	8805.310326
819.418429	9813.079830
819.736970	10772.328228
820.055466	11959.041049
820.373919	13494.389988
820.692327	15858.139135
821.010691	20018.235400
821.329011	29017.680561
821.647286	41933.898094
821.965517	55299.836961
822.283704	60671.934996
822.601847	62651.979239
822.919945	59957.868156
823.237999	55767.335925
823.556010	49635.984669
823.873976	42923.718569
824.191897	36427.488598
824.509775	31605.942537
824.827609	27093.328465
825.145398	24508.229814
825.463144	23152.030880
825.780845	23470.750270
826.098502	25255.487611
826.416116	29028.685400
826.733685	32642.658346
827.051210	33775.393012
827.368692	31965.782619
827.686129	28011.960287
828.003522	23925.686679
828.320872	20226.828264
828.638177	17386.972383
828.955439	15241.341359
829.272656	13435.479064
829.589830	11956.142386
829.906960	10690.911073
830.224046	9748.064069
830.541088	9001.895162
830.858086	8539.432311
831.175041	8167.102770
831.491952	8053.386942
831.808819	8100.667924
832.125642	8506.931992
832.442421	9396.289833
832.759157	11195.742301
833.075849	14116.095327
833.392497	17318.828586
833.709101	19472.059149
834.025662	19311.281629
834.342179	17608.851208
834.658653	15430.876141
834.975083	13507.895239
835.291469	11895.189794
835.607811	10578.982334
835.924110	9678.445734
836.240366	8803.838309
836.556578	8005.241402
836.872746	7361.589400
837.188871	6861.123811
837.504952	6440.684018
837.820990	6133.007275
838.136984	5912.895375
838.452935	5819.684440
838.768842	5848.093863
839.084706	6276.523884
839.400526	7487.550190
839.716303	9061.436230
840.032037	10146.761365
840.347727	10065.351771
840.663373	9093.195499
840.978977	8060.986482
841.294537	7252.244252
841.610054	6654.612943
841.925527	6221.797118
842.240957	5855.665676
842.556344	5525.331467
842.871687	5238.930914
843.186987	4959.119150
843.502244	4740.338114
843.817458	4574.416097
844.132629	4437.233698
844.447756	4345.822455
844.762840	4269.910240
845.077881	4192.568858
845.392879	4127.797592
845.707833	4079.047114
846.022745	4033.210423
846.337613	4007.596320
846.652438	3965.951348
846.967221	3949.560036
847.281960	3914.589552
847.596656	3894.860997
847.911309	3881.075961
848.225919	3853.909183
848.540485	3838.475691
848.855009	3821.668484
849.169490	3803.295999
849.483928	3785.969553
849.798323	3781.200621
850.112675	3763.218826
850.426984	3769.734517
850.741251	3754.454780
851.055474	3749.771548
851.369654	3754.863113
851.683792	3746.767020
851.997887	3755.450408
852.311938	3759.536263
852.625947	3761.966099
852.939914	3749.229624
853.253837	3758.568361
853.567718	3760.839401
853.881555	3749.340529
854.195350	3763.112961
854.509103	3758.099534
854.822812	3754.757249
855.136479	3748.128132
855.450103	3757.630707
855.763685	3744.783326
856.077224	3748.113008
856.390720	3763.637241
856.704173	3786.342598
857.017584	3799.285761
857.330953	3810.918223
857.644278	3827.196109
857.957561	3838.715146
858.270802	3834.321780
858.584000	3839.378057
858.897155	3832.529650
859.210268	3815.014161
859.523339	3793.730409
859.836367	3795.157056
860.149352	3787.020633
860.462295	3777.157616
860.775195	3766.982047
861.088054	3762.013990
861.400869	3762.271089
861.713642	3760.269751
862.026373	3774.455558
862.339062	3774.720218
862.651708	3795.577992
862.964312	3831.060153
863.276873	3841.618850
863.589392	3901.888365
863.901869	3947.193215
864.214303	3989.801047
864.526696	4024.045605
864.839045	4066.187131
865.151353	4094.841049
865.463619	4105.891258
865.775842	4113.400057
866.088023	4129.078045
866.400162	4116.671766
866.712258	4129.866986
867.024313	4128.901605
867.336325	4124.931696
867.648296	4136.725476
867.960224	4133.955362
868.272110	4145.250067
868.583954	4149.149399
868.895755	4162.309332
869.207515	4158.969567
869.519233	4200.390208
869.830909	4214.482753
870.142542	4236.159715
870.454134	4250.022888
870.765684	4281.678813
871.077191	4318.617868
871.388657	4341.204758
871.700081	4380.886201
872.011463	4421.497736
872.322803	4453.347746
872.634101	4489.785206
872.945357	4525.285011
873.256571	4581.791305
873.567744	4609.648721
873.878874	4630.294767
874.189963	4665.106454
874.501010	4677.386705
874.812015	4669.835057
875.122979	4717.862129
875.433900	4714.187128
875.744780	4729.330754
876.055618	4757.041977
876.366415	4756.900825
876.677169	4775.905975
876.987882	4824.500177
877.298554	4875.549422
877.609183	4954.398109
877.919771	5066.228545
878.230317	5214.163726
878.540822	5421.087967
878.851285	5744.566207
879.161707	6209.070725
879.472087	6971.396530
879.782425	8206.055766
880.092722	10377.447085
880.402977	13671.594107
880.713191	17394.040081
881.023363	21070.304043
881.333494	23249.700715
881.643583	24451.942811
881.953631	24466.322702
882.263637	23640.243945
882.573602	22169.583092
882.883526	20629.359358
883.193408	18964.316654
883.503248	17276.341741
883.813048	15739.074643
884.122806	14322.810361
884.432522	12849.512985
884.742197	11600.496543
885.051831	10518.821204
885.361424	9518.817598
885.670975	8696.358389
885.980485	8014.799430
886.289954	7443.109899
886.599382	6975.565565
886.908768	6594.618171
887.218113	6238.553913
887.527417	5954.356345
887.836680	5677.801165
888.145901	5461.878464
888.455082	5303.525739
888.764221	5147.602851
889.073319	5018.125855
889.382376	4946.362510
889.691392	4888.855547
890.000366	4858.689283
890.309300	4843.782591
890.618193	4846.305688
890.927044	4830.831867
891.235855	4855.553685
891.544625	4886.307244
891.853353	4950.897028
892.162041	5065.527825
892.470687	5253.935909
892.779293	5502.046378
893.087858	5875.926073
893.396381	6453.765812
893.704864	7255.644511
894.013306	8397.964931
894.321707	9556.971571
894.630068	10364.498882
894.938387	10567.448174
895.246665	10329.614097
895.554903	9738.233819
895.863100	9039.408908
896.171256	8488.211667
896.479371	7986.815985
896.787446	7488.462639
897.095480	7063.833648
897.403473	6740.841880
897.711425	6428.192039
898.019336	6163.319733
898.327207	5889.302775
898.635038	5666.690462
898.942827	5415.767030
899.250576	5226.953133
899.558284	5034.857445
899.865952	4911.139968
900.173579	4762.136063
900.481165	4658.215197
900.788711	4565.213470
901.096216	4491.363087
901.403681	4429.480403
901.711105	4402.422010
902.018489	4389.781317
902.325832	4462.981391
902.633135	4585.650308
902.940397	4928.116053
903.247619	5720.046035
903.554800	7157.132803
903.861941	9062.482269
904.169041	10569.215098
904.476101	11184.974397
904.783121	10824.998203
905.090100	10092.911759
905.397039	9263.452908
905.703938	8518.929938
906.010796	7827.649114
906.317614	7278.675022
906.624391	6750.606595
906.931129	6323.525082
907.237826	5924.467344
907.544483	5551.043872
907.851099	5177.106204
908.157675	4823.161751
908.464211	4504.858256
908.770707	4268.236577
909.077163	4071.888676
909.383578	3930.277623
909.689954	3819.737722
909.996289	3745.655446
910.302584	3679.790250
910.608839	3646.720281
910.915054	3616.833800
911.221229	3599.393928
911.527363	3613.536886
911.833458	3627.881489
912.139513	3656.016168
912.445527	3685.443904
912.751502	3765.530195
913.057436	3868.077346
913.363331	3999.109537
913.669186	4205.824572
913.975000	4464.776042
914.280775	4887.408736
914.586510	5463.446263
914.892205	6259.600731
915.197859	7287.244983
915.503475	8500.812031
915.809050	9542.127893
916.114585	10177.358648
916.420081	10440.469070
916.725536	10398.352750
917.030952	9963.651534
917.336328	9554.710613
917.641665	9139.087643
917.946961	8674.288217
918.252218	8255.648117
918.557435	7751.809996
918.862612	7324.247053
919.167750	6949.729651
919.472848	6527.306165
919.777906	6159.392675
920.082925	5799.545031
920.387904	5435.931645
920.692843	5174.152088
920.997743	4931.113019
921.302603	4698.799006
921.607423	4537.519892
921.912204	4376.190366
922.216946	4258.499588
922.521647	4133.549549
922.826310	4030.639434
923.130932	3940.768264
923.435516	3839.181452
923.740059	3772.197121
924.044564	3695.359854
924.349028	3636.083446
924.653454	3572.083477
924.957840	3503.155781
925.262186	3457.004018
925.566493	3399.446643
925.870761	3338.173939
926.174989	3305.154381
926.479178	3267.166767
926.783328	3224.145560
927.087438	3195.970551
927.391509	3165.776560
927.695541	3134.128196
927.999533	3108.990482
928.303486	3087.439550
928.607400	3070.987744
928.911275	3059.748492
929.215110	3040.256870
929.518906	3033.121117
929.822663	3031.742361
930.126381	3028.831095
930.430060	3034.862836
930.733699	3037.950542
931.037299	3046.449928
931.340861	3046.258364
931.644383	3054.364539
931.947866	3050.379507
932.251309	3047.264074
932.554714	3043.339536
932.858080	3040.919782
933.161407	3031.114738
933.464694	3023.616021
933.767943	3017.576719
934.071153	3010.186388
934.374323	3005.911489
934.677455	2996.688698
934.980548	2992.764160
935.283602	2984.463900
935.586617	2981.222438
935.889593	2991.876917
936.192530	2997.049141
936.495428	3009.803260
936.798287	3031.923843
937.101108	3061.868297
937.403890	3115.027264
937.706632	3175.342149
938.009336	3253.951382
938.312002	3326.864110
938.614628	3386.432905
938.917216	3444.093623
939.219765	3470.965493
939.522275	3505.862881
939.824747	3512.940661
940.127179	3507.677696
940.429573	3499.813496
940.731929	3495.468021
941.034246	3484.571567
941.336524	3474.048159
941.638763	3457.223308
941.940964	3441.245371
942.243126	3402.476377
942.545250	3378.646843
942.847335	3339.338446
943.149381	3309.827531
943.451389	3276.402160
943.753359	3238.553177
944.055290	3217.773541
944.357182	3193.956610
944.659036	3177.716533
944.960851	3168.488701
945.262628	3152.432626
945.564367	3154.078562
945.866067	3149.561688
946.167729	3146.108498
946.469352	3145.513642
946.770937	3141.725215
947.072484	3124.925570
947.373992	3130.445633
947.675462	3120.920373
947.976893	3106.505193
948.278286	3096.455653
948.579641	3087.497523
948.880958	3079.608117
949.182236	3086.446442
949.483476	3078.259608
949.784678	3076.885894
950.085841	3080.578539
950.386967	3088.732606
950.688054	3105.333125
950.989103	3128.219964
951.290114	3146.582367
951.591087	3175.127900
951.892021	3202.428269
952.192917	3228.753174
952.493776	3254.304262
952.794596	3261.366919
953.095378	3268.346397
953.396122	3262.536467
953.696828	3253.565733
953.997496	3242.898652
954.298126	3221.514077
954.598718	3203.476829
954.899272	3173.378620
955.199788	3147.197387
955.500266	3118.445166
955.800706	3082.138776
956.101108	3045.061090
956.401472	3015.436749
956.701798	2979.901656
957.002087	2943.754062
957.302337	2913.938158
957.602550	2884.364229
957.902724	2858.210722
958.202861	2831.873214
958.502960	2810.818835
958.803022	2791.140691
959.103045	2774.550254
959.403031	2756.757501
959.702979	2739.242012
960.002889	2726.205588
960.302762	2715.213352
960.602596	2708.067517
960.902393	2696.540919
961.202153	2685.704958
961.501875	2681.523321
961.801559	2675.340346
962.101205	2666.178049
962.400814	2661.885507
962.700385	2655.858807
962.999918	2647.792961
963.299414	2641.057979
963.598873	2640.455562
963.898293	2634.391053
964.197677	2636.097484
964.497022	2635.202679
964.796331	2629.334776
965.095601	2626.673047
965.394835	2626.700773
965.694030	2626.471401
965.993189	2619.847325
966.292309	2621.324383
966.591393	2621.924280
966.890439	2618.793723
967.189447	2618.133332
967.488419	2621.699949
967.787353	2622.405710
968.086249	2624.346554
968.385108	2625.193468
968.683930	2626.272275
968.982714	2630.658079
969.281462	2636.404994
969.580172	2641.725932
969.878844	2646.104174
970.177480	2656.907367
970.476078	2661.676299
970.774639	2671.372958
971.073162	2676.676252
971.371649	2682.639937
971.670098	2688.389373
971.968510	2692.452543
972.266885	2695.283151
972.565223	2701.413194
972.863524	2703.517876
973.161788	2707.210521
973.460014	2709.852085
973.758204	2713.481716
974.056356	2717.179402
974.354471	2716.317365
974.652550	2718.439691
974.950591	2715.810729
975.248595	2715.588918
975.546563	2710.391489
975.844493	2709.453834
976.142386	2701.803883
976.440243	2696.992102
976.738062	2695.807431
977.035845	2683.217149
977.333590	2681.392251
977.631299	2675.221879
977.928971	2671.607372
978.226606	2665.200065
978.524204	2662.079591
978.821765	2657.383756
979.119290	2658.444919
979.416777	2658.386946
979.714228	2660.680671
980.011642	2664.325425
980.309020	2673.472599
980.606360	2686.090607
980.903664	2710.661191
981.200931	2745.878691
981.498162	2791.954837
981.795356	2868.282948
982.092513	2957.027420
982.389633	3058.357133
982.686717	3153.990342
982.983764	3226.041033
983.280775	3276.815535
983.577749	3285.834159
983.874686	3269.261366
984.171587	3236.977817
984.468451	3198.163453
984.765279	3154.360867
985.062070	3106.036366
985.358824	3065.291240
985.655543	3006.191273
985.952224	2956.180506
986.248869	2895.588358
986.545478	2835.858246
986.842050	2779.236006
987.138586	2737.596076
987.435086	2697.801207
987.731549	2667.274500
988.027975	2645.612662
988.324366	2627.257821
988.620719	2614.659977
988.917037	2604.731425
989.213318	2593.472008
989.509563	2588.176276
989.805772	2584.387848
990.101944	2577.000038
990.398080	2574.318144
990.694180	2575.643967
990.990244	2575.833010
991.286271	2574.555078
991.582262	2573.627506
991.878217	2578.683783
992.174136	2580.823753
992.470019	2583.437591
992.765865	2589.416399
993.061676	2592.173911
993.357450	2602.389809
993.653188	2607.811570
993.948890	2625.659775
994.244556	2642.711478
994.540186	2665.895744
994.835780	2700.750282
995.131337	2736.595407
995.426859	2773.534461
995.722345	2820.364260
996.017795	2874.377703
996.313208	2907.775347
996.608586	2935.748710
996.903928	2950.123560
997.199234	2947.388734
997.494504	2946.516614
997.789738	2929.616146
998.084936	2905.015315
998.380099	2874.337374
998.675225	2846.086747
998.970316	2817.425267
999.265371	2779.329268
999.560390	2745.777868
999.855373	2718.086810
1000.150320	2688.638910
1000.445232	2665.457164
1000.740108	2642.529996
1001.034948	2623.577778
1001.329752	2609.611262
1001.624521	2598.742534
1001.919254	2588.002356
1002.213951	2579.928948
1002.508613	2570.401167
1002.803239	2565.982596
1003.097829	2559.653427
1003.392384	2555.484393
1003.686903	2550.269319
1003.981386	2549.729916
1004.275834	2543.282280
1004.570246	2539.624923
1004.864623	2537.868081
1005.158964	2536.176774
1005.453270	2533.688964
1005.747540	2535.496218
1006.041775	2531.647297
1006.335974	2532.668131
1006.630138	2526.858201
1006.924266	2530.628984
1007.218359	2522.265710
1007.512416	2524.957686
1007.806438	2521.423837
1008.100425	2526.268386
1008.394376	2521.575072
1008.688292	2525.633200
1008.982172	2523.450381
1009.276017	2523.077335
1009.569827	2524.135978
1009.863602	2521.151615
1010.157341	2520.929804
1010.451045	2519.621624
1010.744714	2517.343023
1011.038347	2521.174300
1011.331945	2519.195647
1011.625508	2520.034999
1011.919036	2516.279339
1012.212528	2516.082734
1012.505986	2512.397651
1012.799408	2515.387055
1013.092795	2515.301356
1013.386147	2514.139370
1013.679464	2512.695079
1013.972745	2512.470748
1014.265992	2513.040398
1014.559204	2513.055522
1014.852380	2510.968484
1015.145521	2513.070645
1015.438628	2513.277332
1015.731699	2513.640295
1016.024736	2513.816736
1016.317737	2515.611387
1016.610703	2516.705317
1016.903635	2517.509381
1017.196531	2519.833353
1017.489393	2519.994670
1017.782219	2521.335617
1018.075011	2525.310567
1018.367768	2523.268899
1018.660490	2523.871317
1018.953177	2523.871317
1019.245829	2523.871317
