Dividing Wavelength (nm)	Counts (n)	Blue Motor Position (mm): 24.500000	Red Motor Position (mm): 0.000000	
326.493990	2099.890114
326.888308	2099.890114
327.282561	2099.890114
327.676750	2077.678790
328.070874	2079.836404
328.464933	2085.961406
328.858929	2094.972468
329.252859	2109.513677
329.646726	2125.128651
330.040528	2139.705147
330.434265	2159.353044
330.827938	2180.155366
331.221547	2197.030628
331.615091	2217.802703
332.008571	2241.339850
332.401986	2261.595206
332.795338	2278.727567
333.188625	2299.512245
333.581847	2317.166365
333.975006	2335.478357
334.368100	2353.843280
334.761129	2371.179808
335.154095	2387.613970
335.546996	2429.609302
335.939833	2500.135044
336.332606	2514.915707
336.725315	2527.180835
337.117960	2534.687113
337.510540	2542.100129
337.903056	2552.835267
338.295508	2557.495813
338.687896	2561.574107
339.080220	2571.313616
339.472480	2577.836869
339.864676	2580.453228
340.256807	2583.961871
340.648875	2585.703590
341.040879	2586.048909
341.432818	2588.438416
341.824694	2589.764239
342.216506	2588.811461
342.608253	2587.147880
342.999937	2585.524629
343.391557	2585.660740
343.783113	2587.220977
344.174605	2583.296439
344.566033	2581.254771
344.957397	2579.218145
345.348697	2575.192784
345.739934	2572.959553
346.131106	2574.786971
346.522215	2573.609862
346.913260	2570.975859
347.304241	2569.970148
347.695159	2570.234809
348.086012	2566.390929
348.476802	2565.735579
348.867528	2563.341031
349.258191	2564.099725
349.648789	2562.206772
350.039324	2558.965310
350.429796	2563.635939
350.820203	2560.528067
351.210548	2557.160577
351.600828	2558.441030
351.991045	2554.156049
352.381198	2555.444064
352.771288	2557.543704
353.161314	2554.075390
353.551276	2554.340051
353.941175	2553.205791
354.331010	2556.306101
354.720782	2557.594116
355.110490	2558.637635
355.500135	2555.670916
355.889717	2560.006308
356.279235	2555.796944
356.668689	2558.327604
357.058080	2558.229301
357.447408	2556.079249
357.836672	2553.921635
358.225873	2556.303580
358.615010	2555.582695
359.004084	2563.678788
359.393095	2562.892368
359.782043	2563.174673
360.170927	2561.069991
360.559748	2563.401525
360.948505	2562.400856
361.337199	2566.864798
361.725830	2564.192986
362.114398	2565.871690
362.502903	2564.477811
362.891344	2565.657441
363.279722	2563.454457
363.668037	2568.712381
364.056289	2565.226423
364.444478	2567.507545
364.832603	2569.695406
365.220665	2567.842782
365.608665	2566.559808
365.996601	2569.864284
366.384474	2571.623647
366.772284	2572.878894
367.160031	2568.762792
367.547715	2569.755899
367.935336	2570.630540
368.322893	2572.813359
368.710388	2570.733883
369.097820	2572.475602
369.485189	2570.819583
369.872495	2573.274625
370.259738	2571.885787
370.646918	2575.880901
371.034035	2573.098184
371.421090	2578.129256
371.808081	2572.750345
372.195010	2575.505335
372.581875	2574.091292
372.968678	2573.882084
373.355418	2576.316961
373.742096	2577.758731
374.128710	2575.969122
374.515262	2577.483988
374.901751	2577.249575
375.288177	2575.896025
375.674540	2577.136149
376.060841	2578.940882
376.447079	2578.237641
376.833254	2580.402816
377.219367	2574.058524
377.605417	2577.350398
377.991404	2576.536251
378.377329	2576.881570
378.763191	2574.723957
379.148991	2581.317786
379.534727	2580.208732
379.920402	2583.351891
380.306013	2582.240317
380.691563	2582.620924
381.077049	2584.135791
381.462474	2582.136973
381.847835	2581.912642
382.233134	2585.307859
382.618371	2584.891964
383.003545	2585.151583
383.388657	2582.567992
383.773706	2585.690987
384.158693	2584.826429
384.543618	2588.957654
384.928480	2586.069073
385.313280	2587.180648
385.698017	2587.571337
386.082692	2587.830957
386.467305	2588.758529
386.851856	2588.425813
387.236344	2589.973447
387.620770	2587.606625
388.005133	2590.669126
388.389435	2589.421441
388.773674	2591.697522
389.157851	2587.309197
389.541965	2589.159301
389.926018	2590.958992
390.310008	2593.938314
390.693936	2593.066195
391.077802	2593.524940
391.461606	2594.361771
391.845348	2591.815989
392.229027	2595.097780
392.612645	2593.212388
392.996200	2593.882862
393.379694	2596.940322
393.763125	2594.384457
394.146494	2596.259766
394.529801	2594.286154
394.913047	2596.597523
395.296230	2595.299426
395.679351	2595.765733
396.062410	2597.946032
396.445408	2594.686926
396.828343	2598.223295
397.211217	2595.506113
397.594028	2594.951586
397.976778	2593.673654
398.359466	2597.527616
398.742092	2592.630135
399.124656	2600.005343
399.507158	2597.661207
399.889598	2598.019128
400.271977	2599.476022
400.654294	2603.791250
401.036549	2600.212030
401.418742	2601.033738
401.800874	2605.164964
402.182944	2600.688419
402.564952	2601.293358
402.946898	2602.104984
403.328783	2602.389809
403.710606	2604.827207
404.092367	2602.609099
404.474067	2603.995416
404.855705	2603.239243
405.237282	2605.260746
405.618797	2607.108329
406.000250	2606.415170
406.381642	2604.953236
406.762972	2606.417691
407.144240	2607.645212
407.525447	2609.941457
407.906593	2605.870726
408.287677	2608.328288
408.668700	2608.484564
409.049661	2607.672938
409.430560	2608.504728
409.811399	2607.632609
410.192176	2610.211159
410.572891	2610.614451
410.953545	2610.679986
411.334138	2610.984976
411.714669	2610.120418
412.095139	2611.388268
412.475547	2613.505553
412.855894	2612.499843
413.236180	2611.872219
413.616405	2613.908845
413.996568	2612.514966
414.376670	2614.770883
414.756711	2613.258537
415.136691	2613.399689
415.516609	2613.601335
415.896466	2616.215173
416.276262	2616.835235
416.655997	2612.202415
417.035670	2612.230141
417.415283	2615.353136
417.794834	2612.961108
418.174324	2617.130143
418.553753	2615.211984
418.933121	2617.162910
419.312428	2617.853548
419.691674	2621.488220
420.070859	2617.654423
420.449983	2617.667026
420.829045	2620.790020
421.208047	2620.633745
421.586988	2619.307921
421.965867	2621.258848
422.344686	2621.657099
422.723444	2621.132819
423.102141	2619.479320
423.480777	2623.308077
423.859352	2623.461832
424.237866	2625.737913
424.616319	2624.139867
424.994712	2625.294291
425.373044	2625.017028
425.751314	2625.548870
426.129524	2627.648510
426.507673	2627.424179
426.885762	2626.052985
427.263789	2629.130609
427.641756	2628.495424
428.019662	2627.328397
428.397508	2627.749333
428.775292	2630.947945
429.153016	2632.170425
429.530679	2633.292082
429.908282	2630.925260
430.285824	2630.443830
430.663305	2630.539612
431.040726	2631.497431
431.418086	2631.734365
431.795385	2635.124541
432.172624	2636.916672
432.549802	2633.244191
432.926920	2631.230250
433.303977	2637.035139
433.680974	2637.642598
434.057910	2635.205200
434.434786	2637.496404
434.811601	2637.892135
435.188355	2639.225520
435.565050	2640.027063
435.941683	2640.200983
436.318257	2638.938174
436.694770	2638.852475
437.071222	2643.593680
437.447614	2637.544295
437.823946	2639.933802
438.200218	2642.151910
438.576429	2644.899339
438.952580	2644.196098
439.328670	2645.605100
439.704700	2649.892602
440.080670	2647.228352
440.456580	2647.513177
440.832429	2653.716317
441.208218	2649.451501
441.583947	2651.352016
441.959616	2653.630617
442.335224	2654.069197
442.710773	2654.694301
443.086261	2655.021976
443.461689	2657.260248
443.837057	2658.023983
444.212365	2662.843326
444.587612	2663.130672
444.962800	2662.218223
445.337927	2666.477998
445.712995	2664.549756
446.088002	2668.859943
446.462949	2671.085612
446.837837	2672.925633
447.212664	2673.775068
447.587431	2686.854342
447.962139	2695.935980
448.336786	2703.563246
448.711374	2700.331866
449.085901	2694.353058
449.460369	2696.220805
449.834776	2697.070240
450.209124	2709.831921
450.583412	2711.540872
450.957640	2714.348795
451.331808	2714.479865
451.705917	2712.145810
452.079965	2714.946171
452.453954	2720.506564
452.827883	2725.809858
453.201752	2728.191803
453.575562	2732.925447
453.949311	2742.864081
454.323001	2748.696696
454.696632	2752.958992
455.070202	2769.466250
455.443713	2780.075358
455.817164	2789.396452
456.190556	2801.608647
456.563888	2808.941005
456.937160	2819.116574
457.310373	2822.647903
457.683526	2833.982937
458.056619	2846.628672
458.429653	2862.067205
458.802628	2883.545041
459.175542	2903.394584
459.548398	2936.880449
459.921194	2975.576346
460.293930	3014.189064
460.666607	3070.271900
461.039224	3123.929942
461.411782	3155.396824
461.784280	3164.455777
462.156719	3186.841021
462.529099	3203.837271
462.901419	3216.377142
463.273680	3234.424472
463.645882	3268.847991
464.018024	3312.436328
464.390106	3383.083058
464.762130	3513.285980
465.134094	3709.364179
465.505999	3956.995738
465.877845	4176.038914
466.249631	4277.451806
466.621358	4285.588228
466.993026	4276.236888
467.364634	4282.185449
467.736184	4290.493271
468.107674	4330.875434
468.479105	4387.331316
468.850477	4448.357004
469.221790	4465.602791
469.593043	4468.216629
469.964238	4515.038866
470.335373	4602.107155
470.706449	4824.343902
471.077467	5130.601559
471.448425	5560.322116
471.819324	5867.499785
472.190164	5843.861814
472.560945	5702.734712
472.931667	5589.800263
473.302330	5631.127642
473.672934	5684.957083
474.043479	5858.776068
474.413965	5920.724287
474.784393	6012.705180
475.154761	6239.259675
475.525070	6382.428444
475.895321	6470.890612
476.265513	6677.913156
476.635645	6944.857376
477.005719	7083.158911
477.375734	7302.386089
477.745691	7564.589103
478.115588	7922.563959
478.485427	8403.905931
478.855207	9129.196899
479.224928	9761.113096
479.594591	10248.910265
479.964194	10279.119380
480.333739	10528.497699
480.703226	10788.376741
481.072653	11182.441217
481.442022	11541.925898
481.811333	11839.762308
482.180584	11828.724702
482.549777	11985.789411
482.918912	12143.995942
483.287988	12342.168741
483.657005	12436.304728
484.025964	12548.077191
484.394864	12825.625477
484.763706	13012.299404
485.132489	13068.596490
485.501213	13300.040904
485.869879	13629.382006
486.238487	13800.594714
486.607036	14128.990599
486.975527	14268.774233
487.343959	14619.719199
487.712333	14933.941880
488.080648	15199.114134
488.448905	15654.017775
488.817104	15910.211734
489.185244	16563.691466
489.553326	17527.794495
489.921350	18910.010824
490.289315	20411.165616
490.657222	21014.664828
491.025070	21510.300992
491.392861	21479.416363
491.760593	21315.397382
492.128267	20960.212805
492.495883	20682.518325
492.863440	20463.896086
493.230939	20240.479709
493.598380	20124.918819
493.965763	20327.273255
494.333088	20306.571756
494.700354	20426.364695
495.067563	20617.096751
495.434713	20882.684900
495.801805	21250.873133
496.168839	21405.661762
496.535815	21568.586813
496.902733	21911.965007
497.269593	22024.420547
497.636395	22306.561325
498.003139	22854.317978
498.369825	22890.463051
498.736453	23385.776581
499.103023	23456.929947
499.469535	23702.759294
499.835989	24083.005967
500.202385	24204.457445
500.568723	24541.529156
500.935003	24970.312058
501.301226	25158.258876
501.667390	25849.108682
502.033497	26318.702245
502.399546	26281.206142
502.765537	26168.982496
503.131470	26712.018109
503.497345	27261.924815
503.863163	26692.060181
504.228923	27411.911744
504.594625	27998.908739
504.960269	27809.116859
505.325856	28581.308202
505.691385	28444.413149
506.056856	28838.278499
506.422270	29431.861761
506.787625	29427.417984
507.152924	29851.235350
507.518164	30207.274402
507.883347	29904.893391
508.248472	30378.693797
508.613540	31013.246517
508.978550	31508.111384
509.343503	31601.304675
509.708398	32018.954189
510.073236	32693.654658
510.438016	32967.633808
510.802738	32781.451393
511.167403	33555.018972
511.532010	33991.565251
511.896561	34487.145962
512.261053	35440.828926
512.625488	35315.785625
512.989866	35473.069625
513.354186	35568.652423
513.718449	35805.624462
514.082655	36608.203881
514.446803	36542.920938
514.810894	37226.209013
515.174927	37365.186063
515.538904	37500.208328
515.902822	38290.373905
516.266684	38027.699542
516.630488	38608.818552
516.994235	38662.353085
517.357925	39384.100123
517.721558	39753.079817
518.085133	40206.236698
518.448651	40509.245332
518.812112	40476.324077
519.175516	40765.192274
519.538863	41242.634914
519.902152	41364.603111
520.265385	41977.985505
520.628560	42170.895339
520.991678	42129.008392
521.354739	42487.575583
521.717743	42954.330976
522.080690	42994.168694
522.443580	43643.794464
522.806413	43839.318137
523.169189	43939.637098
523.531908	44232.306326
523.894569	44203.707860
524.257174	44498.315412
524.619722	44908.604841
524.982213	45010.564698
525.344647	45029.509354
525.707025	45189.175299
526.069345	45686.414550
526.431608	45712.840278
526.793815	46110.894827
527.155964	45753.217400
527.518057	46008.773653
527.880093	45882.679272
528.242072	46497.387490
528.603995	46276.554704
528.965860	46365.730195
529.327669	46512.291661
529.689421	46514.681168
530.051117	46525.375976
530.412755	46737.893378
530.774337	46874.606950
531.135862	46730.205618
531.497331	46996.456679
531.858743	46943.668237
532.220098	47327.136207
532.581396	47109.207126
532.942638	46806.135478
533.303824	47171.485541
533.664953	47184.428703
534.026025	46954.468909
534.387040	47470.073083
534.747999	47448.685988
535.108902	47655.385899
535.469748	47193.001186
535.830537	47329.243409
536.191270	47564.531703
536.551947	47265.072042
536.912567	47599.020757
537.273131	47750.860311
537.633638	47258.979807
537.994089	47627.241137
538.354483	47223.275835
538.714821	47851.214561
539.075103	48221.986385
539.435328	47994.736211
539.795497	47882.373933
540.155609	47903.642561
540.515665	48392.173218
540.875665	47833.084051
541.235609	48198.456800
541.595496	48172.517542
541.955328	48896.896062
542.315102	48245.636958
542.674821	48033.918579
543.034483	48091.226416
543.394090	48081.184438
543.753640	48050.677895
544.113134	49059.740455
544.472571	48066.078620
544.831953	49335.862095
545.191278	48535.994817
545.550548	48262.456768
545.909761	48749.782590
546.268918	48950.680132
546.628019	49266.616806
546.987064	48828.530454
547.346053	48080.592102
547.704986	48990.895937
548.063863	48544.844563
548.422684	48725.264938
548.781449	48565.041946
549.140158	48976.082507
549.498811	48832.883491
549.857408	48241.349457
550.215949	49103.041446
550.574434	49049.869876
550.932864	48800.504159
551.291237	49515.866575
551.649555	49122.245721
552.007817	49367.981807
552.366022	48998.858440
552.724173	49171.659111
553.082267	49582.092213
553.440305	49847.342605
553.798288	49159.250311
554.156215	49472.336212
554.514086	49680.871103
554.871902	49435.192990
555.229661	49450.276123
555.587365	49259.710425
555.945014	49364.621878
556.302606	49287.270413
556.660143	49524.121465
557.017625	49596.073854
557.375050	49363.109532
557.732421	49724.076312
558.089735	49706.661646
558.446994	49611.376276
558.804197	50083.389593
559.161345	50002.534527
559.518437	49246.956306
559.875474	49565.456406
560.232455	49729.508155
560.589381	49913.563202
560.946251	49598.836406
561.303065	50278.252874
561.659825	50055.438916
562.016528	49717.588347
562.373177	49441.280184
562.729770	49920.847670
563.086307	49427.686712
563.442789	49884.236290
563.799216	49917.424726
564.155587	49706.674248
564.511904	49739.348487
564.868164	49808.951698
565.224370	50033.865298
565.580520	49774.182860
565.936615	49995.698722
566.292654	49698.104287
566.648638	49954.179779
567.004567	49903.685061
567.360441	49947.464962
567.716260	49804.533127
568.072023	50081.184088
568.427732	50047.385672
568.783385	49583.087841
569.138982	49968.118569
569.494525	49924.111817
569.850013	49678.789106
570.205445	49664.116828
570.560823	49605.460482
570.916145	49472.784875
571.271412	49502.200007
571.626625	49240.866592
571.981782	49262.619171
572.336884	48953.878745
572.691931	49270.127969
573.046923	48874.409995
573.401860	48707.129387
573.756743	48679.501344
574.111570	48777.377866
574.466342	48623.040421
574.821059	48717.592302
575.175722	48227.690451
575.530330	48257.065254
575.884882	47943.424827
576.239380	47890.840551
576.593823	47862.380717
576.948211	47787.257442
577.302544	47298.068914
577.656823	47303.354564
578.011047	47532.076755
578.365216	47244.781397
578.719330	47022.494239
579.073389	46860.509363
579.427394	46931.687935
579.781344	46887.540030
580.135239	46536.474076
580.489080	46597.575381
580.842866	46073.222285
581.196597	46511.091867
581.550273	46440.762729
581.903895	46311.870508
582.257463	46718.240440
582.610975	46079.276710
582.964434	46363.542335
583.317837	45982.438666
583.671186	45810.862994
584.024481	46022.871240
584.377721	45538.675975
584.730906	45825.063925
585.084037	45872.405401
585.437113	45563.024748
585.790135	45589.435353
586.143103	45169.587896
586.496016	45275.542868
586.848874	45304.022866
587.201679	45310.372199
587.554428	44780.582218
587.907124	44952.719978
588.259765	44717.151900
588.612352	44944.971725
588.964884	44328.831819
589.317362	44607.716012
589.669786	44547.970777
590.022155	44296.475173
590.374470	44720.726078
590.726731	44232.762550
591.078937	43730.305705
591.431090	43835.370913
591.783188	43480.370339
592.135232	43140.082372
592.487222	43397.796239
592.839157	43486.507944
593.191038	43133.770847
593.542866	42879.278278
593.894639	42255.677465
594.246358	42543.723954
594.598022	42526.455482
594.949633	42114.056330
595.301190	42057.711353
595.652692	41891.242371
596.004141	42210.339847
596.355535	41228.166802
596.706876	41164.620538
597.058162	40992.008909
597.409395	41461.297483
597.760573	41540.516695
598.111698	41124.419856
598.462768	41139.792855
598.813785	41161.754642
599.164748	40598.854362
599.515657	40985.468012
599.866511	40466.118261
600.217312	41070.933214
600.568060	40050.003778
600.918753	40786.095419
601.269392	40725.445297
601.619978	40378.228264
601.970510	40591.189288
602.320988	40784.207507
602.671412	41084.395615
603.021783	40829.086379
603.372100	40466.881996
603.722363	40570.633983
604.072572	40650.621971
604.422728	40657.041880
604.772830	40469.354682
605.122878	40576.406104
605.472872	40502.517912
605.822813	40776.668461
606.172701	40597.954516
606.522534	40851.222085
606.872314	41105.850766
607.222041	40851.620337
607.571714	41248.623805
607.921333	40689.915245
608.270899	40968.018058
608.620411	41313.813486
608.969870	41095.685279
609.319276	41107.398400
609.668627	41149.280307
610.017926	41643.794814
610.367171	41782.597944
610.716362	41885.566032
611.065500	41801.898001
611.414585	41984.531443
611.763616	42285.437916
612.112594	42219.837381
612.461518	42457.482415
612.810389	42748.344389
613.159207	42611.424130
613.507971	42681.130685
613.856682	43157.754137
614.205340	43046.717682
614.553945	43754.568779
614.902496	43190.352758
615.250994	43663.961600
615.599439	43709.228641
615.947830	43934.691726
616.296169	43993.869831
616.644454	44114.736536
616.992686	44272.958191
617.340864	44789.527746
617.688990	44478.130632
618.037063	45109.396519
618.385082	45068.686681
618.733048	45351.795361
619.080961	45363.090066
619.428821	45389.568726
619.776628	45489.131515
620.124382	45335.005798
620.472083	45466.789121
620.819731	45589.372338
621.167326	45265.122803
621.514868	45253.422284
621.862357	44808.432073
622.209793	44848.690727
622.557176	44503.868242
622.904506	44244.523562
623.251783	43898.105552
623.599007	43677.587839
623.946179	43461.960045
624.293297	43417.398766
624.640363	42801.604179
624.987376	42788.182107
625.334336	42560.775657
625.681243	42184.062833
626.028097	42151.320539
626.374899	41998.006447
626.721647	41987.546053
627.068343	41870.631613
627.414987	41616.902778
627.761577	41398.313307
628.108115	41746.853642
628.454600	41154.616368
628.801032	41367.660571
629.147412	41307.093628
629.493739	41293.200208
629.840014	40955.969701
630.186236	41299.385703
630.532405	40868.704807
630.878521	41082.545512
631.224585	40952.105656
631.570597	40663.484475
631.916556	40820.609679
632.262462	40763.947109
632.608316	40792.187653
632.954117	40692.566892
633.299866	40662.632520
633.645562	40601.188416
633.991206	40111.946956
634.336797	39658.210343
634.682336	39656.657667
635.027823	39418.810987
635.373257	39238.004964
635.718639	38979.716405
636.063968	38843.413687
636.409245	38266.262066
636.754470	38324.202568
637.099642	38072.515400
637.444762	37577.879905
637.789829	37726.896413
638.134845	37381.733650
638.479808	37326.812800
638.824719	37223.769095
639.169577	36835.882553
639.514383	36893.928919
639.859137	36572.525114
640.203839	36815.811199
640.548489	36458.469009
640.893086	36519.245159
641.237632	36273.965298
641.582125	36387.955869
641.926566	36319.736455
642.270955	36276.289270
642.615292	36305.717006
642.959576	36271.535462
643.303809	36262.552126
643.647990	36409.471514
643.992118	36370.947016
644.336195	36355.004367
644.680219	36441.734898
645.024192	36739.997286
645.368112	37249.710872
645.711981	37256.196317
646.055797	38137.309351
646.399562	38046.404744
646.743274	39011.926858
647.086935	39445.808887
647.430544	39334.422072
647.774101	39446.083630
648.117606	39702.837157
648.461059	40005.160194
648.804460	39612.960946
649.147810	39008.682875
649.491108	38742.981300
649.834354	38375.990341
650.177548	37522.621297
650.520690	37079.014883
650.863781	37116.251365
651.206820	36958.586758
651.549807	36502.379979
651.892742	36013.491400
652.235626	35805.213608
652.578458	35685.781112
652.921238	35081.618988
653.263967	35403.612607
653.606644	35071.705559
653.949269	35013.359244
654.291843	34585.458544
654.634365	34988.045090
654.976836	34598.227787
655.319255	34600.919763
655.661622	34593.229483
656.003938	34382.078233
656.346203	34232.671036
656.688416	34472.113241
657.030577	34254.998307
657.372687	34090.986887
657.714746	34346.021380
658.056753	34486.329295
658.398708	33909.664145
658.740612	33976.429186
659.082465	34239.453909
659.424266	34077.300154
659.766016	34203.449988
660.107715	34068.442847
660.449362	34190.501784
660.790958	34164.728885
661.132503	34182.312430
661.473996	34207.205647
661.815438	34332.561500
662.156829	34525.080644
662.498168	34279.641987
662.839456	34311.151719
663.180693	34453.965087
663.521879	34630.634844
663.863013	34572.200309
664.204097	34570.824074
664.545129	35017.596334
664.886110	34970.995908
665.227040	35052.702929
665.567918	35176.528791
665.908746	35231.986525
666.249522	35391.178602
666.590248	35389.898148
666.930922	35497.126011
667.271545	35459.473633
667.612118	35533.979367
667.952639	35313.728834
668.293109	35377.925408
668.633528	35276.401611
668.973896	35199.934869
669.314213	35231.729426
669.654480	34962.846883
669.994695	34994.384341
670.334859	34870.855907
670.674973	34786.033453
671.015035	34929.174496
671.355047	34884.580449
671.695008	34805.593130
672.034918	34717.405705
672.374777	34801.963499
672.714585	34631.204495
673.054342	34856.690265
673.394049	34587.059110
673.733705	34887.035491
674.073310	34528.906880
674.412864	34599.122592
674.752368	34210.512644
675.091820	34526.373700
675.431223	34087.163172
675.770574	33798.105931
676.109875	33665.178265
676.449125	33379.869122
676.788324	33308.725839
677.127473	32762.111007
677.466571	32683.143852
677.805619	32336.539319
678.144616	32339.415298
678.483562	32245.939702
678.822458	31926.350713
679.161303	31848.038909
679.500098	31755.548859
679.838842	31642.367394
680.177535	31784.953910
680.516179	32067.195511
680.854771	32307.928251
681.193314	33173.486804
681.531805	34292.819563
681.870247	35037.874375
682.208638	35747.840236
682.546978	35972.320296
682.885268	36062.196508
683.223508	35542.146036
683.561697	35212.121858
683.899836	35027.787027
684.237925	34509.475753
684.575963	34365.465111
684.913951	33882.797315
685.251889	34030.213257
685.589776	34024.814181
685.927614	33997.077752
686.265401	34147.208355
686.603137	34211.926688
686.940824	34714.219696
687.278460	35082.513793
687.616046	35202.901588
687.953582	35798.667670
688.291068	35652.872459
688.628504	35936.074400
688.965889	35876.621552
689.303224	35488.855998
689.640510	35176.871590
689.977745	34447.464519
690.314930	33638.359327
690.652065	33154.776562
690.989150	32417.868254
691.326185	31493.862563
691.663170	30792.895162
692.000105	30032.875685
692.336990	29364.501864
692.673825	28891.820594
693.010610	28368.695018
693.347345	27776.291386
693.684030	27109.228265
694.020665	26818.792268
694.357251	26143.461655
694.693786	26085.495947
695.030272	25836.130231
695.366707	25289.104545
695.703093	24991.472301
696.039429	24987.247814
696.375716	24710.306987
696.711952	24677.478993
697.048139	24495.667259
697.384276	24318.183355
697.720363	24447.493993
698.056400	24233.852413
698.392388	24018.338045
698.728326	23985.714218
699.064214	23771.707155
699.400053	23713.433937
699.735842	23345.757381
700.071581	23069.545000
700.407270	22773.044496
700.742910	22582.816555
701.078501	22316.441986
701.414042	22030.109489
701.749533	21719.251778
702.084974	21356.722240
702.420366	21584.668094
702.755709	21117.658122
703.091002	20830.609781
703.426246	20835.716470
703.761440	20735.775595
704.096584	20452.621545
704.431679	20417.840104
704.766725	20313.246244
705.101721	20250.962788
705.436668	20342.943681
705.771565	19998.385857
706.106413	20352.494147
706.441212	20339.556026
706.775961	20473.491922
707.110661	20528.901764
707.445311	20897.614277
707.779913	20728.511292
708.114465	20955.332968
708.448967	21242.066237
708.783421	21927.970671
709.117825	22191.794416
709.452180	22412.062592
709.786485	22813.378768
710.120742	23609.596250
710.454949	23606.243883
710.789107	24063.426125
711.123216	24776.625886
711.457275	24880.082966
711.791286	25431.537306
712.125247	25502.657904
712.459159	25196.864032
712.793023	25875.678083
713.126837	24776.308293
713.460602	25060.808331
713.794318	24692.403329
714.127985	24310.961902
714.461602	23416.983844
714.795171	23378.056054
715.128691	22346.938446
715.462162	21806.509110
715.795584	21388.022765
716.128957	21125.925614
716.462281	20729.509441
716.795556	20483.327213
717.128782	19970.067175
717.461960	19418.320449
717.795088	19334.813735
718.128167	18921.116486
718.461198	18457.511814
718.794180	18315.101738
719.127113	17943.097352
719.459997	17748.329852
719.792833	17375.017287
720.125619	17344.397318
720.458357	17010.400711
720.791046	16836.359916
721.123686	16669.638876
721.456278	16434.421158
721.788821	16394.936320
722.121315	16132.168697
722.453761	16201.003132
722.786158	16118.391223
723.118506	16129.088552
723.450805	15979.368803
723.783056	16141.560366
724.115259	16034.458532
724.447412	15959.131091
724.779518	16200.715786
725.111574	16223.252264
725.443582	16420.154692
725.775542	16402.820685
726.107453	16871.201851
726.439315	16739.156387
726.771129	17149.150909
727.102895	17518.710336
727.434612	17734.605311
727.766281	17840.744285
728.097901	18106.579450
728.429473	18141.912898
728.760996	18128.631978
729.092471	18235.093585
729.423897	18105.311600
729.755276	17980.714442
730.086606	18093.348942
730.417887	18618.075084
730.749120	19134.808477
731.080305	19300.985072
731.411442	19631.687285
731.742530	19705.867864
732.073570	19808.097423
732.404562	20107.451221
732.735506	19922.690412
733.066401	19630.716863
733.397249	19094.388505
733.728048	18468.562023
734.058798	17628.161348
734.389501	16935.587467
734.720156	16477.336501
735.050762	15946.820593
735.381320	15581.440283
735.711831	15335.429455
736.042293	14978.122552
736.372707	14991.816847
736.703073	14770.119504
737.033391	14952.299242
737.363661	14918.354633
737.693883	15014.751576
738.024056	15168.572304
738.354182	15345.602503
738.684260	15619.649709
739.014290	15834.755743
739.344272	16015.299627
739.674207	16290.528983
740.004093	16406.004174
740.333931	16403.211374
740.663722	16447.870956
740.993464	16442.270234
741.323159	16276.249915
741.652806	16003.689850
741.982405	15794.923066
742.311956	15460.276150
742.641460	15351.989645
742.970915	15045.484971
743.300323	14710.802767
743.629683	14503.535727
743.958996	14218.065267
744.288260	13950.785810
744.617477	13649.738185
744.946647	13582.779059
745.275768	13299.599803
745.604842	13119.965848
745.933869	12934.708485
746.262847	12893.718863
746.591778	12814.275320
746.920662	12709.910832
747.249498	12709.000904
747.578286	12819.341679
747.907027	12963.148154
748.235720	13178.433150
748.564365	13192.608875
748.892963	13095.662445
749.221514	13154.873317
749.550017	13006.194567
749.878473	12970.414978
750.206881	12736.616345
750.535242	12648.154177
750.863555	12569.227352
751.191821	12456.151750
751.520039	12472.956437
751.848210	12378.449926
752.176334	12417.738158
752.504411	12322.057058
752.832440	12155.298209
753.160421	12211.454143
753.488356	12087.131727
753.816243	12004.640806
754.144082	11856.342663
754.471875	11789.590224
754.799620	11740.166752
755.127318	11706.204498
755.454969	11663.495843
755.782572	11622.617127
756.110129	11637.531380
756.437638	11552.265304
756.765100	11541.194930
757.092515	11540.607636
757.419882	11551.408308
757.747203	11552.613144
758.074477	11618.359872
758.401703	11574.595095
758.728882	11735.047460
759.056014	11774.078594
759.383099	11887.978424
759.710138	11988.950215
760.037129	12072.933317
760.364073	12086.035276
760.690970	12075.673184
761.017820	12076.631004
761.344623	12268.648554
761.671379	12618.348355
761.998088	13284.433492
762.324751	14887.195261
762.651366	17798.766597
762.977935	21396.769167
763.304456	23520.030070
763.630931	23931.715899
763.957359	22758.074789
764.283740	20863.825944
764.610074	19014.702987
764.936362	16891.031229
765.262602	15382.710437
765.588796	13915.734667
765.914943	12899.697672
766.241044	12036.785724
766.567097	11394.404092
766.893104	10843.728610
767.219064	10480.992385
767.544978	10106.792577
767.870845	9783.795767
768.196665	9593.192261
768.522438	9400.327797
768.848165	9231.154236
769.173846	9065.464112
769.499479	8947.433056
769.825066	8784.692007
770.150607	8601.312474
770.476101	8540.445583
770.801548	8424.284795
771.126949	8282.734236
771.452303	8196.538067
771.777611	8042.573667
772.102872	8008.908842
772.428087	7891.326449
772.753256	7768.778519
773.078378	7677.702513
773.403453	7529.684154
773.728482	7425.047444
774.053465	7356.812907
774.378401	7266.170440
774.703291	7178.119126
775.028135	7075.985349
775.352932	7038.869854
775.677683	6954.112934
776.002388	6859.417380
776.327046	6865.174378
776.651658	6778.549711
776.976224	6706.436005
777.300743	6686.689805
777.625216	6618.798066
777.949643	6578.131078
778.274024	6580.145019
778.598359	6506.219018
778.922647	6509.883937
779.246889	6472.004707
779.571086	6476.466128
779.895236	6484.083312
780.219339	6481.338403
780.543397	6475.664585
780.867409	6528.324478
781.191374	6517.758219
781.515294	6490.805690
781.839167	6541.005500
782.162995	6506.798751
782.486776	6462.582790
782.810511	6422.140134
783.134201	6347.815882
783.457844	6340.796075
783.781441	6286.822962
784.104993	6245.276292
784.428498	6216.057764
784.751958	6204.679880
785.075372	6176.812382
785.398739	6140.382483
785.722061	6157.154402
786.045337	6161.141955
786.368568	6272.750581
786.691752	6295.871833
787.014891	6552.012860
787.337983	6829.929151
787.661030	7259.125427
787.984031	7672.111874
788.306987	7929.233405
788.629897	8008.646702
788.952760	7925.704597
789.275579	7752.417455
789.598351	7447.662061
789.921078	7191.795777
790.243759	6912.616677
790.566395	6707.812240
790.888984	6523.512696
791.211529	6380.328804
791.534027	6221.711418
791.856480	6081.907619
792.178888	6025.171953
792.501249	5955.581345
792.823566	5849.621333
793.145836	5849.596127
793.468062	5825.973280
793.790241	5788.454492
794.112375	5825.789278
794.434464	5921.772847
794.756507	5949.312670
795.078505	6069.271967
795.400457	6284.186438
795.722364	6516.933991
796.044226	6705.069852
796.366042	6860.498707
796.687812	6806.616335
797.009538	6837.223700
797.331218	6750.528457
797.652852	6682.649320
797.974442	6566.029788
798.295986	6495.297358
798.617484	6370.246496
798.938938	6258.920175
799.260346	6193.705288
799.581709	6052.931067
799.903026	5999.290670
800.224299	5927.734011
800.545526	5815.696888
800.866708	5749.912351
801.187845	5698.376635
801.508936	5620.742866
801.829983	5596.653712
802.150984	5483.772195
802.471940	5458.510973
802.792851	5442.517913
803.113717	5421.834058
803.434538	5391.385489
803.755314	5355.673955
804.076045	5346.062995
804.396731	5307.914064
804.717372	5326.301672
805.037967	5326.730170
805.358518	5348.817986
805.679024	5405.430144
805.999485	5411.141771
806.319901	5431.152631
806.640272	5440.539260
806.960598	5492.725284
807.280879	5480.157688
807.601115	5517.368965
807.921306	5480.019056
808.241453	5473.846163
808.561554	5489.587166
808.881611	5458.977280
809.201623	5456.401250
809.521590	5405.606584
809.841513	5394.939503
810.161390	5413.208644
810.481223	5323.914686
810.801011	5310.951359
811.120755	5291.434532
811.440453	5233.695676
811.760107	5212.681626
812.079716	5184.403274
812.399281	5128.910252
812.718801	5125.535200
813.038276	5094.264923
813.357707	5055.649684
813.677093	5078.954938
813.996434	5022.181464
814.315731	5038.169483
814.634983	5042.704001
814.954191	5050.346390
815.273354	5107.535760
815.592473	5151.247605
815.911547	5220.119849
816.230577	5273.709835
816.549562	5365.108475
816.868502	5413.881638
817.187399	5472.984126
817.506250	5558.270367
817.825058	5584.204582
818.143821	5744.833388
818.462539	5914.112814
818.781213	6148.521426
819.099843	6513.798393
819.418429	7152.938563
819.736970	7765.504290
820.055466	8477.685738
820.373919	9422.917207
820.692327	10943.130082
821.010691	13779.590746
821.329011	20182.236738
821.647286	29652.807973
821.965517	39624.865630
822.283704	44585.527373
822.601847	45794.000335
822.919945	41285.933384
823.237999	36337.078024
823.556010	31312.396148
823.873976	26745.579591
824.191897	22645.405001
824.509775	19636.947729
824.827609	16915.019560
825.145398	15395.925822
825.463144	14696.064954
825.780845	15037.504824
826.098502	16330.260837
826.416116	18738.082272
826.733685	20839.598158
827.051210	21188.902229
827.368692	19699.395023
827.686129	17188.247578
828.003522	14789.447288
828.320872	12641.953558
828.638177	11032.660974
828.955439	9814.269542
829.272656	8759.566896
829.589830	7932.333715
829.906960	7207.173816
830.224046	6682.399783
830.541088	6281.043279
830.858086	6025.885277
831.175041	5822.285676
831.491952	5772.952944
831.808819	5812.462988
832.125642	6069.113171
832.442421	6642.594833
832.759157	7782.097248
833.075849	9544.625785
833.392497	11320.117649
833.709101	12349.891789
834.025662	12029.864219
834.342179	10975.459002
834.658653	9709.844561
834.975083	8634.677351
835.291469	7758.953311
835.607811	7029.596652
835.924110	6516.228229
836.240366	6028.970463
836.556578	5583.236681
836.872746	5233.632662
837.188871	4957.284170
837.504952	4739.652517
837.820990	4576.273762
838.136984	4460.511226
838.452935	4419.198970
838.768842	4457.761276
839.084706	4763.398872
839.400526	5516.552298
839.716303	6404.261682
840.032037	6919.719662
840.347727	6737.963381
840.663373	6141.178986
840.978977	5583.960087
841.294537	5155.083923
841.610054	4824.454807
841.925527	4584.450513
842.240957	4380.109863
842.556344	4195.674208
842.871687	4037.117317
843.186987	3889.446797
843.502244	3770.921709
843.817458	3687.261240
844.132629	3615.114767
844.447756	3566.089546
844.762840	3521.525746
845.077881	3482.774396
845.392879	3445.842903
845.707833	3421.184099
846.022745	3391.229563
846.337613	3381.585835
846.652438	3357.353009
846.967221	3346.950588
847.281960	3326.334789
847.596656	3317.618634
847.911309	3306.588590
848.225919	3294.653658
848.540485	3285.783748
848.855009	3274.985596
849.169490	3261.840788
849.483928	3255.725868
849.798323	3251.428284
850.112675	3238.717015
850.426984	3241.466964
850.741251	3231.349368
851.055474	3228.039851
851.369654	3228.405335
851.683792	3228.009604
851.997887	3231.263669
852.311938	3231.188052
852.625947	3229.728637
852.939914	3221.027606
853.253837	3229.108576
853.567718	3225.940210
853.881555	3219.243037
854.195350	3226.474573
854.509103	3223.076835
854.822812	3225.085735
855.136479	3215.694065
855.450103	3221.866958
855.763685	3214.935372
856.077224	3215.575598
856.390720	3221.244376
856.704173	3237.010584
857.017584	3237.907910
857.330953	3244.045514
857.644278	3252.113881
857.957561	3255.753594
858.270802	3252.577667
858.584000	3251.128336
858.897155	3244.902511
859.210268	3233.859863
859.523339	3223.938872
859.836367	3223.558265
860.149352	3216.404868
860.462295	3211.691389
860.775195	3203.295347
861.088054	3199.612784
861.400869	3198.334852
861.713642	3197.997095
862.026373	3203.136551
862.339062	3208.296172
862.651708	3216.520814
862.964312	3234.936149
863.276873	3243.460741
863.589392	3271.809669
863.901869	3298.179945
864.214303	3320.471927
864.526696	3335.343331
864.839045	3355.069366
865.151353	3367.770553
865.463619	3367.246273
865.775842	3370.124772
866.088023	3373.393960
866.400162	3366.238043
866.712258	3370.873383
867.024313	3371.158209
867.336325	3368.834237
867.648296	3368.577138
867.960224	3367.153012
868.272110	3371.122921
868.583954	3373.086450
868.895755	3379.826473
869.207515	3374.220710
869.519233	3392.159656
869.830909	3399.134092
870.142542	3410.378386
870.454134	3416.064807
870.765684	3430.159873
871.077191	3450.027061
871.388657	3460.716827
871.700081	3479.424549
872.011463	3500.257118
872.322803	3519.534490
872.634101	3532.580996
872.945357	3553.849624
873.256571	3583.877257
873.567744	3601.624639
873.878874	3603.474742
874.189963	3619.745067
874.501010	3620.861682
874.812015	3619.692134
875.122979	3636.496821
875.433900	3631.574134
875.744780	3633.270482
876.055618	3646.556443
876.366415	3643.067965
876.677169	3648.948471
876.987882	3669.176101
877.298554	3688.662681
877.609183	3728.233218
877.919771	3774.997482
878.230317	3848.595807
878.540822	3954.616314
878.851285	4113.994913
879.161707	4341.398843
879.472087	4730.641454
879.782425	5381.507348
880.092722	6592.274035
880.402977	8525.700208
880.713191	10839.247025
881.023363	13101.540430
881.333494	14303.023832
881.643583	14706.154823
881.953631	14290.854487
882.263637	13498.692613
882.573602	12513.043692
882.883526	11595.150400
883.193408	10672.717548
883.503248	9784.798957
883.813048	8975.285431
884.122806	8222.633600
884.432522	7472.146945
884.742197	6823.894889
885.051831	6267.497698
885.361424	5782.616836
885.670975	5392.577722
885.980485	5076.164660
886.289954	4807.345131
886.599382	4587.656687
886.908768	4414.946757
887.218113	4245.969800
887.527417	4116.349132
887.836680	3991.633506
888.145901	3895.435688
888.455082	3815.397288
888.764221	3746.308275
889.073319	3686.505067
889.382376	3654.193791
889.691392	3628.413331
890.000366	3624.377887
890.309300	3617.544603
890.618193	3624.244296
890.927044	3613.869602
891.235855	3623.805716
891.544625	3643.314981
891.853353	3669.758354
892.162041	3729.332189
892.470687	3824.045388
892.779293	3946.973924
893.087858	4127.888333
893.396381	4413.177312
893.704864	4826.728367
894.013306	5391.733329
894.321707	5940.384787
894.630068	6257.067551
894.938387	6270.164469
895.246665	6091.442962
895.554903	5784.277896
895.863100	5460.139266
896.171256	5202.891706
896.479371	4966.990911
896.787446	4745.505297
897.095480	4553.180236
897.403473	4406.598606
897.711425	4262.993777
898.019336	4145.547495
898.327207	4020.456303
898.635038	3923.693876
898.942827	3819.778051
899.250576	3729.334710
899.558284	3648.794716
899.865952	3595.913012
900.173579	3532.772560
900.481165	3488.284377
900.788711	3445.827779
901.096216	3417.897267
901.403681	3390.753174
901.711105	3380.144065
902.018489	3372.582335
902.325832	3410.063313
902.633135	3474.960608
902.940397	3655.222187
903.247619	4078.842947
903.554800	4835.434440
903.861941	5771.498571
904.169041	6427.831596
904.476101	6603.409944
904.783121	6325.458365
905.090100	5940.289005
905.397039	5540.621287
905.703938	5190.452658
906.010796	4874.846181
906.317614	4629.155466
906.624391	4393.080752
906.931129	4199.001370
907.237826	4023.793547
907.544483	3851.260057
907.851099	3678.971062
908.157675	3521.659336
908.464211	3384.214797
908.770707	3283.590846
909.077163	3200.963814
909.383578	3146.418529
909.689954	3101.577466
909.996289	3071.338104
910.302584	3049.850186
910.608839	3037.421221
910.915054	3024.321783
911.221229	3019.704086
911.527363	3023.580733
911.833458	3033.789070
912.139513	3047.435473
912.445527	3058.372257
912.751502	3094.502206
913.057436	3138.703043
913.363331	3199.965665
913.669186	3289.834315
913.975000	3414.630599
914.280775	3600.606326
914.586510	3878.850292
914.892205	4257.894650
915.197859	4743.168722
915.503475	5309.517151
915.809050	5773.525115
916.114585	6036.469179
916.420081	6084.135809
916.725536	6023.354617
917.030952	5791.816942
917.336328	5591.862095
917.641665	5392.655860
917.946961	5168.876520
918.252218	4971.870748
918.557435	4752.633488
918.862612	4562.597112
919.167750	4394.275505
919.472848	4204.672668
919.777906	4038.667472
920.082925	3884.720716
920.387904	3733.753281
920.692843	3622.311014
920.997743	3528.207795
921.302603	3434.485183
921.607423	3368.559494
921.912204	3303.820996
922.216946	3253.699324
922.521647	3206.872046
922.826310	3164.894358
923.130932	3129.175262
923.435516	3091.558172
923.740059	3061.507854
924.044564	3029.965355
924.349028	3005.490553
924.653454	2978.792602
924.957840	2952.654219
925.262186	2934.231323
925.566493	2911.437745
925.870761	2884.845659
926.174989	2875.028012
926.479178	2856.970599
926.783328	2841.849658
927.087438	2831.353975
927.391509	2815.653302
927.695541	2806.090233
927.999533	2795.299643
928.303486	2788.337810
928.607400	2779.319185
928.911275	2774.202414
929.215110	2770.287958
929.518906	2766.103801
929.822663	2765.508944
930.126381	2763.714294
930.430060	2768.982299
930.733699	2770.935747
931.037299	2773.335336
931.340861	2772.432969
931.644383	2774.973711
931.947866	2774.991355
932.251309	2770.597989
932.554714	2769.993051
932.858080	2767.966507
933.161407	2765.226640
933.464694	2762.159098
933.767943	2758.370671
934.071153	2754.415885
934.374323	2751.081162
934.677455	2749.339443
934.980548	2744.850296
935.283602	2744.593197
935.586617	2741.611355
935.889593	2743.847106
936.192530	2745.016654
936.495428	2753.858838
936.798287	2762.743872
937.101108	2774.444390
937.403890	2793.688994
937.706632	2817.382417
938.009336	2847.427694
938.312002	2878.513970
938.614628	2900.465674
938.917216	2917.396389
939.219765	2930.735282
939.522275	2940.013526
939.824747	2939.675769
940.127179	2936.467074
940.429573	2927.052719
940.731929	2927.435847
941.034246	2916.839342
941.336524	2916.824218
941.638763	2910.336253
941.940964	2908.967580
942.243126	2889.100393
942.545250	2879.784340
942.847335	2865.875797
943.149381	2852.620083
943.451389	2840.843947
943.753359	2830.035714
944.055290	2818.856955
944.357182	2810.899494
944.659036	2805.520582
944.960851	2802.657207
945.262628	2795.823923
945.564367	2796.764098
945.866067	2798.092442
946.167729	2794.493058
946.469352	2791.672533
946.770937	2790.853345
947.072484	2782.928652
947.373992	2784.884619
947.675462	2778.968825
947.976893	2773.592435
948.278286	2773.738628
948.579641	2769.133534
948.880958	2766.345776
949.182236	2766.612957
949.483476	2762.123810
949.784678	2761.193717
950.085841	2762.701022
950.386967	2765.277051
950.688054	2770.484563
950.989103	2780.776079
951.290114	2787.576595
951.591087	2798.362144
951.892021	2811.509473
952.192917	2821.896771
952.493776	2831.094356
952.794596	2834.776919
953.095378	2837.408401
953.396122	2833.844305
953.696828	2834.237515
953.997496	2827.026145
954.298126	2818.677994
954.598718	2811.824545
954.899272	2799.927422
955.199788	2790.888633
955.500266	2778.812549
955.800706	2763.376536
956.101108	2746.846593
956.401472	2735.970303
956.701798	2723.735423
957.002087	2710.550285
957.302337	2702.668441
957.602550	2692.694518
957.902724	2683.564989
958.202861	2670.737773
958.502960	2665.028666
958.803022	2660.766370
959.103045	2651.783034
959.403031	2642.681231
959.702979	2637.834162
960.002889	2633.657566
960.302762	2628.205558
960.602596	2627.729169
960.902393	2621.205916
961.202153	2620.306070
961.501875	2616.956223
961.801559	2616.043774
962.101205	2613.366921
962.400814	2609.737291
962.700385	2609.303751
962.999918	2605.946343
963.299414	2603.743359
963.598873	2603.135900
963.898293	2603.307299
964.197677	2602.079778
964.497022	2599.632298
964.796331	2597.772112
965.095601	2594.298757
965.394835	2598.747575
965.694030	2597.696495
965.993189	2595.674992
966.292309	2593.855135
966.591393	2597.023501
966.890439	2593.842532
967.189447	2595.979982
967.488419	2592.801534
967.787353	2598.659355
968.086249	2594.460074
968.385108	2597.343614
968.683930	2597.416711
968.982714	2598.750096
969.281462	2599.586927
969.580172	2599.597010
969.878844	2602.566249
970.177480	2605.865684
970.476078	2606.359717
970.774639	2611.544544
971.073162	2612.310800
971.371649	2613.082096
971.670098	2615.222066
971.968510	2616.426902
972.266885	2615.789196
972.565223	2619.670884
972.863524	2623.429064
973.161788	2623.262706
973.460014	2623.086266
973.758204	2624.260855
974.056356	2623.156842
974.354471	2626.715897
974.652550	2623.610546
974.950591	2625.720269
975.248595	2624.749847
975.546563	2624.540639
975.844493	2622.115844
976.142386	2617.929166
976.440243	2618.193826
976.738062	2617.253651
977.035845	2613.986983
977.333590	2612.245265
977.631299	2609.107146
977.928971	2609.913731
978.226606	2605.210334
978.524204	2604.630602
978.821765	2602.238574
979.119290	2604.837289
979.416777	2604.461723
979.714228	2605.936261
980.011642	2606.092536
980.309020	2611.736108
980.606360	2611.176540
980.903664	2624.061729
981.200931	2636.830972
981.498162	2653.751605
981.795356	2680.961233
982.092513	2718.701831
982.389633	2759.134405
982.686717	2798.697381
982.983764	2830.920436
983.280775	2843.329236
983.577749	2846.366532
983.874686	2836.874039
984.171587	2818.690597
984.468451	2804.015798
984.765279	2787.281688
985.062070	2768.944491
985.358824	2750.309866
985.655543	2732.678430
985.952224	2711.109853
986.248869	2685.657067
986.545478	2660.277378
986.842050	2642.225007
987.138586	2623.610546
987.435086	2613.145111
987.731549	2599.314705
988.027975	2593.595516
988.324366	2590.185175
988.620719	2586.835329
988.917037	2578.845100
989.213318	2578.308217
989.509563	2575.795202
989.805772	2574.287897
990.101944	2572.742783
990.398080	2572.147927
990.694180	2572.891497
990.990244	2573.851837
991.286271	2574.434090
991.582262	2572.324367
991.878217	2574.045921
992.174136	2574.292938
992.470019	2574.418967
992.765865	2576.569019
993.061676	2576.458113
993.357450	2581.113619
993.653188	2584.801223
993.948890	2587.586461
994.244556	2596.915116
994.540186	2607.647732
994.835780	2615.912704
995.131337	2633.188738
995.426859	2647.240955
995.722345	2662.495486
996.017795	2680.628517
996.313208	2695.772143
996.608586	2703.671631
996.903928	2707.192877
997.199234	2705.108360
997.494504	2700.339428
997.789738	2693.808613
998.084936	2685.717561
998.380099	2672.177022
998.675225	2662.434992
998.970316	2650.913435
999.265371	2640.695016
999.560390	2625.803448
999.855373	2616.696603
1000.150320	2605.354007
1000.445232	2599.468460
1000.740108	2588.619897
1001.034948	2584.488672
1001.329752	2582.351222
1001.624521	2577.791499
1001.919254	2566.910168
1002.213951	2567.608368
1002.508613	2562.688202
1002.803239	2562.594940
1003.097829	2558.819116
1003.392384	2560.712069
1003.686903	2559.035886
1003.981386	2557.452963
1004.275834	2557.362223
1004.570246	2557.657130
1004.864623	2555.832232
1005.158964	2556.875751
1005.453270	2555.224773
1005.747540	2555.189485
1006.041775	2555.413817
1006.335974	2550.826367
1006.630138	2553.987170
1006.924266	2551.821995
1007.218359	2553.488096
1007.512416	2552.371480
1007.806438	2552.832746
1008.100425	2552.512633
1008.394376	2549.185471
1008.688292	2552.046326
1008.982172	2550.279402
1009.276017	2551.448949
1009.569827	2552.449618
1009.863602	2547.708413
1010.157341	2549.240924
1010.451045	2548.595656
1010.744714	2552.268137
1011.038347	2548.230173
1011.331945	2547.347971
1011.625508	2547.060625
1011.919036	2545.049204
1012.212528	2549.137580
1012.505986	2547.713454
1012.799408	2545.074410
1013.092795	2543.814122
1013.386147	2545.039122
1013.679464	2547.874771
1013.972745	2545.003834
1014.265992	2549.409803
1014.559204	2546.198587
1014.852380	2545.313865
1015.145521	2544.729091
1015.438628	2547.184133
1015.731699	2546.191026
1016.024736	2547.037940
1016.317737	2545.626417
1016.610703	2547.138763
1016.903635	2543.763710
1017.196531	2547.776469
1017.489393	2545.518032
1017.782219	2546.995090
1018.075011	2546.009544
1018.367768	2548.066335
1018.660490	2548.056253
1018.953177	2548.056253
1019.245829	2548.056253
