Dividing Wavelength (nm)	Counts (n)	Blue Motor Position (mm): 13.200000	Red Motor Position (mm): 0.000000	
326.493990	2060.879145
326.888308	2060.879145
327.282561	2060.879145
327.676750	2038.274611
328.070874	2040.008768
328.464933	2045.531352
328.858929	2054.171890
329.252859	2064.707901
329.646726	2078.863461
330.040528	2094.841398
330.434265	2113.617176
330.827938	2134.590897
331.221547	2154.841212
331.615091	2171.890394
332.008571	2193.398477
332.401986	2214.450335
332.795338	2235.315671
333.188625	2255.019021
333.581847	2273.267998
333.975006	2291.481687
334.368100	2304.750003
334.761129	2323.571151
335.154095	2340.582525
335.546996	2379.404451
335.939833	2457.403704
336.332606	2465.693881
336.725315	2479.579739
337.117960	2492.389311
337.510540	2497.133037
337.903056	2507.759789
338.295508	2514.668691
338.687896	2525.035824
339.080220	2527.614374
339.472480	2529.502286
339.864676	2534.505631
340.256807	2537.099305
340.648875	2538.551157
341.040879	2538.374717
341.432818	2539.826569
341.824694	2542.352187
342.216506	2541.686755
342.608253	2541.812784
342.999937	2541.432177
343.391557	2538.873791
343.783113	2535.569315
344.174605	2538.387320
344.566033	2534.077133
344.957397	2533.381454
345.348697	2528.146216
345.739934	2528.466329
346.131106	2530.460105
346.522215	2524.705628
346.913260	2524.763601
347.304241	2522.185051
347.695159	2520.508867
348.086012	2519.515760
348.476802	2516.793537
348.867528	2514.217508
349.258191	2508.750376
349.648789	2510.537465
350.039324	2504.949346
350.429796	2512.168278
350.820203	2512.778258
351.210548	2511.588546
351.600828	2509.796416
351.991045	2508.291631
352.381198	2507.064110
352.771288	2507.721981
353.161314	2504.089829
353.551276	2505.433297
353.941175	2506.403719
354.331010	2508.246261
354.720782	2510.855058
355.110490	2512.443021
355.500135	2508.480674
355.889717	2506.731394
356.279235	2509.972856
356.668689	2508.271467
357.058080	2511.303721
357.447408	2509.193998
357.836672	2512.851355
358.225873	2507.958915
358.615010	2512.352281
359.004084	2512.067455
359.393095	2512.352281
359.782043	2511.880933
360.170927	2512.291787
360.559748	2513.363032
360.948505	2512.170799
361.337199	2517.181706
361.725830	2512.705161
362.114398	2514.802281
362.502903	2517.090965
362.891344	2516.284381
363.279722	2513.970491
363.668037	2518.923425
364.056289	2517.509381
364.444478	2517.592560
364.832603	2517.910153
365.220665	2519.006604
365.608665	2517.466531
365.996601	2517.448887
366.384474	2519.999711
366.772284	2519.072139
367.160031	2520.513909
367.547715	2520.786131
367.935336	2517.272447
368.322893	2519.757736
368.710388	2517.247241
369.097820	2518.668846
369.485189	2515.921418
369.872495	2522.341327
370.259738	2522.389218
370.646918	2521.257479
371.034035	2524.181348
371.421090	2523.163035
371.808081	2520.728158
372.195010	2523.311749
372.581875	2524.453570
372.968678	2524.698066
373.355418	2524.594723
373.742096	2523.021883
374.128710	2526.298633
374.515262	2524.446009
374.901751	2527.074970
375.288177	2526.225536
375.674540	2528.279806
376.060841	2525.849970
376.447079	2524.892151
376.833254	2526.273427
377.219367	2527.629497
377.605417	2526.288550
377.991404	2525.860052
378.377329	2527.112779
378.763191	2529.368695
379.148991	2527.450536
379.534727	2526.112110
379.920402	2527.838705
380.306013	2527.589168
380.691563	2528.695701
381.077049	2526.596061
381.462474	2527.425331
381.847835	2528.670496
382.233134	2531.833820
382.618371	2527.692512
383.003545	2530.777698
383.388657	2528.355423
383.773706	2528.317615
384.158693	2528.312574
384.543618	2531.022194
384.928480	2526.371729
385.313280	2529.343490
385.698017	2530.865918
386.082692	2530.286185
386.467305	2531.430527
386.851856	2532.562266
387.236344	2530.976823
387.620770	2526.991791
388.005133	2527.642100
388.389435	2532.733666
388.773674	2529.915661
389.157851	2532.002698
389.541965	2533.298275
389.926018	2536.968235
390.310008	2532.796680
390.693936	2533.290713
391.077802	2532.554705
391.461606	2534.621578
391.845348	2537.308513
392.229027	2535.176105
392.612645	2533.754499
392.996200	2535.201310
393.379694	2534.046886
393.763125	2533.131917
394.146494	2533.406660
394.529801	2536.065868
394.913047	2533.830117
395.296230	2535.934798
395.679351	2536.391023
396.062410	2535.990251
396.445408	2537.041332
396.828343	2535.763399
397.211217	2535.216434
397.594028	2535.029911
397.976778	2536.017977
398.359466	2535.483615
398.742092	2536.181815
399.124656	2536.615354
399.507158	2536.832124
399.889598	2539.592155
400.271977	2535.982689
400.654294	2535.987730
401.036549	2537.116949
401.418742	2540.434028
401.800874	2537.147196
402.182944	2541.026364
402.564952	2537.651311
402.946898	2538.359593
403.328783	2538.717515
403.710606	2539.675334
404.092367	2539.065355
404.474067	2540.844882
404.855705	2539.912269
405.237282	2542.447969
405.618797	2541.046528
406.000250	2540.418905
406.381642	2541.449821
406.762972	2543.005017
407.144240	2536.116280
407.525447	2539.226672
407.906593	2535.879346
408.287677	2541.283463
408.668700	2542.074924
409.049661	2543.138607
409.430560	2544.320758
409.811399	2541.926210
410.192176	2544.719009
410.572891	2543.985521
410.953545	2542.803370
411.334138	2543.718340
411.714669	2546.185985
412.095139	2544.323278
412.475547	2544.693803
412.855894	2542.873947
413.236180	2541.351518
413.616405	2545.515511
413.996568	2542.828576
414.376670	2546.062476
414.756711	2543.312527
415.136691	2546.324616
415.516609	2546.122970
415.896466	2548.953578
416.276262	2544.776982
416.655997	2545.031560
417.035670	2544.562733
417.415283	2547.068187
417.794834	2543.930068
418.174324	2545.608773
418.553753	2544.242620
418.933121	2547.257230
419.312428	2543.322609
419.691674	2543.113401
420.070859	2546.208670
420.449983	2544.867723
420.829045	2544.373690
421.208047	2547.658002
421.586988	2543.002496
421.965867	2547.557178
422.344686	2544.401416
422.723444	2544.560212
423.102141	2545.923845
423.480777	2546.455686
423.859352	2548.066335
424.237866	2545.666746
424.616319	2548.303269
424.994712	2548.946016
425.373044	2547.027857
425.751314	2542.417722
426.129524	2542.942002
426.507673	2541.994265
426.885762	2541.046528
427.263789	2546.468289
427.641756	2546.818649
428.019662	2545.152548
428.397508	2546.392672
428.775292	2545.986859
429.153016	2547.410985
429.530679	2545.870912
429.908282	2546.301931
430.285824	2547.463917
430.663305	2545.954092
431.040726	2547.148845
431.418086	2546.463248
431.795385	2547.947868
432.172624	2543.289842
432.549802	2546.135573
432.926920	2547.358053
433.303977	2547.121119
433.680974	2545.898639
434.057910	2546.022147
434.434786	2546.654812
434.811601	2547.443753
435.188355	2545.036602
435.565050	2545.553320
435.941683	2546.342260
436.318257	2548.436860
436.694770	2547.879812
437.071222	2547.728578
437.447614	2547.012734
437.823946	2546.864020
438.200218	2547.700851
438.576429	2545.457538
438.952580	2546.632127
439.328670	2544.577857
439.704700	2548.114226
440.080670	2547.232024
440.456580	2546.168341
440.832429	2546.790923
441.208218	2545.873433
441.583947	2546.417878
441.959616	2546.301931
442.335224	2546.624565
442.710773	2549.888712
443.086261	2547.337888
443.461689	2546.667415
443.837057	2548.744370
444.212365	2548.048691
444.587612	2546.490974
444.962800	2542.261446
445.337927	2547.239586
445.712995	2544.141797
446.088002	2547.045501
446.462949	2546.748073
446.837837	2546.627086
447.212664	2545.087013
447.587431	2548.855276
447.962139	2546.982487
448.336786	2549.593805
448.711374	2546.445604
449.085901	2547.146324
449.460369	2548.436860
449.834776	2547.741181
450.209124	2549.155224
450.583412	2548.096582
450.957640	2549.873589
451.331808	2547.287477
451.705917	2548.235214
452.079965	2550.032385
452.453954	2549.311500
452.827883	2548.540203
453.201752	2545.591128
453.575562	2550.201264
453.949311	2548.676315
454.323001	2548.530121
454.696632	2549.288815
455.070202	2548.671273
455.443713	2552.121943
455.817164	2551.201933
456.190556	2550.352498
456.563888	2547.794113
456.937160	2548.146993
457.310373	2546.974925
457.683526	2545.835624
458.056619	2549.356870
458.429653	2547.136242
458.802628	2549.460214
459.175542	2552.215205
459.548398	2548.603218
459.921194	2551.360729
460.293930	2550.493651
460.666607	2550.559186
461.039224	2550.372663
461.411782	2549.220759
461.784280	2549.732436
462.156719	2549.220759
462.529099	2551.569937
462.901419	2548.741850
463.273680	2547.209339
463.645882	2542.352187
464.018024	2547.085831
464.390106	2546.526262
464.762130	2548.946016
465.134094	2547.632796
465.505999	2552.179917
465.877845	2553.014228
466.249631	2553.500699
466.621358	2555.088662
466.993026	2550.617159
467.364634	2554.297201
467.736184	2552.512633
468.107674	2554.947510
468.479105	2553.049516
468.850477	2551.595143
469.221790	2552.270657
469.593043	2548.683876
469.964238	2551.136398
470.335373	2551.093548
470.706449	2552.089176
471.077467	2551.375853
471.448425	2553.611604
471.819324	2554.556821
472.190164	2550.453321
472.560945	2551.728733
472.931667	2548.182282
473.302330	2551.239741
473.672934	2553.886347
474.043479	2554.297201
474.413965	2554.337530
474.784393	2551.958106
475.154761	2553.180586
475.525070	2552.714279
475.895321	2552.880637
476.265513	2553.273847
476.635645	2553.452808
477.005719	2554.135884
477.375734	2552.588250
477.745691	2553.510781
478.115588	2556.464897
478.485427	2555.882644
478.855207	2556.694270
479.224928	2555.912891
479.594591	2556.714434
479.964194	2557.299208
480.333739	2555.406255
480.703226	2554.370298
481.072653	2558.100752
481.442022	2556.727037
481.811333	2552.830225
482.180584	2553.833415
482.549777	2556.734599
482.918912	2553.735113
483.287988	2558.655279
483.657005	2558.965310
484.025964	2559.766853
484.394864	2558.740978
484.763706	2558.004970
485.132489	2558.133519
485.501213	2558.098231
485.869879	2557.788200
486.238487	2557.831050
486.607036	2557.284085
486.975527	2556.835422
487.343959	2556.149825
487.712333	2556.797613
488.080648	2557.442881
488.448905	2556.447253
488.817104	2558.526729
489.185244	2559.066133
489.553326	2561.012018
489.921350	2560.717111
490.289315	2562.526885
490.657222	2560.253324
491.025070	2564.608881
491.392861	2563.635939
491.760593	2563.817420
492.128267	2561.059909
492.495883	2563.401525
492.863440	2561.029662
493.230939	2561.470763
493.598380	2562.451267
493.965763	2562.272307
494.333088	2561.742985
494.700354	2562.683161
495.067563	2560.931360
495.434713	2562.315156
495.801805	2562.360527
496.168839	2562.426062
496.535815	2563.421690
496.902733	2563.920764
497.269593	2562.736093
497.636395	2564.649211
498.003139	2564.119889
498.369825	2566.716084
498.736453	2562.713407
499.103023	2562.393294
499.469535	2565.503686
499.835989	2562.821792
500.202385	2563.552760
500.568723	2562.007646
500.935003	2566.083419
501.301226	2561.145609
501.667390	2567.356310
502.033497	2570.592731
502.399546	2568.740107
502.765537	2566.511917
503.131470	2571.280848
503.497345	2572.316806
503.863163	2569.813873
504.228923	2570.688513
504.594625	2570.501990
504.960269	2572.936867
505.325856	2573.511559
505.691385	2572.846127
506.056856	2572.200859
506.422270	2574.424008
506.787625	2575.182702
507.152924	2576.042218
507.518164	2573.173802
507.883347	2577.473906
508.248472	2577.970460
508.613540	2576.526169
508.978550	2579.129925
509.343503	2581.526994
509.708398	2582.119329
510.073236	2580.891808
510.438016	2580.241499
510.802738	2581.642940
511.167403	2588.710638
511.532010	2585.605287
511.896561	2587.558734
512.261053	2586.295925
512.625488	2589.197109
512.989866	2589.930597
513.354186	2590.432192
513.718449	2593.527460
514.082655	2591.773139
514.446803	2594.434868
514.810894	2596.998295
515.174927	2598.195569
515.538904	2597.444437
515.902822	2599.937287
516.266684	2599.675148
516.630488	2601.598348
516.994235	2601.736979
517.357925	2605.240581
517.721558	2607.090685
518.085133	2606.803339
518.448651	2608.832403
518.812112	2607.020109
519.175516	2608.792074
519.538863	2606.740325
519.902152	2614.208794
520.265385	2615.577467
520.628560	2618.347581
520.991678	2619.784310
521.354739	2619.799434
521.717743	2625.165742
522.080690	2626.519292
522.443580	2627.560290
522.806413	2628.480301
523.169189	2628.024076
523.531908	2631.830147
523.894569	2630.322842
524.257174	2633.758389
524.619722	2635.565642
524.982213	2637.022536
525.344647	2636.745272
525.707025	2639.646456
526.069345	2643.318937
526.431608	2643.442445
526.793815	2646.111736
527.155964	2648.423105
527.518057	2648.334885
527.880093	2648.657519
528.242072	2652.423261
528.603995	2650.686583
528.965860	2654.580875
529.327669	2654.578354
529.689421	2658.006339
530.051117	2659.359888
530.412755	2661.202430
530.774337	2661.590599
531.135862	2665.013543
531.497331	2668.176867
531.858743	2666.919099
532.220098	2669.137206
532.581396	2670.258863
532.942638	2672.119049
533.303824	2674.243895
533.664953	2677.127435
534.026025	2675.582322
534.387040	2679.572395
534.747999	2683.217149
535.108902	2684.200174
535.469748	2684.558096
535.830537	2682.720595
536.191270	2689.644620
536.551947	2686.619928
536.912567	2689.339630
537.273131	2690.143694
537.633638	2687.837367
537.994089	2697.319777
538.354483	2696.987061
538.714821	2700.677185
539.075103	2705.030222
539.435328	2703.810262
539.795497	2705.879656
540.155609	2706.837475
540.515665	2708.939637
540.875665	2709.597507
541.235609	2712.297045
541.595496	2715.304093
541.955328	2717.973384
542.315102	2714.237889
542.674821	2716.077910
543.034483	2719.004300
543.394090	2720.932542
543.753640	2722.049157
544.113134	2726.553428
544.472571	2727.531412
544.831953	2734.876373
545.191278	2734.599110
545.550548	2730.432596
545.909761	2735.435941
546.268918	2738.765623
546.628019	2741.374420
546.987064	2739.017681
547.346053	2740.398957
547.704986	2743.839545
548.063863	2744.991448
548.422684	2749.770462
548.781449	2748.812643
549.140158	2750.715678
549.498811	2754.388159
549.857408	2750.531676
550.215949	2757.596853
550.574434	2758.622728
550.932864	2760.150198
551.291237	2769.418359
551.649555	2770.666045
552.007817	2772.395161
552.366022	2772.185953
552.724173	2775.379524
553.082267	2779.505708
553.440305	2785.981070
553.798288	2786.270937
554.156215	2787.448046
554.514086	2793.774694
554.871902	2792.489200
555.229661	2799.125879
555.587365	2800.214768
555.945014	2808.426808
556.302606	2813.225986
556.660143	2818.758652
557.017625	2822.907522
557.375050	2827.053871
557.732421	2832.281548
558.089735	2839.576097
558.446994	2843.059535
558.804197	2853.802233
559.161345	2856.287522
559.518437	2855.743078
559.875474	2865.522916
560.232455	2873.351828
560.589381	2883.202243
560.946251	2888.724827
561.303065	2900.758061
561.659825	2908.909607
562.016528	2911.430184
562.373177	2917.532500
562.729770	2928.015580
563.086307	2933.162598
563.442789	2950.312603
563.799216	2960.581434
564.155587	2967.873463
564.511904	2977.892756
564.868164	2988.590084
565.224370	3001.543329
565.580520	3010.942561
565.936615	3023.742050
566.292654	3034.320912
566.648638	3051.244065
567.004567	3064.260324
567.360441	3078.678024
567.716260	3092.526074
568.072023	3110.724639
568.427732	3124.053450
568.783385	3133.593834
569.138982	3158.653409
569.494525	3177.426666
569.850013	3189.003676
570.205445	3208.833055
570.560823	3223.258317
570.916145	3239.934453
571.271412	3261.659306
571.626625	3277.173457
571.981782	3299.639359
572.336884	3313.691575
572.691931	3338.443641
573.046923	3356.052391
573.401860	3374.165257
573.756743	3400.923702
574.111570	3424.390273
574.466342	3452.436732
574.821059	3479.921103
575.175722	3492.390397
575.530330	3522.591950
575.884882	3543.784960
576.239380	3569.106676
576.593823	3598.746140
576.948211	3622.454687
577.302544	3639.927326
577.656823	3671.616019
578.011047	3707.773695
578.365216	3737.942480
578.719330	3758.911160
579.073389	3788.356539
579.427394	3826.523115
579.781344	3860.729864
580.135239	3887.720202
580.489080	3925.460800
580.842866	3944.443265
581.196597	4000.856297
581.550273	4038.160836
581.903895	4073.378337
582.257463	4132.145588
582.610975	4153.812467
582.964434	4211.248853
583.317837	4231.325248
583.671186	4270.021145
584.024481	4323.565761
584.377721	4344.902444
584.730906	4400.859252
585.084037	4449.884473
585.437113	4483.546778
585.790135	4533.607956
586.143103	4560.278181
586.496016	4611.886993
586.848874	4666.041588
587.201679	4713.718301
587.554428	4738.924070
587.907124	4804.509482
588.259765	4843.893496
588.612352	4902.073453
588.964884	4928.017751
589.317362	4994.734902
589.669786	5043.903796
590.022155	5090.973049
590.374470	5172.538918
590.726731	5200.469431
591.078937	5208.857911
591.431090	5283.865239
591.783188	5305.244773
592.135232	5350.988203
592.487222	5422.905303
592.839157	5492.183360
593.191038	5521.623699
593.542866	5563.477878
593.894639	5576.552111
594.246358	5657.497918
594.598022	5711.085384
594.949633	5736.775104
595.301190	5794.246778
595.652692	5847.816599
596.004141	5943.154901
596.355535	5916.598103
596.706876	5968.126257
597.058162	6003.137070
597.409395	6110.027176
597.760573	6190.032808
598.111698	6217.297888
598.462768	6273.486589
598.813785	6336.017061
599.164748	6357.472212
599.515657	6452.243384
599.866511	6471.102340
600.217312	6600.654953
600.568060	6563.589869
600.918753	6710.529422
601.269392	6771.983608
601.619978	6807.901829
601.970510	6898.239306
602.320988	6982.625701
602.671412	7079.246976
603.021783	7138.261243
603.372100	7154.415621
603.722363	7243.734785
604.072572	7315.548542
604.422728	7384.677884
604.772830	7432.180677
605.122878	7526.417487
605.472872	7588.423679
605.822813	7689.128289
606.172701	7742.390600
606.522534	7861.838219
606.872314	7965.305382
607.222041	8017.433433
607.571714	8146.703741
607.921333	8156.413003
608.270899	8265.155733
608.620411	8404.064727
608.969870	8451.161707
609.319276	8528.606433
609.668627	8628.920353
610.017926	8771.942929
610.367171	8876.882108
610.716362	8974.264597
611.065500	9039.734063
611.414585	9175.827572
611.763616	9288.749418
612.112594	9364.712045
612.461518	9480.885436
612.810389	9644.178491
613.159207	9701.440958
613.507971	9789.396489
613.856682	9970.993974
614.205340	10041.880159
614.553945	10272.759964
614.902496	10242.155119
615.250994	10423.034240
615.599439	10539.633608
615.947830	10660.850672
616.296169	10768.267578
616.644454	10887.528676
616.992686	11020.320230
617.340864	11222.909079
617.688990	11240.767367
618.037063	11497.518373
618.385082	11573.914539
618.733048	11758.466140
619.080961	11842.093842
619.428821	11957.105246
619.776628	12068.416443
620.124382	12127.032460
620.472083	12261.006164
620.819731	12396.046073
621.167326	12393.422152
621.514868	12495.838234
621.862357	12466.929737
622.209793	12588.887852
622.557176	12583.781163
622.904506	12619.205351
623.251783	12630.172381
623.599007	12657.240857
623.946179	12739.651119
624.293297	12774.460287
624.640363	12728.142165
624.987376	12790.657514
625.334336	12840.625431
625.681243	12828.519100
626.028097	12908.963312
626.374899	12971.022437
626.721647	13069.763517
627.068343	13113.112399
627.414987	13134.232313
627.761577	13171.962829
628.108115	13368.368703
628.454600	13267.464968
628.801032	13428.262652
629.147412	13510.544365
629.493739	13587.008587
629.840014	13568.285742
630.186236	13792.722952
630.532405	13731.147778
630.878521	13914.076128
631.224585	13952.179689
631.570597	13951.834370
631.916556	14107.280870
632.262462	14180.934648
632.608316	14262.235857
632.954117	14328.315301
633.299866	14416.785031
633.645562	14487.691380
633.991206	14415.313014
634.336797	14366.587741
634.682336	14429.599644
635.027823	14448.846769
635.373257	14496.926774
635.718639	14480.963960
636.063968	14536.787177
636.409245	14395.808789
636.754470	14486.148787
637.099642	14496.115148
637.444762	14391.425506
637.789829	14522.959292
638.134845	14489.478469
638.479808	14547.517273
638.824719	14621.599550
639.169577	14525.983985
639.514383	14653.487368
639.859137	14591.531587
640.203839	14749.158386
640.548489	14736.653804
640.893086	14824.385004
641.237632	14801.170491
641.582125	14945.365135
641.926566	14948.132728
642.270955	15052.746753
642.615292	15123.748884
642.959576	15173.192521
643.303809	15259.658392
643.647990	15382.448297
643.992118	15459.764473
644.336195	15503.022614
644.680219	15627.133302
645.024192	15812.720860
645.368112	16130.658871
645.711981	16239.711632
646.055797	16660.153945
646.399562	16681.651945
646.743274	17160.811098
647.086935	17454.526365
647.430544	17534.748767
647.774101	17663.288107
648.117606	17906.065036
648.461059	18066.005724
648.804460	17979.953228
649.147810	17833.331268
649.491108	17756.640194
649.834354	17779.138864
650.177548	17471.391545
650.520690	17321.901169
650.863781	17399.897901
651.206820	17414.234943
651.549807	17303.057336
651.892742	17103.049557
652.235626	17135.595246
652.578458	17166.237900
652.921238	16896.931900
653.263967	17142.365516
653.606644	17081.264211
653.949269	17122.314327
654.291843	17005.893920
654.634365	17269.710103
654.976836	17125.064276
655.319255	17235.957058
655.661622	17248.002895
656.003938	17272.737316
656.346203	17249.346362
656.688416	17472.462790
657.030577	17427.712468
657.372687	17415.906085
657.714746	17578.695025
658.056753	17778.848998
658.398708	17513.275972
658.740612	17640.917987
659.082465	17822.349114
659.424266	17848.668978
659.766016	17924.649249
660.107715	17930.801978
660.449362	18061.466165
660.790958	18141.111354
661.132503	18173.586467
661.473996	18303.998597
661.815438	18432.301003
662.156829	18578.857428
662.498168	18540.771511
662.839456	18601.903063
663.180693	18765.281818
663.521879	18902.726357
663.863013	18946.516340
664.204097	19008.514970
664.545129	19327.819134
664.886110	19375.936948
665.227040	19522.639566
665.567918	19590.110369
665.908746	19706.923986
666.249522	19823.203240
666.590248	19918.108003
666.930922	20052.767304
667.271545	20128.193048
667.612118	20247.071018
667.952639	20194.595127
668.293109	20303.892383
668.633528	20291.846546
668.973896	20339.243474
669.314213	20402.807383
669.654480	20348.993066
669.994695	20425.323697
670.334859	20441.473033
670.674973	20408.171171
671.015035	20599.147723
671.355047	20637.304216
671.695008	20647.242851
672.034918	20664.080305
672.374777	20798.671551
672.714585	20783.323758
673.054342	20925.335582
673.394049	20890.208822
673.733705	21101.050041
674.073310	20976.215948
674.412864	21084.550344
674.752368	20950.536310
675.091820	21179.150117
675.431223	20957.472938
675.770574	20899.938249
676.109875	20857.164059
676.449125	20785.546907
676.788324	20779.089189
677.127473	20508.956439
677.466571	20500.081488
677.805619	20371.690861
678.144616	20389.234077
678.483562	20409.953219
678.822458	20240.406612
679.161303	20255.885475
679.500098	20253.291801
679.838842	20258.537122
680.177535	20377.468023
680.516179	20603.813311
680.854771	20751.778738
681.193314	21358.776511
681.531805	22140.737610
681.870247	22734.393969
682.208638	23318.325943
682.546978	23582.152209
682.885268	23747.338217
683.223508	23471.536690
683.561697	23319.452641
683.899836	23271.107975
684.237925	23000.967664
684.575963	22941.625722
684.913951	22732.004462
685.251889	22895.063104
685.589776	22958.085089
685.927614	23007.203571
686.265401	23190.777189
686.603137	23322.434483
686.940824	23748.701849
687.278460	24033.012844
687.616046	24191.539488
687.953582	24720.815272
688.291068	24711.600043
688.628504	24998.262736
688.965889	25055.747013
689.303224	24909.273767
689.640510	24750.626135
689.977745	24324.048738
690.314930	23800.371156
690.652065	23538.372308
690.989150	23066.258168
691.326185	22478.714208
691.663170	22039.473432
692.000105	21505.307729
692.336990	21083.090930
692.673825	20791.492948
693.010610	20452.480393
693.347345	20089.938252
693.684030	19635.742893
694.020665	19511.745632
694.357251	19011.884982
694.693786	19048.594664
695.030272	18897.511283
695.366707	18540.111119
695.703093	18343.435543
696.039429	18437.624462
696.375716	18252.357017
696.711952	18287.819013
697.048139	18202.215180
697.384276	18089.454651
697.720363	18212.010142
698.056400	18152.819434
698.392388	18033.454993
698.728326	18071.107371
699.064214	17963.463613
699.400053	18006.928442
699.735842	17714.140747
700.071581	17580.703925
700.407270	17399.131646
700.742910	17281.801311
701.078501	17102.820185
701.414042	16958.199563
701.749533	16727.367649
702.084974	16503.875655
702.420366	16723.312041
702.755709	16404.053247
703.091002	16170.531878
703.426246	16252.052376
703.761440	16221.697068
704.096584	16045.168464
704.431679	16011.760737
704.766725	15987.870709
705.101721	15951.445852
705.436668	16069.502113
705.771565	15867.185486
706.106413	16144.045655
706.441212	16223.844600
706.775961	16330.162535
707.110661	16409.361582
707.445311	16744.525216
707.779913	16652.025084
708.114465	16920.451403
708.448967	17216.697329
708.783421	17777.137526
709.117825	18113.382488
709.452180	18321.493921
709.786485	18721.801866
710.120742	19392.219875
710.454949	19484.278906
710.789107	19923.176883
711.123216	20530.434275
711.457275	20719.606094
711.791286	21207.070547
712.125247	21340.507369
712.459159	21132.509361
712.793023	21803.645735
713.126837	20944.255033
713.460602	21205.127182
713.794318	20935.228847
714.127985	20745.827656
714.461602	20002.133955
714.795171	20023.090032
715.128691	19199.400781
715.462162	18766.075799
715.795584	18405.774452
716.128957	18203.488071
716.462281	17885.018218
716.795556	17650.644894
717.128782	17244.111124
717.461960	16731.753453
717.795088	16719.589149
718.128167	16439.860563
718.461198	16049.907148
718.794180	15961.303828
719.127113	15684.226889
719.459997	15521.450552
719.792833	15209.924889
720.125619	15253.593884
720.458357	14973.509897
720.791046	14859.370612
721.123686	14743.018261
721.456278	14537.959246
721.788821	14555.971288
722.121315	14328.378316
722.453761	14426.257359
722.786158	14329.835209
723.118506	14407.579884
723.450805	14314.459690
723.783056	14476.071520
724.115259	14398.362134
724.447412	14397.570673
724.779518	14595.178862
725.111574	14662.422813
725.443582	14896.322270
725.775542	14868.510224
726.107453	15347.918913
726.439315	15278.391320
726.771129	15648.081816
727.102895	16028.701535
727.434612	16277.414421
727.766281	16428.936382
728.097901	16712.007253
728.429473	16801.699463
728.760996	16831.585943
729.092471	16951.139427
729.423897	16867.156325
729.755276	16769.236952
730.086606	16886.761372
730.417887	17425.317920
730.749120	17959.539075
731.080305	18172.595881
731.411442	18547.970278
731.742530	18687.499334
732.073570	18861.482157
732.404562	19157.634822
732.735506	19024.891158
733.066401	18837.506429
733.397249	18396.536537
733.728048	17840.920725
734.058798	17055.526600
734.389501	16397.860190
734.720156	15935.846001
735.050762	15414.910807
735.381320	15072.024125
735.711831	14834.381612
736.042293	14496.021887
736.372707	14526.518347
736.703073	14335.481301
737.033391	14522.656823
737.363661	14529.409449
737.693883	14647.168282
738.024056	14832.965048
738.354182	15027.097362
738.684260	15356.546848
739.014290	15610.424397
739.344272	15826.972202
739.674207	16144.701005
740.004093	16309.939946
740.333931	16364.013883
740.663722	16447.475226
740.993464	16500.457753
741.323159	16375.585851
741.652806	16118.187057
741.982405	15967.756505
742.311956	15649.896632
742.641460	15564.575103
742.970915	15273.745896
743.300323	14969.174504
743.629683	14769.055820
743.958996	14488.692049
744.288260	14205.046487
744.617477	13918.966047
744.946647	13889.051840
745.275768	13604.254374
745.604842	13417.283019
745.933869	13260.031787
746.262847	13232.244947
746.591778	13152.032627
746.920662	13051.643090
747.249498	13066.222107
747.578286	13217.020662
747.907027	13383.550138
748.235720	13646.179130
748.564365	13709.662381
748.892963	13641.563954
749.221514	13744.224531
749.550017	13620.980923
749.878473	13604.120784
750.206881	13390.706056
750.535242	13322.106035
750.863555	13250.955189
751.191821	13151.221002
751.520039	13187.971013
751.848210	13118.755971
752.176334	13165.542920
752.504411	13099.440790
752.832440	12934.045573
753.160421	13053.301629
753.488356	12934.847117
753.816243	12853.157739
754.144082	12699.450438
754.471875	12645.701656
754.799620	12618.257614
755.127318	12604.419647
755.454969	12595.063265
755.782572	12568.060325
756.110129	12582.122623
756.437638	12501.128925
756.765100	12500.914676
757.092515	12535.547403
757.419882	12574.409658
757.747203	12574.447467
758.074477	12672.197960
758.401703	12654.400167
758.728882	12846.538704
759.056014	12895.049728
759.383099	13062.577352
759.710138	13190.181559
760.037129	13302.211121
760.364073	13363.176315
760.690970	13389.838978
761.017820	13425.734514
761.344623	13642.428512
761.671379	14009.840407
761.998088	14697.552094
762.324751	16405.900830
762.651366	19692.929743
762.977935	23981.799762
763.304456	26822.497516
763.630931	27844.382251
763.957359	26714.125311
764.283740	24546.315732
764.610074	22379.902551
764.936362	19862.224292
765.262602	18052.412252
765.588796	16198.248141
765.914943	14965.623012
766.241044	13907.517587
766.567097	13142.651040
766.893104	12451.324846
767.219064	12006.281702
767.544978	11550.120293
767.870845	11177.490804
768.196665	10967.620007
768.522438	10743.069371
768.848165	10556.327388
769.173846	10354.787099
769.499479	10230.827646
769.825066	10069.130116
770.150607	9850.686838
770.476101	9774.479715
770.801548	9652.703082
771.126949	9503.280762
771.452303	9402.886183
771.777611	9208.539620
772.102872	9196.309780
772.428087	9065.340603
772.753256	8908.127180
773.078378	8828.091301
773.403453	8650.874578
773.728482	8541.738639
774.053465	8468.258780
774.378401	8375.458700
774.703291	8249.182837
775.028135	8130.272100
775.352932	8105.341074
775.677683	8006.050508
776.002388	7902.122080
776.327046	7907.256495
776.651658	7817.276940
776.976224	7714.432360
777.300743	7714.059315
777.625216	7633.080740
777.949643	7590.956859
778.274024	7601.429856
778.598359	7517.237545
778.922647	7539.007768
779.246889	7488.361816
779.571086	7493.584452
779.895236	7496.810790
780.219339	7512.471134
780.543397	7516.257041
780.867409	7591.672703
781.191374	7609.530990
781.515294	7568.599341
781.839167	7660.192066
782.162995	7637.663149
782.486776	7591.208916
782.810511	7548.651496
783.134201	7460.209492
783.457844	7457.381405
783.781441	7404.887870
784.104993	7341.560896
784.428498	7312.264230
784.751958	7305.027654
785.075372	7274.503467
785.398739	7220.036320
785.722061	7268.524659
786.045337	7271.894670
786.368568	7428.387209
786.691752	7454.384439
787.014891	7789.875748
787.337983	8141.909604
787.661030	8713.263898
787.984031	9329.827261
788.306987	9723.218742
788.629897	9929.197768
788.952760	9880.843020
789.275579	9670.725207
789.598351	9282.453017
789.921078	8937.285213
790.243759	8534.809573
790.566395	8254.612160
790.888984	8007.081423
791.211529	7799.269938
791.534027	7574.164775
791.856480	7379.427523
792.178888	7315.409910
792.501249	7211.027778
792.823566	7057.126393
793.145836	7064.201652
793.468062	7038.146448
793.790241	6989.607699
794.112375	7054.724283
794.434464	7208.918056
794.756507	7250.825167
795.078505	7401.089361
795.400457	7704.571863
795.722364	8054.440543
796.044226	8331.981268
796.366042	8601.030170
796.687812	8556.259682
797.009538	8637.195407
797.331218	8535.895941
797.652852	8454.236811
797.974442	8301.459602
798.295986	8217.191675
798.617484	8027.732510
798.938938	7887.248155
799.260346	7790.931870
799.581709	7591.254287
799.903026	7519.248966
800.224299	7411.799292
800.545526	7239.001141
800.866708	7148.066287
801.187845	7084.126813
801.508936	6977.937427
801.829983	6941.774710
802.150984	6791.656711
802.471940	6746.442602
802.792851	6732.869295
803.113717	6698.939809
803.434538	6669.577608
803.755314	6607.861283
804.076045	6615.705318
804.396731	6560.106432
804.717372	6589.443427
805.037967	6591.903510
805.358518	6634.508822
805.679024	6710.317693
805.999485	6725.317647
806.319901	6759.310147
806.640272	6784.072295
806.960598	6861.847216
807.280879	6866.734615
807.601115	6951.088242
807.921306	6897.858699
808.241453	6908.455204
808.561554	6928.831548
808.881611	6895.610344
809.201623	6902.602424
809.521590	6847.868097
809.841513	6834.811508
810.161390	6875.080245
810.481223	6748.267499
810.801011	6729.685806
811.120755	6703.171858
811.440453	6628.288038
811.760107	6600.783503
812.079716	6569.891312
812.399281	6505.694738
812.718801	6495.887173
813.038276	6449.037210
813.357707	6389.367592
813.677093	6433.356701
813.996434	6339.891188
814.315731	6382.158742
814.634983	6373.785386
814.954191	6392.266256
815.273354	6490.747717
815.592473	6554.457819
815.911547	6679.175965
816.230577	6762.254181
816.549562	6911.051398
816.868502	7007.574371
817.187399	7111.175124
817.506250	7257.045951
817.825058	7289.853781
818.143821	7553.453195
818.462539	7824.813465
818.781213	8186.783435
819.099843	8734.945901
819.418429	9728.249814
819.736970	10683.888745
820.055466	11847.006446
820.373919	13372.353736
820.692327	15714.436004
821.010691	19830.018880
821.329011	28699.540904
821.647286	41435.587598
821.965517	54723.764147
822.283704	60212.164121
822.601847	62247.187188
822.919945	59530.257323
823.237999	55291.072915
823.556010	49138.689965
823.873976	42512.667926
824.191897	36064.573412
824.509775	31292.922171
824.827609	26846.316968
825.145398	24306.046778
825.463144	22954.271456
825.780845	23268.789044
826.098502	25027.577045
826.416116	28770.391801
826.733685	32337.776923
827.051210	33446.987045
827.368692	31658.617553
827.686129	27757.566020
828.003522	23706.431774
828.320872	20061.743079
828.638177	17245.252945
828.955439	15116.219921
829.272656	13327.976458
829.589830	11867.266843
829.906960	10614.961049
830.224046	9682.859264
830.541088	8946.510525
830.858086	8491.692584
831.175041	8114.803319
831.491952	8003.560177
831.808819	8047.791261
832.125642	8453.223539
832.442421	9334.974279
832.759157	11123.006013
833.075849	14007.299665
833.392497	17169.358374
833.709101	19318.445109
834.025662	19152.656682
834.342179	17471.527656
834.658653	15310.125383
834.975083	13411.089962
835.291469	11810.649644
835.607811	10507.644966
835.924110	9614.050035
836.240366	8748.554496
836.556578	7948.369625
836.872746	7314.298336
837.188871	6815.519012
837.504952	6406.910808
837.820990	6098.722388
838.136984	5879.336414
838.452935	5788.648577
838.768842	5817.993133
839.084706	6245.624132
839.400526	7442.149559
839.716303	9003.646963
840.032037	10077.009440
840.347727	9997.417182
840.663373	9041.460658
840.978977	8007.819952
841.294537	7212.361164
841.610054	6615.710359
841.925527	6185.536098
842.240957	5828.415719
842.556344	5496.894318
842.871687	5218.257143
843.186987	4939.546870
843.502244	4716.364907
843.817458	4552.366090
844.132629	4415.637395
844.447756	4323.802695
844.762840	4249.806118
845.077881	4169.755116
845.392879	4109.120117
845.707833	4062.950710
846.022745	4017.580325
846.337613	3989.223835
846.652438	3947.513328
846.967221	3927.474741
847.281960	3897.868045
847.596656	3880.624778
847.911309	3860.855893
848.225919	3834.599043
848.540485	3817.179336
848.855009	3807.016370
849.169490	3785.500726
849.483928	3773.588479
849.798323	3766.596399
850.112675	3749.229624
850.426984	3752.597114
850.741251	3737.955083
851.055474	3729.674988
851.369654	3737.438365
851.683792	3732.011563
851.997887	3737.768560
852.311938	3741.055393
852.625947	3745.123604
852.939914	3735.058940
853.253837	3741.607399
853.567718	3741.942636
853.881555	3730.922673
854.195350	3746.182246
854.509103	3738.612954
854.822812	3742.361052
855.136479	3729.745564
855.450103	3743.316350
855.763685	3726.667940
856.077224	3732.024166
856.390720	3747.014037
856.704173	3769.270731
857.017584	3779.741207
857.330953	3788.906025
857.644278	3811.876043
857.957561	3817.731343
858.270802	3817.973318
858.584000	3823.407682
858.897155	3816.347546
859.210268	3798.068322
859.523339	3776.671145
859.836367	3773.885907
860.149352	3768.038169
860.462295	3760.428547
860.775195	3750.988986
861.088054	3750.187443
861.400869	3747.167792
861.713642	3748.228955
862.026373	3751.765324
862.339062	3762.082045
862.651708	3778.622071
862.964312	3812.528872
863.276873	3824.564627
863.589392	3881.471692
863.901869	3926.511881
864.214303	3972.005774
864.526696	4004.216226
864.839045	4051.333371
865.151353	4081.398812
865.463619	4086.331581
865.775842	4092.375925
866.088023	4107.559880
866.400162	4103.499231
866.712258	4110.390488
867.024313	4111.232361
867.336325	4109.261270
867.648296	4116.218062
867.960224	4114.509111
868.272110	4129.141060
868.583954	4131.661637
868.895755	4143.873832
869.207515	4139.631701
869.519233	4182.403371
869.830909	4194.353426
870.142542	4219.811253
870.454134	4232.588057
870.765684	4263.276081
871.077191	4300.525167
871.388657	4322.862520
871.700081	4361.931462
872.011463	4406.376795
872.322803	4434.219088
872.634101	4466.747133
872.945357	4505.574100
873.256571	4559.796751
873.567744	4592.256740
873.878874	4609.058906
874.189963	4649.703209
874.501010	4658.051360
874.812015	4654.940968
875.122979	4696.744736
875.433900	4695.923028
875.744780	4710.857446
876.055618	4734.636569
876.366415	4735.349892
876.677169	4753.482922
876.987882	4804.774142
877.298554	4856.249364
877.609183	4938.213485
877.919771	5045.111152
878.230317	5190.419891
878.540822	5400.986367
878.851285	5721.933947
879.161707	6180.048802
879.472087	6942.137673
879.782425	8169.288110
880.092722	10331.948151
880.402977	13592.821037
880.713191	17269.848735
881.023363	20900.928836
881.333494	23056.042270
881.643583	24257.923923
881.953631	24275.789772
882.263637	23468.272543
882.573602	22025.784179
882.883526	20497.691981
883.193408	18853.804479
883.503248	17187.130962
883.813048	15656.689587
884.122806	14255.402573
884.432522	12792.913430
884.742197	11542.200640
885.051831	10465.972267
885.361424	9478.296803
885.670975	8671.991972
885.980485	7981.744584
886.289954	7409.739981
886.599382	6948.121523
886.908768	6574.496406
887.218113	6209.864707
887.527417	5929.901708
887.836680	5658.513711
888.145901	5444.599909
888.455082	5285.339777
888.764221	5130.997290
889.073319	5001.696735
889.382376	4929.746867
889.691392	4865.177248
890.000366	4842.040872
890.309300	4821.614117
890.618193	4833.975026
890.927044	4815.937777
891.235855	4838.433927
891.544625	4872.381057
891.853353	4931.357515
892.162041	5047.639291
892.470687	5237.055605
892.779293	5480.467719
893.087858	5856.802456
893.396381	6425.159785
893.704864	7224.502783
894.013306	8366.036783
894.321707	9518.331126
894.630068	10316.272683
894.938387	10524.182471
895.246665	10279.900758
895.554903	9688.296149
895.863100	8998.875511
896.171256	8448.172303
896.479371	7949.304759
896.787446	7464.307951
897.095480	7035.278032
897.403473	6720.868828
897.711425	6401.756228
898.019336	6137.506505
898.327207	5870.557244
898.635038	5637.373632
898.942827	5399.582405
899.250576	5205.598805
899.558284	5018.299775
899.865952	4898.345519
900.173579	4750.163323
900.481165	4641.246673
900.788711	4551.425915
901.096216	4476.877332
901.403681	4414.301489
901.711105	4389.103281
902.018489	4373.516034
902.325832	4447.880615
902.633135	4569.206064
902.940397	4908.107714
903.247619	5698.293456
903.554800	7124.410673
903.861941	9016.905197
904.169041	10521.213231
904.476101	11130.582867
904.783121	10783.393561
905.090100	10044.141117
905.397039	9226.357578
905.703938	8492.111000
906.010796	7802.072820
906.317614	7254.422031
906.624391	6722.101390
906.931129	6301.157482
907.237826	5903.811216
907.544483	5529.447569
907.851099	5162.852341
908.157675	4807.902178
908.464211	4490.082634
908.770707	4257.831635
909.077163	4058.587591
909.383578	3916.333791
909.689954	3799.706697
909.996289	3736.876276
910.302584	3667.071419
910.608839	3632.484062
910.915054	3599.850153
911.221229	3591.154163
911.527363	3602.209413
911.833458	3614.005713
912.139513	3642.868839
912.445527	3673.692974
912.751502	3754.878237
913.057436	3858.668032
913.363331	3990.683249
913.669186	4194.222356
913.975000	4451.056542
914.280775	4873.346437
914.586510	5449.318429
914.892205	6241.318986
915.197859	7260.647856
915.503475	8465.667627
915.809050	9499.734310
916.114585	10135.295260
916.420081	10392.137008
916.725536	10362.036278
917.030952	9921.830121
917.336328	9513.778964
917.641665	9106.085729
917.946961	8641.780337
918.252218	8224.196358
918.557435	7718.339255
918.862612	7297.228989
919.167750	6923.929026
919.472848	6511.751684
919.777906	6137.582122
920.082925	5779.710611
920.387904	5419.444551
920.692843	5155.782123
920.997743	4918.721863
921.302603	4684.895504
921.607423	4523.399620
921.912204	4357.016337
922.216946	4247.252774
922.521647	4124.919093
922.826310	4018.933875
923.130932	3924.576078
923.435516	3826.833146
923.740059	3762.165224
924.044564	3682.308306
924.349028	3625.549955
924.653454	3559.830953
924.957840	3492.390397
925.262186	3449.235599
925.566493	3384.781927
925.870761	3332.285871
926.174989	3293.595016
926.479178	3256.262751
926.783328	3215.618448
927.087438	3189.013758
927.391509	3151.734426
927.695541	3124.018162
927.999533	3097.252156
928.303486	3075.789443
928.607400	3059.945097
928.911275	3049.338509
929.215110	3031.460057
929.518906	3023.162317
929.822663	3020.263654
930.126381	3019.764580
930.430060	3022.532173
930.733699	3028.165663
931.037299	3038.046324
931.340861	3035.850902
931.644383	3046.069321
931.947866	3040.087992
932.251309	3035.485418
932.554714	3036.128165
932.858080	3029.824202
933.161407	3023.023686
933.464694	3014.680576
933.767943	3007.489370
934.071153	3002.470902
934.374323	2994.518481
934.677455	2987.072697
934.980548	2981.867706
935.283602	2976.992910
935.586617	2973.033084
935.889593	2982.757469
936.192530	2986.442553
936.495428	3002.271776
936.798287	3018.748787
937.101108	3053.532749
937.403890	3104.390429
937.706632	3167.399811
938.009336	3243.115422
938.312002	3315.826504
938.614628	3378.495608
938.917216	3426.177362
939.219765	3460.066518
939.522275	3491.861076
939.824747	3498.409535
940.127179	3496.491376
940.429573	3490.729337
940.731929	3484.929489
941.034246	3471.603199
941.336524	3462.622383
941.638763	3442.709826
941.940964	3434.349072
942.243126	3392.741909
942.545250	3368.864484
942.847335	3333.127744
943.149381	3297.771612
943.451389	3266.655089
943.753359	3229.491703
944.055290	3204.727035
944.357182	3180.733663
944.659036	3167.548525
944.960851	3157.622493
945.262628	3145.057417
945.564367	3146.337871
945.866067	3141.720174
946.167729	3140.437200
946.469352	3133.729945
946.770937	3128.945890
947.072484	3115.183540
947.373992	3119.823922
947.675462	3109.398816
947.976893	3094.489603
948.278286	3084.878643
948.579641	3078.758683
948.880958	3072.709298
949.182236	3074.743404
949.483476	3071.696026
949.784678	3065.913823
950.085841	3071.081005
950.386967	3081.314548
950.688054	3095.288626
950.989103	3115.977522
951.290114	3139.083650
951.591087	3164.266734
951.892021	3193.470138
952.192917	3218.360836
952.493776	3247.327306
952.794596	3254.490785
953.095378	3258.586723
953.396122	3252.769231
953.696828	3248.915269
953.997496	3236.408166
954.298126	3211.656101
954.598718	3193.384439
954.899272	3170.396777
955.199788	3140.033908
955.500266	3107.773044
955.800706	3074.133424
956.101108	3034.467105
956.401472	3004.880573
956.701798	2976.249340
957.002087	2933.633946
957.302337	2906.199987
957.602550	2878.811398
957.902724	2849.328209
958.202861	2826.625373
958.502960	2804.716518
958.803022	2782.515277
959.103045	2762.025507
959.403031	2746.685276
959.702979	2731.304716
960.002889	2720.123436
960.302762	2706.202290
960.602596	2695.668799
960.902393	2685.636903
961.202153	2680.681449
961.501875	2669.384223
961.801559	2663.385250
962.101205	2660.511792
962.400814	2655.919301
962.700385	2652.130874
962.999918	2639.258287
963.299414	2634.360807
963.598873	2632.374592
963.898293	2627.706483
964.197677	2627.835033
964.497022	2627.295629
964.796331	2622.297325
965.095601	2619.817078
965.394835	2616.406737
965.694030	2615.973198
965.993189	2611.284925
966.292309	2609.732249
966.591393	2614.392796
966.890439	2611.521859
967.189447	2613.944133
967.488419	2611.836931
967.787353	2612.978753
968.086249	2616.111830
968.385108	2617.059567
968.683930	2617.281377
968.982714	2623.698766
969.281462	2626.539456
969.580172	2633.130765
969.878844	2638.497073
970.177480	2649.645585
970.476078	2654.200267
970.774639	2663.894406
971.073162	2668.416321
971.371649	2677.644153
971.670098	2679.164061
971.968510	2685.548683
972.266885	2686.776204
972.565223	2693.274251
972.863524	2695.545291
973.161788	2700.160467
973.460014	2701.448482
973.758204	2703.301106
974.056356	2710.220090
974.354471	2708.410315
974.652550	2711.571119
974.950591	2709.282435
975.248595	2707.233206
975.546563	2709.569781
975.844493	2701.713142
976.142386	2694.547142
976.440243	2692.407172
976.738062	2685.974660
977.035845	2679.713547
977.333590	2674.805984
977.631299	2666.359531
977.928971	2663.632266
978.226606	2656.057933
978.524204	2654.780000
978.821765	2646.693989
979.119290	2654.091883
979.416777	2651.641882
979.714228	2652.947541
980.011642	2661.116731
980.309020	2664.438851
980.606360	2678.473423
980.903664	2703.379244
981.200931	2739.809142
981.498162	2787.747995
981.795356	2860.771629
982.092513	2951.338478
982.389633	3051.816236
982.686717	3146.453817
982.983764	3218.754046
983.280775	3264.888165
983.577749	3274.368055
983.874686	3260.535129
984.171587	3229.055643
984.468451	3191.020138
984.765279	3150.096051
985.062070	3096.584203
985.358824	3055.972667
985.655543	3002.465860
985.952224	2947.655915
986.248869	2886.567213
986.545478	2832.132834
986.842050	2775.762651
987.138586	2733.376630
987.435086	2694.060671
987.731549	2662.535815
988.027975	2642.414050
988.324366	2621.422685
988.620719	2606.883997
988.917037	2597.935949
989.213318	2589.025710
989.509563	2580.881726
989.805772	2575.265881
990.101944	2570.998544
990.398080	2569.647515
990.694180	2568.815724
990.990244	2568.072154
991.286271	2571.853019
991.582262	2572.425190
991.878217	2571.512742
992.174136	2576.579101
992.470019	2578.829976
992.765865	2581.804257
993.061676	2585.549834
993.357450	2596.345465
993.653188	2602.732607
993.948890	2619.398662
994.244556	2639.167547
994.540186	2658.286123
994.835780	2695.817513
995.131337	2729.731876
995.426859	2768.218565
995.722345	2819.696307
996.017795	2865.906044
996.313208	2904.244019
996.608586	2929.268307
996.903928	2942.518979
997.199234	2942.650049
997.494504	2939.766509
997.789738	2922.419899
998.084936	2899.192783
998.380099	2868.998792
998.675225	2841.882425
998.970316	2811.791778
999.265371	2776.418001
999.560390	2739.506673
999.855373	2714.099258
1000.150320	2680.802436
1000.445232	2657.441729
1000.740108	2641.673000
1001.034948	2619.373456
1001.329752	2605.464913
1001.624521	2593.073757
1001.919254	2578.847620
1002.213951	2576.102712
1002.508613	2567.568039
1002.803239	2560.613767
1003.097829	2553.326779
1003.392384	2549.525749
1003.686903	2543.778834
1003.981386	2541.495191
1004.275834	2538.064686
1004.570246	2536.796836
1004.864623	2532.746268
1005.158964	2529.121679
1005.453270	2527.611853
1005.747540	2530.346679
1006.041775	2526.187727
1006.335974	2522.663961
1006.630138	2524.080525
1006.924266	2523.586492
1007.218359	2521.822088
1007.512416	2519.601460
1007.806438	2517.181706
1008.100425	2520.997859
1008.394376	2513.937723
1008.688292	2518.472241
1008.982172	2520.831501
1009.276017	2520.960051
1009.569827	2519.074659
1009.863602	2515.283712
1010.157341	2518.275636
1010.451045	2514.840090
1010.744714	2515.094668
1011.038347	2514.124246
1011.331945	2511.707013
1011.625508	2513.761283
1011.919036	2513.070645
1012.212528	2510.539986
1012.505986	2510.050994
1012.799408	2508.833555
1013.092795	2511.079389
1013.386147	2509.708195
1013.679464	2506.779285
1013.972745	2505.939933
1014.265992	2510.018226
1014.559204	2507.427073
1014.852380	2507.800119
1015.145521	2507.117042
1015.438628	2508.150479
1015.731699	2511.175171
1016.024736	2511.223062
1016.317737	2510.870181
1016.610703	2513.652898
1016.903635	2513.025275
1017.196531	2513.410923
1017.489393	2516.601973
1017.782219	2516.072652
1018.075011	2519.167921
1018.367768	2520.919722
1018.660490	2517.403517
1018.953177	2517.403517
1019.245829	2517.403517
