Dividing Wavelength (nm)	Counts (n)	Blue Motor Position (mm): 35.000000	Red Motor Position (mm): 0.000000	
326.493990	2100.820207
326.888308	2100.820207
327.282561	2100.820207
327.676750	2075.117884
328.070874	2077.484706
328.464933	2084.386045
328.858929	2093.442478
329.252859	2104.525455
329.646726	2121.809051
330.040528	2136.526700
330.434265	2157.021511
330.827938	2176.072031
331.221547	2198.366534
331.615091	2215.037630
332.008571	2236.207955
332.401986	2257.758888
332.795338	2277.699172
333.188625	2297.926802
333.581847	2313.468679
333.975006	2332.204127
334.368100	2354.498630
334.761129	2368.918851
335.154095	2382.726571
335.546996	2431.235074
335.939833	2512.233813
336.332606	2527.803417
336.725315	2537.066537
337.117960	2546.702703
337.510540	2552.573127
337.903056	2565.261711
338.295508	2569.503842
338.687896	2577.257136
339.080220	2585.040678
339.472480	2589.953282
339.864676	2591.107707
340.256807	2595.269179
340.648875	2597.933429
341.040879	2595.848912
341.432818	2600.277565
341.824694	2598.956783
342.216506	2599.440734
342.608253	2598.281268
342.999937	2600.111207
343.391557	2600.517020
343.783113	2597.358737
344.174605	2592.327666
344.566033	2594.707090
344.957397	2592.849425
345.348697	2590.762387
345.739934	2588.025041
346.131106	2587.495720
346.522215	2586.742067
346.913260	2582.804926
347.304241	2585.867427
347.695159	2583.533373
348.086012	2581.970615
348.476802	2578.532548
348.867528	2577.456262
349.258191	2575.419636
349.648789	2576.490881
350.039324	2573.824111
350.429796	2575.233113
350.820203	2574.872671
351.210548	2570.020560
351.600828	2571.880746
351.991045	2569.352607
352.381198	2570.958215
352.771288	2569.435786
353.161314	2570.270097
353.551276	2572.059707
353.941175	2566.877401
354.331010	2567.562998
354.720782	2570.812021
355.110490	2574.071127
355.500135	2571.807649
355.889717	2569.400498
356.279235	2572.049624
356.668689	2575.326374
357.058080	2571.200190
357.447408	2569.458471
357.836672	2570.542319
358.225873	2571.643812
358.615010	2568.853533
359.004084	2576.957188
359.393095	2572.163050
359.782043	2576.516087
360.170927	2575.807805
360.559748	2575.873340
360.948505	2578.035995
361.337199	2579.331571
361.725830	2578.635892
362.114398	2579.268557
362.502903	2582.066397
362.891344	2579.760069
363.279722	2580.201170
363.668037	2581.630337
364.056289	2582.008424
364.444478	2583.490523
364.832603	2584.831470
365.220665	2582.557910
365.608665	2583.147725
365.996601	2584.619742
366.384474	2584.861717
366.772284	2586.525298
367.160031	2586.273240
367.547715	2585.761563
367.935336	2586.812643
368.322893	2588.844228
368.710388	2588.410689
369.097820	2590.941348
369.485189	2588.750967
369.872495	2591.601740
370.259738	2590.875813
370.646918	2591.387491
371.034035	2591.155598
371.421090	2590.981678
371.808081	2592.761205
372.195010	2593.025866
372.581875	2593.003180
372.968678	2594.563417
373.355418	2592.494024
373.742096	2594.107193
374.128710	2594.071905
374.515262	2593.981164
374.901751	2595.271700
375.288177	2598.135075
375.674540	2597.273038
376.060841	2599.725559
376.447079	2598.971907
376.833254	2600.050713
377.219367	2597.593151
377.605417	2598.498038
377.991404	2595.707759
378.377329	2599.975096
378.763191	2597.404108
379.148991	2601.406784
379.534727	2604.141610
379.920402	2606.563884
380.306013	2602.220930
380.691563	2605.994234
381.077049	2605.243102
381.462474	2602.714963
381.847835	2605.220417
382.233134	2607.108329
382.618371	2608.310644
383.003545	2606.911724
383.388657	2608.328288
383.773706	2609.084461
384.158693	2610.027157
384.543618	2609.853237
384.928480	2613.041767
385.313280	2611.473968
385.698017	2613.016561
386.082692	2615.038064
386.467305	2615.166613
386.851856	2616.976387
387.236344	2618.062756
387.620770	2616.386572
388.005133	2617.697272
388.389435	2616.898250
388.773674	2621.437809
389.157851	2620.772376
389.541965	2619.348250
389.926018	2619.887654
390.310008	2622.435957
390.693936	2622.277161
391.077802	2622.246914
391.461606	2627.683798
391.845348	2626.768829
392.229027	2628.540794
392.612645	2627.217492
392.996200	2627.966103
393.379694	2632.626650
393.763125	2630.413583
394.146494	2631.081536
394.529801	2634.542288
394.913047	2633.949952
395.296230	2635.457257
395.679351	2634.774181
396.062410	2638.081178
396.445408	2636.846095
396.828343	2640.768113
397.211217	2637.400622
397.594028	2637.572022
397.976778	2637.360293
398.359466	2642.610655
398.742092	2639.795170
399.124656	2646.983856
399.507158	2644.407826
399.889598	2649.454021
400.271977	2648.551655
400.654294	2652.138436
401.036549	2653.348312
401.418742	2653.998621
401.800874	2656.821667
402.182944	2657.575320
402.564952	2658.507933
402.946898	2664.501865
403.328783	2664.700991
403.710606	2666.412463
404.092367	2673.747342
404.474067	2673.084430
404.855705	2676.925789
405.237282	2679.222035
405.618797	2683.945596
406.000250	2690.357943
406.381642	2699.023687
406.762972	2705.735983
407.144240	2706.454348
407.525447	2718.900957
407.906593	2724.322717
408.287677	2737.674213
408.668700	2749.082345
409.049661	2762.055754
409.430560	2779.321706
409.811399	2797.757206
410.192176	2813.770431
410.572891	2836.024604
410.953545	2871.242105
411.334138	2880.492623
411.714669	2926.225970
412.095139	2937.500511
412.475547	2986.137563
412.855894	3016.515556
413.236180	3071.345666
413.616405	3103.233485
413.996568	3163.215654
414.376670	3213.697768
414.756711	3262.654934
415.136691	3335.592868
415.516609	3413.692944
415.896466	3491.583812
416.276262	3592.457301
416.655997	3709.522975
417.035670	3800.152839
417.415283	3955.082620
417.794834	4061.695462
418.174324	4131.212974
418.553753	4222.538517
418.933121	4396.707862
419.312428	4488.260257
419.691674	4590.431842
420.070859	4787.291421
420.449983	4849.829455
420.829045	5084.837965
421.208047	5175.114948
421.586988	5395.695676
421.965867	5600.313590
422.344686	5747.628708
422.723444	6039.514036
423.102141	5867.867789
423.480777	6327.056410
423.859352	6355.455751
424.237866	6832.537948
424.616319	6931.311796
424.994712	7312.420506
425.373044	7425.448216
425.751314	7848.486723
426.129524	7732.719146
426.507673	8314.579205
426.885762	8411.974298
427.263789	8678.071603
427.641756	8944.647819
428.019662	9169.153085
428.397508	9389.224656
428.775292	9714.648781
429.153016	9921.222662
429.530679	10151.883177
429.908282	10372.123627
430.285824	10441.023597
430.663305	10994.020530
431.040726	11009.479228
431.418086	11117.700198
431.795385	11650.845068
432.172624	12098.776792
432.549802	12052.435986
432.926920	12372.889533
433.303977	12507.397600
433.680974	12873.155997
434.057910	13270.008230
434.434786	13489.026200
434.811601	13637.795691
435.188355	14521.520043
435.565050	14497.501465
435.941683	14652.481658
436.318257	15462.416120
436.694770	15525.057498
437.071222	16138.155067
437.447614	15647.615510
437.823946	15835.481669
438.200218	16152.837427
438.576429	16149.091850
438.952580	16546.012139
439.328670	16679.184301
439.704700	17186.052155
440.080670	16989.880694
440.456580	17648.293195
440.832429	17955.042366
441.208218	17250.576404
441.583947	17775.698277
441.959616	18011.780552
442.335224	18375.429226
442.710773	18620.983830
443.086261	19226.711232
443.461689	18778.030896
443.837057	19024.797897
444.212365	19725.266224
444.587612	19843.322485
444.962800	19581.104348
445.337927	20081.275029
445.712995	18997.651284
446.088002	20832.598516
446.462949	21125.179524
446.837837	21400.683623
447.212664	21498.832367
447.587431	24371.579257
447.962139	27241.034273
448.336786	29501.154942
448.711374	27986.724271
449.085901	24542.275247
449.460369	24653.604088
449.834776	24735.817746
450.209124	27246.876970
450.583412	26811.275908
450.957640	27291.188713
451.331808	26070.990027
451.705917	24796.598938
452.079965	24891.339863
452.453954	25321.206613
452.827883	25272.216680
453.201752	25104.512615
453.575562	25309.947196
453.949311	26458.155684
454.323001	26570.336480
454.696632	26375.823559
455.070202	27982.028436
455.443713	28191.553913
455.817164	28799.620411
456.190556	29368.151659
456.563888	28799.537232
456.937160	29248.036086
457.310373	27575.759327
457.683526	28056.035095
458.056619	28064.100941
458.429653	28047.742397
458.802628	28692.258957
459.175542	28828.770883
459.548398	30192.304696
459.921194	31832.628102
460.293930	32572.183015
460.666607	34660.415461
461.039224	36431.435821
461.411782	36808.647719
461.784280	35549.024690
462.156719	35022.546747
462.529099	34469.431347
462.901419	33168.428007
463.273680	32122.028141
463.645882	32263.422424
464.018024	32262.467125
464.390106	33204.278172
464.762130	36098.729750
465.134094	40410.645404
465.505999	45852.828080
465.877845	50370.117821
466.249631	51383.331771
466.621358	49579.208673
466.993026	47398.904594
467.364634	45294.497606
467.736184	43330.844675
468.107674	42053.605333
468.479105	41276.007352
468.850477	40549.327546
469.221790	39083.218855
469.593043	37339.902156
469.964238	36442.662471
470.335373	36400.490698
470.706449	38281.599777
471.077467	41081.998547
471.448425	45699.324945
471.819324	48373.389879
472.190164	46347.778647
472.560945	42748.344389
472.931667	39635.414245
473.302330	38540.392450
473.672934	37701.481436
474.043479	38247.393027
474.413965	37448.478527
474.784393	37055.404638
475.154761	37991.246959
475.525070	38028.869090
475.895321	37554.176400
476.265513	38185.371711
476.635645	39182.932878
477.005719	39028.865135
477.375734	39543.539216
477.745691	40251.276887
478.115588	41643.741882
478.485427	43756.154222
478.855207	47218.774085
479.224928	49852.698831
479.594591	51392.453739
479.964194	50305.326391
480.333739	50442.609613
480.703226	50541.771630
481.072653	51206.137734
481.442022	51654.011485
481.811333	51864.250286
482.180584	50575.068451
482.549777	50053.253575
482.918912	49531.320233
483.287988	49234.968442
483.657005	48387.769771
484.025964	47717.077019
484.394864	47718.110455
484.763706	47290.280331
485.132489	46403.367450
485.501213	46243.527585
485.869879	46395.097437
486.238487	45969.989536
486.607036	46174.988057
486.975527	45617.106246
487.343959	45833.810327
487.712333	45913.135403
488.080648	45801.176417
488.448905	46260.778413
488.817104	46074.878304
489.185244	47114.606202
489.553326	48892.958921
489.921350	51634.771922
490.289315	54426.134424
490.657222	54912.895636
491.025070	55148.312480
491.392861	54231.074537
491.760593	53003.243545
492.128267	51323.808347
492.495883	49792.262958
492.863440	48397.083302
493.230939	47028.047070
493.598380	45928.117712
493.965763	45598.945490
494.333088	44767.371875
494.700354	44287.832115
495.067563	43981.995393
495.434713	43827.673071
495.801805	43908.560905
496.168839	43495.425745
496.535815	43173.280891
496.902733	43192.780074
497.269593	42762.764609
497.636395	42696.498642
498.003139	43101.925878
498.369825	42553.433217
498.736453	42856.751882
499.103023	42367.276008
499.469535	42250.845519
499.835989	42349.989891
500.202385	41995.243895
500.568723	42016.499920
500.935003	42216.424520
501.301226	42007.897191
501.667390	42618.257414
502.033497	42875.971281
502.399546	42295.573156
502.765537	41580.747623
503.131470	41984.917092
503.497345	42351.598019
503.863163	40977.865952
504.228923	41619.098201
504.594625	42030.489122
504.960269	41292.633078
505.325856	41999.213804
505.691385	41342.296005
506.056856	41478.364309
506.422270	41931.175871
506.787625	41489.729590
507.152924	41712.445247
507.518164	41806.946717
507.883347	40976.383853
508.248472	41228.063459
508.613540	41741.618404
508.978550	42028.744883
509.343503	41779.253138
509.708398	41992.640139
510.073236	42515.707742
510.438016	42506.295907
510.802738	41953.268728
511.167403	42593.223044
511.532010	42816.679750
511.896561	43106.785551
512.261053	43977.435670
512.625488	43509.324206
512.989866	43383.416348
513.354186	43233.200045
513.718449	43219.021800
514.082655	43904.517900
514.446803	43562.962083
514.810894	44100.734731
515.174927	44008.995813
515.538904	43906.831790
515.902822	44583.410088
516.266684	44017.270868
516.630488	44452.667763
516.994235	44294.269668
517.357925	44873.533533
517.721558	45047.415532
518.085133	45356.281987
518.448651	45470.685933
518.812112	45241.704122
519.175516	45330.899778
519.538863	45677.915165
519.902152	45650.536658
520.265385	46124.256406
520.628560	46131.261089
520.991678	45930.464369
521.354739	46169.150401
521.717743	46468.804147
522.080690	46373.077677
522.443580	46898.766680
522.806413	46939.922660
523.169189	46902.527380
523.531908	47074.196313
523.894569	46923.841379
524.257174	47088.392202
524.619722	47376.975575
524.982213	47367.462917
525.344647	47284.004095
525.707025	47320.108839
526.069345	47736.074607
526.431608	47649.709559
526.793815	47943.961709
527.155964	47483.706884
527.518057	47643.912233
527.880093	47433.431457
528.242072	47953.991085
528.603995	47662.405705
528.965860	47659.554933
529.327669	47744.674816
529.689421	47648.343407
530.051117	47599.144266
530.412755	47739.308507
530.774337	47815.266093
531.135862	47612.364692
531.497331	47819.722473
531.858743	47707.150987
532.220098	48069.360411
532.581396	47757.938091
532.942638	47413.927232
533.303824	47732.235768
533.664953	47691.949388
534.026025	47390.291782
534.387040	47883.546001
534.747999	47818.898244
535.108902	47983.610384
535.469748	47492.317175
535.830537	47601.178371
536.191270	47793.616858
536.551947	47446.677088
536.912567	47762.278525
537.273131	47882.237822
537.633638	47357.796505
537.994089	47681.287347
538.354483	47276.119730
538.714821	47875.177686
539.075103	48202.119198
539.435328	47947.626628
539.795497	47827.601796
540.155609	47838.427674
540.515665	48284.726065
540.875665	47729.377434
541.235609	48050.824089
541.595496	48035.541831
541.955328	48709.259275
542.315102	48062.829597
542.674821	47824.955191
543.034483	47861.652270
543.394090	47824.418308
543.753640	47788.679048
544.113134	48811.302311
544.472571	47787.469171
544.831953	49037.052742
545.191278	48226.034432
545.550548	47962.954257
545.909761	48419.652548
546.268918	48600.766082
546.628019	48918.603271
546.987064	48462.835072
547.346053	47716.608192
547.704986	48616.068505
548.063863	48154.218154
548.422684	48321.947425
548.781449	48162.899021
549.140158	48570.073017
549.498811	48402.487419
549.857408	47815.845826
550.215949	48677.016055
550.574434	48593.741234
550.932864	48338.371504
551.291237	49066.825797
551.649555	48661.673303
552.007817	48883.965502
552.366022	48525.846974
552.724173	48691.559784
553.082267	49086.587120
553.440305	49355.615856
553.798288	48649.594698
554.156215	48982.797324
554.514086	49185.290391
554.871902	48907.076672
555.229661	48936.673287
555.587365	48741.928472
555.945014	48840.324234
556.302606	48765.765568
556.660143	48979.981839
557.017625	49061.270445
557.375050	48850.663640
557.732421	49173.557106
558.089735	49168.601652
558.446994	49066.697247
558.804197	49513.477068
559.161345	49451.922059
559.518437	48673.401548
559.875474	49001.063945
560.232455	49182.245534
560.589381	49342.720585
560.946251	49016.794865
561.303065	49689.005004
561.659825	49488.021762
562.016528	49140.918155
562.373177	48861.721411
562.729770	49343.559937
563.086307	48847.679277
563.442789	49301.947732
563.799216	49337.084575
564.155587	49124.821751
564.511904	49149.616666
564.868164	49211.514474
565.224370	49438.499987
565.580520	49188.650320
565.936615	49390.316639
566.292654	49098.958111
566.648638	49339.854689
567.004567	49293.075302
567.360441	49339.416108
567.716260	49192.713490
568.072023	49483.522532
568.427732	49446.333940
568.783385	48973.501436
569.138982	49354.970589
569.494525	49310.893260
569.850013	49060.494107
570.205445	49041.186488
570.560823	48984.118106
570.916145	48864.438593
571.271412	48869.850272
571.626625	48630.249271
571.981782	48654.156943
572.336884	48333.925206
572.691931	48646.005397
573.046923	48253.584338
573.401860	48087.480839
573.756743	48045.500630
574.111570	48149.602978
574.466342	47994.406015
574.821059	48091.758258
575.175722	47608.515771
575.530330	47635.228845
575.884882	47335.837239
576.239380	47274.146118
576.593823	47240.478772
576.948211	47154.622881
577.302544	46670.074735
577.656823	46675.073039
578.011047	46903.759942
578.365216	46639.578275
578.719330	46403.241421
579.073389	46250.522186
579.427394	46328.375245
579.781344	46277.666279
580.135239	45909.924188
580.489080	45974.786194
580.842866	45460.911136
581.196597	45896.613021
581.550273	45832.222363
581.903895	45690.444953
582.257463	46093.160048
582.610975	45468.833309
582.964434	45754.777637
583.317837	45383.612603
583.671186	45202.620057
584.024481	45437.885665
584.377721	44941.047186
584.730906	45228.415641
585.084037	45258.405465
585.437113	44971.931815
585.790135	44969.965765
586.143103	44571.207976
586.496016	44665.406976
586.848874	44692.994691
587.201679	44696.279003
587.554428	44177.582080
587.907124	44356.233011
588.259765	44101.069968
588.612352	44350.667577
588.964884	43718.658119
589.317362	44012.998490
589.669786	43925.988174
590.022155	43679.952140
590.374470	44117.483965
590.726731	43622.971978
591.078937	43126.400680
591.431090	43246.042385
591.783188	42865.909138
592.135232	42550.678226
592.487222	42817.292250
592.839157	42882.917991
593.191038	42529.959084
593.542866	42270.291770
593.894639	41672.075687
594.246358	41960.540592
594.598022	41927.286621
594.949633	41529.811805
595.301190	41489.943839
595.652692	41312.021356
596.004141	41634.360294
596.355535	40639.970013
596.706876	40579.771074
597.058162	40397.374566
597.409395	40857.813394
597.760573	40948.375202
598.111698	40532.406913
598.462768	40548.881404
598.813785	40568.955279
599.164748	40009.820741
599.515657	40395.242158
599.866511	39882.788705
600.217312	40480.692237
600.568060	39458.789858
600.918753	40205.213343
601.269392	40138.675154
601.619978	39800.920367
601.970510	40009.989620
602.320988	40169.017859
602.671412	40486.855047
603.021783	40229.184030
603.372100	39867.045182
603.722363	39989.204942
604.072572	40040.478518
604.422728	40063.932486
604.772830	39857.789623
605.122878	39975.472839
605.472872	39900.536087
605.822813	40167.248414
606.172701	39980.110701
606.522534	40250.727401
606.872314	40491.308907
607.222041	40254.828380
607.571714	40633.832408
607.921333	40082.786402
608.270899	40358.789575
608.620411	40701.446884
608.969870	40486.928144
609.319276	40508.259786
609.668627	40542.713552
610.017926	41022.192818
610.367171	41173.034223
610.716362	41252.976841
611.065500	41179.978413
611.414585	41366.738039
611.763616	41666.946313
612.112594	41595.785385
612.461518	41810.561224
612.810389	42099.759617
613.159207	41980.871566
613.507971	42056.282186
613.856682	42524.930533
614.205340	42403.945361
614.553945	43097.388840
614.902496	42556.069740
615.250994	43029.360989
615.599439	43089.446502
615.947830	43293.739262
616.296169	43362.903892
616.644454	43453.821102
616.992686	43633.772650
617.340864	44152.525025
617.688990	43840.555740
618.037063	44472.325743
618.385082	44424.991829
618.733048	44723.511316
619.080961	44743.262556
619.428821	44754.305204
619.776628	44854.102406
620.124382	44686.849524
620.472083	44811.799563
620.819731	44943.850068
621.167326	44612.295900
621.514868	44600.585300
621.862357	44149.759952
622.209793	44189.738823
622.557176	43849.337430
622.904506	43571.030450
623.251783	43244.698917
623.599007	43002.022812
623.946179	42794.985144
624.293297	42734.708068
624.640363	42151.413800
624.987376	42128.499235
625.334336	41887.781619
625.681243	41527.313913
626.028097	41487.372851
626.374899	41337.534635
626.721647	41330.751763
627.068343	41219.246481
627.414987	40974.458132
627.761577	40746.918092
628.108115	41078.648700
628.454600	40514.281445
628.801032	40714.601775
629.147412	40670.320280
629.493739	40667.555207
629.840014	40305.675978
630.186236	40629.149176
630.532405	40244.050393
630.878521	40457.825563
631.224585	40318.525879
631.570597	40027.502588
631.916556	40193.414523
632.262462	40124.650664
632.608316	40147.945836
632.954117	40047.720136
633.299866	40050.646525
633.645562	39960.356939
633.991206	39460.004776
634.336797	39034.639776
634.682336	39028.580309
635.027823	38780.888256
635.373257	38593.674926
635.718639	38349.685600
636.063968	38224.659944
636.409245	37632.120200
636.754470	37687.071298
637.099642	37438.267670
637.444762	36953.006201
637.789829	37109.082845
638.134845	36761.921264
638.479808	36698.422891
638.824719	36601.552078
639.169577	36229.562815
639.514383	36279.412265
639.859137	35972.204350
640.203839	36211.833077
640.548489	35834.043967
640.893086	35907.044916
641.237632	35657.656514
641.582125	35763.959326
641.926566	35706.495213
642.270955	35663.340415
642.615292	35684.596441
642.959576	35654.442779
643.303809	35644.231922
643.647990	35797.331764
643.992118	35747.830154
644.336195	35743.167087
644.680219	35830.290828
645.024192	36132.001365
645.368112	36642.453480
645.711981	36634.155741
646.055797	37504.778133
646.399562	37424.031452
646.743274	38378.190805
647.086935	38804.180908
647.430544	38698.876245
647.774101	38813.391096
648.117606	39064.443078
648.461059	39357.782779
648.804460	38966.347265
649.147810	38357.653144
649.491108	38107.501008
649.834354	37749.453056
650.177548	36914.363236
650.520690	36458.015305
650.863781	36493.721798
651.206820	36325.173339
651.549807	35883.709415
651.892742	35393.747069
652.235626	35200.633068
652.578458	35073.540539
652.921238	34478.538192
653.263967	34789.756345
653.606644	34466.389011
653.949269	34408.272069
654.291843	33993.324613
654.634365	34397.713372
654.976836	33998.365767
655.319255	34011.291286
655.661622	33995.361239
656.003938	33785.392141
656.346203	33636.733555
656.688416	33850.672562
657.030577	33665.742875
657.372687	33498.174921
657.714746	33755.583798
658.056753	33877.612488
658.398708	33320.963240
658.740612	33376.249574
659.082465	33649.139834
659.424266	33479.305882
659.766016	33604.921353
660.107715	33476.024091
660.449362	33584.512242
660.790958	33568.471291
661.132503	33579.085440
661.473996	33600.391877
661.815438	33729.790734
662.156829	33921.904066
662.498168	33685.277346
662.839456	33706.833320
663.180693	33844.116542
663.521879	34007.719628
663.863013	33975.521778
664.204097	33950.948674
664.545129	34422.281435
664.886110	34367.564751
665.227040	34453.173626
665.567918	34567.136470
665.908746	34625.074452
666.249522	34775.268069
666.590248	34784.982372
666.930922	34887.113628
667.271545	34845.700550
667.612118	34925.070996
667.952639	34692.714133
668.293109	34762.735760
668.633528	34657.277342
668.973896	34577.395218
669.314213	34606.994353
669.654480	34363.952765
669.994695	34366.712796
670.334859	34262.721354
670.674973	34166.064791
671.015035	34318.768903
671.355047	34260.694810
671.695008	34208.604568
672.034918	34101.906026
672.374777	34187.197308
672.714585	34026.326527
673.054342	34247.544961
673.394049	34006.260214
673.733705	34272.304588
674.073310	33935.250521
674.412864	34001.332486
674.752368	33610.857312
675.091820	33931.174748
675.431223	33486.436594
675.770574	33212.883422
676.109875	33065.918664
676.449125	32787.374749
676.788324	32701.607078
677.127473	32175.184588
677.466571	32101.077106
677.805619	31754.734713
678.144616	31749.300349
678.483562	31657.536226
678.822458	31346.847393
679.161303	31251.254514
679.500098	31181.878154
679.838842	31065.689641
680.177535	31219.432230
680.516179	31493.348365
680.854771	31738.867681
681.193314	32596.388115
681.531805	33698.777556
681.870247	34435.101089
682.208638	35135.619828
682.546978	35350.110842
682.885268	35447.263959
683.223508	34950.778360
683.561697	34604.594764
683.899836	34422.667083
684.237925	33910.836213
684.575963	33752.619599
684.913951	33299.694612
685.251889	33454.087510
685.589776	33449.948723
685.927614	33434.343831
686.265401	33561.025506
686.603137	33659.174251
686.940824	34155.213707
687.278460	34534.623549
687.616046	34651.220396
687.953582	35253.582828
688.291068	35110.751816
688.628504	35396.386113
688.965889	35326.752655
689.303224	34951.910099
689.640510	34635.093745
689.977745	33892.002462
690.314930	33084.039091
690.652065	32600.736110
690.989150	31879.203322
691.326185	30960.329525
691.663170	30256.765930
692.000105	29516.419555
692.336990	28842.003912
692.673825	28386.969201
693.010610	27874.873670
693.347345	27290.538404
693.684030	26627.596426
694.020665	26328.461919
694.357251	25674.929255
694.693786	25622.319773
695.030272	25391.598764
695.366707	24831.219062
695.703093	24553.494335
696.039429	24546.459404
696.375716	24272.664257
696.711952	24245.827674
697.048139	24070.786210
697.384276	23894.759200
697.720363	24019.119424
698.056400	23821.508714
698.392388	23605.336475
698.728326	23569.579571
699.064214	23361.765565
699.400053	23310.315549
699.735842	22955.350263
700.071581	22670.676305
700.407270	22369.621118
700.742910	22189.455321
701.078501	21920.025812
701.414042	21638.963841
701.749533	21341.603820
702.084974	20979.427163
702.420366	21187.752846
702.755709	20742.253478
703.091002	20452.298911
703.426246	20461.282247
703.761440	20364.784480
704.096584	20094.094683
704.431679	20038.823473
704.766725	19950.915832
705.101721	19891.457943
705.436668	19973.618668
705.771565	19652.731582
706.106413	19996.240846
706.441212	19987.474280
706.775961	20112.552868
707.110661	20172.580408
707.445311	20528.236332
707.779913	20353.688901
708.114465	20595.762588
708.448967	20877.265660
708.783421	21555.381511
709.117825	21832.859221
709.452180	22033.482021
709.786485	22436.081170
710.120742	23220.373803
710.454949	23236.190423
710.789107	23689.869063
711.123216	24393.374686
711.457275	24513.160063
711.791286	25053.208792
712.125247	25126.103877
712.459159	24821.000643
712.793023	25480.252496
713.126837	24394.284614
713.460602	24669.937427
713.794318	24299.710047
714.127985	23921.331122
714.461602	23025.560933
714.795171	22987.870746
715.128691	21977.442034
715.462162	21436.984971
715.795584	21024.056498
716.128957	20757.820561
716.462281	20373.472909
716.795556	20125.332193
717.128782	19621.637745
717.461960	19079.070959
717.795088	19003.385596
718.128167	18598.190253
718.461198	18126.986041
718.794180	17988.031677
719.127113	17625.355945
719.459997	17425.194411
719.792833	17070.277016
720.125619	17046.568469
720.458357	16721.875312
720.791046	16549.780402
721.123686	16386.673869
721.456278	16149.817776
721.788821	16114.287724
722.121315	15846.826786
722.453761	15918.370842
722.786158	15849.092785
723.118506	15845.009450
723.450805	15711.844851
723.783056	15875.616816
724.115259	15765.510454
724.447412	15704.578027
724.779518	15927.878458
725.111574	15951.024916
725.443582	16160.031154
725.775542	16137.719007
726.107453	16597.802433
726.439315	16474.432796
726.771129	16873.999691
727.102895	17237.461842
727.434612	17439.491124
727.766281	17555.256181
728.097901	17809.552145
728.429473	17851.892796
728.760996	17847.436416
729.092471	17927.555474
729.423897	17812.851580
729.755276	17674.711362
730.086606	17799.089230
730.417887	18319.711873
730.749120	18832.440069
731.080305	18995.322271
731.411442	19325.333845
731.742530	19392.076202
732.073570	19496.591924
732.404562	19782.264030
732.735506	19600.585887
733.066401	19307.682245
733.397249	18772.911604
733.728048	18156.859919
734.058798	17323.199266
734.389501	16643.876059
734.720156	16192.992738
735.050762	15664.992367
735.381320	15307.524148
735.711831	15074.320371
736.042293	14731.647938
736.372707	14741.286624
736.703073	14527.922308
737.033391	14711.558940
737.363661	14674.932437
737.693883	14762.774543
738.024056	14938.569659
738.354182	15105.431852
738.684260	15383.764038
739.014290	15597.140957
739.344272	15777.679799
739.674207	16049.697940
740.004093	16167.053481
740.333931	16163.822102
740.663722	16205.008329
740.993464	16199.828543
741.323159	16030.226484
741.652806	15762.881492
741.982405	15553.053546
742.311956	15219.757659
742.641460	15106.112407
742.970915	14813.410412
743.300323	14477.936747
743.629683	14276.043577
743.958996	14001.197349
744.288260	13726.613260
744.617477	13427.055296
744.946647	13355.675078
745.275768	13082.925970
745.604842	12904.259916
745.933869	12724.149571
746.262847	12679.585771
746.591778	12599.779265
746.920662	12497.718584
747.249498	12498.341167
747.578286	12609.911984
747.907027	12751.636463
748.235720	12972.917911
748.564365	12988.558090
748.892963	12888.574366
749.221514	12947.775156
749.550017	12802.229482
749.878473	12757.438831
750.206881	12537.425233
750.535242	12454.321812
750.863555	12368.922145
751.191821	12262.992379
751.520039	12282.025255
751.848210	12193.928571
752.176334	12228.042059
752.504411	12138.954789
752.832440	11966.854837
753.160421	12029.327337
753.488356	11915.949266
753.816243	11825.563898
754.144082	11683.471415
754.471875	11627.325564
754.799620	11569.443036
755.127318	11540.088397
755.454969	11502.125988
755.782572	11447.613471
756.110129	11468.685494
756.437638	11381.506300
756.765100	11370.531708
757.092515	11381.413038
757.419882	11391.656663
757.747203	11393.836962
758.074477	11471.231277
758.401703	11417.177504
758.728882	11576.379663
759.056014	11617.863318
759.383099	11732.579815
759.710138	11834.393479
760.037129	11910.114130
760.364073	11926.409660
760.690970	11912.266703
761.017820	11917.401118
761.344623	12111.314142
761.671379	12436.287084
761.998088	13092.118514
762.324751	14682.176575
762.651366	17564.300011
762.977935	21124.345213
763.304456	23225.931675
763.630931	23611.055664
763.957359	22436.368516
764.283740	20569.873742
764.610074	18728.705726
764.936362	16638.444216
765.262602	15153.920190
765.588796	13708.810426
765.914943	12697.065972
766.241044	11863.664939
766.567097	11233.205636
766.893104	10692.274705
767.219064	10339.618267
767.544978	9967.553387
767.870845	9655.253906
768.196665	9466.835740
768.522438	9274.583776
768.848165	9113.057645
769.173846	8940.751007
769.499479	8827.267072
769.825066	8671.565994
770.150607	8489.202254
770.476101	8426.760002
770.801548	8319.645565
771.126949	8174.046959
771.452303	8086.973630
771.777611	7933.629291
772.102872	7910.923934
772.428087	7789.711911
772.753256	7667.569794
773.078378	7583.037206
773.403453	7437.824249
773.728482	7326.409708
774.053465	7267.871829
774.378401	7183.734972
774.703291	7080.955927
775.028135	6989.005281
775.352932	6950.352234
775.677683	6870.696962
776.002388	6786.083715
776.327046	6788.896679
776.651658	6698.755807
776.976224	6624.582790
777.300743	6609.923114
777.625216	6540.813936
777.949643	6496.829869
778.274024	6499.748697
778.598359	6435.383245
778.922647	6437.346774
779.246889	6398.101392
779.571086	6405.411065
779.895236	6414.744761
780.219339	6407.961888
780.543397	6404.115488
780.867409	6455.394105
781.191374	6452.220699
781.515294	6419.395225
781.839167	6465.708306
782.162995	6442.408093
782.486776	6391.121914
782.810511	6351.715214
783.134201	6276.090345
783.457844	6270.245127
783.781441	6220.504062
784.104993	6178.753226
784.428498	6148.511344
784.751958	6137.335106
785.075372	6106.994922
785.398739	6069.382873
785.722061	6091.448003
786.045337	6092.710812
786.368568	6205.249531
786.691752	6228.600155
787.014891	6477.713814
787.337983	6757.122286
787.661030	7189.945673
787.984031	7596.396264
788.306987	7845.378852
788.629897	7921.870800
788.952760	7834.885690
789.275579	7663.080647
789.598351	7369.831686
789.921078	7112.788293
790.243759	6832.719429
790.566395	6634.481095
790.888984	6447.207271
791.211529	6312.016128
791.534027	6158.006357
791.856480	6017.756416
792.178888	5955.646880
792.501249	5894.754783
792.823566	5788.905676
793.145836	5786.596827
793.468062	5766.633858
793.790241	5723.310182
794.112375	5769.071256
794.434464	5862.153641
794.756507	5890.182456
795.078505	6008.667216
795.400457	6220.146140
795.722364	6453.100380
796.044226	6645.125492
796.366042	6797.874974
796.687812	6740.115954
797.009538	6771.245079
797.331218	6679.985071
797.652852	6616.325380
797.974442	6500.025961
798.295986	6425.865546
798.617484	6303.312576
798.938938	6192.749990
799.260346	6126.519310
799.581709	5991.040821
799.903026	5942.943173
800.224299	5869.496082
800.545526	5756.448207
800.866708	5696.266912
801.187845	5642.601309
801.508936	5566.487447
801.829983	5536.714393
802.150984	5434.842756
802.471940	5403.753960
802.792851	5389.726949
803.113717	5368.493609
803.434538	5341.649465
803.755314	5311.780629
804.076045	5298.398886
804.396731	5267.322693
804.717372	5276.207727
805.037967	5277.508344
805.358518	5303.470287
805.679024	5359.626220
805.999485	5368.619638
806.319901	5387.634871
806.640272	5396.769441
806.960598	5443.934477
807.280879	5440.514054
807.601115	5477.382532
807.921306	5442.044044
808.241453	5430.459472
808.561554	5441.784425
808.881611	5416.225775
809.201623	5414.438686
809.521590	5363.767528
809.841513	5350.148851
810.161390	5370.908322
810.481223	5280.651504
810.801011	5270.904433
811.120755	5248.856946
811.440453	5193.729408
811.760107	5165.728319
812.079716	5143.635463
812.399281	5092.636630
812.718801	5084.505249
813.038276	5048.985279
813.357707	5017.387326
813.677093	5039.056726
813.996434	4977.761337
814.315731	4998.094831
814.634983	4999.110623
814.954191	5004.716386
815.273354	5062.132608
815.592473	5105.224391
815.911547	5179.778015
816.230577	5233.146190
816.549562	5316.415970
816.868502	5368.856572
817.187399	5424.468061
817.506250	5509.222460
817.825058	5531.766500
818.143821	5687.268452
818.462539	5861.089958
818.781213	6088.410708
819.099843	6450.350431
819.418429	7076.965854
819.736970	7692.503341
820.055466	8390.468735
820.373919	9313.718253
820.692327	10815.067130
821.010691	13626.811017
821.329011	19997.410394
821.647286	29498.836011
821.965517	39531.710148
822.283704	44522.684349
822.601847	45694.392176
822.919945	41119.988682
823.237999	36120.202544
823.556010	31096.118045
823.873976	26511.085278
824.191897	22427.145725
824.509775	19424.223640
824.827609	16736.308135
825.145398	15227.127826
825.463144	14524.239745
825.780845	14873.919382
826.098502	16160.721792
826.416116	18548.315597
826.733685	20655.389356
827.051210	21014.735405
827.368692	19522.087559
827.686129	17028.223711
828.003522	14646.396985
828.320872	12507.258968
828.638177	10914.176215
828.955439	9708.548984
829.272656	8670.774533
829.589830	7846.906322
829.906960	7135.332333
830.224046	6615.246573
830.541088	6219.357200
830.858086	5965.078879
831.175041	5766.154948
831.491952	5712.116300
831.808819	5750.192135
832.125642	6009.604870
832.442421	6575.955820
832.759157	7703.361987
833.075849	9456.919790
833.392497	11229.699513
833.709101	12248.725914
834.025662	11932.872419
834.342179	10880.949970
834.658653	9616.615982
834.975083	8556.839415
835.291469	7685.216353
835.607811	6964.827907
835.924110	6456.450227
836.240366	5976.817206
836.556578	5533.447725
836.872746	5185.471998
837.188871	4921.232358
837.504952	4702.768915
837.820990	4543.581879
838.136984	4428.865382
838.452935	4387.845513
838.768842	4423.640226
839.084706	4727.989807
839.400526	5479.978727
839.716303	6354.339135
840.032037	6871.432970
840.347727	6687.108221
840.663373	6092.665442
840.978977	5539.038365
841.294537	5116.042707
841.610054	4793.429026
841.925527	4557.190474
842.240957	4356.665977
842.556344	4173.838450
842.871687	4017.333309
843.186987	3868.034496
843.502244	3750.079058
843.817458	3666.040503
844.132629	3596.568362
844.447756	3548.626989
844.762840	3503.833816
845.077881	3465.906695
845.392879	3432.095676
845.707833	3404.187849
846.022745	3380.449055
846.337613	3367.160574
846.652438	3343.336081
846.967221	3334.234277
847.281960	3313.847851
847.596656	3305.134217
847.911309	3294.315901
848.225919	3279.804939
848.540485	3272.122221
848.855009	3262.521343
849.169490	3252.681011
849.483928	3245.265474
849.798323	3235.891448
850.112675	3226.114130
850.426984	3227.543297
850.741251	3224.407700
851.055474	3215.106771
851.369654	3222.343347
851.683792	3220.175651
851.997887	3221.403172
852.311938	3218.428891
852.625947	3220.190774
852.939914	3214.673232
853.253837	3220.520970
853.567718	3217.234138
853.881555	3211.025957
854.195350	3217.483675
854.509103	3211.915720
854.822812	3212.301369
855.136479	3206.435986
855.450103	3209.090154
855.763685	3202.917261
856.077224	3207.164433
856.390720	3213.692727
856.704173	3224.092627
857.017584	3228.047413
857.330953	3234.724421
857.644278	3241.517376
857.957561	3245.477202
858.270802	3243.097777
858.584000	3241.161974
858.897155	3237.192066
859.210268	3227.989439
859.523339	3213.407902
859.836367	3213.559137
860.149352	3207.227447
860.462295	3202.521530
860.775195	3191.688091
861.088054	3188.285312
861.400869	3188.973429
861.713642	3186.291535
862.026373	3195.736137
862.339062	3198.952393
862.651708	3208.712067
862.964312	3224.349726
863.276873	3235.483115
863.589392	3264.603340
863.901869	3286.814664
864.214303	3307.314516
864.526696	3327.461487
864.839045	3344.868591
865.151353	3356.526260
865.463619	3355.565920
865.775842	3360.939790
866.088023	3361.829553
866.400162	3355.268492
866.712258	3360.317207
867.024313	3359.069522
867.336325	3353.927545
867.648296	3358.545242
867.960224	3357.859645
868.272110	3359.911394
868.583954	3360.521374
868.895755	3369.461860
869.207515	3365.063454
869.519233	3382.077348
869.830909	3392.550345
870.142542	3401.127868
870.454134	3404.407139
870.765684	3419.132349
871.077191	3435.611881
871.388657	3450.659725
871.700081	3470.153867
872.011463	3489.179182
872.322803	3511.647605
872.634101	3523.665715
872.945357	3543.694220
873.256571	3570.906368
873.567744	3588.956219
873.878874	3593.084924
874.189963	3608.548664
874.501010	3608.621761
874.812015	3607.056482
875.122979	3623.132722
875.433900	3618.086527
875.744780	3621.648102
876.055618	3627.332003
876.366415	3632.610091
876.677169	3635.967500
876.987882	3655.738905
877.298554	3672.311698
877.609183	3719.045715
877.919771	3764.741254
878.230317	3833.333714
878.540822	3936.410187
878.851285	4097.162500
879.161707	4320.248682
879.472087	4704.177917
879.782425	5354.138924
880.092722	6559.776237
880.402977	8511.229576
880.713191	10861.465910
881.023363	13153.171928
881.333494	14385.275298
881.643583	14787.178768
881.953631	14353.410165
882.263637	13530.751831
882.573602	12523.539374
882.883526	11607.297060
883.193408	10667.071456
883.503248	9784.977918
883.813048	8963.100962
884.122806	8209.481230
884.432522	7453.204809
884.742197	6799.848586
885.051831	6247.126396
885.361424	5758.787302
885.670975	5372.017376
885.980485	5052.072985
886.289954	4786.827635
886.599382	4569.684974
886.908768	4393.980598
887.218113	4229.636462
887.527417	4099.776339
887.836680	3980.631188
888.145901	3881.262484
888.455082	3802.310453
888.764221	3732.818147
889.073319	3674.570135
889.382376	3644.850013
889.691392	3619.528297
890.000366	3613.859519
890.309300	3607.762244
890.618193	3610.262656
890.927044	3605.057665
891.235855	3609.161164
891.544625	3630.873414
891.853353	3661.586643
892.162041	3718.758369
892.470687	3812.891835
892.779293	3935.606122
893.087858	4110.713122
893.396381	4398.157194
893.704864	4814.120442
894.013306	5378.313777
894.321707	5929.160658
894.630068	6248.923567
894.938387	6267.293532
895.246665	6081.852167
895.554903	5775.554180
895.863100	5446.901196
896.171256	5186.606258
896.479371	4953.417605
896.787446	4739.299636
897.095480	4545.860481
897.403473	4395.356833
897.711425	4257.798868
898.019336	4134.535094
898.327207	4016.889687
898.635038	3912.416815
898.942827	3810.872853
899.250576	3724.749781
899.558284	3643.057882
899.865952	3591.247424
900.173579	3525.135212
900.481165	3481.816577
900.788711	3442.752676
901.096216	3405.208682
901.403681	3380.275135
901.711105	3369.151829
902.018489	3368.423383
902.325832	3405.929567
902.633135	3464.502734
902.940397	3645.291114
903.247619	4067.182758
903.554800	4828.941434
903.861941	5775.806237
904.169041	6432.880312
904.476101	6607.228618
904.783121	6326.070865
905.090100	5935.976298
905.397039	5534.503847
905.703938	5183.354714
906.010796	4868.736302
906.317614	4624.013489
906.624391	4386.517169
906.931129	4195.333930
907.237826	4017.668545
907.544483	3848.373996
907.851099	3674.459230
908.157675	3516.293028
908.464211	3377.366390
908.770707	3275.237654
909.077163	3198.415510
909.383578	3139.688589
909.689954	3096.027155
909.996289	3066.614543
910.302584	3045.960936
910.608839	3032.140613
910.915054	3020.246010
911.221229	3015.940865
911.527363	3022.965712
911.833458	3026.897812
912.139513	3040.725698
912.445527	3053.988973
912.751502	3088.722523
913.057436	3133.573669
913.363331	3192.222453
913.669186	3283.031278
913.975000	3407.336049
914.280775	3596.374277
914.586510	3873.463819
914.892205	4251.711674
915.197859	4747.554526
915.503475	5313.061082
915.809050	5783.244460
916.114585	6046.211209
916.420081	6097.015958
916.725536	6023.573908
917.030952	5795.519669
917.336328	5593.659267
917.641665	5393.913628
917.946961	5170.424154
918.252218	4975.553311
918.557435	4757.677162
918.862612	4556.489754
919.167750	4392.337182
919.472848	4200.642265
919.777906	4037.636556
920.082925	3882.384141
920.387904	3732.820668
920.692843	3622.399234
920.997743	3521.994573
921.302603	3432.473763
921.607423	3369.539998
921.912204	3298.671458
922.216946	3253.464910
922.521647	3205.089998
922.826310	3165.138854
923.130932	3124.461783
923.435516	3085.712954
923.740059	3057.323697
924.044564	3029.020138
924.349028	3004.936026
924.653454	2973.748928
924.957840	2948.122222
925.262186	2928.116403
925.566493	2908.713002
925.870761	2881.478168
926.174989	2871.020294
926.479178	2857.716689
926.783328	2839.344204
927.087438	2828.362051
927.391509	2816.701862
927.695541	2804.754327
927.999533	2792.713531
928.303486	2783.891512
928.607400	2779.293980
928.911275	2774.341046
929.215110	2766.996085
929.518906	2762.595157
929.822663	2764.271341
930.126381	2762.443923
930.430060	2766.439037
930.733699	2767.207813
931.037299	2768.785694
931.340861	2770.953391
931.644383	2774.537651
931.947866	2769.743514
932.251309	2768.934408
932.554714	2766.917947
932.858080	2766.212185
933.161407	2761.307143
933.464694	2759.240270
933.767943	2754.703231
934.071153	2755.449322
934.374323	2748.535379
934.677455	2745.626634
934.980548	2743.842065
935.283602	2739.627661
935.586617	2736.376116
935.889593	2742.032291
936.192530	2744.205028
936.495428	2748.389186
936.798287	2758.111051
937.101108	2767.777464
937.403890	2792.837039
937.706632	2817.465597
938.009336	2848.299814
938.312002	2877.183105
938.614628	2900.589182
938.917216	2920.892429
939.219765	2931.110848
939.522275	2941.656942
939.824747	2938.554112
940.127179	2934.808535
940.429573	2927.145981
940.731929	2929.056578
941.034246	2920.726071
941.336524	2917.908066
941.638763	2909.978331
941.940964	2905.786612
942.243126	2889.473438
942.545250	2878.216542
942.847335	2865.820344
943.149381	2849.880216
943.451389	2839.901252
943.753359	2826.564879
944.055290	2817.299238
944.357182	2809.228351
944.659036	2802.972279
944.960851	2799.022535
945.262628	2792.143881
945.564367	2793.131947
945.866067	2794.056999
946.167729	2791.496092
946.469352	2792.055661
946.770937	2790.155146
947.072484	2782.109464
947.373992	2783.115174
947.675462	2778.111829
947.976893	2773.075716
948.278286	2769.516662
948.579641	2769.294851
948.880958	2766.310488
949.182236	2762.590116
949.483476	2762.300250
949.784678	2759.099117
950.085841	2758.416041
950.386967	2765.652617
950.688054	2767.855602
950.989103	2777.758948
951.290114	2786.714558
951.591087	2799.718214
951.892021	2809.480409
952.192917	2823.802327
952.493776	2834.056034
952.794596	2833.841785
953.095378	2836.584172
953.396122	2834.907989
953.696828	2832.755416
953.997496	2827.434478
954.298126	2815.761687
954.598718	2810.937302
954.899272	2799.456074
955.199788	2789.532563
955.500266	2779.510749
955.800706	2762.083480
956.101108	2743.625296
956.401472	2736.557598
956.701798	2722.641493
957.002087	2708.748073
957.302337	2699.043852
957.602550	2687.434074
957.902724	2679.343022
958.202861	2671.788853
958.502960	2660.461381
958.803022	2656.970382
959.103045	2648.851603
959.403031	2644.485964
959.702979	2636.248719
960.002889	2632.828296
960.302762	2628.394601
960.602596	2626.284878
960.902393	2621.359671
961.202153	2619.635596
961.501875	2614.352467
961.801559	2612.018413
962.101205	2611.005141
962.400814	2607.504059
962.700385	2604.912906
962.999918	2604.650766
963.299414	2602.515838
963.598873	2601.454675
963.898293	2599.513831
964.197677	2599.597010
964.497022	2598.321598
964.796331	2597.557863
965.095601	2593.151894
965.394835	2596.889910
965.694030	2592.776328
965.993189	2593.492172
966.292309	2592.970413
966.591393	2593.913109
966.890439	2594.812955
967.189447	2595.228850
967.488419	2593.063674
967.787353	2593.671133
968.086249	2595.488469
968.385108	2591.702563
968.683930	2594.969230
968.982714	2596.635332
969.281462	2598.082143
969.580172	2599.639859
969.878844	2601.550457
970.177480	2601.638677
970.476078	2605.676641
970.774639	2609.533124
971.073162	2614.541510
971.371649	2609.447424
971.670098	2613.840790
971.968510	2616.036212
972.266885	2611.244596
972.565223	2621.513426
972.863524	2619.547376
973.161788	2621.352109
973.460014	2618.193826
973.758204	2620.956378
974.056356	2623.287912
974.354471	2623.388735
974.652550	2624.795217
974.950591	2623.643313
975.248595	2621.185751
975.546563	2623.257665
975.844493	2620.157356
976.142386	2620.535442
976.440243	2618.607201
976.738062	2615.711058
977.035845	2614.218876
977.333590	2609.989348
977.631299	2609.903649
977.928971	2607.955243
978.226606	2603.521548
978.524204	2604.660849
978.821765	2601.409304
979.119290	2599.894438
979.416777	2599.912082
979.714228	2600.151537
980.011642	2602.619181
980.309020	2608.471961
980.606360	2611.237034
980.903664	2623.313118
981.200931	2633.662607
981.498162	2653.282777
981.795356	2683.859896
982.092513	2716.067828
982.389633	2762.645569
982.686717	2801.858184
982.983764	2830.353306
983.280775	2850.117150
983.577749	2847.294104
983.874686	2839.316478
984.171587	2822.864672
984.468451	2807.496715
984.765279	2789.804785
985.062070	2769.352824
985.358824	2754.746081
985.655543	2733.855539
985.952224	2711.571119
986.248869	2686.146059
986.545478	2659.785866
986.842050	2641.554533
987.138586	2620.779938
987.435086	2608.202259
987.731549	2597.525095
988.027975	2596.579879
988.324366	2587.157963
988.620719	2585.338106
988.917037	2576.881570
989.213318	2578.570357
989.509563	2573.370407
989.805772	2571.167422
990.101944	2569.259346
990.398080	2569.990313
990.694180	2569.682803
990.990244	2568.309088
991.286271	2569.529048
991.582262	2570.323029
991.878217	2570.847309
992.174136	2571.283369
992.470019	2571.608523
992.765865	2576.765624
993.061676	2576.785788
993.357450	2579.755028
993.653188	2580.009606
993.948890	2589.975967
994.244556	2595.922008
994.540186	2603.824017
994.835780	2612.923300
995.131337	2630.889972
995.426859	2644.112919
995.722345	2661.288130
996.017795	2679.993331
996.313208	2695.144519
996.608586	2703.152392
996.903928	2705.393185
997.199234	2704.712629
997.494504	2702.635674
997.789738	2694.141329
998.084936	2686.617407
998.380099	2673.114677
998.675225	2664.890034
998.970316	2651.984680
999.265371	2638.912968
999.560390	2626.720938
999.855373	2613.742487
1000.150320	2604.000457
1000.445232	2596.791607
1000.740108	2590.245669
1001.034948	2582.749473
1001.329752	2579.467682
1001.624521	2574.751683
1001.919254	2565.095353
1002.213951	2566.164077
1002.508613	2558.972871
1002.803239	2559.479507
1003.097829	2558.463715
1003.392384	2557.732747
1003.686903	2556.474980
1003.981386	2558.504044
1004.275834	2554.201419
1004.570246	2556.371636
1004.864623	2554.695452
1005.158964	2552.837787
1005.453270	2552.956254
1005.747540	2553.195709
1006.041775	2552.343754
1006.335974	2551.721172
1006.630138	2550.357539
1006.924266	2547.350491
1007.218359	2549.205636
1007.512416	2548.668753
1007.806438	2549.147662
1008.100425	2548.144473
1008.394376	2549.901315
1008.688292	2551.327962
1008.982172	2549.387117
1009.276017	2548.504915
1009.569827	2548.325954
1009.863602	2548.792261
1010.157341	2547.476520
1010.451045	2548.479710
1010.744714	2546.072559
1011.038347	2549.334185
1011.331945	2547.620193
1011.625508	2544.333361
1011.919036	2544.388813
1012.212528	2546.682538
1012.505986	2544.577857
1012.799408	2545.076931
1013.092795	2545.051725
1013.386147	2545.689431
1013.679464	2543.942671
1013.972745	2542.107691
1014.265992	2543.849410
1014.559204	2544.514842
1014.852380	2543.975439
1015.145521	2543.546941
1015.438628	2543.380583
1015.731699	2545.182795
1016.024736	2545.346632
1016.317737	2543.680531
1016.610703	2547.209339
1016.903635	2542.019471
1017.196531	2542.064841
1017.489393	2542.851261
1017.782219	2541.797660
1018.075011	2545.097095
1018.367768	2544.940820
1018.660490	2544.366128
1018.953177	2544.366128
1019.245829	2544.366128
