Dividing Wavelength (nm)	Counts (n)	Blue Motor Position (mm): 18.400000	Red Motor Position (mm): 0.000000	
326.493990	2181.017403
326.888308	2181.017403
327.282561	2181.017403
327.676750	2140.221865
328.070874	2134.043931
328.464933	2136.544344
328.858929	2144.640437
329.252859	2146.316620
329.646726	2155.010090
330.040528	2166.476195
330.434265	2180.777948
330.827938	2200.385516
331.221547	2215.466128
331.615091	2231.920454
332.008571	2249.672877
332.401986	2270.288676
332.795338	2289.878600
333.188625	2306.325364
333.581847	2328.486276
333.975006	2342.225941
334.368100	2364.545650
334.761129	2382.159441
335.154095	2395.452964
335.546996	2421.724937
335.939833	2450.401541
336.332606	2464.814200
336.725315	2477.076807
337.117960	2491.287819
337.510540	2505.309789
337.903056	2512.211128
338.295508	2524.685463
338.687896	2530.460105
339.080220	2535.539068
339.472480	2545.102137
339.864676	2548.111705
340.256807	2556.333827
340.648875	2561.087635
341.040879	2561.531257
341.432818	2565.690209
341.824694	2566.083419
342.216506	2567.346228
342.608253	2571.109449
342.999937	2569.602144
343.391557	2569.965107
343.783113	2572.059707
344.174605	2570.098698
344.566033	2567.620971
344.957397	2566.990827
345.348697	2564.813048
345.739934	2564.891186
346.131106	2563.038562
346.522215	2562.279868
346.913260	2556.974054
347.304241	2555.698642
347.695159	2553.770401
348.086012	2552.966337
348.476802	2551.612787
348.867528	2543.826725
349.258191	2544.955943
349.648789	2542.571477
350.039324	2540.434028
350.429796	2542.611807
350.820203	2540.497043
351.210548	2542.697506
351.600828	2539.405633
351.991045	2539.428318
352.381198	2537.875643
352.771288	2537.956301
353.161314	2537.772299
353.551276	2534.684592
353.941175	2535.788605
354.331010	2536.529654
354.720782	2536.320447
355.110490	2534.180477
355.500135	2531.417924
355.889717	2533.880528
356.279235	2538.735159
356.668689	2536.053265
357.058080	2533.444468
357.447408	2535.692823
357.836672	2533.900693
358.225873	2537.915972
358.615010	2537.227854
359.004084	2536.925385
359.393095	2539.115766
359.782043	2537.918492
360.170927	2539.627443
360.559748	2539.960160
360.948505	2541.545603
361.337199	2540.391178
361.725830	2543.536858
362.114398	2542.228679
362.502903	2539.466127
362.891344	2543.380583
363.279722	2542.669780
363.668037	2542.400078
364.056289	2544.608103
364.444478	2546.185985
364.832603	2542.110212
365.220665	2542.503422
365.608665	2545.139945
365.996601	2545.578526
366.384474	2545.444935
366.772284	2546.246478
367.160031	2544.514842
367.547715	2544.996272
367.935336	2547.864689
368.322893	2542.460572
368.710388	2547.925183
369.097820	2546.097764
369.485189	2544.318237
369.872495	2552.933569
370.259738	2547.378217
370.646918	2549.152704
371.034035	2549.399720
371.421090	2552.235369
371.808081	2549.132539
372.195010	2552.537838
372.581875	2552.036244
372.968678	2551.849721
373.355418	2549.162786
373.742096	2555.282747
374.128710	2552.444577
374.515262	2550.173537
374.901751	2551.491799
375.288177	2551.179247
375.674540	2548.368804
376.060841	2554.403065
376.447079	2551.847200
376.833254	2554.763508
377.219367	2553.440205
377.605417	2552.842828
377.991404	2553.457849
378.377329	2552.615976
378.763191	2554.781152
379.148991	2556.727037
379.534727	2556.364074
379.920402	2553.891388
380.306013	2556.076728
380.691563	2558.277192
381.077049	2554.692932
381.462474	2555.149156
381.847835	2555.222253
382.233134	2556.938766
382.618371	2556.323745
383.003545	2557.999929
383.388657	2556.812737
383.773706	2559.499672
384.158693	2556.485062
384.543618	2559.154353
384.928480	2557.526060
385.313280	2556.331307
385.698017	2556.853066
386.082692	2560.641493
386.467305	2556.419527
386.851856	2561.115362
387.236344	2558.050340
387.620770	2558.695608
388.005133	2558.010011
388.389435	2558.055381
388.773674	2556.721996
389.157851	2561.286761
389.541965	2557.573951
389.926018	2563.230126
390.310008	2559.852553
390.693936	2560.631411
391.077802	2559.575289
391.461606	2561.798438
391.845348	2559.565207
392.229027	2561.879097
392.612645	2562.491597
392.996200	2563.182235
393.379694	2563.736762
393.763125	2564.407235
394.146494	2561.488407
394.529801	2563.310784
394.913047	2563.943449
395.296230	2564.926474
395.679351	2564.530743
396.062410	2566.035528
396.445408	2565.009653
396.828343	2564.102245
397.211217	2564.830692
397.594028	2566.269942
397.976778	2564.598799
398.359466	2564.182904
398.742092	2564.593758
399.124656	2564.780281
399.507158	2565.937225
399.889598	2567.661300
400.271977	2562.768860
400.654294	2563.971175
401.036549	2568.551064
401.418742	2567.356310
401.800874	2568.228430
402.182944	2567.147102
402.564952	2569.012329
402.946898	2568.702298
403.328783	2565.770867
403.710606	2568.215827
404.092367	2565.589386
404.474067	2568.891342
404.855705	2568.667010
405.237282	2567.242884
405.618797	2571.447207
406.000250	2569.476115
406.381642	2570.648184
406.762972	2566.685837
407.144240	2566.378326
407.525447	2568.765313
407.906593	2566.527040
408.287677	2570.481826
408.668700	2572.410067
409.049661	2571.532906
409.430560	2569.488718
409.811399	2569.662638
410.192176	2574.081209
410.572891	2573.929975
410.953545	2571.777402
411.334138	2571.517783
411.714669	2571.759758
412.095139	2570.786815
412.475547	2572.820921
412.855894	2572.762948
413.236180	2572.568863
413.616405	2572.707495
413.996568	2573.645150
414.376670	2572.750345
414.756711	2573.531724
415.136691	2570.955694
415.516609	2574.857547
415.896466	2575.109605
416.276262	2574.615572
416.655997	2576.216138
417.035670	2575.812846
417.415283	2575.984245
417.794834	2574.996179
418.174324	2573.564491
418.553753	2574.509708
418.933121	2575.606158
419.312428	2573.617423
419.691674	2577.191601
420.070859	2575.986766
420.449983	2575.144893
420.829045	2574.953329
421.208047	2574.386199
421.586988	2575.759914
421.965867	2576.868968
422.344686	2577.673032
422.723444	2576.780747
423.102141	2578.613207
423.480777	2574.978535
423.859352	2577.456262
424.237866	2578.686303
424.616319	2577.909966
424.994712	2575.260839
425.373044	2577.947774
425.751314	2573.214131
426.129524	2574.567681
426.507673	2575.354101
426.885762	2573.183884
427.263789	2578.071283
427.641756	2578.996334
428.019662	2578.005748
428.397508	2581.113619
428.775292	2577.874678
429.153016	2580.012127
429.530679	2579.757549
429.908282	2577.572208
430.285824	2579.356777
430.663305	2581.186716
431.040726	2578.991293
431.418086	2579.260995
431.795385	2580.407857
432.172624	2579.281160
432.549802	2582.641089
432.926920	2581.799216
433.303977	2580.740574
433.680974	2579.208063
434.057910	2580.049936
434.434786	2580.811150
434.811601	2580.962384
435.188355	2581.141345
435.565050	2580.934658
435.941683	2580.538927
436.318257	2582.121850
436.694770	2582.928434
437.071222	2581.663105
437.447614	2581.811819
437.823946	2582.255440
438.200218	2581.181675
438.576429	2581.055646
438.952580	2581.632858
439.328670	2582.142014
439.704700	2583.792992
440.080670	2585.055801
440.456580	2583.578743
440.832429	2586.825246
441.208218	2581.912642
441.583947	2584.395410
441.959616	2583.117478
442.335224	2584.085379
442.710773	2586.293405
443.086261	2584.392890
443.461689	2581.295101
443.837057	2585.030596
444.212365	2587.881368
444.587612	2581.521952
444.962800	2580.453228
445.337927	2583.041860
445.712995	2579.414750
446.088002	2585.701069
446.462949	2587.828436
446.837837	2586.041347
447.212664	2584.027406
447.587431	2587.157963
447.962139	2588.244331
448.336786	2589.721389
448.711374	2590.280957
449.085901	2587.359609
449.460369	2587.949424
449.834776	2588.466142
450.209124	2587.531008
450.583412	2591.425299
450.957640	2590.454877
451.331808	2590.502768
451.705917	2587.687284
452.079965	2591.533684
452.453954	2589.736513
452.827883	2588.193920
453.201752	2590.916143
453.575562	2587.866245
453.949311	2590.860690
454.323001	2589.429002
454.696632	2591.059816
455.070202	2590.848087
455.443713	2591.213571
455.817164	2593.386308
456.190556	2590.331369
456.563888	2592.330186
456.937160	2592.920001
457.310373	2593.202306
457.683526	2590.288519
458.056619	2592.867069
458.429653	2591.732810
458.802628	2591.281626
459.175542	2595.586772
459.548398	2593.353541
459.921194	2594.281113
460.293930	2594.419745
460.666607	2594.152563
461.039224	2595.914447
461.411782	2595.178438
461.784280	2596.073243
462.156719	2596.466453
462.529099	2599.738162
462.901419	2594.896134
463.273680	2594.704570
463.645882	2594.293716
464.018024	2593.035948
464.390106	2592.284816
464.762130	2597.850250
465.134094	2598.631629
465.505999	2598.545929
465.877845	2603.145982
466.249631	2607.488936
466.621358	2601.308481
466.993026	2604.345777
467.364634	2607.428442
467.736184	2601.626074
468.107674	2602.969542
468.479105	2604.802001
468.850477	2601.253029
469.221790	2603.176229
469.593043	2601.258070
469.964238	2599.617174
470.335373	2602.104984
470.706449	2602.115066
471.077467	2602.634305
471.448425	2604.494491
471.819324	2607.919955
472.190164	2609.765017
472.560945	2607.849378
472.931667	2608.325767
473.302330	2605.253184
473.672934	2603.584562
474.043479	2605.986672
474.413965	2604.491970
474.784393	2603.372834
475.154761	2607.950202
475.525070	2608.287959
475.895321	2606.195880
476.265513	2607.864502
476.635645	2607.904831
477.005719	2604.249995
477.375734	2607.597321
477.745691	2607.410798
478.115588	2610.271653
478.485427	2612.247785
478.855207	2610.254009
479.224928	2611.763834
479.594591	2619.902777
479.964194	2618.624845
480.333739	2615.655605
480.703226	2617.702314
481.072653	2620.626183
481.442022	2619.817078
481.811333	2618.798765
482.180584	2617.876233
482.549777	2618.370267
482.918912	2617.987139
483.287988	2621.513426
483.657005	2623.759260
484.025964	2621.858745
484.394864	2624.162552
484.763706	2622.882099
485.132489	2622.927470
485.501213	2624.051647
485.869879	2622.841770
486.238487	2626.660444
486.607036	2623.913015
486.975527	2625.558952
487.343959	2626.153808
487.712333	2626.912502
488.080648	2626.781432
488.448905	2629.359982
488.817104	2630.774026
489.185244	2631.880559
489.553326	2633.123203
489.921350	2633.602113
490.289315	2640.347177
490.657222	2642.300624
491.025070	2646.338588
491.392861	2645.201808
491.760593	2646.867909
492.128267	2648.586943
492.495883	2645.544606
492.863440	2642.063690
493.230939	2644.891777
493.598380	2647.235913
493.965763	2648.118115
494.333088	2647.455204
494.700354	2647.072076
495.067563	2650.442087
495.434713	2653.968374
495.801805	2653.587767
496.168839	2656.962820
496.535815	2658.150012
496.902733	2662.303922
497.269593	2663.294509
497.636395	2666.702329
498.003139	2669.916065
498.369825	2672.998730
498.736453	2677.031653
499.103023	2677.843279
499.469535	2686.254444
499.835989	2691.340968
500.202385	2691.305680
500.568723	2694.068233
500.935003	2701.478729
501.301226	2706.202290
501.667390	2720.370453
502.033497	2724.834395
502.399546	2732.076012
502.765537	2735.821589
503.131470	2746.435739
503.497345	2755.096441
503.863163	2759.792276
504.228923	2773.811725
504.594625	2784.715741
504.960269	2789.860238
505.325856	2806.037301
505.691385	2811.207004
506.056856	2826.640497
506.422270	2842.338650
506.787625	2854.064373
507.152924	2874.433156
507.518164	2887.887995
507.883347	2899.608678
508.248472	2917.595515
508.613540	2949.135494
508.978550	2966.456898
509.343503	2987.407934
509.708398	3014.768796
510.073236	3040.244267
510.438016	3075.030749
510.802738	3089.753439
511.167403	3126.911784
511.532010	3144.114722
511.896561	3195.587423
512.261053	3228.614542
512.625488	3260.605705
512.989866	3287.404479
513.354186	3316.244920
513.718449	3361.390973
514.082655	3411.484919
514.446803	3450.639561
514.810894	3506.866070
515.174927	3531.502189
515.538904	3581.213007
515.902822	3651.723626
516.266684	3691.853731
516.630488	3733.970051
516.994235	3784.668935
517.357925	3855.844986
517.721558	3929.718055
518.085133	3992.210718
518.448651	4050.998134
518.812112	4097.003704
519.175516	4171.317873
519.538863	4252.001541
519.902152	4305.412566
520.265385	4402.169952
520.628560	4461.199343
520.991678	4537.565262
521.354739	4618.679948
521.717743	4709.640007
522.080690	4762.345271
522.443580	4888.686669
522.806413	4954.695537
523.169189	5063.690324
523.531908	5130.228514
523.894569	5198.261406
524.257174	5295.543072
524.619722	5405.372170
524.982213	5452.678358
525.344647	5569.580195
525.707025	5669.140463
526.069345	5776.055774
526.431608	5875.858018
526.793815	6017.877404
527.155964	6020.337487
527.518057	6156.799001
527.880093	6259.169712
528.242072	6362.271391
528.603995	6434.029695
528.965860	6513.274113
529.327669	6666.389079
529.689421	6747.642396
530.051117	6827.053172
530.412755	6998.212948
530.774337	7049.216822
531.135862	7144.000597
531.497331	7297.715460
531.858743	7323.276631
532.220098	7573.698468
532.581396	7573.605207
532.942638	7741.699962
533.303824	7853.603495
533.664953	7991.892427
534.026025	8065.959580
534.387040	8209.577012
534.747999	8390.456132
535.108902	8526.952934
535.469748	8544.017240
535.830537	8728.135302
536.191270	8859.840487
536.551947	9013.953602
536.912567	9003.389864
537.273131	9234.607426
537.633638	9265.839895
537.994089	9504.997274
538.354483	9475.025094
538.714821	9767.908571
539.075103	9952.074524
539.435328	10016.392085
539.795497	9999.826854
540.155609	10284.306727
540.515665	10516.323312
540.875665	10386.296831
541.235609	10614.895514
541.595496	10774.233784
541.955328	11027.032526
542.315102	11137.645524
542.674821	11132.929524
543.034483	11208.415762
543.394090	11384.951928
543.753640	11443.532657
544.113134	11815.945377
544.472571	11836.619148
544.831953	12129.416926
545.191278	12062.359497
545.550548	12208.081611
545.909761	12370.373997
546.268918	12678.194413
546.628019	12773.436932
546.987064	12858.130838
547.346053	12880.261503
547.704986	13054.335066
548.063863	13292.695943
548.422684	13359.002240
548.781449	13351.853883
549.140158	13671.629395
549.498811	13652.513340
549.857408	13608.181433
550.215949	13981.234379
550.574434	13950.911839
550.932864	14209.739801
551.291237	14389.708993
551.649555	14498.769316
552.007817	14662.715200
552.366022	14750.395989
552.724173	14867.401170
553.082267	14978.898890
553.440305	15378.584252
553.798288	15102.409680
554.156215	15540.564087
554.514086	15709.742690
554.871902	15482.048894
555.229661	15769.457678
555.587365	15836.038717
555.945014	15837.619119
556.302606	16160.595763
556.660143	16206.508072
557.017625	16529.116712
557.375050	16364.250817
557.732421	16710.386522
558.089735	16745.687202
558.446994	16881.284158
558.804197	17035.094803
559.161345	17150.257442
559.518437	17049.636012
559.875474	17367.155607
560.232455	17565.247748
560.589381	17609.211650
560.946251	17663.136873
561.303065	18043.418834
561.659825	18226.896669
562.016528	18050.058033
562.373177	17992.966966
562.729770	18334.283328
563.086307	18396.637360
563.442789	18631.565212
563.799216	18594.792515
564.155587	18693.636939
564.511904	18806.946954
564.868164	18833.526438
565.224370	18963.754565
565.580520	18946.733109
565.936615	19183.679943
566.292654	19002.057252
566.648638	19395.660462
567.004567	19308.060332
567.360441	19371.851093
567.716260	19231.603672
568.072023	19628.612181
568.427732	19497.053189
568.783385	19403.113808
569.138982	19664.232974
569.494525	19804.210693
569.850013	19685.516726
570.205445	19835.543985
570.560823	19726.897037
570.916145	19641.691455
571.271412	19830.901082
571.626625	19728.502645
571.981782	19870.151506
572.336884	19772.227093
572.691931	19964.496700
573.046923	19779.927455
573.401860	19789.876172
573.756743	19846.145532
574.111570	19823.183076
574.466342	19824.753395
574.821059	19982.443208
575.175722	19764.887173
575.530330	19840.930458
575.884882	19920.164793
576.239380	19888.849146
576.593823	19846.200984
576.948211	19862.932574
577.302544	19773.497463
577.656823	19721.984433
578.011047	19864.694457
578.365216	19795.872625
578.719330	19728.341328
579.073389	19677.443318
579.427394	19863.943325
579.781344	19692.959990
580.135239	19640.269850
580.489080	19654.352313
580.842866	19459.335276
581.196597	19677.095478
581.550273	19677.241672
581.903895	19638.996958
582.257463	19963.617019
582.610975	19548.440191
582.964434	19862.317553
583.317837	19622.035996
583.671186	19744.752804
584.024481	19727.260000
584.377721	19555.086953
584.730906	19630.520258
585.084037	19698.101967
585.437113	19612.394789
585.790135	19838.011630
586.143103	19374.008706
586.496016	19398.435617
586.848874	19665.725156
587.201679	19634.371700
587.554428	19310.333892
587.907124	19659.315329
588.259765	19463.799218
588.612352	19563.319157
588.964884	19175.757770
589.317362	19366.472181
589.669786	19418.247352
590.022155	19495.187963
590.374470	19663.953190
590.726731	19509.731691
591.078937	19274.728223
591.431090	19400.704137
591.783188	19148.641403
592.135232	19146.637544
592.487222	19258.830944
592.839157	19295.626326
593.191038	19204.951092
593.542866	19098.302961
593.894639	18849.890023
594.246358	19067.894721
594.598022	18994.997116
594.949633	18770.451521
595.301190	18720.322287
595.652692	18900.997241
596.004141	19148.303646
596.355535	18491.254777
596.706876	18523.563532
597.058162	18412.937931
597.409395	18637.329771
597.760573	18739.876923
598.111698	18526.318523
598.462768	18470.921283
598.813785	18438.267209
599.164748	18276.506664
599.515657	18299.632958
599.866511	18106.705479
600.217312	18467.788206
600.568060	18010.918515
600.918753	18313.405390
601.269392	18224.050938
601.619978	17998.640785
601.970510	18227.761227
602.320988	18168.820056
602.671412	18382.270072
603.021783	18280.716028
603.372100	18029.280918
603.722363	18158.813366
604.072572	18101.928986
604.422728	18245.465759
604.772830	18001.408378
605.122878	17965.308676
605.472872	17946.127085
605.822813	17949.754195
606.172701	17902.654695
606.522534	18110.861911
606.872314	18132.201115
607.222041	17973.286302
607.571714	18191.916103
607.921333	18019.927057
608.270899	18093.172502
608.620411	18295.942833
608.969870	18036.126805
609.319276	18055.968786
609.668627	18083.158250
610.017926	18227.612513
610.367171	18352.081122
610.716362	18387.197800
611.065500	18203.062094
611.414585	18318.033169
611.763616	18318.315474
612.112594	18281.769629
612.461518	18240.593484
612.810389	18438.776365
613.159207	18287.950083
613.507971	18185.561728
613.856682	18477.469742
614.205340	18410.046830
614.553945	18558.869253
614.902496	18296.066341
615.250994	18552.754333
615.599439	18483.105752
615.947830	18471.813567
616.296169	18510.247324
616.644454	18476.688363
616.992686	18449.831616
617.340864	18657.408687
617.688990	18414.157891
618.037063	18598.359132
618.385082	18444.218291
618.733048	18725.507114
619.080961	18579.792562
619.428821	18634.731057
619.776628	18531.145427
620.124382	18446.295246
620.472083	18478.528384
620.819731	18509.947375
621.167326	18206.235500
621.514868	18250.748889
621.862357	18006.608328
622.209793	18021.283127
622.557176	17854.030246
622.904506	17677.846960
623.251783	17584.981344
623.599007	17360.430708
623.946179	17309.804920
624.293297	17267.912932
624.640363	17015.862801
624.987376	17025.100716
625.334336	16823.782237
625.681243	16663.745767
626.028097	16673.485276
626.374899	16611.300123
626.721647	16473.084287
627.068343	16302.020293
627.414987	16237.465798
627.761577	16211.980244
628.108115	16271.622136
628.454600	15985.685369
628.801032	16077.343628
629.147412	16005.986095
629.493739	16025.550813
629.840014	15841.500807
630.186236	15946.646673
630.532405	15702.102821
630.878521	15899.758902
631.224585	15788.586336
631.570597	15611.639315
631.916556	15654.723537
632.262462	15631.786287
632.608316	15543.056938
632.954117	15494.157745
633.299866	15490.218084
633.645562	15417.703606
633.991206	15165.003167
634.336797	15025.844635
634.682336	15000.843033
635.027823	14893.713473
635.373257	14787.158604
635.718639	14667.030428
636.063968	14628.702535
636.409245	14381.869999
636.754470	14413.835956
637.099642	14251.513322
637.444762	14035.305796
637.789829	14070.682093
638.134845	13920.624587
638.479808	13942.982104
638.824719	13897.417635
639.169577	13743.279315
639.514383	13797.154126
639.859137	13608.534314
640.203839	13691.998178
640.548489	13537.161658
640.893086	13516.142567
641.237632	13384.883523
641.582125	13530.792160
641.926566	13373.901370
642.270955	13384.412176
642.615292	13349.494623
642.959576	13364.348383
643.303809	13398.663517
643.647990	13331.505266
643.992118	13380.018810
644.336195	13159.637208
644.680219	13353.003267
645.024192	13286.712093
645.368112	13519.162218
645.711981	13580.497937
646.055797	13749.621087
646.399562	13719.918608
646.743274	13995.067306
647.086935	14262.676958
647.430544	14223.655906
647.774101	14257.983643
648.117606	14410.138269
648.461059	14381.139032
648.804460	14372.296848
649.147810	14099.348614
649.491108	14000.302544
649.834354	14022.652499
650.177548	13723.107138
650.520690	13537.791802
650.863781	13458.983444
651.206820	13499.264784
651.549807	13320.323987
651.892742	13132.109987
652.235626	13078.272985
652.578458	13071.616141
652.921238	12756.176022
653.263967	12953.973254
653.606644	12785.157615
653.949269	12750.043458
654.291843	12568.327506
654.634365	12718.490876
654.976836	12572.355388
655.319255	12585.059095
655.661622	12537.407589
656.003938	12456.854991
656.346203	12384.053168
656.688416	12452.610340
657.030577	12409.654668
657.372687	12342.146056
657.714746	12316.809217
658.056753	12487.643838
658.398708	12319.982623
658.740612	12329.790188
659.082465	12418.476687
659.424266	12377.998742
659.766016	12398.349880
660.107715	12314.860811
660.449362	12388.081050
660.790958	12349.889268
661.132503	12292.687296
661.473996	12348.525636
661.815438	12378.727189
662.156829	12384.983261
662.498168	12362.313192
662.839456	12358.207172
663.180693	12383.670040
663.521879	12468.999131
663.863013	12448.574896
664.204097	12425.153695
664.545129	12543.419165
664.886110	12515.173580
665.227040	12589.739807
665.567918	12607.328393
665.908746	12637.630768
666.249522	12622.711473
666.590248	12666.768637
666.930922	12785.381946
667.271545	12767.871498
667.612118	12855.799304
667.952639	12756.297009
668.293109	12754.391453
668.633528	12719.494066
668.973896	12687.245804
669.314213	12784.741720
669.654480	12528.283100
669.994695	12573.746746
670.334859	12604.777569
670.674973	12548.442674
671.015035	12588.890372
671.355047	12524.459385
671.695008	12497.413595
672.034918	12504.317455
672.374777	12549.150957
672.714585	12465.767751
673.054342	12501.691014
673.394049	12446.051799
673.733705	12542.751212
674.073310	12455.773664
674.412864	12474.854431
674.752368	12347.167045
675.091820	12350.143847
675.431223	12352.049403
675.770574	12224.903941
676.109875	12144.293371
676.449125	12105.456321
676.788324	12037.950230
677.127473	11882.695295
677.466571	11871.239272
677.805619	11776.074891
678.144616	11687.733711
678.483562	11660.329998
678.822458	11532.020030
679.161303	11509.123109
679.500098	11498.113229
679.838842	11456.243926
680.177535	11463.959412
680.516179	11526.391582
680.854771	11475.226391
681.193314	11693.168075
681.531805	11836.465393
681.870247	12229.745969
682.208638	12639.248979
682.546978	12964.514307
682.885268	13035.947457
683.223508	12718.281668
683.561697	12559.933985
683.899836	12455.309878
684.237925	12266.551434
684.575963	12177.938031
684.913951	12110.338679
685.251889	12055.140565
685.589776	12150.123465
685.927614	12081.238618
686.265401	12039.971733
686.603137	12078.082856
686.940824	12235.341650
687.278460	12349.901871
687.616046	12400.008420
687.953582	12583.287130
688.291068	12497.491733
688.628504	12721.681926
688.965889	12740.530801
689.303224	12707.942262
689.640510	12605.074997
689.977745	12307.820840
690.314930	12076.341137
690.652065	11995.216369
690.989150	11709.816485
691.326185	11485.752320
691.663170	11283.128182
692.000105	11036.595595
692.336990	10932.962075
692.673825	10678.192242
693.010610	10558.709334
693.347345	10355.686945
693.684030	10151.134566
694.020665	10097.645403
694.357251	9896.878930
694.693786	9857.331078
695.030272	9687.068628
695.366707	9563.184793
695.703093	9498.849587
696.039429	9489.248710
696.375716	9421.447711
696.711952	9292.285788
697.048139	9331.952107
697.384276	9284.779510
697.720363	9293.009193
698.056400	9237.354855
698.392388	9194.956231
698.728326	9153.396958
699.064214	9085.061597
699.400053	9138.830544
699.735842	8946.306358
700.071581	8913.453159
700.407270	8837.480450
700.742910	8755.377697
701.078501	8669.705808
701.414042	8541.690748
701.749533	8476.309503
702.084974	8344.536262
702.420366	8451.771687
702.755709	8332.699633
703.091002	8203.943522
703.426246	8230.691885
703.761440	8178.006786
704.096584	8134.756206
704.431679	8069.700116
704.766725	8054.566572
705.101721	8009.649891
705.436668	8044.940489
705.771565	7940.512987
706.106413	8024.158332
706.441212	8073.861588
706.775961	8022.711521
707.110661	8051.262096
707.445311	8201.874129
707.779913	8099.274045
708.114465	8226.356492
708.448967	8271.689068
708.783421	8398.577431
709.117825	8585.886543
709.452180	8622.087069
709.786485	8703.365593
710.120742	8984.548551
710.454949	8988.664653
710.789107	9083.977749
711.123216	9293.261251
711.457275	9455.467938
711.791286	9617.783009
712.125247	9611.733625
712.459159	9603.604764
712.793023	9863.009938
713.126837	9436.195607
713.460602	9582.815046
713.794318	9411.017564
714.127985	9442.325650
714.461602	9130.686560
714.795171	9087.861958
715.128691	8844.404474
715.462162	8579.408661
715.795584	8533.019963
716.128957	8397.130620
716.462281	8218.789720
716.795556	8261.405114
717.128782	8066.254487
717.461960	7796.887993
717.795088	7868.031277
718.128167	7777.139273
718.461198	7606.478571
718.794180	7546.871968
719.127113	7544.089251
719.459997	7405.376862
719.792833	7162.731004
720.125619	7225.687454
720.458357	7084.968685
720.791046	7076.146666
721.123686	7076.234886
721.456278	6920.385095
721.788821	6937.875378
722.121315	6828.003430
722.453761	6886.130454
722.786158	6841.307035
723.118506	6848.707449
723.450805	6815.037582
723.783056	6892.704119
724.115259	6790.083871
724.447412	6786.280320
724.779518	6830.307237
725.111574	6831.834707
725.443582	6915.152377
725.775542	6897.069758
726.107453	7082.148160
726.439315	7002.119842
726.771129	7047.427213
727.102895	7211.320165
727.434612	7332.869946
727.766281	7360.984461
728.097901	7441.597553
728.429473	7430.340656
728.760996	7404.749238
729.092471	7381.234776
729.423897	7331.309709
729.755276	7354.302412
730.086606	7273.805267
730.417887	7370.459310
730.749120	7551.973616
731.080305	7747.005776
731.411442	7879.288173
731.742530	7876.240796
732.073570	7974.029098
732.404562	8062.972696
732.735506	7905.708861
733.066401	8052.756798
733.397249	7988.429154
733.728048	7750.736230
734.058798	7420.558297
734.389501	7206.044598
734.720156	7029.334512
735.050762	6785.909795
735.381320	6689.875814
735.711831	6649.019783
736.042293	6539.578854
736.372707	6562.921917
736.703073	6428.940650
737.033391	6456.735052
737.363661	6467.702082
737.693883	6488.932902
738.024056	6572.850469
738.354182	6619.854188
738.684260	6659.822976
739.014290	6766.443380
739.344272	6876.073352
739.674207	6904.898670
740.004093	6970.617672
740.333931	6984.352296
740.663722	6993.118862
740.993464	7071.576860
741.323159	7075.171203
741.652806	6817.190155
741.982405	6815.516492
742.311956	6883.642645
742.641460	6737.325675
742.970915	6539.561210
743.300323	6531.626433
743.629683	6474.109389
743.958996	6342.515109
744.288260	6251.718887
744.617477	6199.633685
744.946647	6207.765066
745.275768	6049.437547
745.604842	5999.966184
745.933869	5983.320294
746.262847	5941.556855
746.591778	5925.893990
746.920662	5889.912755
747.249498	5872.165373
747.578286	5922.861736
747.907027	5999.623386
748.235720	6059.552623
748.564365	6031.405340
748.892963	6048.147012
749.221514	6206.845056
749.550017	6053.346962
749.878473	5920.484832
750.206881	5972.454087
750.535242	5917.525675
750.863555	5845.517833
751.191821	5869.871648
751.520039	5871.842739
751.848210	5777.520230
752.176334	5794.806346
752.504411	5846.699984
752.832440	5778.793121
753.160421	5697.428898
753.488356	5747.989150
753.816243	5787.479029
754.144082	5641.923273
754.471875	5605.289208
754.799620	5644.975692
755.127318	5663.055790
755.454969	5609.687615
755.782572	5580.121248
756.110129	5620.531137
756.437638	5613.849088
756.765100	5557.320109
757.092515	5545.440630
757.419882	5591.564667
757.747203	5578.397173
758.074477	5648.239839
758.401703	5634.543024
758.728882	5578.939097
759.056014	5629.857272
759.383099	5763.442807
759.710138	5772.194251
760.037129	5755.321509
760.364073	5765.096306
760.690970	5844.214695
761.017820	5832.635165
761.344623	5781.207834
761.671379	5878.247525
761.998088	5992.575853
762.324751	6219.624381
762.651366	6790.945908
762.977935	8059.156543
763.304456	9661.363784
763.630931	10597.314490
763.957359	10241.406508
764.283740	9322.951127
764.610074	8506.032146
764.936362	7527.662652
765.262602	6928.970180
765.588796	6390.562346
765.914943	6047.431168
766.241044	5885.756323
766.567097	5697.817067
766.893104	5443.032110
767.219064	5261.008648
767.544978	5198.669739
767.870845	5122.565960
768.196665	5016.903376
768.522438	4944.973672
768.848165	4910.572838
769.173846	4850.941029
769.499479	4807.902178
769.825066	4754.491153
770.150607	4689.770300
770.476101	4666.613759
770.801548	4663.783152
771.126949	4596.145990
771.452303	4540.627763
771.777611	4496.139580
772.102872	4515.522817
772.428087	4477.787260
772.753256	4442.597485
773.078378	4396.145773
773.403453	4329.652954
773.728482	4312.263494
774.053465	4265.360598
774.378401	4255.185029
774.703291	4259.001183
775.028135	4190.444011
775.352932	4138.376454
775.677683	4125.347592
776.002388	4144.612361
776.327046	4157.442098
776.651658	4083.538782
776.976224	4018.507897
777.300743	4026.036861
777.625216	4044.684089
777.949643	4045.936816
778.274024	4001.612470
778.598359	3952.650264
778.922647	3973.190445
779.246889	3969.575938
779.571086	3966.271461
779.895236	3950.742187
780.219339	3932.732665
780.543397	3924.276129
780.867409	3977.147751
781.191374	3990.302642
781.515294	3936.203499
781.839167	3929.425668
782.162995	3945.781692
782.486776	3933.546811
782.810511	3935.853139
783.134201	3939.775157
783.457844	3900.728900
783.781441	3838.982327
784.104993	3842.327132
784.428498	3861.768342
784.751958	3860.860934
785.075372	3841.263449
785.398739	3805.834220
785.722061	3813.343018
786.045337	3853.198381
786.368568	3891.644740
786.691752	3805.909837
787.014891	3848.250488
787.337983	3968.716421
787.661030	4127.744660
787.984031	4288.998569
788.306987	4458.613231
788.629897	4538.026528
788.952760	4493.213191
789.275579	4427.925207
789.598351	4371.043348
789.921078	4236.252976
790.243759	4036.918191
790.566395	4011.145292
790.888984	4010.600848
791.211529	3906.286772
791.534027	3845.157740
791.856480	3838.606761
792.178888	3775.809107
792.501249	3724.059143
792.823566	3732.117427
793.145836	3763.652365
793.468062	3715.446331
793.790241	3668.389681
794.112375	3694.371787
794.434464	3754.447218
794.756507	3782.178605
795.078505	3767.541615
795.400457	3794.715955
795.722364	3927.872993
796.044226	4031.549362
796.366042	4105.034262
796.687812	4089.726798
797.009538	4099.872121
797.331218	4056.611459
797.652852	4028.597767
797.974442	4008.881814
798.295986	4008.438193
798.617484	3930.196964
798.938938	3840.451823
799.260346	3879.644274
799.581709	3879.152761
799.903026	3811.273625
800.224299	3771.945063
800.545526	3761.872838
800.866708	3725.969740
801.187845	3663.885410
801.508936	3702.331769
801.829983	3702.737582
802.150984	3621.239769
802.471940	3610.681072
802.792851	3626.253196
803.113717	3623.528452
803.434538	3624.992908
803.755314	3572.748910
804.076045	3541.536606
804.396731	3557.887588
804.717372	3589.044440
805.037967	3576.922985
805.358518	3563.702559
805.679024	3586.864141
805.999485	3601.647324
806.319901	3604.598920
806.640272	3619.762711
806.960598	3636.330463
807.280879	3610.469343
807.601115	3617.574850
807.921306	3635.843991
808.241453	3675.210362
808.561554	3652.895694
808.881611	3590.680294
809.201623	3622.681539
809.521590	3633.877941
809.841513	3606.451544
810.161390	3638.735093
810.481223	3620.657515
810.801011	3563.100141
811.120755	3549.660425
811.440453	3587.937906
811.760107	3595.756736
812.079716	3550.613203
812.399281	3519.146321
812.718801	3541.897048
813.038276	3516.610621
813.357707	3510.450331
813.677093	3531.182076
813.996434	3479.132162
814.315731	3486.459479
814.634983	3489.315293
814.954191	3504.673168
815.273354	3532.601161
815.592473	3528.845501
815.911547	3533.748023
816.230577	3569.721697
816.549562	3622.953761
816.868502	3661.054802
817.187399	3687.052032
817.506250	3685.645550
817.825058	3658.221673
818.143821	3741.859457
818.462539	3846.423070
818.781213	3892.199267
819.099843	3942.323460
819.418429	4172.920960
819.736970	4411.443155
820.055466	4653.216893
820.373919	5011.174104
820.692327	5415.104118
821.010691	5820.296941
821.329011	7118.542770
821.647286	9743.184232
821.965517	14166.673224
822.283704	18176.727106
822.601847	20441.866243
822.919945	18708.399958
823.237999	16204.655448
823.556010	13759.103497
823.873976	11717.468957
824.191897	9649.985900
824.509775	8287.954351
824.827609	7173.405647
825.145398	6619.821420
825.463144	6505.387228
825.780845	6618.104907
826.098502	6781.221522
826.416116	7603.201821
826.733685	8886.666988
827.051210	10003.549746
827.368692	10120.328075
827.686129	8920.903984
828.003522	7413.760301
828.320872	6404.604480
828.638177	5713.066557
828.955439	5167.631355
829.272656	4676.305378
829.589830	4385.040111
829.906960	4215.448134
830.224046	4033.606153
830.541088	3908.918254
830.858086	3861.538970
831.175041	3788.195222
831.491952	3767.808796
831.808819	3781.195580
832.125642	3843.710929
832.442421	3983.469358
832.759157	4246.635233
833.075849	4771.898257
833.392497	5610.877327
833.709101	6372.479727
834.025662	6725.990641
834.342179	6409.728813
834.658653	5757.494246
834.975083	5122.858347
835.291469	4557.172830
835.607811	4143.324346
835.924110	4006.298223
836.240366	3811.485353
836.556578	3603.522633
836.872746	3495.137826
837.188871	3463.250007
837.504952	3397.233577
837.820990	3318.586536
838.136984	3266.342538
838.452935	3292.168369
838.768842	3286.028244
839.084706	3307.599341
839.400526	3455.922690
839.716303	3779.141310
840.032037	4281.204945
840.347727	4559.620310
840.663373	4306.365344
840.978977	3938.829940
841.294537	3632.211840
841.610054	3402.849422
841.925527	3292.513688
842.240957	3226.230077
842.556344	3175.979855
842.871687	3120.131432
843.186987	3068.101683
843.502244	3032.727907
843.817458	2998.843791
844.132629	2964.301805
844.447756	2974.699185
844.762840	2961.889613
845.077881	2931.985488
845.392879	2913.129053
845.707833	2910.583270
846.022745	2910.011099
846.337613	2909.872467
846.652438	2896.291599
846.967221	2896.140364
847.281960	2884.238200
847.596656	2878.181253
847.911309	2877.092364
848.225919	2870.763196
848.540485	2861.807586
848.855009	2865.578369
849.169490	2858.004035
849.483928	2847.720081
849.798323	2844.062724
850.112675	2843.571212
850.426984	2854.979343
850.741251	2854.071935
851.055474	2843.601459
851.369654	2836.465705
851.683792	2840.884277
851.997887	2847.775534
852.311938	2851.011955
852.625947	2840.410408
852.939914	2844.460975
853.253837	2851.700072
853.567718	2831.011177
853.881555	2829.143429
854.195350	2845.847293
854.509103	2846.863085
854.822812	2837.662979
855.136479	2832.957062
855.450103	2835.437310
855.763685	2828.601505
856.077224	2823.056236
856.390720	2834.018225
856.704173	2846.048939
857.017584	2841.587518
857.330953	2835.437310
857.644278	2843.616582
857.957561	2853.066225
858.270802	2855.952286
858.584000	2858.470342
858.897155	2844.476099
859.210268	2841.479133
859.523339	2840.508711
859.836367	2840.758248
860.149352	2836.150633
860.462295	2828.195692
860.775195	2841.156499
861.088054	2840.816221
861.400869	2824.782831
861.713642	2820.122285
862.026373	2834.671055
862.339062	2837.138699
862.651708	2841.216993
862.964312	2844.299658
863.276873	2839.860922
863.589392	2847.142869
863.901869	2854.734847
864.214303	2879.605379
864.526696	2896.286558
864.839045	2891.913357
865.151353	2890.620301
865.463619	2891.265568
865.775842	2888.979405
866.088023	2905.776530
866.400162	2916.836821
866.712258	2889.647358
867.024313	2876.300903
867.336325	2885.170813
867.648296	2903.855850
867.960224	2895.616084
868.272110	2882.965308
868.583954	2889.728016
868.895755	2904.934657
869.207515	2889.967471
869.519233	2891.502503
869.830909	2904.077661
870.142542	2913.686100
870.454134	2915.453024
870.765684	2918.646595
871.077191	2918.329003
871.388657	2923.186154
871.700081	2938.342383
872.011463	2948.520473
872.322803	2945.405040
872.634101	2947.270267
872.945357	2965.804069
873.256571	2989.023624
873.567744	2982.439877
873.878874	2973.983341
874.189963	2995.133502
874.501010	3002.090294
874.812015	2990.954386
875.122979	2989.361381
875.433900	2987.788541
875.744780	2991.907164
876.055618	3002.198679
876.366415	2995.836743
876.677169	3008.101870
876.987882	3006.352590
877.298554	2997.530571
877.609183	3014.055473
877.919771	3039.669576
878.230317	3065.848288
878.540822	3113.703961
878.851285	3154.930517
879.161707	3191.042823
879.472087	3286.030764
879.782425	3497.756705
880.092722	3917.115170
880.402977	4429.634158
880.713191	5032.465418
881.023363	6135.467358
881.333494	7390.412197
881.643583	7965.282696
881.953631	7680.631424
882.263637	7085.724858
882.573602	6528.964704
882.883526	5956.156037
883.193408	5392.166868
883.503248	4928.053039
883.813048	4630.980363
884.122806	4349.220193
884.432522	4041.780384
884.742197	3811.722287
885.051831	3618.515025
885.361424	3484.299345
885.670975	3411.923499
885.980485	3332.855522
886.289954	3258.737957
886.599382	3216.460321
886.908768	3175.800894
887.218113	3131.728607
887.527417	3076.318764
887.836680	3029.544418
888.145901	3025.178779
888.455082	3018.043026
888.764221	2964.551342
889.073319	2940.131993
889.382376	2936.010850
889.691392	2937.785336
890.000366	2935.032866
890.309300	2926.387287
890.618193	2936.943463
890.927044	2956.427523
891.235855	2957.798717
891.544625	2943.050821
891.853353	2952.492902
892.162041	2967.339100
892.470687	3009.568846
892.779293	3057.779921
893.087858	3101.191817
893.396381	3168.282013
893.704864	3283.729477
894.013306	3507.455885
894.321707	3802.549908
894.630068	4012.317361
894.938387	4016.443545
895.246665	3966.878920
895.554903	3854.519163
895.863100	3660.243176
896.171256	3495.286540
896.479371	3360.748226
896.787446	3243.662387
897.095480	3143.839979
897.403473	3075.895307
897.711425	3044.665359
898.019336	3033.045500
898.327207	3004.933505
898.635038	2971.470326
898.942827	2957.707976
899.250576	2946.579629
899.558284	2915.054773
899.865952	2895.583317
900.173579	2876.958774
900.481165	2872.046169
900.788711	2857.852801
901.096216	2837.015191
901.403681	2822.965495
901.711105	2832.193327
902.018489	2826.275013
902.325832	2826.388439
902.633135	2837.693226
902.940397	2863.382946
903.247619	2941.956891
903.554800	3122.858697
903.861941	3445.696709
904.169041	3858.693238
904.476101	4162.584074
904.783121	4140.576917
905.090100	3901.235536
905.397039	3634.936584
905.703938	3390.349881
906.010796	3207.502190
906.317614	3097.804162
906.624391	3006.844103
906.931129	2939.872374
907.237826	2877.029350
907.544483	2832.531085
907.851099	2803.736014
908.157675	2783.039557
908.464211	2762.315373
908.770707	2749.619227
909.077163	2740.088926
909.383578	2723.967316
909.689954	2711.873588
909.996289	2712.211345
910.302584	2712.344936
910.608839	2714.217725
910.915054	2710.227651
911.221229	2699.636187
911.527363	2703.008719
911.833458	2708.007023
912.139513	2712.680173
912.445527	2717.552448
912.751502	2726.301370
913.057436	2734.369737
913.363331	2746.924731
913.669186	2764.488111
913.975000	2798.195786
914.280775	2852.113447
914.586510	2922.432502
914.892205	2997.709532
915.197859	3117.835187
915.503475	3300.524082
915.809050	3507.972603
916.114585	3647.068120
916.420081	3674.358407
916.725536	3618.293214
917.030952	3510.299096
917.336328	3384.444170
917.641665	3256.703852
917.946961	3159.492762
918.252218	3092.886516
918.557435	3021.745753
918.862612	2960.001701
919.167750	2913.585277
919.472848	2873.296375
919.777906	2848.980370
920.082925	2824.142605
920.387904	2794.488017
920.692843	2777.877415
920.997743	2765.471136
921.302603	2753.765577
921.607423	2744.167220
921.912204	2732.438975
922.216946	2724.935218
922.521647	2714.558002
922.826310	2705.136086
923.130932	2700.493183
923.435516	2691.658561
923.740059	2686.014989
924.044564	2676.290604
924.349028	2673.301199
924.653454	2665.739469
924.957840	2660.688232
925.262186	2656.864517
925.566493	2651.886378
925.870761	2649.078455
926.174989	2642.298103
926.479178	2639.240643
926.783328	2634.539767
927.087438	2631.860394
927.391509	2630.421145
927.695541	2628.641618
927.999533	2627.262862
928.303486	2623.103910
928.607400	2621.558796
928.911275	2619.438991
929.215110	2621.039557
929.518906	2620.714403
929.822663	2622.098200
930.126381	2615.736264
930.430060	2620.416975
930.733699	2619.449073
931.037299	2621.619290
931.340861	2624.162552
931.644383	2625.165742
931.947866	2621.402521
932.251309	2620.144753
932.554714	2619.806995
932.858080	2618.972684
933.161407	2616.981429
933.464694	2613.308948
933.767943	2610.468258
934.071153	2614.405399
934.374323	2613.258537
934.677455	2610.571602
934.980548	2611.340377
935.283602	2611.252157
935.586617	2611.262240
935.889593	2612.363732
936.192530	2611.239554
936.495428	2611.668052
936.798287	2613.550923
937.101108	2617.372118
937.403890	2619.602829
937.706632	2624.868314
938.009336	2630.988275
938.312002	2638.756693
938.614628	2647.266160
938.917216	2654.611122
939.219765	2654.807727
939.522275	2653.648261
939.824747	2649.446459
940.127179	2649.212046
940.429573	2649.937972
940.731929	2644.639719
941.034246	2641.075623
941.336524	2637.745941
941.638763	2634.123872
941.940964	2633.009777
942.243126	2631.129427
942.545250	2631.154633
942.847335	2625.833695
943.149381	2625.722789
943.451389	2616.779782
943.753359	2618.841614
944.055290	2616.036212
944.357182	2614.917076
944.659036	2616.741974
944.960851	2615.564864
945.262628	2614.690224
945.564367	2614.357508
945.866067	2614.322220
946.167729	2615.955554
946.469352	2614.254164
946.770937	2612.966150
947.072484	2613.767693
947.373992	2614.002107
947.675462	2612.285594
947.976893	2605.104470
948.278286	2604.154213
948.579641	2607.390633
948.880958	2602.064654
949.182236	2605.963987
949.483476	2604.197062
949.784678	2603.279572
950.085841	2603.778647
950.386967	2604.834768
950.688054	2606.652104
950.989103	2606.742845
951.290114	2607.438524
951.591087	2608.965994
951.892021	2611.821808
952.192917	2613.354318
952.493776	2615.237189
952.794596	2618.612242
953.095378	2618.100565
953.396122	2617.513270
953.696828	2615.925307
953.997496	2611.882302
954.298126	2608.928185
954.598718	2606.979779
954.899272	2604.726384
955.199788	2603.483739
955.500266	2602.062134
955.800706	2598.876125
956.101108	2598.676999
956.401472	2594.233222
956.701798	2594.296236
957.002087	2593.232553
957.302337	2589.635690
957.602550	2589.958323
957.902724	2587.289032
958.202861	2587.034454
958.502960	2588.191399
958.803022	2585.373394
959.103045	2585.234762
959.403031	2583.742581
959.702979	2582.026068
960.002889	2582.671336
960.302762	2582.215111
960.602596	2580.357446
960.902393	2584.065215
961.202153	2577.680593
961.501875	2581.763928
961.801559	2581.000193
962.101205	2579.933989
962.400814	2582.066397
962.700385	2580.054977
962.999918	2575.248237
963.299414	2574.131621
963.598873	2574.653380
963.898293	2577.113463
964.197677	2578.063721
964.497022	2577.819225
964.796331	2578.136818
965.095601	2579.248392
965.394835	2577.874678
965.694030	2575.167578
965.993189	2579.540779
966.292309	2577.476427
966.591393	2578.159503
966.890439	2577.239492
967.189447	2575.933833
967.488419	2576.722774
967.787353	2577.393248
968.086249	2578.131777
968.385108	2579.800398
968.683930	2578.202353
968.982714	2577.557085
969.281462	2577.045408
969.580172	2577.821746
969.878844	2576.921900
970.177480	2578.749318
970.476078	2576.029615
970.774639	2577.874678
971.073162	2576.901735
971.371649	2577.960377
971.670098	2577.007599
971.968510	2580.480954
972.266885	2577.794019
972.565223	2577.965418
972.863524	2575.328895
973.161788	2579.596232
973.460014	2578.855182
973.758204	2578.262847
974.056356	2577.289904
974.354471	2575.326374
974.652550	2575.923751
974.950591	2576.934502
975.248595	2577.892322
975.546563	2574.930644
975.844493	2577.121025
976.142386	2579.238310
976.440243	2579.714699
976.738062	2578.469534
977.035845	2576.062383
977.333590	2572.087433
977.631299	2574.822259
977.928971	2569.929819
978.226606	2573.388051
978.524204	2571.235478
978.821765	2571.875705
979.119290	2574.391240
979.416777	2575.475088
979.714228	2576.188412
980.011642	2575.936354
980.309020	2574.476940
980.606360	2574.056004
980.903664	2574.930644
981.200931	2576.095150
981.498162	2576.208576
981.795356	2576.654718
982.092513	2577.683114
982.389633	2580.385172
982.686717	2585.874989
982.983764	2587.745257
983.280775	2594.699529
983.577749	2592.957810
983.874686	2591.984867
984.171587	2588.312387
984.468451	2590.031420
984.765279	2585.088569
985.062070	2582.252920
985.358824	2581.776531
985.655543	2578.847620
985.952224	2577.143710
986.248869	2577.443659
986.545478	2574.676066
986.842050	2574.759245
987.138586	2577.915007
987.435086	2576.541292
987.731549	2572.581466
988.027975	2572.662125
988.324366	2569.778585
988.620719	2573.322516
988.917037	2571.802608
989.213318	2571.835375
989.509563	2570.872515
989.805772	2573.345201
990.101944	2571.815211
990.398080	2571.835375
990.694180	2570.927968
990.990244	2569.937381
991.286271	2569.723132
991.582262	2572.677248
991.878217	2573.733370
992.174136	2570.842268
992.470019	2570.028122
992.765865	2568.147771
993.061676	2568.258677
993.357450	2570.232288
993.653188	2568.425035
993.948890	2573.166240
994.244556	2573.922413
994.540186	2572.072310
994.835780	2571.868143
995.131337	2573.932495
995.426859	2573.254460
995.722345	2573.256981
996.017795	2574.320664
996.313208	2577.123546
996.608586	2576.810994
996.903928	2575.565829
997.199234	2577.196643
997.494504	2575.780078
997.789738	2576.856365
998.084936	2575.207907
998.380099	2573.695561
998.675225	2576.962229
998.970316	2574.716395
999.265371	2573.317475
999.560390	2571.661456
999.855373	2572.432752
1000.150320	2571.754717
1000.445232	2572.710016
1000.740108	2571.422001
1001.034948	2573.138514
1001.329752	2571.399316
1001.624521	2572.349573
1001.919254	2571.328739
1002.213951	2571.147258
1002.508613	2567.878070
1002.803239	2570.234809
1003.097829	2572.354614
1003.392384	2569.355128
1003.686903	2569.675241
1003.981386	2572.231106
1004.275834	2569.995354
1004.570246	2572.483164
1004.864623	2570.996023
1005.158964	2571.835375
1005.453270	2568.273800
1005.747540	2568.301527
1006.041775	2569.760941
1006.335974	2565.377657
1006.630138	2569.859243
1006.924266	2570.207083
1007.218359	2569.886969
1007.512416	2563.782132
1007.806438	2566.058213
1008.100425	2567.782288
1008.394376	2563.910682
1008.688292	2566.068295
1008.982172	2568.024263
1009.276017	2567.177349
1009.569827	2569.639953
1009.863602	2572.193297
1010.157341	2568.538461
1010.451045	2569.372772
1010.744714	2569.370251
1011.038347	2572.752865
1011.331945	2568.901424
1011.625508	2566.547205
1011.919036	2569.718091
1012.212528	2567.578121
1012.505986	2569.886969
1012.799408	2570.895200
1013.092795	2568.906465
1013.386147	2568.520817
1013.679464	2565.571742
1013.972745	2568.329253
1014.265992	2571.432083
1014.559204	2567.189952
1014.852380	2570.275138
1015.145521	2566.622822
1015.438628	2570.857392
1015.731699	2567.010991
1016.024736	2567.608368
1016.317737	2568.059551
1016.610703	2568.170457
1016.903635	2569.939902
1017.196531	2570.161712
1017.489393	2566.390929
1017.782219	2568.848492
1018.075011	2569.723132
1018.367768	2568.346897
1018.660490	2571.606003
1018.953177	2571.606003
1019.245829	2571.606003
