Dividing Wavelength (nm)	Counts (n)	Blue Motor Position (mm): 49.300000	Red Motor Position (mm): 0.000000	
326.493990	2130.925978
326.888308	2130.925978
327.282561	2130.925978
327.676750	2099.670824
328.070874	2094.780905
328.464933	2096.956163
328.858929	2106.705754
329.252859	2113.344954
329.646726	2124.397683
330.040528	2140.126083
330.434265	2158.491007
330.827938	2173.296876
331.221547	2192.256655
331.615091	2211.571836
332.008571	2230.844168
332.401986	2250.179513
332.795338	2266.437234
333.188625	2288.857766
333.581847	2304.858388
333.975006	2325.184321
334.368100	2342.750221
334.761129	2361.626822
335.154095	2377.307331
335.546996	2399.480846
335.939833	2427.144178
336.332606	2438.345622
336.725315	2452.768363
337.117960	2462.197841
337.510540	2471.765951
337.903056	2483.335399
338.295508	2489.394866
338.687896	2498.615136
339.080220	2506.191991
339.472480	2513.413443
339.864676	2520.234125
340.256807	2519.727489
340.648875	2524.516585
341.040879	2528.315094
341.432818	2527.460619
341.824694	2531.546474
342.216506	2529.159487
342.608253	2530.404652
342.999937	2529.794673
343.391557	2530.084539
343.783113	2530.308871
344.174605	2527.198479
344.566033	2525.343334
344.957397	2525.577748
345.348697	2524.239321
345.739934	2524.148581
346.131106	2519.672036
346.522215	2519.883764
346.913260	2517.143897
347.304241	2514.633403
347.695159	2512.949657
348.086012	2513.577281
348.476802	2508.924296
348.867528	2509.476302
349.258191	2504.815756
349.648789	2503.149654
350.039324	2507.147289
350.429796	2505.521517
350.820203	2501.624705
351.210548	2502.393481
351.600828	2500.626557
351.991045	2503.086640
352.381198	2499.328460
352.771288	2500.997082
353.161314	2500.475322
353.551276	2502.068327
353.941175	2499.615805
354.331010	2499.595641
354.720782	2496.754951
355.110490	2497.947183
355.500135	2499.189828
355.889717	2500.792915
356.279235	2499.013388
356.668689	2499.769561
357.058080	2499.225116
357.447408	2500.750065
357.836672	2499.152019
358.225873	2500.490446
358.615010	2497.518685
359.004084	2502.499345
359.393095	2502.340549
359.782043	2503.875580
360.170927	2505.639984
360.559748	2505.574449
360.948505	2504.369613
361.337199	2504.997237
361.725830	2504.561177
362.114398	2509.136024
362.502903	2508.599142
362.891344	2507.573267
363.279722	2508.785664
363.668037	2509.617455
364.056289	2511.172651
364.444478	2512.425377
364.832603	2510.174502
365.220665	2511.371776
365.608665	2514.416633
365.996601	2514.288084
366.384474	2513.501664
366.772284	2517.219515
367.160031	2517.461490
367.547715	2518.061387
367.935336	2519.044412
368.322893	2521.595236
368.710388	2521.030627
369.097820	2529.366175
369.485189	2529.333407
369.872495	2535.506300
370.259738	2539.410674
370.646918	2543.940151
371.034035	2554.259392
371.421090	2561.352296
371.808081	2567.452092
372.195010	2578.358628
372.581875	2588.945052
372.968678	2604.028184
373.355418	2612.076386
373.742096	2630.279992
374.128710	2643.268525
374.515262	2656.869558
374.901751	2673.351611
375.288177	2684.051460
375.674540	2706.572815
376.060841	2725.472101
376.447079	2741.278638
376.833254	2765.587082
377.219367	2776.697785
377.605417	2815.456697
377.991404	2822.335351
378.377329	2845.496932
378.763191	2862.324304
379.148991	2901.771333
379.534727	2925.739499
379.920402	2954.224539
380.306013	2968.191055
380.691563	3017.430526
381.077049	3041.476829
381.462474	3063.299984
381.847835	3104.153495
382.233134	3124.484469
382.618371	3124.890282
383.003545	3193.528112
383.388657	3201.152857
383.773706	3237.807087
384.158693	3253.008686
384.543618	3282.910290
384.928480	3317.684169
385.313280	3361.025489
385.698017	3365.749051
386.082692	3416.195877
386.467305	3421.869696
386.851856	3454.614511
387.236344	3478.446565
387.620770	3515.859489
388.005133	3538.277500
388.389435	3565.134247
388.773674	3575.894590
389.157851	3622.752115
389.541965	3638.261225
389.926018	3600.525668
390.310008	3672.188190
390.693936	3692.282229
391.077802	3735.255545
391.461606	3719.398596
391.845348	3784.653812
392.229027	3784.177423
392.612645	3798.262407
392.996200	3876.914489
393.379694	3914.980242
393.763125	3978.549192
394.146494	3946.923513
394.529801	4010.810056
394.913047	4058.267478
395.296230	4021.353629
395.679351	4079.112649
396.062410	4101.520578
396.445408	4087.044905
396.828343	4115.275366
397.211217	4138.560456
397.594028	4058.905184
397.976778	4126.643168
398.359466	4152.433711
398.742092	4180.863298
399.124656	4103.080815
399.507158	4183.472095
399.889598	4211.390005
400.271977	4267.455198
400.654294	4242.355293
401.036549	4252.304010
401.418742	4219.957446
401.800874	4324.306810
402.182944	4341.945808
402.564952	4408.138678
402.946898	4395.147625
403.328783	4392.218714
403.710606	4303.580106
404.092367	4498.307277
404.474067	4461.264878
404.855705	4475.914471
405.237282	4403.127771
405.618797	4508.064430
406.000250	4541.434348
406.381642	4625.036843
406.762972	4586.739197
407.144240	4596.647585
407.525447	4596.236731
407.906593	4655.162778
408.287677	4694.778686
408.668700	4629.919201
409.049661	4680.713867
409.430560	4718.716605
409.811399	4645.014936
410.192176	4809.147343
410.572891	4743.191407
410.953545	4849.398436
411.334138	4729.386207
411.714669	4796.796516
412.095139	4692.114436
412.475547	4834.186754
412.855894	4810.841171
413.236180	4824.885826
413.616405	4776.213485
413.996568	4867.065160
414.376670	4808.882683
414.756711	4763.051032
415.136691	4797.356084
415.516609	4873.653948
415.896466	4910.053599
416.276262	4945.724804
416.655997	4923.478192
417.035670	5102.310604
417.415283	5194.231003
417.794834	5140.557838
418.174324	5096.190643
418.553753	4997.073997
418.933121	5186.449982
419.312428	5251.006998
419.691674	5189.812432
420.070859	5318.863450
420.449983	5229.335078
420.829045	5344.147357
421.208047	5252.373151
421.586988	5325.805119
421.965867	5344.036452
422.344686	5468.184947
422.723444	5324.121373
423.102141	5142.002129
423.480777	5438.845432
423.859352	5209.712387
424.237866	5466.241582
424.616319	5462.289318
424.994712	5571.097582
425.373044	5443.087563
425.751314	5585.792546
426.129524	5391.572012
426.507673	5586.757927
426.885762	5666.461090
427.263789	5599.423826
427.641756	5483.326053
428.019662	5607.653510
428.397508	5611.315908
428.775292	5560.170882
429.153016	5661.608979
429.530679	5585.364048
429.908282	5664.762221
430.285824	5541.911822
430.663305	5813.897196
431.040726	5546.106062
431.418086	5548.349376
431.795385	5654.178318
432.172624	5667.078631
432.549802	5663.759031
432.926920	5675.696484
433.303977	5684.793246
433.680974	5722.385130
434.057910	5738.970526
434.434786	5741.022276
434.811601	5713.369026
435.188355	5951.429955
435.565050	5821.489173
435.941683	5802.753725
436.318257	6018.167270
436.694770	6002.784189
437.071222	6033.794847
437.447614	5966.709692
437.823946	5885.053082
438.200218	6034.041864
438.576429	5897.116563
438.952580	5998.264795
439.328670	6043.231887
439.704700	5955.291479
440.080670	5943.101969
440.456580	6209.607608
440.832429	6091.621923
441.208218	5933.808602
441.583947	6092.531851
441.959616	6097.888077
442.335224	6023.082395
442.710773	6162.790412
443.086261	6187.852509
443.461689	5979.791487
443.837057	6131.782275
444.212365	6283.838598
444.587612	6178.934707
444.962800	6334.532442
445.337927	6314.816489
445.712995	5922.929792
446.088002	6499.050497
446.462949	6328.135217
446.837837	6264.152893
447.212664	6436.033554
447.587431	6576.991777
447.962139	7118.260465
448.336786	8042.286321
448.711374	7786.019266
449.085901	6865.111363
449.460369	6787.054137
449.834776	6716.349434
450.209124	7107.900894
450.583412	7259.921930
450.957640	7403.650267
451.331808	7167.971283
451.705917	6722.955866
452.079965	6638.221632
452.453954	6856.017122
452.827883	6739.143011
453.201752	6830.657597
453.575562	6626.717718
453.949311	6834.433422
454.323001	6718.355813
454.696632	6790.449354
455.070202	6932.441014
455.443713	7087.083449
455.817164	7190.953904
456.190556	7267.443331
456.563888	7345.359405
456.937160	7387.838688
457.310373	7040.861110
457.683526	7065.192239
458.056619	6961.054603
458.429653	6949.626307
458.802628	6882.649537
459.175542	6988.002091
459.548398	7342.551482
459.921194	7508.292018
460.293930	7511.193202
460.666607	8034.381792
461.039224	8346.648505
461.411782	8468.644428
461.784280	8488.761153
462.156719	8383.476655
462.529099	8260.364116
462.901419	7852.958227
463.273680	7740.548058
463.645882	7762.129237
464.018024	7624.220912
464.390106	7788.015562
464.762130	8177.011158
465.134094	8645.556161
465.505999	9672.076236
465.877845	10889.668645
466.249631	11540.269878
466.621358	11153.416773
466.993026	10532.389469
467.364634	10273.697619
467.736184	9909.499459
468.107674	9580.460827
468.479105	9612.270508
468.850477	9375.510197
469.221790	9150.372266
469.593043	8818.036719
469.964238	8678.941202
470.335373	8688.083335
470.706449	8749.925690
471.077467	8731.119665
471.448425	10041.161795
471.819324	11114.587286
472.190164	11135.601336
472.560945	9890.683352
472.931667	9100.255635
473.302330	8966.193710
473.672934	8607.014019
474.043479	8967.801838
474.413965	8908.129700
474.784393	8791.537894
475.154761	8951.413047
475.525070	9036.492601
475.895321	8861.040282
476.265513	9038.231799
476.635645	9208.017860
477.005719	9207.949805
477.375734	9326.071601
477.745691	9560.795286
478.115588	9694.136326
478.485427	9934.833778
478.855207	10477.156067
479.224928	11286.833431
479.594591	11918.999164
479.964194	11733.555279
480.333739	11667.768221
480.703226	11589.199318
481.072653	11676.318018
481.442022	11917.517065
481.811333	12105.998245
482.180584	11909.657906
482.549777	11614.969696
482.918912	11444.435023
483.287988	11464.637447
483.657005	11473.197327
484.025964	11157.505149
484.394864	11287.234202
484.763706	11260.117836
485.132489	11013.365958
485.501213	10987.361166
485.869879	11058.015457
486.238487	10896.401106
486.607036	11009.781698
486.975527	10790.836824
487.343959	10977.087294
487.712333	11029.336333
488.080648	10952.418408
488.448905	11003.326500
488.817104	10935.223032
489.185244	11203.692201
489.553326	11366.355112
489.921350	11904.316803
490.289315	12967.939771
490.657222	13309.147749
491.025070	13212.856669
491.392861	13092.428545
491.760593	12710.840925
492.128267	12359.560722
492.495883	12029.604600
492.863440	11693.389885
493.230939	11355.957732
493.598380	11285.822679
493.965763	11151.256639
494.333088	11048.933819
494.700354	10975.002777
495.067563	11038.480986
495.434713	10866.128978
495.801805	10991.096661
496.168839	10919.015722
496.535815	10862.713596
496.902733	10849.364620
497.269593	10788.187698
497.636395	10893.731815
498.003139	10878.792356
498.369825	10743.555842
498.736453	10901.326314
499.103023	10827.619603
499.469535	10856.742349
499.835989	10844.739362
500.202385	10807.215533
500.568723	10658.927472
500.935003	10879.364527
501.301226	10682.094095
501.667390	10949.607965
502.033497	11044.066585
502.399546	10909.266131
502.765537	10810.232664
503.131470	10890.228213
503.497345	11064.024513
503.863163	10668.934163
504.228923	10978.866822
504.594625	11042.720597
504.960269	10789.349684
505.325856	11013.645742
505.691385	10805.567076
506.056856	10958.044336
506.422270	10982.221709
506.787625	10869.380522
507.152924	10989.901907
507.518164	10973.651748
507.883347	10886.664118
508.248472	10804.747888
508.613540	11045.813345
508.978550	10923.280539
509.343503	10900.844883
509.708398	11017.756803
510.073236	11137.700976
510.438016	11147.274127
510.802738	11087.208779
511.167403	11147.500979
511.532010	11041.901409
511.896561	11273.492017
512.261053	11346.543377
512.625488	11209.126565
512.989866	11197.801612
513.354186	11187.464727
513.718449	11080.993037
514.082655	11284.887545
514.446803	11172.923518
514.810894	11298.942282
515.174927	11163.688124
515.538904	11185.634788
515.902822	11337.612973
516.266684	11224.686086
516.630488	11170.498723
516.994235	11220.562422
517.357925	11284.963162
517.721558	11362.944771
518.085133	11380.908923
518.448651	11395.429967
518.812112	11277.555187
519.175516	11297.578650
519.538863	11418.044583
519.902152	11323.845582
520.265385	11492.522590
520.628560	11394.520038
520.991678	11382.973276
521.354739	11445.990219
521.717743	11378.214426
522.080690	11354.321878
522.443580	11496.086686
522.806413	11449.156064
523.169189	11485.371713
523.531908	11538.019003
523.894569	11354.760458
524.257174	11362.181037
524.619722	11477.641104
524.982213	11431.401120
525.344647	11473.862759
525.707025	11433.326841
526.069345	11531.551203
526.431608	11437.420258
526.793815	11549.175077
527.155964	11337.076090
527.518057	11391.883515
527.880093	11337.673467
528.242072	11408.098386
528.603995	11309.805969
528.965860	11231.393341
529.327669	11282.790425
529.689421	11236.678991
530.051117	11206.260669
530.412755	11310.022738
530.774337	11200.503671
531.135862	11180.815445
531.497331	11202.366377
531.858743	11053.748121
532.220098	11223.997968
532.581396	11097.228073
532.942638	11072.188662
533.303824	11033.180213
533.664953	11051.547657
534.026025	10965.938783
534.387040	11062.746580
534.747999	11069.358054
535.108902	11129.347784
535.469748	10883.079857
535.830537	10991.464665
536.191270	10964.421395
536.551947	10987.277987
536.912567	10997.884574
537.273131	10910.942315
537.633638	10895.208873
537.994089	10878.338652
538.354483	10831.937352
538.714821	10982.143572
539.075103	10981.828499
539.435328	10946.918509
539.795497	10778.382654
540.155609	10938.033475
540.515665	11019.695127
540.875665	10763.438153
541.235609	10826.780251
541.595496	10822.623820
541.955328	10981.697429
542.315102	10856.200425
542.674821	10804.881479
543.034483	10803.036417
543.394090	10814.056379
543.753640	10741.113403
544.113134	10966.279060
544.472571	10816.765999
544.831953	10959.425612
545.191278	10758.979252
545.550548	10791.328337
545.909761	10931.323700
546.268918	10904.403938
546.628019	10987.819911
546.987064	10850.065341
547.346053	10777.535740
547.704986	10881.943077
548.063863	10861.788544
548.422684	10856.560868
548.781449	10775.050451
549.140158	10876.042407
549.498811	10746.013405
549.857408	10609.262024
550.215949	10838.939514
550.574434	10688.922337
550.932864	10786.569488
551.291237	10842.039824
551.649555	10791.414036
552.007817	10808.743003
552.366022	10770.689853
552.724173	10756.556978
553.082267	10746.300751
553.440305	10882.091791
553.798288	10685.993427
554.156215	10840.877838
554.514086	10815.833386
554.871902	10658.340178
555.229661	10705.512775
555.587365	10678.109063
555.945014	10572.108721
556.302606	10699.793586
556.660143	10590.324930
557.017625	10747.354352
557.375050	10638.755295
557.732421	10770.949472
558.089735	10691.838645
558.446994	10683.581235
558.804197	10725.574047
559.161345	10725.185878
559.518437	10578.286655
559.875474	10662.990642
560.232455	10698.737464
560.589381	10648.648559
560.946251	10646.838785
561.303065	10746.542726
561.659825	10679.676861
562.016528	10617.678231
562.373177	10487.644188
562.729770	10609.710687
563.086307	10528.308655
563.442789	10618.762079
563.799216	10495.841104
564.155587	10547.230626
564.511904	10495.901598
564.868164	10490.459672
565.224370	10505.008442
565.580520	10434.170148
565.936615	10436.300036
566.292654	10299.571341
566.648638	10435.178379
567.004567	10394.864272
567.360441	10380.139062
567.716260	10285.282190
568.072023	10382.168126
568.427732	10325.792902
568.783385	10242.742413
569.138982	10310.288834
569.494525	10324.666205
569.850013	10201.019304
570.205445	10279.653742
570.560823	10179.652373
570.916145	10100.188665
571.271412	10166.063943
571.626625	10110.669224
571.981782	10088.430174
572.336884	10063.889837
572.691931	10062.392614
573.046923	10014.158854
573.401860	9966.696391
573.756743	9903.671885
574.111570	9951.051170
574.466342	9935.388305
574.821059	9964.422830
575.175722	9853.610707
575.530330	9863.932469
575.884882	9853.401499
576.239380	9777.592627
576.593823	9751.817208
576.948211	9779.266291
577.302544	9651.170571
577.656823	9670.584055
578.011047	9675.360548
578.365216	9642.976176
578.719330	9569.382891
579.073389	9572.226102
579.427394	9525.179534
579.781344	9502.330504
580.135239	9455.929203
580.489080	9465.252817
580.842866	9365.843784
581.196597	9371.414259
581.550273	9411.012523
581.903895	9374.174291
582.257463	9446.202297
582.610975	9323.301487
582.964434	9346.062297
583.317837	9266.999360
583.671186	9255.024099
584.024481	9243.794929
584.377721	9164.459770
584.730906	9141.194845
585.084037	9171.804732
585.437113	9107.827448
585.790135	9126.875448
586.143103	9027.005149
586.496016	9000.385336
586.848874	9060.614522
587.201679	9049.975167
587.554428	8933.953011
587.907124	8972.802663
588.259765	8952.214591
588.612352	8954.180641
588.964884	8827.892175
589.317362	8843.144186
589.669786	8841.394906
590.022155	8888.993480
590.374470	8900.807424
590.726731	8846.491512
591.078937	8697.195220
591.431090	8815.057397
591.783188	8683.208539
592.135232	8673.327877
592.487222	8672.937188
592.839157	8730.933142
593.191038	8664.654572
593.542866	8607.238351
593.894639	8499.599634
594.246358	8557.474600
594.598022	8571.196621
594.949633	8474.308165
595.301190	8445.555944
595.652692	8476.075089
596.004141	8588.344106
596.355535	8365.041155
596.706876	8343.258329
597.058162	8276.410109
597.409395	8354.124537
597.760573	8416.753311
598.111698	8324.510278
598.462768	8307.836662
598.813785	8273.433308
599.164748	8242.251250
599.515657	8234.971824
599.866511	8140.886249
600.217312	8267.835106
600.568060	8126.360165
600.918753	8228.945125
601.269392	8206.643060
601.619978	8119.877241
601.970510	8178.773041
602.320988	8176.058380
602.671412	8227.309270
603.021783	8162.056575
603.372100	8141.977659
603.722363	8144.155438
604.072572	8120.671222
604.422728	8129.468036
604.772830	8057.772746
605.122878	8065.959580
605.472872	8056.953558
605.822813	8087.036644
606.172701	8035.871453
606.522534	8103.937112
606.872314	8109.832742
607.222041	8080.309224
607.571714	8131.129096
607.921333	8093.406142
608.270899	8093.905216
608.620411	8188.199999
608.969870	8087.873476
609.319276	8084.881551
609.668627	8104.665559
610.017926	8139.547823
610.367171	8182.074997
610.716362	8158.225298
611.065500	8153.887385
611.414585	8178.314296
611.763616	8159.961976
612.112594	8151.064339
612.461518	8165.527409
612.810389	8232.617605
613.159207	8159.422572
613.507971	8116.030840
613.856682	8234.545847
614.205340	8187.398455
614.553945	8257.657017
614.902496	8161.073550
615.250994	8216.566572
615.599439	8199.600568
615.947830	8213.541879
616.296169	8185.296294
616.644454	8201.425466
616.992686	8198.670475
617.340864	8260.301102
617.688990	8166.339035
618.037063	8260.429651
618.385082	8194.629991
618.733048	8278.640819
619.080961	8213.531797
619.428821	8242.732681
619.776628	8242.936847
620.124382	8192.174949
620.472083	8172.993358
620.819731	8201.337246
621.167326	8101.035928
621.514868	8111.536652
621.862357	7992.323446
622.209793	8014.870006
622.557176	7945.319727
622.904506	7914.445180
623.251783	7851.387907
623.599007	7801.493087
623.946179	7809.125394
624.293297	7769.522090
624.640363	7686.272475
624.987376	7666.589290
625.334336	7613.458049
625.681243	7561.740852
626.028097	7549.934469
626.374899	7523.544029
626.721647	7515.846187
627.068343	7446.071577
627.414987	7419.038389
627.761577	7378.694035
628.108115	7417.740292
628.454600	7300.770399
628.801032	7356.167639
629.147412	7321.776887
629.493739	7311.303890
629.840014	7243.555824
630.186236	7298.769061
630.532405	7182.078952
630.878521	7236.407467
631.224585	7193.900458
631.570597	7118.840198
631.916556	7147.179044
632.262462	7150.584344
632.608316	7105.574402
632.954117	7084.550270
633.299866	7071.634833
633.645562	7066.802888
633.991206	6981.161245
634.336797	6922.658655
634.682336	6878.573765
635.027823	6850.693663
635.373257	6839.335944
635.718639	6773.874040
636.063968	6790.472039
636.409245	6685.706780
636.754470	6677.527508
637.099642	6636.172403
637.444762	6582.932777
637.789829	6590.002995
638.134845	6535.084665
638.479808	6518.337952
638.824719	6519.762078
639.169577	6448.097035
639.514383	6472.735674
639.859137	6398.860085
640.203839	6403.533235
640.548489	6396.687348
640.893086	6373.868565
641.237632	6340.576785
641.582125	6364.602924
641.926566	6333.055383
642.270955	6347.218505
642.615292	6336.727864
642.959576	6352.179001
643.303809	6345.461663
643.647990	6348.103228
643.992118	6343.288926
644.336195	6290.079547
644.680219	6310.077804
645.024192	6302.536238
645.368112	6400.203553
645.711981	6417.552684
646.055797	6502.042422
646.399562	6454.171625
646.743274	6582.504279
647.086935	6638.836652
647.430544	6628.451875
647.774101	6651.041286
648.117606	6658.323233
648.461059	6645.659854
648.804460	6613.295646
649.147810	6521.924733
649.491108	6483.725390
649.834354	6465.620086
650.177548	6379.653289
650.520690	6293.257994
650.863781	6279.369616
651.206820	6295.259332
651.549807	6217.912909
651.892742	6155.999978
652.235626	6159.569115
652.578458	6150.555532
652.921238	6057.858795
653.263967	6099.723057
653.606644	6037.106885
653.949269	6036.471700
654.291843	5981.283668
654.634365	6028.375607
654.976836	5980.535057
655.319255	5981.800386
655.661622	5955.460358
656.003938	5954.820131
656.346203	5923.459113
656.688416	5948.627073
657.030577	5899.543879
657.372687	5871.784765
657.714746	5859.877560
658.056753	5898.717130
658.398708	5839.869220
658.740612	5831.369835
659.082465	5879.598554
659.424266	5874.635538
659.766016	5875.643769
660.107715	5847.342731
660.449362	5863.194639
660.790958	5853.356828
661.132503	5847.272155
661.473996	5881.078133
661.815438	5863.519794
662.156829	5863.179516
662.498168	5855.753896
662.839456	5828.423281
663.180693	5871.976329
663.521879	5868.271081
663.863013	5853.818093
664.204097	5873.652513
664.545129	5913.807824
664.886110	5911.854377
665.227040	5944.463080
665.567918	5913.691877
665.908746	5939.900836
666.249522	5943.505261
666.590248	5934.342964
666.930922	5958.001099
667.271545	5975.050281
667.612118	5976.965920
667.952639	5944.752947
668.293109	5968.151462
668.633528	5927.287869
668.973896	5932.664260
669.314213	5921.455254
669.654480	5900.773921
669.994695	5894.185133
670.334859	5889.776643
670.674973	5880.687443
671.015035	5880.647114
671.355047	5880.674840
671.695008	5868.334096
672.034918	5840.494323
672.374777	5849.026476
672.714585	5832.829249
673.054342	5839.274364
673.394049	5838.061967
673.733705	5865.367377
674.073310	5851.431107
674.412864	5808.808151
674.752368	5803.383869
675.091820	5806.486700
675.431223	5743.275672
675.770574	5747.023769
676.109875	5697.156676
676.449125	5703.379980
676.788324	5668.868241
677.127473	5607.459425
677.466571	5601.644454
677.805619	5594.042394
678.144616	5575.548921
678.483562	5557.622578
678.822458	5529.301376
679.161303	5520.439027
679.500098	5512.244632
679.838842	5496.556561
680.177535	5502.036295
680.516179	5509.351010
680.854771	5523.375500
681.193314	5607.993787
681.531805	5716.020673
681.870247	5865.528693
682.208638	5970.150280
682.546978	5975.574561
682.885268	5959.291634
683.223508	5867.202357
683.561697	5819.651673
683.899836	5787.637825
684.237925	5743.540332
684.575963	5708.849632
684.913951	5667.809598
685.251889	5729.397375
685.589776	5695.949319
685.927614	5668.270864
686.265401	5739.255351
686.603137	5721.881015
686.940824	5802.466379
687.278460	5823.251057
687.616046	5835.808571
687.953582	5897.293004
688.291068	5883.646600
688.628504	5944.430313
688.965889	5906.672071
689.303224	5852.194842
689.640510	5807.293284
689.977745	5731.393672
690.314930	5631.198219
690.652065	5575.513633
690.989150	5487.336291
691.326185	5410.748561
691.663170	5353.556671
692.000105	5274.466008
692.336990	5200.731571
692.673825	5174.378939
693.010610	5104.415286
693.347345	5035.853073
693.684030	5022.080641
694.020665	4978.552798
694.357251	4890.685486
694.693786	4902.557403
695.030272	4867.196230
695.366707	4831.943441
695.703093	4797.577895
696.039429	4821.062110
696.375716	4801.015962
696.711952	4776.216006
697.048139	4763.056074
697.384276	4740.819544
697.720363	4755.852265
698.056400	4762.940127
698.392388	4713.887180
698.728326	4692.351370
699.064214	4677.031304
699.400053	4665.454294
699.735842	4629.959530
700.071581	4611.440851
700.407270	4579.205193
700.742910	4561.011669
701.078501	4511.792363
701.414042	4512.493083
701.749533	4479.551664
702.084974	4410.402156
702.420366	4468.314932
702.755709	4411.092794
703.091002	4355.594732
703.426246	4404.665323
703.761440	4361.268550
704.096584	4324.652129
704.431679	4342.023946
704.766725	4330.300742
705.101721	4317.831448
705.436668	4346.306406
705.771565	4292.993683
706.106413	4319.217766
706.441212	4354.611707
706.775961	4360.872820
707.110661	4341.827341
707.445311	4369.899006
707.779913	4393.632758
708.114465	4407.334614
708.448967	4432.666412
708.783421	4486.780678
709.117825	4532.662740
709.452180	4532.987894
709.786485	4579.638732
710.120742	4667.301877
710.454949	4653.660515
710.789107	4719.760124
711.123216	4792.864416
711.457275	4784.614568
711.791286	4859.853789
712.125247	4877.770050
712.459159	4776.331952
712.793023	4850.197459
713.126837	4812.635822
713.460602	4807.249349
713.794318	4726.986618
714.127985	4733.945931
714.461602	4648.599196
714.795171	4620.330926
715.128691	4549.563208
715.462162	4497.195702
715.795584	4446.882466
716.128957	4428.817491
716.462281	4375.963514
716.795556	4351.874360
717.128782	4310.559584
717.461960	4243.154316
717.795088	4253.324844
718.128167	4210.298596
718.461198	4151.801046
718.794180	4148.012619
719.127113	4128.558807
719.459997	4105.518213
719.792833	4064.929363
720.125619	4058.761511
720.458357	4019.037219
720.791046	4024.262375
721.123686	3998.592819
721.456278	3957.751911
721.788821	3974.964931
722.121315	3944.793625
722.453761	3917.165582
722.786158	3932.042027
723.118506	3956.713434
723.450805	3906.682502
723.783056	3926.718568
724.115259	3941.196762
724.447412	3947.810756
724.779518	3944.319757
725.111574	3946.598358
725.443582	3976.373934
725.775542	3962.722489
726.107453	4011.994727
726.439315	4015.820962
726.771129	4030.231101
727.102895	4062.212181
727.434612	4109.515848
727.766281	4124.667036
728.097901	4127.585864
728.429473	4129.564517
728.760996	4138.197493
729.092471	4130.539980
729.423897	4116.263432
729.755276	4124.046974
730.086606	4118.569760
730.417887	4158.304135
730.749120	4224.701172
731.080305	4287.818939
731.411442	4316.493022
731.742530	4283.254174
732.073570	4289.248106
732.404562	4345.320860
732.735506	4336.874407
733.066401	4301.155311
733.397249	4238.801279
733.728048	4156.617869
734.058798	4072.997729
734.389501	4003.994416
734.720156	3941.602575
735.050762	3894.573651
735.381320	3888.453690
735.711831	3837.800176
736.042293	3807.533088
736.372707	3829.305832
736.703073	3802.474291
737.033391	3791.295532
737.363661	3808.221206
737.693883	3837.989219
738.024056	3848.066486
738.354182	3840.540043
738.684260	3903.841812
739.014290	3923.454421
739.344272	3917.967125
739.674207	3960.459011
740.004093	3968.353458
740.333931	3961.363898
740.663722	3963.319866
740.993464	3961.182417
741.323159	3935.684260
741.652806	3906.385074
741.982405	3878.699057
742.311956	3851.958257
742.641460	3840.242615
742.970915	3814.681445
743.300323	3778.506125
743.629683	3739.709405
743.958996	3728.208012
744.288260	3703.408056
744.617477	3669.070236
744.946647	3656.076662
745.275768	3631.785862
745.604842	3630.699494
745.933869	3581.215528
746.262847	3572.385947
746.591778	3609.808952
746.920662	3579.572112
747.249498	3551.258471
747.578286	3593.836056
747.907027	3615.210549
748.235720	3611.112091
748.564365	3635.281903
748.892963	3637.147130
749.221514	3618.686424
749.550017	3598.297478
749.878473	3593.815892
750.206881	3568.637849
750.535242	3560.317424
750.863555	3562.641396
751.191821	3556.193761
751.520039	3538.637942
751.848210	3512.567615
752.176334	3548.606824
752.504411	3554.918349
752.832440	3514.135414
753.160421	3499.982375
753.488356	3507.523941
753.816243	3521.024151
754.144082	3475.321050
754.471875	3460.379070
754.799620	3482.169458
755.127318	3473.065134
755.454969	3471.162098
755.782572	3477.163592
756.110129	3455.920169
756.437638	3448.887760
756.765100	3458.728092
757.092515	3465.720172
757.419882	3476.248622
757.747203	3446.964560
758.074477	3451.955302
758.401703	3466.723362
758.728882	3486.464521
759.056014	3493.706138
759.383099	3498.454905
759.710138	3495.195799
760.037129	3511.340094
760.364073	3540.571225
760.690970	3527.418854
761.017820	3503.846419
761.344623	3519.743698
761.671379	3569.666244
761.998088	3619.001496
762.324751	3747.823142
762.651366	3995.361440
762.977935	4473.419100
763.304456	4919.495680
763.630931	5017.846071
763.957359	4656.498684
764.283740	4310.609995
764.610074	4118.075727
764.936362	3916.495108
765.262602	3757.789503
765.588796	3644.771875
765.914943	3557.514543
766.241044	3464.795121
766.567097	3435.382509
766.893104	3388.053636
767.219064	3357.448791
767.544978	3331.766633
767.870845	3275.227572
768.196665	3253.724530
768.522438	3263.983278
768.848165	3259.088317
769.173846	3225.133626
769.499479	3209.014536
769.825066	3189.023841
770.150607	3170.968948
770.476101	3188.199612
770.801548	3181.207532
771.126949	3135.975779
771.452303	3119.929786
771.777611	3125.313738
772.102872	3133.034266
772.428087	3108.206583
772.753256	3096.049840
773.078378	3088.780497
773.403453	3057.795044
773.728482	3042.321223
774.053465	3064.363668
774.378401	3052.378325
774.703291	3022.665764
775.028135	3020.246010
775.352932	3014.698220
775.677683	3004.068947
776.002388	3001.041734
776.327046	3003.310254
776.651658	2991.087976
776.976224	2979.072386
777.300743	2981.552634
777.625216	2973.943012
777.949643	2964.810962
778.274024	2966.313226
778.598359	2957.052626
778.922647	2959.598409
779.246889	2962.280303
779.571086	2944.943774
779.895236	2941.916562
780.219339	2949.828653
780.543397	2963.275930
780.867409	2964.712659
781.191374	2957.874334
781.515294	2956.528346
781.839167	2956.092286
782.162995	2951.527521
782.486776	2959.805096
782.810511	2956.717389
783.134201	2941.974535
783.457844	2947.159362
783.781441	2936.769543
784.104993	2917.255237
784.428498	2921.636000
784.751958	2932.161929
785.075372	2927.438368
785.398739	2911.200811
785.722061	2927.445929
786.045337	2939.738783
786.368568	2925.552976
786.691752	2916.504105
787.014891	2963.016311
787.337983	2991.637462
787.661030	3021.075280
787.984031	3091.270827
788.306987	3135.280100
788.629897	3130.175931
788.952760	3112.110957
789.275579	3099.109821
789.598351	3038.575645
789.921078	2993.946310
790.243759	2979.644557
790.566395	2965.083184
790.888984	2939.955553
791.211529	2924.743871
791.534027	2915.379928
791.856480	2905.222003
792.178888	2891.711710
792.501249	2883.419012
792.823566	2883.330792
793.145836	2875.973228
793.468062	2871.592465
793.790241	2870.415356
794.112375	2875.335522
794.434464	2890.088459
794.756507	2893.060219
795.078505	2899.850653
795.400457	2911.624268
795.722364	2950.693210
796.044226	2974.462251
796.366042	2980.557006
796.687812	2967.674337
797.009538	2984.226966
797.331218	2974.064000
797.652852	2959.568162
797.974442	2941.079730
798.295986	2936.767023
798.617484	2930.147988
798.938938	2919.559044
799.260346	2899.921229
799.581709	2896.087432
799.903026	2892.616598
800.224299	2884.281050
800.545526	2874.652446
800.866708	2858.651823
801.187845	2848.420802
801.508936	2851.039681
801.829983	2855.682584
802.150984	2842.394102
802.471940	2831.984120
802.792851	2831.008656
803.113717	2828.427586
803.434538	2836.062413
803.755314	2827.888182
804.076045	2824.871052
804.396731	2822.612615
804.717372	2821.508602
805.037967	2817.193374
805.358518	2825.130671
805.679024	2835.028977
805.999485	2830.683502
806.319901	2835.225582
806.640272	2827.232832
806.960598	2831.956393
807.280879	2840.884277
807.601115	2849.557582
807.921306	2839.069461
808.241453	2834.880262
808.561554	2838.588031
808.881611	2842.731860
809.201623	2835.459995
809.521590	2835.165088
809.841513	2833.176352
810.161390	2834.729028
810.481223	2827.230312
810.801011	2817.309321
811.120755	2814.826552
811.440453	2818.786379
811.760107	2819.227480
812.079716	2816.452325
812.399281	2809.543423
812.718801	2798.747792
813.038276	2793.283182
813.357707	2798.286527
813.677093	2808.550316
813.996434	2802.616878
814.315731	2799.531692
814.634983	2791.233952
814.954191	2795.249232
815.273354	2806.188535
815.592473	2818.307469
815.911547	2816.107006
816.230577	2826.378357
816.549562	2837.564677
816.868502	2834.734069
817.187399	2847.248733
817.506250	2862.296578
817.825058	2855.957327
818.143821	2869.712115
818.462539	2883.766852
818.781213	2915.684918
819.099843	2947.993673
819.418429	3003.794204
819.736970	3067.121179
820.055466	3144.016419
820.373919	3250.233531
820.692327	3393.051940
821.010691	3564.360430
821.329011	4015.914224
821.647286	4928.559675
821.965517	6335.099571
822.283704	7099.091478
822.601847	7087.209478
822.919945	6438.044974
823.237999	5922.876860
823.556010	5325.253112
823.873976	4762.307462
824.191897	4346.109801
824.509775	4047.466806
824.827609	3770.258797
825.145398	3642.016884
825.463144	3632.151346
825.780845	3718.460941
826.098502	3829.318435
826.416116	4111.738997
826.733685	4439.920633
827.051210	4507.585520
827.368692	4387.908528
827.686129	4117.286787
828.003522	3785.672125
828.320872	3523.615304
828.638177	3326.705314
828.955439	3180.479085
829.272656	3097.695777
829.589830	3027.311187
829.906960	2979.523569
830.224046	2930.279058
830.541088	2898.610529
830.858086	2882.317520
831.175041	2863.219109
831.491952	2865.195241
831.808819	2874.410470
832.125642	2902.303175
832.442421	2950.662963
832.759157	3034.280582
833.075849	3214.857234
833.392497	3498.407014
833.709101	3708.736555
834.025662	3656.026251
834.342179	3495.142867
834.658653	3316.277687
834.975083	3163.858401
835.291469	3063.562124
835.607811	2976.491315
835.924110	2915.805905
836.240366	2863.070395
836.556578	2819.971050
836.872746	2797.074129
837.188871	2776.425563
837.504952	2761.357554
837.820990	2749.709968
838.136984	2736.028277
838.452935	2727.533932
838.768842	2723.521174
839.084706	2744.041191
839.400526	2819.834939
839.716303	2959.535394
840.032037	3045.161913
840.347727	3028.536188
840.663373	2969.083340
840.978977	2890.085938
841.294537	2814.831594
841.610054	2766.630601
841.925527	2743.350553
842.240957	2723.939590
842.556344	2697.634849
842.871687	2684.643796
843.186987	2671.473781
843.502244	2669.056548
843.817458	2662.437513
844.132629	2654.064156
844.447756	2644.054945
844.762840	2633.970117
845.077881	2638.633184
845.392879	2636.309212
845.707833	2634.537247
846.022745	2626.579786
846.337613	2625.959724
846.652438	2625.853859
846.967221	2627.456946
847.281960	2626.282358
847.596656	2623.759260
847.911309	2622.796400
848.225919	2620.916049
848.540485	2615.285080
848.855009	2613.850872
849.169490	2617.886316
849.483928	2617.722478
849.798323	2617.389762
850.112675	2613.377004
850.426984	2613.414812
850.741251	2614.221397
851.055474	2609.984307
851.369654	2619.239866
851.683792	2614.266767
851.997887	2612.507405
852.311938	2615.040584
852.625947	2616.068980
852.939914	2616.983949
853.253837	2619.247427
853.567718	2614.803650
853.881555	2614.216356
854.195350	2617.498147
854.509103	2614.546551
854.822812	2612.827518
855.136479	2613.321551
855.450103	2614.352467
855.763685	2615.373301
856.077224	2613.707199
856.390720	2612.484719
856.704173	2613.203084
857.017584	2619.290277
857.330953	2621.649537
857.644278	2620.147273
857.957561	2623.295474
858.270802	2619.562499
858.584000	2616.782303
858.897155	2621.906636
859.210268	2620.991667
859.523339	2614.178547
859.836367	2611.342898
860.149352	2610.916921
860.462295	2612.794750
860.775195	2613.324072
861.088054	2610.385079
861.400869	2609.633947
861.713642	2605.023812
862.026373	2608.229986
862.339062	2612.454472
862.651708	2615.285080
862.964312	2618.161059
863.276873	2616.941099
863.589392	2620.555607
863.901869	2624.462501
864.214303	2629.929632
864.526696	2630.935343
864.839045	2633.092956
865.151353	2635.641260
865.463619	2635.800056
865.775842	2634.348204
866.088023	2633.541619
866.400162	2634.832154
866.712258	2635.124541
867.024313	2632.246042
867.336325	2630.174128
867.648296	2633.972638
867.960224	2637.619912
868.272110	2635.525313
868.583954	2628.384519
868.895755	2630.693367
869.207515	2637.050262
869.519233	2643.255922
869.830909	2637.425828
870.142542	2634.537247
870.454134	2636.873822
870.765684	2642.250212
871.077191	2643.563433
871.388657	2648.284473
871.700081	2643.520583
872.011463	2645.456386
872.322803	2646.106695
872.634101	2651.233548
872.945357	2658.419713
873.256571	2664.673265
873.567744	2659.919457
873.878874	2659.737975
874.189963	2661.033552
874.501010	2663.355003
874.812015	2668.559994
875.122979	2671.521672
875.433900	2660.461381
875.744780	2662.162770
876.055618	2666.379695
876.366415	2672.290448
876.677169	2670.679799
876.987882	2664.978254
877.298554	2664.834582
877.609183	2675.718433
877.919771	2681.750173
878.230317	2690.950279
878.540822	2701.120807
878.851285	2717.950699
879.161707	2738.984913
879.472087	2777.096037
879.782425	2829.970179
880.092722	2947.633230
880.402977	3143.043477
880.713191	3408.145154
881.023363	3712.119170
881.333494	3911.232144
881.643583	4089.474741
881.953631	4089.658743
882.263637	3909.061927
882.573602	3684.745704
882.883526	3543.537944
883.193408	3425.814399
883.503248	3318.901608
883.813048	3200.361396
884.122806	3079.570308
884.432522	2995.153667
884.742197	2927.881989
885.051831	2889.788510
885.361424	2850.863241
885.670975	2818.362922
885.980485	2781.282715
886.289954	2761.574324
886.599382	2750.352715
886.908768	2739.771333
887.218113	2717.444063
887.527417	2702.123997
887.836680	2697.657534
888.145901	2692.190403
888.455082	2681.427539
888.764221	2670.770540
889.073319	2659.543891
889.382376	2662.016577
889.691392	2663.254180
890.000366	2663.486073
890.309300	2661.414159
890.618193	2661.814930
890.927044	2663.743172
891.235855	2664.184273
891.544625	2664.516989
891.853353	2665.724345
892.162041	2673.301199
892.470687	2693.932122
892.779293	2705.662887
893.087858	2717.922973
893.396381	2739.549523
893.704864	2782.694238
894.013306	2858.293902
894.321707	2956.283850
894.630068	3005.067096
894.938387	3029.090714
895.246665	3020.238448
895.554903	2974.505101
895.863100	2926.052050
896.171256	2868.953421
896.479371	2807.927733
896.787446	2764.588934
897.095480	2746.322313
897.403473	2738.604306
897.711425	2723.029662
898.019336	2702.202134
898.327207	2687.000535
898.635038	2686.536749
898.942827	2686.105730
899.250576	2676.151972
899.558284	2663.400373
899.865952	2654.200267
900.173579	2654.555669
900.481165	2652.733292
900.788711	2643.470172
901.096216	2638.439100
901.403681	2632.921557
901.711105	2635.033801
902.018489	2632.735034
902.325832	2636.581435
902.633135	2637.967752
902.940397	2655.452994
903.247619	2692.951617
903.554800	2763.983995
903.861941	2897.846795
904.169041	3031.989378
904.476101	3100.233998
904.783121	3091.850559
905.090100	3030.703884
905.397039	2954.564817
905.703938	2874.939792
906.010796	2808.376396
906.317614	2757.700197
906.624391	2716.037581
906.931129	2687.948272
907.237826	2666.911537
907.544483	2647.903866
907.851099	2630.393418
908.157675	2622.725823
908.464211	2615.731222
908.770707	2605.170005
909.077163	2596.239601
909.383578	2594.344127
909.689954	2595.974941
909.996289	2591.621904
910.302584	2593.792121
910.608839	2588.556883
910.915054	2589.817171
911.221229	2590.830443
911.527363	2593.547625
911.833458	2592.408324
912.139513	2596.395877
912.445527	2594.429827
912.751502	2603.733276
913.057436	2604.675972
913.363331	2612.043618
913.669186	2626.305043
913.975000	2638.769296
914.280775	2654.296049
914.586510	2678.667508
914.892205	2713.713609
915.197859	2786.170113
915.503475	2871.746221
915.809050	2942.642488
916.114585	2961.302319
916.420081	2974.603403
916.725536	2983.869044
917.030952	2954.204374
917.336328	2906.010943
917.641665	2855.874148
917.946961	2802.505972
918.252218	2766.444078
918.557435	2740.880387
918.862612	2715.321737
919.167750	2696.493028
919.472848	2680.857889
919.777906	2662.427431
920.082925	2650.104330
920.387904	2639.787609
920.692843	2632.298975
920.997743	2630.829478
921.302603	2620.845473
921.607423	2613.553444
921.912204	2607.962804
922.216946	2606.435335
922.521647	2602.470467
922.826310	2601.021136
923.130932	2596.680702
923.435516	2586.116964
923.740059	2589.933118
924.044564	2586.810123
924.349028	2584.760894
924.653454	2572.057186
924.957840	2573.017526
925.262186	2573.191446
925.566493	2570.486867
925.870761	2566.325394
926.174989	2567.593244
926.479178	2564.755075
926.783328	2565.644838
927.087438	2561.717780
927.391509	2563.615774
927.695541	2560.606205
927.999533	2557.591595
928.303486	2556.558159
928.607400	2557.493293
928.911275	2560.313818
929.215110	2557.112686
929.518906	2557.649568
929.822663	2557.120247
930.126381	2555.643189
930.430060	2557.178221
930.733699	2554.786193
931.037299	2558.546894
931.340861	2557.518498
931.644383	2560.008828
931.947866	2559.111503
932.251309	2556.568241
932.554714	2557.858776
932.858080	2557.268961
933.161407	2557.458005
933.464694	2558.783828
933.767943	2555.428940
934.071153	2556.631255
934.374323	2557.591595
934.677455	2556.205278
934.980548	2553.994732
935.283602	2554.224104
935.586617	2554.655123
935.889593	2555.688560
936.192530	2553.641851
936.495428	2553.654454
936.798287	2554.496327
937.101108	2557.294167
937.403890	2561.208623
937.706632	2564.283727
938.009336	2565.329766
938.312002	2571.048955
938.614628	2572.233627
938.917216	2578.068762
939.219765	2577.171437
939.522275	2580.917014
939.824747	2577.428536
940.127179	2572.342011
940.429573	2569.909655
940.731929	2573.075499
941.034246	2567.643656
941.336524	2571.669017
941.638763	2566.648028
941.940964	2568.140210
942.243126	2566.181721
942.545250	2566.088460
942.847335	2562.184086
943.149381	2562.330280
943.451389	2561.483366
943.753359	2557.420196
944.055290	2557.672254
944.357182	2558.312480
944.659036	2559.781977
944.960851	2556.827860
945.262628	2558.390618
945.564367	2557.084959
945.866067	2559.991184
946.167729	2555.691080
946.469352	2556.303580
946.770937	2558.506565
947.072484	2557.324414
947.373992	2554.657644
947.675462	2557.634445
947.976893	2559.494631
948.278286	2554.791234
948.579641	2555.076059
948.880958	2552.681511
949.182236	2554.337530
949.483476	2551.335523
949.784678	2554.745864
950.085841	2555.081101
950.386967	2554.705535
950.688054	2552.487427
950.989103	2555.078580
951.290114	2556.215360
951.591087	2559.416493
951.892021	2558.947666
952.192917	2559.545042
952.493776	2559.950855
952.794596	2563.157029
953.095378	2562.962945
953.396122	2564.361865
953.696828	2562.867163
953.997496	2559.794579
954.298126	2556.384239
954.598718	2558.735937
954.899272	2556.240566
955.199788	2552.787376
955.500266	2553.165462
955.800706	2550.828887
956.101108	2546.911911
956.401472	2547.216901
956.701798	2543.526776
957.002087	2546.445604
957.302337	2546.004503
957.602550	2544.887888
957.902724	2545.568443
958.202861	2544.792106
958.502960	2542.684903
958.803022	2542.629451
959.103045	2541.361600
959.403031	2542.505942
959.702979	2543.403268
960.002889	2543.171375
960.302762	2541.913607
960.602596	2541.006199
960.902393	2539.529141
961.202153	2539.609799
961.501875	2539.496373
961.801559	2538.808256
962.101205	2539.435880
962.400814	2539.322454
962.700385	2538.278935
962.999918	2541.386806
963.299414	2537.084181
963.598873	2538.984696
963.898293	2535.617206
964.197677	2535.332380
964.497022	2540.040818
964.796331	2539.352701
965.095601	2535.609644
965.394835	2538.639377
965.694030	2535.904551
965.993189	2535.531506
966.292309	2535.007226
966.591393	2535.856660
966.890439	2536.781712
967.189447	2536.539737
967.488419	2538.329346
967.787353	2537.626105
968.086249	2534.916485
968.385108	2537.162319
968.683930	2537.885725
968.982714	2539.372865
969.281462	2536.834644
969.580172	2536.300282
969.878844	2536.007895
970.177480	2538.563760
970.476078	2537.195087
970.774639	2539.398071
971.073162	2539.060314
971.371649	2536.920344
971.670098	2531.899355
971.968510	2533.517565
972.266885	2532.453882
972.565223	2538.047042
972.863524	2537.835313
973.161788	2539.720705
973.460014	2536.300282
973.758204	2537.762217
974.056356	2538.606610
974.354471	2537.815149
974.652550	2537.187525
974.950591	2537.926054
975.248595	2541.253216
975.546563	2537.318595
975.844493	2538.861188
976.142386	2538.783050
976.440243	2538.278935
976.738062	2537.681558
977.035845	2535.082843
977.333590	2536.953111
977.631299	2537.300951
977.928971	2537.376568
978.226606	2538.657021
978.524204	2534.669469
978.821765	2536.512010
979.119290	2537.613502
979.416777	2533.530168
979.714228	2536.756506
980.011642	2537.053934
980.309020	2540.809594
980.606360	2537.444624
980.903664	2537.684079
981.200931	2538.498225
981.498162	2538.841023
981.795356	2541.790098
982.092513	2543.307486
982.389633	2543.249512
982.686717	2550.254196
982.983764	2552.842828
983.280775	2554.549259
983.577749	2553.304094
983.874686	2553.041954
984.171587	2547.675646
984.468451	2546.604400
984.765279	2546.927034
985.062070	2541.079296
985.358824	2541.706919
985.655543	2538.720036
985.952224	2541.911086
986.248869	2536.706095
986.545478	2532.479087
986.842050	2533.426824
987.138586	2533.706608
987.435086	2532.221988
987.731549	2530.450023
988.027975	2535.831455
988.324366	2533.192411
988.620719	2535.896990
988.917037	2536.040663
989.213318	2534.556043
989.509563	2534.871115
989.805772	2535.097967
990.101944	2532.650487
990.398080	2532.068233
990.694180	2531.680064
990.990244	2537.374048
991.286271	2533.961187
991.582262	2536.257432
991.878217	2532.426155
992.174136	2533.159643
992.470019	2534.319108
992.765865	2535.206352
993.061676	2533.643594
993.357450	2533.452030
993.653188	2532.529499
993.948890	2533.003367
994.244556	2534.392205
994.540186	2536.509490
994.835780	2538.294058
995.131337	2534.724921
995.426859	2539.115766
995.722345	2535.526465
996.017795	2538.102494
996.313208	2541.023843
996.608586	2538.599048
996.903928	2537.142155
997.199234	2537.116949
997.494504	2538.321785
997.789738	2536.070909
998.084936	2535.564273
998.380099	2535.022349
998.675225	2533.401618
998.970316	2534.871115
999.265371	2534.407329
999.560390	2533.114273
999.855373	2535.105528
1000.150320	2533.567977
1000.445232	2531.062523
1000.740108	2532.108563
1001.034948	2534.235929
1001.329752	2529.774508
1001.624521	2531.717873
1001.919254	2528.834333
1002.213951	2531.117976
1002.508613	2530.084539
1002.803239	2531.422966
1003.097829	2529.260311
1003.392384	2529.083870
1003.686903	2530.155115
1003.981386	2532.176618
1004.275834	2529.880373
1004.570246	2532.307688
1004.864623	2533.731814
1005.158964	2533.273069
1005.453270	2533.459592
1005.747540	2534.974458
1006.041775	2532.816845
1006.335974	2533.031094
1006.630138	2532.481608
1006.924266	2531.647297
1007.218359	2530.712163
1007.512416	2532.461443
1007.806438	2532.537061
1008.100425	2531.296937
1008.394376	2532.516896
1008.688292	2532.153933
1008.982172	2532.141330
1009.276017	2531.821217
1009.569827	2530.076978
1009.863602	2534.049407
1010.157341	2530.026566
1010.451045	2527.838705
1010.744714	2529.691329
1011.038347	2532.625281
1011.331945	2531.075126
1011.625508	2532.201824
1011.919036	2529.708973
1012.212528	2531.453213
1012.505986	2531.669982
1012.799408	2534.067051
1013.092795	2531.952287
1013.386147	2530.628984
1013.679464	2528.652852
1013.972745	2530.689478
1014.265992	2530.263500
1014.559204	2532.418593
1014.852380	2530.810465
1015.145521	2533.633512
1015.438628	2529.542615
1015.731699	2532.529499
1016.024736	2531.566638
1016.317737	2529.013294
1016.610703	2532.277441
1016.903635	2531.370033
1017.196531	2526.462470
1017.489393	2527.687471
1017.782219	2526.182686
1018.075011	2526.016328
1018.367768	2530.026566
1018.660490	2532.615198
1018.953177	2532.615198
1019.245829	2532.615198
