Dividing Wavelength (nm)	Counts (n)	Blue Motor Position (mm): 23.600000	Red Motor Position (mm): 0.000000	
326.493990	2057.378064
326.888308	2057.378064
327.282561	2057.378064
327.676750	2032.031142
328.070874	2033.714887
328.464933	2043.081351
328.858929	2050.328010
329.252859	2062.774619
329.646726	2073.454303
330.040528	2091.375605
330.434265	2109.143152
330.827938	2128.271810
331.221547	2148.640592
331.615091	2169.954591
332.008571	2189.988136
332.401986	2209.580581
332.795338	2228.497510
333.188625	2248.049626
333.581847	2270.460075
333.975006	2288.996398
334.368100	2302.718418
334.761129	2320.924546
335.154095	2338.611434
335.546996	2386.807385
335.939833	2485.714824
336.332606	2494.524240
336.725315	2508.337002
337.117960	2519.490554
337.510540	2530.273582
337.903056	2537.764737
338.295508	2542.505942
338.687896	2552.449618
339.080220	2553.460370
339.472480	2561.823644
339.864676	2564.170301
340.256807	2564.374468
340.648875	2567.028635
341.040879	2570.905282
341.432818	2571.200190
341.824694	2572.871332
342.216506	2570.391085
342.608253	2570.882597
342.999937	2572.089954
343.391557	2566.746331
343.783113	2566.290106
344.174605	2566.731207
344.566033	2561.531257
344.957397	2563.628377
345.348697	2560.157542
345.739934	2559.872717
346.131106	2560.999415
346.522215	2557.662171
346.913260	2554.123281
347.304241	2555.209650
347.695159	2551.259906
348.086012	2548.671273
348.476802	2550.284443
348.867528	2545.071890
349.258191	2542.997455
349.648789	2542.016950
350.039324	2539.571991
350.429796	2543.100798
350.820203	2541.502753
351.210548	2540.262629
351.600828	2539.834131
351.991045	2537.610982
352.381198	2538.735159
352.771288	2537.686599
353.161314	2538.692309
353.551276	2535.564273
353.941175	2534.228368
354.331010	2537.888245
354.720782	2541.001158
355.110490	2542.253885
355.500135	2539.725746
355.889717	2538.208359
356.279235	2539.496373
356.668689	2542.619368
357.058080	2542.193391
357.447408	2540.764224
357.836672	2539.725746
358.225873	2540.852444
358.615010	2540.408822
359.004084	2543.335212
359.393095	2541.694317
359.782043	2539.929913
360.170927	2545.016437
360.559748	2543.070552
360.948505	2544.517363
361.337199	2546.972405
361.725830	2544.600542
362.114398	2547.431150
362.502903	2548.550286
362.891344	2546.551468
363.279722	2546.415357
363.668037	2548.832590
364.056289	2549.818136
364.444478	2549.306459
364.832603	2550.803682
365.220665	2551.912735
365.608665	2549.808054
365.996601	2553.709907
366.384474	2551.040616
366.772284	2548.852755
367.160031	2550.029864
367.547715	2552.300904
367.935336	2549.921480
368.322893	2548.328475
368.710388	2549.414844
369.097820	2548.202446
369.485189	2545.787733
369.872495	2554.755946
370.259738	2552.071532
370.646918	2555.537325
371.034035	2555.481872
371.421090	2551.937941
371.808081	2553.422561
372.195010	2555.164280
372.581875	2553.016748
372.968678	2556.613611
373.355418	2557.931873
373.742096	2554.778631
374.128710	2557.591595
374.515262	2557.188303
374.901751	2558.259548
375.288177	2558.040258
375.674540	2559.610577
376.060841	2558.541853
376.447079	2556.691749
376.833254	2559.592933
377.219367	2559.759291
377.605417	2562.484035
377.991404	2559.192162
378.377329	2558.236863
378.763191	2556.260731
379.148991	2561.874055
379.534727	2559.066133
379.920402	2562.380691
380.306013	2557.793241
380.691563	2561.173335
381.077049	2559.333314
381.462474	2558.315001
381.847835	2562.791545
382.233134	2562.738613
382.618371	2560.084446
383.003545	2563.363716
383.388657	2561.644683
383.773706	2562.887327
384.158693	2565.818758
384.543618	2563.325908
384.928480	2563.424210
385.313280	2564.750034
385.698017	2565.354972
386.082692	2561.344734
386.467305	2564.891186
386.851856	2567.222720
387.236344	2565.133161
387.620770	2563.305743
388.005133	2557.556307
388.389435	2566.053172
388.773674	2562.990671
389.157851	2566.763975
389.541965	2566.942936
389.926018	2566.358162
390.310008	2568.155333
390.693936	2569.639953
391.077802	2566.703481
391.461606	2568.591393
391.845348	2566.264900
392.229027	2570.222206
392.612645	2568.785477
392.996200	2566.080898
393.379694	2570.643142
393.763125	2567.061403
394.146494	2567.719273
394.529801	2571.353945
394.913047	2572.364697
395.296230	2569.997875
395.679351	2571.091805
396.062410	2570.905283
396.445408	2569.171126
396.828343	2572.725139
397.211217	2570.597772
397.594028	2573.163719
397.976778	2572.664645
398.359466	2571.784964
398.742092	2570.655745
399.124656	2572.031980
399.507158	2570.370920
399.889598	2574.252609
400.271977	2574.257650
400.654294	2576.130438
401.036549	2573.556929
401.418742	2575.764955
401.800874	2575.775037
402.182944	2575.621282
402.564952	2574.421487
402.946898	2577.426015
403.328783	2573.226734
403.710606	2575.520459
404.092367	2575.147413
404.474067	2575.815366
404.855705	2579.417271
405.237282	2575.026426
405.618797	2575.999368
406.000250	2579.876016
406.381642	2579.185378
406.762972	2578.618248
407.144240	2576.551375
407.525447	2574.872671
407.906593	2570.688513
408.287677	2580.392734
408.668700	2580.619586
409.049661	2580.680080
409.430560	2578.686303
409.811399	2578.953485
410.192176	2580.412899
410.572891	2580.226376
410.953545	2580.649833
411.334138	2579.692014
411.714669	2584.211408
412.095139	2584.413054
412.475547	2581.211922
412.855894	2582.625965
413.236180	2583.510688
413.616405	2584.710482
413.996568	2581.894998
414.376670	2583.036819
414.756711	2582.381469
415.136691	2583.845924
415.516609	2582.348702
415.896466	2585.040678
416.276262	2583.984556
416.655997	2584.619742
417.035670	2584.075297
417.415283	2585.345668
417.794834	2583.971953
418.174324	2584.526480
418.553753	2586.116964
418.933121	2583.538414
419.312428	2584.783579
419.691674	2586.505133
420.070859	2586.215267
420.449983	2585.539752
420.829045	2588.655185
421.208047	2585.217118
421.586988	2585.774166
421.965867	2587.982191
422.344686	2588.173755
422.723444	2588.345154
423.102141	2588.153590
423.480777	2586.933631
423.859352	2585.847262
424.237866	2588.241811
424.616319	2590.197778
424.994712	2588.720720
425.373044	2589.245000
425.751314	2585.078487
426.129524	2586.714341
426.507673	2587.964547
426.885762	2585.779207
427.263789	2590.038982
427.641756	2588.955134
428.019662	2590.714497
428.397508	2592.287337
428.775292	2589.781883
429.153016	2592.909919
429.530679	2588.340113
429.908282	2591.805906
430.285824	2590.580906
430.663305	2590.263313
431.040726	2592.201637
431.418086	2592.599888
431.795385	2591.032089
432.172624	2591.256421
432.549802	2594.306319
432.926920	2593.172059
433.303977	2593.078798
433.680974	2592.030238
434.057910	2591.321956
434.434786	2592.796493
434.811601	2593.683736
435.188355	2593.976123
435.565050	2593.575351
435.941683	2594.407142
436.318257	2596.204313
436.694770	2596.098449
437.071222	2596.254725
437.447614	2594.109714
437.823946	2597.217585
438.200218	2594.452512
438.576429	2597.489807
438.952580	2597.628439
439.328670	2597.179776
439.704700	2596.474015
440.080670	2598.354365
440.456580	2597.522575
440.832429	2600.592638
441.208218	2597.240270
441.583947	2598.999633
441.959616	2599.564242
442.335224	2598.765219
442.710773	2601.260590
443.086261	2601.527772
443.461689	2601.111876
443.837057	2605.280911
444.212365	2603.471136
444.587612	2601.124479
444.962800	2599.478542
445.337927	2599.755806
445.712995	2601.812597
446.088002	2605.958946
446.462949	2604.101281
446.837837	2608.139245
447.212664	2607.947681
447.587431	2609.190325
447.962139	2613.835749
448.336786	2613.344236
448.711374	2612.986314
449.085901	2614.075203
449.460369	2610.863988
449.834776	2611.554627
450.209124	2616.585698
450.583412	2614.959926
450.957640	2618.760956
451.331808	2617.218363
451.705917	2616.860441
452.079965	2617.213322
452.453954	2620.132150
452.827883	2619.113837
453.201752	2619.464197
453.575562	2621.561317
453.949311	2620.565689
454.323001	2623.252624
454.696632	2623.905453
455.070202	2627.620784
455.443713	2630.431227
455.817164	2628.329066
456.190556	2634.491877
456.563888	2633.652524
456.937160	2635.868112
457.310373	2637.725777
457.683526	2636.936836
458.056619	2639.775006
458.429653	2642.366159
458.802628	2644.385141
459.175542	2646.573002
459.548398	2651.785555
459.921194	2658.971720
460.293930	2665.641166
460.666607	2675.219358
461.039224	2680.890657
461.411782	2688.873324
461.784280	2689.609332
462.156719	2694.244673
462.529099	2696.480425
462.901419	2697.319777
463.273680	2700.745241
463.645882	2707.286138
464.018024	2716.271995
464.390106	2724.158880
464.762130	2750.977818
465.134094	2787.075001
465.505999	2833.998061
465.877845	2870.894266
466.249631	2897.262021
466.621358	2897.501476
466.993026	2900.117834
467.364634	2906.757034
467.736184	2909.328023
468.107674	2920.796648
468.479105	2934.211158
468.850477	2950.857048
469.221790	2960.412555
469.593043	2968.647280
469.964238	2978.759834
470.335373	3003.383350
470.706449	3055.493758
471.077467	3119.196298
471.448425	3221.188923
471.819324	3299.659524
472.190164	3311.097902
472.560945	3286.300466
472.931667	3271.729011
473.302330	3294.580561
473.672934	3315.256854
474.043479	3371.208620
474.413965	3403.351017
474.784393	3434.422169
475.154761	3507.155937
475.525070	3556.954975
475.895321	3593.057198
476.265513	3664.873476
476.635645	3748.566712
477.005719	3803.101914
477.375734	3883.541086
477.745691	3981.175633
478.115588	4091.254268
478.485427	4252.974483
478.855207	4478.210717
479.224928	4702.867217
479.594591	4879.405904
479.964194	4910.046037
480.333739	5016.295917
480.703226	5136.598012
481.072653	5293.183812
481.442022	5443.974806
481.811333	5578.208130
482.180584	5622.411487
482.549777	5704.340320
482.918912	5791.466582
483.287988	5904.247276
483.657005	5994.466285
484.025964	6061.281738
484.394864	6202.837338
484.763706	6310.579399
485.132489	6356.753848
485.501213	6491.556822
485.869879	6654.509600
486.238487	6772.855727
486.607036	6952.333407
486.975527	7041.309772
487.343959	7230.597538
487.712333	7433.698064
488.080648	7573.587563
488.448905	7806.675393
488.817104	7959.445040
489.185244	8301.631002
489.553326	8725.367709
489.921350	9337.406635
490.289315	10073.102545
490.657222	10434.704511
491.025070	10724.815353
491.392861	10838.642086
491.760593	10847.007881
492.128267	10805.090687
492.495883	10765.265571
492.863440	10753.595300
493.230939	10730.388348
493.598380	10790.138624
493.965763	10959.163472
494.333088	11040.973837
494.700354	11188.281393
495.067563	11396.332333
495.434713	11579.525343
495.801805	11886.254349
496.168839	12048.950028
496.535815	12219.852705
496.902733	12497.499294
497.269593	12657.964262
497.636395	12949.910084
498.003139	13286.502886
498.369825	13427.572014
498.736453	13807.087720
499.103023	13984.622035
499.469535	14255.662192
499.835989	14549.684969
500.202385	14719.075300
500.568723	14990.574202
500.935003	15368.794332
501.301226	15568.315639
501.667390	16113.004750
502.033497	16472.232332
502.399546	16610.445647
502.765537	16664.312897
503.131470	17137.790669
503.497345	17620.496273
503.863163	17338.186617
504.228923	17995.321185
504.594625	18469.507239
504.960269	18449.050237
505.325856	19056.375685
505.691385	19133.354104
506.056856	19554.295491
506.422270	20084.158569
506.787625	20077.337888
507.152924	20578.751214
507.518164	20954.155859
507.883347	20932.564597
508.248472	21272.965990
508.613540	21939.461981
508.978550	22338.393691
509.343503	22489.759376
509.708398	22964.867961
510.073236	23592.479012
510.438016	23916.910030
510.802738	23954.330515
511.167403	24568.436315
511.532010	24973.573685
511.896561	25547.118361
512.261053	26308.617417
512.625488	26389.714458
512.989866	26588.724089
513.354186	26850.372576
513.718449	27046.402885
514.082655	27942.856150
514.446803	27939.554194
514.810894	28623.689183
515.174927	28870.216729
515.538904	29082.532485
515.902822	29781.478383
516.266684	29756.597769
516.630488	30249.370557
516.994235	30470.525976
517.357925	31128.257922
517.721558	31548.549000
518.085133	32040.164844
518.448651	32387.215518
518.812112	32500.187776
519.175516	32823.592919
519.538863	33367.979561
519.902152	33607.240284
520.265385	34246.735855
520.628560	34458.373576
520.991678	34589.299903
521.354739	34970.995908
521.717743	35460.018078
522.080690	35539.975819
522.443580	36292.637732
522.806413	36487.548905
523.169189	36765.835720
523.531908	37114.676005
523.894569	37151.904926
524.257174	37470.977197
524.619722	37942.927499
524.982213	38201.185811
525.344647	38382.435456
525.707025	38638.541195
526.069345	39187.606028
526.431608	39236.212833
526.793815	39721.413809
527.155964	39433.087535
527.518057	39802.452877
527.880093	39797.504985
528.242072	40490.673721
528.603995	40366.628569
528.965860	40416.409963
529.327669	40740.672102
529.689421	40891.221121
530.051117	40942.598040
530.412755	41315.025883
530.774337	41485.159784
531.135862	41519.530371
531.497331	41752.361103
531.858743	41849.816689
532.220098	42325.068947
532.581396	42155.827330
532.942638	42018.410518
533.303824	42319.596775
533.664953	42471.232162
534.026025	42243.631628
534.387040	42865.614230
534.747999	43009.821477
535.108902	43379.287642
535.469748	42803.310610
535.830537	43120.159732
536.191270	43432.859984
536.551947	43228.443717
536.912567	43562.155498
537.273131	43777.977377
537.633638	43463.784943
537.994089	43711.585381
538.354483	43522.216957
538.714821	44202.077047
539.075103	44524.007652
539.435328	44443.145024
539.795497	44244.251340
540.155609	44420.653916
540.515665	45026.434250
540.875665	44394.772632
541.235609	44719.826232
541.595496	44872.772319
541.955328	45482.991389
542.315102	44958.764322
542.674821	44889.561882
543.034483	44825.718189
543.394090	44856.721285
543.753640	44872.966404
544.113134	45946.669158
544.472571	45097.897647
544.831953	46260.423012
545.191278	45544.727880
545.550548	45268.639007
545.909761	45923.968843
546.268918	46088.212156
546.628019	46529.073662
546.987064	45980.671741
547.346053	45321.203118
547.704986	46234.624907
548.063863	45897.074287
548.422684	46123.101981
548.781449	45731.878196
549.140158	46292.613300
549.498811	46080.443737
549.857408	45476.546274
550.215949	46322.812332
550.574434	46181.397884
550.932864	46111.920702
551.291237	46862.167903
551.649555	46619.864843
552.007817	46809.412228
552.366022	46488.106726
552.724173	46562.057932
553.082267	46996.796957
553.440305	47331.073348
553.798288	46600.161493
554.156215	47001.386928
554.514086	47214.544557
554.871902	46845.920264
555.229661	47016.964093
555.587365	46719.336891
555.945014	46845.219543
556.302606	46868.063532
556.660143	46989.086513
557.017625	47212.235708
557.375050	46909.443843
557.732421	47328.577977
558.089735	47388.164416
558.446994	47282.272458
558.804197	47750.678830
559.161345	47625.441445
559.518437	46980.234246
559.875474	47244.486490
560.232455	47472.397055
560.589381	47530.947537
560.946251	47333.979573
561.303065	48001.569495
561.659825	47696.990541
562.016528	47530.934934
562.373177	47093.327492
562.729770	47732.611334
563.086307	47241.867610
563.442789	47799.888053
563.799216	47655.832041
564.155587	47540.717293
564.511904	47519.713325
564.868164	47580.678519
565.224370	47896.085871
565.580520	47619.324005
565.936615	47829.411571
566.292654	47497.867485
566.648638	47853.248667
567.004567	47794.136097
567.360441	47907.650278
567.716260	47618.391391
568.072023	47979.927822
568.427732	47910.982481
568.783385	47468.222980
569.138982	47871.031337
569.494525	47986.009974
569.850013	47601.445553
570.205445	47732.011437
570.560823	47505.504833
570.916145	47391.284890
571.271412	47641.210174
571.626625	47281.720452
571.981782	47358.167030
572.336884	46954.262222
572.691931	47273.026982
573.046923	46947.249977
573.401860	46803.990467
573.756743	46811.466498
574.111570	46961.390413
574.466342	46876.938483
574.821059	47015.819751
575.175722	46525.048301
575.530330	46638.567524
575.884882	46265.083559
576.239380	46163.937848
576.593823	46259.596263
576.948211	46194.177209
577.302544	45741.342962
577.656823	45754.828049
578.011047	45996.037178
578.365216	45823.682649
578.719330	45552.324899
579.073389	45529.962340
579.427394	45577.326501
579.781344	45511.373086
580.135239	45277.849195
580.489080	45336.480335
580.842866	44819.192416
581.196597	45320.900649
581.550273	45307.070244
581.903895	45237.046096
582.257463	45680.710484
582.610975	45114.813239
582.964434	45447.242047
583.317837	44960.634590
583.671186	44914.409729
584.024481	45198.115786
584.377721	44735.897431
584.730906	44949.959946
585.084037	45063.146453
585.437113	44769.123676
585.790135	44906.222896
586.143103	44451.984687
586.496016	44621.183454
586.848874	44723.176079
587.201679	44746.577115
587.554428	44270.543478
587.907124	44528.799269
588.259765	44304.825845
588.612352	44469.560670
588.964884	43929.506900
589.317362	44229.707611
589.669786	44237.423097
590.022155	44098.872025
590.374470	44542.670004
590.726731	44119.699552
591.078937	43453.740444
591.431090	43797.133761
591.783188	43324.732276
592.135232	43112.373670
592.487222	43367.987896
592.839157	43535.800346
593.191038	43172.723843
593.542866	42991.575021
593.894639	42376.254303
594.246358	42682.499358
594.598022	42676.878471
594.949633	42264.754062
595.301190	42250.699325
595.652692	42190.429810
596.004141	42660.466995
596.355535	41563.524521
596.706876	41587.845568
597.058162	41308.172435
597.409395	41806.372025
597.760573	42014.980012
598.111698	41616.134003
598.462768	41543.758157
598.813785	41561.072000
599.164748	41167.821670
599.515657	41442.466252
599.866511	40931.573037
600.217312	41619.128448
600.568060	40573.535167
600.918753	41415.924577
601.269392	41299.436115
601.619978	41029.139528
601.970510	41237.931517
602.320988	41368.215098
602.671412	41641.826243
603.021783	41510.171469
603.372100	41075.213154
603.722363	41187.691378
604.072572	41201.955323
604.422728	41203.583616
604.772830	40985.513383
605.122878	41149.038331
605.472872	41007.485252
605.822813	41268.133070
606.172701	41009.060612
606.522534	41336.748215
606.872314	41541.640872
607.222041	41375.048382
607.571714	41705.864020
607.921333	41216.410832
608.270899	41429.142483
608.620411	41810.536018
608.969870	41551.879456
609.319276	41561.994531
609.668627	41583.328694
610.017926	41988.675272
610.367171	42118.119500
610.716362	42159.923268
611.065500	42047.326576
611.414585	42272.119188
611.763616	42438.378962
612.112594	42338.334744
612.461518	42469.540855
612.810389	42845.421888
613.159207	42637.572595
613.507971	42634.880619
613.856682	43103.397895
614.205340	42949.143629
614.553945	43632.270387
614.902496	42953.902478
615.250994	43408.057508
615.599439	43443.660657
615.947830	43560.779263
616.296169	43563.209099
616.644454	43616.864620
616.992686	43765.394657
617.340864	44225.752826
617.688990	43725.340169
618.037063	44402.876287
618.385082	44237.660031
618.733048	44581.280201
619.080961	44440.087564
619.428821	44465.605885
619.776628	44485.135315
620.124382	44301.589424
620.472083	44401.671451
620.819731	44504.778171
621.167326	44079.511473
621.514868	44059.881220
621.862357	43527.603430
622.209793	43606.744504
622.557176	43178.919421
622.904506	42934.189046
623.251783	42557.304823
623.599007	42256.884821
623.946179	42170.855010
624.293297	41918.756988
624.640363	41374.307332
624.987376	41210.278268
625.334336	41026.301358
625.681243	40607.081525
626.028097	40513.948728
626.374899	40339.436585
626.721647	40306.659003
627.068343	40091.187485
627.414987	39789.812184
627.761577	39544.991068
628.108115	39865.719358
628.454600	39115.661201
628.801032	39335.009367
629.147412	39231.121268
629.493739	39138.205241
629.840014	38697.139567
630.186236	39132.728027
630.532405	38587.305428
630.878521	38804.435486
631.224585	38585.830891
631.570597	38259.285109
631.916556	38413.572143
632.262462	38317.011362
632.608316	38241.401616
632.954117	38085.766073
633.299866	38054.190806
633.645562	37988.804520
633.991206	37447.190512
634.336797	37053.362971
634.682336	36939.387524
635.027823	36699.456327
635.373257	36567.128559
635.718639	36240.912973
636.063968	36128.495242
636.409245	35488.092264
636.754470	35451.856450
637.099642	35210.095314
637.444762	34644.077081
637.789829	34783.200324
638.134845	34419.327319
638.479808	34328.538659
638.824719	34285.711536
639.169577	33770.989564
639.514383	33864.094634
639.859137	33480.687158
640.203839	33644.567508
640.548489	33353.755945
640.893086	33343.230016
641.237632	33070.498552
641.582125	33165.783921
641.926566	32972.470795
642.270955	33007.413553
642.615292	32933.631225
642.959576	32809.341577
643.303809	32825.485872
643.647990	32915.195725
643.992118	32876.784654
644.336195	32719.891343
644.680219	32798.077119
645.024192	33003.355424
645.368112	33528.706669
645.711981	33538.123544
646.055797	34284.269766
646.399562	34083.415074
646.743274	34966.315197
647.086935	35354.789032
647.430544	35302.209798
647.774101	35352.916244
648.117606	35639.256303
648.461059	35770.495182
648.804460	35369.247062
649.147810	34862.948857
649.491108	34504.094321
649.834354	34362.737847
650.177548	33546.033115
650.520690	33052.857034
650.863781	33040.249108
651.206820	32861.900647
651.549807	32458.257979
651.892742	31874.941026
652.235626	31771.738525
652.578458	31639.917393
652.921238	30964.760699
653.263967	31260.638622
653.606644	30972.100619
653.949269	30869.172861
654.291843	30489.344604
654.634365	30848.957834
654.976836	30387.273841
655.319255	30468.522118
655.661622	30336.610245
656.003938	30206.934124
656.346203	30026.748162
656.688416	30282.276689
657.030577	30042.426151
657.372687	29864.160868
657.714746	30022.823624
658.056753	30205.721727
658.398708	29594.464179
658.740612	29678.268320
659.082465	29881.303312
659.424266	29769.843400
659.766016	29765.863409
660.107715	29627.914755
660.449362	29731.056763
660.790958	29702.833863
661.132503	29638.672577
661.473996	29711.580265
661.815438	29783.507448
662.156829	29913.135678
662.498168	29725.682893
662.839456	29690.926657
663.180693	29824.746607
663.521879	29912.122406
663.863013	29870.739574
664.204097	29834.163482
664.545129	30247.628838
664.886110	30198.437259
665.227040	30293.720108
665.567918	30289.185590
665.908746	30376.016945
666.249522	30454.384202
666.590248	30473.961523
666.930922	30575.482799
667.271545	30572.954661
667.612118	30624.964245
667.952639	30440.271492
668.293109	30475.756173
668.633528	30348.341010
668.973896	30312.148046
669.314213	30279.463725
669.654480	30100.656519
669.994695	30081.041389
670.334859	29990.086371
670.674973	29834.937299
671.015035	30010.707211
671.355047	29949.994074
671.695008	29877.925739
672.034918	29789.773602
672.374777	29890.163140
672.714585	29753.973848
673.054342	29892.159437
673.394049	29748.252138
673.733705	29963.194336
674.073310	29672.496199
674.412864	29748.335317
674.752368	29421.532437
675.091820	29675.417548
675.431223	29258.269629
675.770574	29055.839575
676.109875	28905.250228
676.449125	28696.710296
676.788324	28592.497043
677.127473	28110.610626
677.466571	28025.553758
677.805619	27748.204597
678.144616	27681.293362
678.483562	27630.634807
678.822458	27297.233056
679.161303	27250.594821
679.500098	27161.106779
679.838842	27096.496831
680.177535	27181.674687
680.516179	27407.110045
680.854771	27545.562815
681.193314	28320.226844
681.531805	29316.089143
681.870247	30066.210314
682.208638	30787.359975
682.546978	31057.689329
682.885268	31200.391792
683.223508	30768.185946
683.561697	30483.721197
683.899836	30319.253552
684.237925	29924.314437
684.575963	29775.779359
684.913951	29390.690658
685.251889	29588.528220
685.589776	29600.800909
685.927614	29610.875655
686.265401	29790.048345
686.603137	29891.952749
686.940824	30405.185061
687.278460	30737.092109
687.616046	30896.261501
687.953582	31574.984811
688.291068	31482.494761
688.628504	31812.828970
688.965889	31810.643630
689.303224	31551.487993
689.640510	31269.316968
689.977745	30647.379736
690.314930	29894.916948
690.652065	29460.510639
690.989150	28795.063207
691.326185	27959.549931
691.663170	27325.309762
692.000105	26584.643275
692.336990	25981.822098
692.673825	25555.837036
693.010610	25065.131121
693.347345	24571.140894
693.684030	23940.984060
694.020665	23745.830912
694.357251	23062.673908
694.693786	23066.497623
695.030272	22832.020955
695.366707	22347.601358
695.703093	22072.064492
696.039429	22124.111885
696.375716	21894.784755
696.711952	21896.952451
697.048139	21762.348602
697.384276	21601.896237
697.720363	21718.523331
698.056400	21605.730035
698.392388	21448.461158
698.728326	21444.239192
699.064214	21288.913680
699.400053	21292.543311
699.735842	20905.944784
700.071581	20705.654701
700.407270	20461.879624
700.742910	20275.389699
701.078501	20030.979437
701.414042	19828.511575
701.749533	19523.604947
702.084974	19212.031392
702.420366	19438.527914
702.755709	19036.107726
703.091002	18729.000633
703.426246	18798.568557
703.761440	18739.400534
704.096584	18490.637236
704.431679	18433.856199
704.766725	18371.398824
705.101721	18300.565571
705.436668	18430.801260
705.771565	18143.820974
706.106413	18464.768555
706.441212	18533.802115
706.775961	18632.215521
707.110661	18719.724910
707.445311	19073.631554
707.779913	18954.282237
708.114465	19255.622249
708.448967	19555.243228
708.783421	20185.634476
709.117825	20550.689631
709.452180	20771.623240
709.786485	21231.842777
710.120742	21987.478971
710.454949	22097.295467
710.789107	22598.544955
711.123216	23313.415859
711.457275	23518.910934
711.791286	24088.145423
712.125247	24240.879782
712.459159	23967.747546
712.793023	24721.737803
713.126837	23708.107958
713.460602	23954.073416
713.794318	23626.738694
714.127985	23348.867773
714.461602	22466.275161
714.795171	22425.787134
715.128691	21454.835697
715.462162	20948.693769
715.795584	20511.199753
716.128957	20241.039277
716.462281	19860.376709
716.795556	19589.480225
717.128782	19112.216546
717.461960	18511.903343
717.795088	18477.502509
718.128167	18135.586250
718.461198	17676.874017
718.794180	17549.920119
719.127113	17222.300572
719.459997	17020.339346
719.792833	16655.243861
720.125619	16703.540635
720.458357	16361.763007
720.791046	16233.122844
721.123686	16074.812969
721.456278	15853.831469
721.788821	15858.635689
722.121315	15582.602269
722.453761	15691.150914
722.786158	15575.766464
723.118506	15653.173382
723.450805	15532.770463
723.783056	15709.840992
724.115259	15600.263952
724.447412	15597.917294
724.779518	15815.148175
725.111574	15871.447782
725.443582	16128.539066
725.775542	16088.824856
726.107453	16602.243690
726.439315	16526.354160
726.771129	16935.912622
727.102895	17360.617231
727.434612	17629.313251
727.766281	17782.902085
728.097901	18107.466693
728.429473	18189.662707
728.760996	18214.893682
729.092471	18324.841247
729.423897	18235.922855
729.755276	18105.785469
730.086606	18211.324545
730.417887	18801.956212
730.749120	19349.866621
731.080305	19554.091325
731.411442	19951.367015
731.742530	20065.924716
732.073570	20223.221319
732.404562	20553.656350
732.735506	20400.793442
733.066401	20189.884168
733.397249	19699.735300
733.728048	19080.855528
734.058798	18220.864929
734.389501	17449.603678
734.720156	16941.800690
735.050762	16365.758122
735.381320	15989.347767
735.711831	15709.586414
736.042293	15337.246791
736.372707	15385.112547
736.703073	15171.521379
737.033391	15377.134921
737.363661	15369.953797
737.693883	15489.471993
738.024056	15681.169430
738.354182	15908.444810
738.684260	16263.102586
739.014290	16538.097528
739.344272	16764.092455
739.674207	17112.950383
740.004093	17284.629398
740.333931	17330.796285
740.663722	17417.408349
740.993464	17451.947815
741.323159	17310.697205
741.652806	17015.091505
741.982405	16854.031681
742.311956	16490.569529
742.641460	16382.958539
742.970915	16051.951336
743.300323	15716.870881
743.629683	15497.043806
743.958996	15183.897411
744.288260	14864.888155
744.617477	14565.683071
744.946647	14536.792218
745.275768	14215.340523
745.604842	14008.706147
745.933869	13832.386750
746.262847	13811.715499
746.591778	13718.575141
746.920662	13599.818159
747.249498	13617.278195
747.578286	13772.197894
747.907027	13948.839925
748.235720	14212.981263
748.564365	14284.709320
748.892963	14203.030025
749.221514	14304.929388
749.550017	14163.456968
749.878473	14145.550789
750.206881	13917.715841
750.535242	13847.820243
750.863555	13760.557870
751.191821	13666.268128
751.520039	13685.984081
751.848210	13609.252678
752.176334	13657.264628
752.504411	13584.669492
752.832440	13406.046287
753.160421	13517.284388
753.488356	13409.383531
753.816243	13318.544459
754.144082	13155.717711
754.471875	13100.476747
754.799620	13072.140421
755.127318	13047.748798
755.454969	13035.224052
755.782572	12999.157116
756.110129	13024.143595
756.437638	12923.756578
756.765100	12934.680759
757.092515	12964.874750
757.419882	12994.499090
757.747203	13007.321265
758.074477	13097.436931
758.401703	13079.187954
758.728882	13274.482254
759.056014	13322.171570
759.383099	13480.569665
759.710138	13608.506587
760.037129	13729.595103
760.364073	13788.238846
760.690970	13805.860199
761.017820	13832.202748
761.344623	14058.497624
761.671379	14429.435806
761.998088	15135.426717
762.324751	16901.383239
762.651366	20287.201123
762.977935	24741.758746
763.304456	27695.300208
763.630931	28741.258973
763.957359	27548.010295
764.283740	25307.953419
764.610074	23060.818763
764.936362	20435.998340
765.262602	18575.870544
765.588796	16643.755071
765.914943	15363.385173
766.241044	14269.278348
766.567097	13483.569151
766.893104	12761.139037
767.219064	12292.125207
767.544978	11827.497181
767.870845	11430.884402
768.196665	11211.132944
768.522438	10988.094654
768.848165	10778.148240
769.173846	10576.522251
769.499479	10447.007447
769.825066	10282.350759
770.150607	10050.871057
770.476101	9969.476587
770.801548	9846.132155
771.126949	9685.228607
771.452303	9574.761802
771.777611	9382.492195
772.102872	9369.027273
772.428087	9226.556703
772.753256	9070.354031
773.078378	8988.480651
773.403453	8803.654307
773.728482	8689.837656
774.053465	8614.875699
774.378401	8514.269391
774.703291	8392.424703
775.028135	8269.317205
775.352932	8238.326712
775.677683	8133.054817
776.002388	8022.293105
776.327046	8029.917850
776.651658	7936.651463
776.976224	7835.939292
777.300743	7839.553799
777.625216	7750.862259
777.949643	7706.086730
778.274024	7718.704738
778.598359	7625.725697
778.922647	7646.659088
779.246889	7595.219154
779.571086	7609.755321
779.895236	7616.825540
780.219339	7622.577496
780.543397	7621.216385
780.867409	7704.168571
781.191374	7709.567647
781.515294	7680.795261
781.839167	7779.019623
782.162995	7752.334276
782.486776	7692.911675
782.810511	7641.791854
783.134201	7560.533495
783.457844	7553.763226
783.781441	7502.860175
784.104993	7436.551358
784.428498	7408.525063
784.751958	7399.685399
785.075372	7370.381172
785.398739	7315.387225
785.722061	7361.274328
786.045337	7366.116356
786.368568	7518.076898
786.691752	7541.288890
787.014891	7878.118626
787.337983	8235.566680
787.661030	8830.304367
787.984031	9445.932595
788.306987	9848.519142
788.629897	10050.838289
788.952760	10003.388429
789.275579	9784.695613
789.598351	9391.092403
789.921078	9036.018732
790.243759	8625.515054
790.566395	8338.801949
790.888984	8094.638704
791.211529	7882.610294
791.534027	7661.341449
791.856480	7455.158256
792.178888	7386.389356
792.501249	7282.145856
792.823566	7130.603731
793.145836	7136.181767
793.468062	7106.323013
793.790241	7056.334932
794.112375	7123.112576
794.434464	7277.134949
794.756507	7318.114489
795.078505	7475.380845
795.400457	7785.079090
795.722364	8132.540619
796.044226	8415.863548
796.366042	8694.394859
796.687812	8647.953230
797.009538	8726.532215
797.331218	8622.356771
797.652852	8534.834778
797.974442	8388.258189
798.295986	8295.944580
798.617484	8103.614478
798.938938	7963.248591
799.260346	7862.818724
799.581709	7669.984507
799.903026	7583.286743
800.224299	7477.170455
800.545526	7311.964281
800.866708	7213.051802
801.187845	7145.354147
801.508936	7042.207098
801.829983	7005.704103
802.150984	6847.537901
802.471940	6808.801675
802.792851	6794.963708
803.113717	6753.810248
803.434538	6724.543829
803.755314	6668.266908
804.076045	6671.571385
804.396731	6619.135823
804.717372	6650.522047
805.037967	6647.822509
805.358518	6691.458737
805.679024	6773.077538
805.999485	6784.278982
806.319901	6823.146278
806.640272	6845.342478
806.960598	6927.634274
807.280879	6922.038593
807.601115	7006.979515
807.921306	6951.017666
808.241453	6966.665407
808.561554	6990.557956
808.881611	6950.233767
809.201623	6964.369162
809.521590	6908.906387
809.841513	6888.041052
810.161390	6925.111176
810.481223	6793.363141
810.801011	6781.619773
811.120755	6761.314006
811.440453	6681.638569
811.760107	6649.685215
812.079716	6620.270083
812.399281	6550.482869
812.718801	6545.550100
813.038276	6492.428942
813.357707	6435.085817
813.677093	6480.181458
813.996434	6387.136882
814.315731	6429.835455
814.634983	6422.921513
814.954191	6435.499191
815.273354	6540.032557
815.592473	6600.355004
815.911547	6724.105249
816.230577	6808.095913
816.549562	6952.446833
816.868502	7056.521454
817.187399	7147.854559
817.506250	7308.453118
817.825058	7334.215934
818.143821	7605.452697
818.462539	7871.179477
818.781213	8241.240499
819.099843	8790.524622
819.418429	9779.944326
819.736970	10754.540517
820.055466	11926.102150
820.373919	13459.290954
820.692327	15802.494879
821.010691	19928.696946
821.329011	28909.391536
821.647286	41899.688824
821.965517	55344.093251
822.283704	60742.276736
822.601847	62748.048508
822.919945	60044.235725
823.237999	55850.620828
823.556010	49676.455052
823.873976	42968.791526
824.191897	36466.633157
824.509775	31616.473507
824.827609	27088.914935
825.145398	24490.038811
825.463144	23125.998362
825.780845	23439.984108
826.098502	25202.631112
826.416116	28960.181161
826.733685	32574.537234
827.051210	33718.075093
827.368692	31943.427622
827.686129	27995.815992
828.003522	23894.812132
828.320872	20208.188598
828.638177	17377.086680
828.955439	15228.740995
829.272656	13424.078495
829.589830	11951.998557
829.906960	10682.716677
830.224046	9742.304551
830.541088	8998.522630
830.858086	8542.651088
831.175041	8160.791245
831.491952	8045.527783
831.808819	8085.874658
832.125642	8485.358374
832.442421	9368.709680
832.759157	11150.439972
833.075849	14059.329414
833.392497	17267.892767
833.709101	19431.003992
834.025662	19277.863820
834.342179	17595.242613
834.658653	15414.978862
834.975083	13496.489628
835.291469	11882.455840
835.607811	10574.810779
835.924110	9662.233383
836.240366	8802.351169
836.556578	7999.716298
836.872746	7353.992381
837.188871	6856.324632
837.504952	6438.934738
837.820990	6129.609538
838.136984	5914.803452
838.452935	5821.373227
838.768842	5846.571434
839.084706	6268.566423
839.400526	7473.843293
839.716303	9052.231083
840.032037	10135.630497
840.347727	10068.401669
840.663373	9098.637425
840.978977	8057.147643
841.294537	7257.489573
841.610054	6655.537995
841.925527	6218.406942
842.240957	5862.665318
842.556344	5530.851531
842.871687	5245.693622
843.186987	4968.203309
843.502244	4743.874483
843.817458	4579.910954
844.132629	4444.598823
844.447756	4346.457640
844.762840	4271.649438
845.077881	4200.803582
845.392879	4137.884941
845.707833	4085.303186
846.022745	4041.069582
846.337613	4014.774923
846.652438	3971.950321
846.967221	3953.847538
847.281960	3920.583484
847.596656	3902.062285
847.911309	3884.602248
848.225919	3858.731047
848.540485	3846.682689
848.855009	3831.413034
849.169490	3812.158347
849.483928	3795.363743
849.798323	3789.407620
850.112675	3767.919702
850.426984	3775.347842
850.741251	3763.581789
851.055474	3755.815891
851.369654	3758.802775
851.683792	3759.934514
851.997887	3763.120523
852.311938	3763.982560
852.625947	3770.016822
852.939914	3757.177003
853.253837	3769.774846
853.567718	3767.332407
853.881555	3758.119698
854.195350	3770.276441
854.509103	3768.239815
854.822812	3764.789145
855.136479	3755.737753
855.450103	3769.545474
855.763685	3752.307248
856.077224	3755.127774
856.390720	3773.575876
856.704173	3794.060605
857.017584	3807.782626
857.330953	3814.517607
857.644278	3837.890917
857.957561	3845.321578
858.270802	3844.046166
858.584000	3848.081609
858.897155	3841.898634
859.210268	3825.638392
859.523339	3799.401707
859.836367	3801.735762
860.149352	3794.375677
860.462295	3786.871919
860.775195	3778.652318
861.088054	3770.064713
861.400869	3768.433899
861.713642	3770.586472
862.026373	3779.242133
862.339062	3785.548617
862.651708	3804.427738
862.964312	3836.620546
863.276873	3850.425746
863.589392	3908.031011
863.901869	3954.074390
864.214303	3998.454187
864.526696	4029.190102
864.839045	4076.728183
865.151353	4104.489817
865.463619	4112.500211
865.775842	4117.876602
866.088023	4138.073984
866.400162	4131.364209
866.712258	4140.476094
867.024313	4137.090959
867.336325	4139.480466
867.648296	4141.010457
867.960224	4141.229747
868.272110	4149.542609
868.583954	4151.732991
868.895755	4165.850742
869.207515	4163.196575
869.519233	4206.358934
869.830909	4221.628589
870.142542	4246.126076
870.454134	4260.296759
870.765684	4285.857930
871.077191	4323.873271
871.388657	4346.487887
871.700081	4382.257394
872.011463	4427.524435
872.322803	4463.296463
872.634101	4496.631093
872.945357	4537.325807
873.256571	4589.642902
873.567744	4618.170792
873.878874	4633.979850
874.189963	4674.833361
874.501010	4686.917007
874.812015	4685.087068
875.122979	4724.498808
875.433900	4724.413109
875.744780	4734.717227
876.055618	4765.032206
876.366415	4760.875775
876.677169	4782.948467
876.987882	4831.540149
877.298554	4882.854054
877.609183	4960.545796
877.919771	5069.149894
878.230317	5214.249425
878.540822	5425.241878
878.851285	5748.095015
879.161707	6209.365633
879.472087	6961.087371
879.782425	8198.312553
880.092722	10374.266117
880.402977	13682.072146
880.713191	17435.435515
881.023363	21138.989765
881.333494	23367.799827
881.643583	24584.714200
881.953631	24574.445370
882.263637	23731.448500
882.573602	22255.111308
882.883526	20722.396372
883.193408	19026.141365
883.503248	17344.273810
883.813048	15801.027903
884.122806	14371.308782
884.432522	12899.246488
884.742197	11630.299845
885.051831	10548.528723
885.361424	9542.901710
885.670975	8724.062050
885.980485	8036.670476
886.289954	7456.665561
886.599382	6992.055179
886.908768	6610.364215
887.218113	6249.641931
887.527417	5962.792716
887.836680	5694.593249
888.145901	5476.293643
888.455082	5310.618643
888.764221	5162.055839
889.073319	5026.000138
889.382376	4954.350218
889.691392	4898.113626
890.000366	4874.432806
890.309300	4853.882542
890.618193	4855.651987
890.927044	4841.350234
891.235855	4866.024162
891.544625	4900.248555
891.853353	4957.725271
892.162041	5075.111058
892.470687	5261.656436
892.779293	5508.400752
893.087858	5882.532505
893.396381	6455.815041
893.704864	7259.017042
894.013306	8404.450375
894.321707	9574.028315
894.630068	10394.309745
894.938387	10591.418860
895.246665	10354.535041
895.554903	9757.697714
895.863100	9061.128719
896.171256	8500.660797
896.479371	8000.308633
896.787446	7503.157603
897.095480	7075.967705
897.403473	6756.779488
897.711425	6438.977587
898.019336	6176.192320
898.327207	5903.964971
898.635038	5675.643552
898.942827	5431.097178
899.250576	5238.598198
899.558284	5047.661976
899.865952	4924.436011
900.173579	4778.000574
900.481165	4666.434798
900.788711	4578.572528
901.096216	4502.589737
901.403681	4439.928194
901.711105	4419.962705
902.018489	4404.682967
902.325832	4470.596054
902.633135	4593.935444
902.940397	4931.811219
903.247619	5724.192384
903.554800	7161.143041
903.861941	9071.357221
904.169041	10586.481050
904.476101	11220.592669
904.783121	10863.747032
905.090100	10131.093459
905.397039	9289.886199
905.703938	8540.800984
906.010796	7851.662650
906.317614	7296.455172
906.624391	6767.728874
906.931129	6341.602660
907.237826	5939.885713
907.544483	5570.041461
907.851099	5199.292322
908.157675	4840.876366
908.464211	4522.640926
908.770707	4288.491933
909.077163	4087.455759
909.383578	3945.970735
909.689954	3824.133608
909.996289	3755.107609
910.302584	3692.307435
910.608839	3664.210564
910.915054	3626.701859
911.221229	3616.498563
911.527363	3626.089359
911.833458	3640.902789
912.139513	3669.748272
912.445527	3697.754402
912.751502	3780.439407
913.057436	3881.287690
913.363331	4015.412629
913.669186	4220.960636
913.975000	4477.719204
914.280775	4897.072628
914.586510	5479.456967
914.892205	6269.463748
915.197859	7301.032539
915.503475	8521.027058
915.809050	9573.746010
916.114585	10220.745339
916.420081	10471.925870
916.725536	10447.675400
917.030952	10004.066464
917.336328	9591.891643
917.641665	9181.476185
917.946961	8705.472795
918.252218	8289.461656
918.557435	7776.660363
918.862612	7350.345106
919.167750	6978.353323
919.472848	6554.944291
919.777906	6181.767836
920.082925	5819.422300
920.387904	5459.493998
920.692843	5189.270508
920.997743	4950.450886
921.302603	4715.175194
921.607423	4552.330802
921.912204	4389.620000
922.216946	4271.283954
922.521647	4152.930265
922.826310	4045.467988
923.130932	3955.906849
923.435516	3857.737940
923.740059	3786.551806
924.044564	3709.255794
924.349028	3651.975684
924.653454	3586.546548
924.957840	3515.904859
925.262186	3471.094043
925.566493	3409.075247
925.870761	3354.847555
926.174989	3317.515291
926.479178	3283.437091
926.783328	3239.233733
927.087438	3211.237685
927.391509	3177.424146
927.695541	3145.319558
927.999533	3118.717389
928.303486	3101.640480
928.607400	3084.775300
928.911275	3070.231571
929.215110	3053.537790
929.518906	3043.815925
929.822663	3041.890204
930.126381	3044.970349
930.430060	3048.090823
930.733699	3052.723644
931.037299	3060.587844
931.340861	3057.421999
931.644383	3065.306364
931.947866	3063.620098
932.251309	3059.357802
932.554714	3058.757905
932.858080	3052.927810
933.161407	3044.254505
933.464694	3037.678320
933.767943	3031.049203
934.071153	3026.015611
934.374323	3015.323323
934.677455	3010.551871
934.980548	3001.487877
935.283602	2996.507217
935.586617	2998.619460
935.889593	3004.794873
936.192530	3009.357118
936.495428	3023.290867
936.798287	3043.014381
937.101108	3073.621747
937.403890	3125.495220
937.706632	3186.599046
938.009336	3266.859256
938.312002	3336.951459
938.614628	3403.572828
938.917216	3450.931948
939.219765	3483.316320
939.522275	3516.719005
939.824747	3523.685880
940.127179	3518.576671
940.429573	3514.939478
940.731929	3510.987213
941.034246	3497.308043
941.336524	3486.714058
941.638763	3470.902479
941.940964	3458.748257
942.243126	3414.575146
942.545250	3392.157135
942.847335	3353.793954
943.149381	3320.597956
943.451389	3289.224335
943.753359	3255.476331
944.055290	3228.924573
944.357182	3204.880790
944.659036	3190.601722
944.960851	3178.598735
945.262628	3167.888803
945.564367	3168.939884
945.866067	3161.025272
946.167729	3160.044768
946.469352	3155.782472
946.770937	3153.118222
947.072484	3137.593989
947.373992	3139.549957
947.675462	3131.070736
947.976893	3119.460959
948.278286	3107.001747
948.579641	3100.425562
948.880958	3095.364243
949.182236	3099.994543
949.483476	3089.876948
949.784678	3089.188830
950.085841	3091.051536
950.386967	3101.716097
950.688054	3118.649333
950.989103	3139.439052
951.290114	3157.814057
951.591087	3187.007379
951.892021	3216.724981
952.192917	3244.819332
952.493776	3270.413270
952.794596	3276.422325
953.095378	3283.953809
953.396122	3275.799743
953.696828	3273.208589
953.997496	3258.495982
954.298126	3234.109400
954.598718	3215.994014
954.899272	3191.869572
955.199788	3161.967968
955.500266	3131.000160
955.800706	3096.387598
956.101108	3056.887637
956.401472	3025.589633
956.701798	2992.933038
957.002087	2955.202523
957.302337	2925.114396
957.602550	2898.166908
957.902724	2870.775798
958.202861	2848.085565
958.502960	2826.973213
958.803022	2802.649645
959.103045	2784.733385
959.403031	2765.975251
959.702979	2753.841194
960.002889	2740.237640
960.302762	2728.970661
960.602596	2715.624207
960.902393	2706.343442
961.202153	2698.582586
961.501875	2688.631348
961.801559	2683.035667
962.101205	2678.546520
962.400814	2673.366734
962.700385	2666.737617
962.999918	2660.524395
963.299414	2653.002993
963.598873	2653.875113
963.898293	2644.387662
964.197677	2645.539565
964.497022	2643.008906
964.796331	2641.841879
965.095601	2637.619913
965.394835	2635.616054
965.694030	2634.824593
965.993189	2635.202679
966.292309	2631.210085
966.591393	2632.785446
966.890439	2629.564149
967.189447	2630.826958
967.488419	2632.614047
967.787353	2629.601957
968.086249	2633.460961
968.385108	2635.079171
968.683930	2636.047072
968.982714	2640.904224
969.281462	2646.353712
969.580172	2651.359577
969.878844	2657.925680
970.177480	2666.157884
970.476078	2669.568225
970.774639	2678.503670
971.073162	2687.018179
971.371649	2690.368026
971.670098	2697.854139
971.968510	2703.013760
972.266885	2705.108360
972.565223	2710.474668
972.863524	2712.317210
973.161788	2717.849876
973.460014	2721.993704
973.758204	2723.584188
974.056356	2724.289950
974.354471	2727.614591
974.652550	2724.796586
974.950591	2725.615773
975.248595	2724.504199
975.546563	2719.720144
975.844493	2718.989177
976.142386	2714.457179
976.440243	2708.811087
976.738062	2704.208514
977.035845	2695.479756
977.333590	2691.260310
977.631299	2687.802078
977.928971	2681.046932
978.226606	2672.812207
978.524204	2669.492608
978.821765	2667.783657
979.119290	2666.001609
979.416777	2665.527740
979.714228	2671.824141
980.011642	2674.942095
980.309020	2683.456604
980.606360	2694.882379
980.903664	2718.719475
981.200931	2755.628283
981.498162	2802.886580
981.795356	2877.702344
982.092513	2963.422124
982.389633	3071.809452
982.686717	3167.684637
982.983764	3240.710791
983.280775	3290.159469
983.577749	3297.209523
983.874686	3282.610341
984.171587	3249.106833
984.468451	3209.818600
984.765279	3167.596416
985.062070	3122.263840
985.358824	3076.666604
985.655543	3021.183665
985.952224	2969.680716
986.248869	2906.383989
986.545478	2847.004237
986.842050	2791.425516
987.138586	2743.229565
987.435086	2706.928216
987.731549	2678.498629
988.027975	2654.931235
988.324366	2634.693523
988.620719	2622.057871
988.917037	2612.278032
989.213318	2601.537854
989.509563	2594.182810
989.805772	2590.989239
990.101944	2584.652509
990.398080	2582.116809
990.694180	2583.674525
990.990244	2581.950451
991.286271	2582.265523
991.582262	2586.835329
991.878217	2588.914805
992.174136	2589.860021
992.470019	2592.088211
992.765865	2596.166504
993.061676	2598.601382
993.357450	2607.778802
993.653188	2613.724843
993.948890	2633.869294
994.244556	2652.463590
994.540186	2675.126097
994.835780	2706.812270
995.131337	2741.339132
995.426859	2782.222890
995.722345	2831.732062
996.017795	2882.665360
996.313208	2917.325813
996.608586	2945.599124
996.903928	2959.941207
997.199234	2959.358954
997.494504	2954.741257
997.789738	2939.635439
998.084936	2917.507295
998.380099	2886.032851
998.675225	2856.678212
998.970316	2825.087821
999.265371	2790.926442
999.560390	2754.219280
999.855373	2723.773232
1000.150320	2695.101669
1000.445232	2670.359686
1000.740108	2650.860503
1001.034948	2634.431383
1001.329752	2614.702827
1001.624521	2607.612444
1001.919254	2591.810947
1002.213951	2588.083014
1002.508613	2578.739236
1002.803239	2571.467371
1003.097829	2564.558470
1003.392384	2560.921277
1003.686903	2554.115720
1003.981386	2555.060936
1004.275834	2548.031047
1004.570246	2548.141952
1004.864623	2543.148689
1005.158964	2543.378062
1005.453270	2539.571991
1005.747540	2537.802546
1006.041775	2536.091074
1006.335974	2535.733152
1006.630138	2536.726259
1006.924266	2534.939170
1007.218359	2533.298275
1007.512416	2530.755013
1007.806438	2528.378109
1008.100425	2528.577234
1008.394376	2529.875331
1008.688292	2531.493542
1008.982172	2528.191586
1009.276017	2530.823068
1009.569827	2527.551359
1009.863602	2527.889117
1010.157341	2527.442975
1010.451045	2527.911802
1010.744714	2525.512213
1011.038347	2523.899043
1011.331945	2520.420647
1011.625508	2521.247397
1011.919036	2521.943076
1012.212528	2519.949299
1012.505986	2520.246728
1012.799408	2520.418127
1013.092795	2517.660616
1013.386147	2518.346212
1013.679464	2517.527025
1013.972745	2518.381501
1014.265992	2517.665657
1014.559204	2518.517612
1014.852380	2519.621624
1015.145521	2517.688342
1015.438628	2516.370080
1015.731699	2519.508198
1016.024736	2521.096162
1016.317737	2521.237314
1016.610703	2522.263189
1016.903635	2520.942407
1017.196531	2523.800741
1017.489393	2524.816533
1017.782219	2523.828467
1018.075011	2527.957172
1018.367768	2526.525485
1018.660490	2528.494055
1018.953177	2528.494055
1019.245829	2528.494055
