Dividing Wavelength (nm)	Counts (n)	Blue Motor Position (mm): 0.500000	Red Motor Position (mm): 0.000000	
326.493990	2122.325769
326.888308	2122.325769
327.282561	2122.325769
327.676750	2021.502692
328.070874	2114.764038
328.464933	2119.805192
328.858929	2094.599423
329.252859	2152.572692
329.646726	2094.599423
330.040528	2124.846346
330.434265	2137.449231
330.827938	2170.216731
331.221547	2119.805192
331.615091	2190.381346
332.008571	2230.710577
332.401986	2177.778462
332.795338	2192.901923
333.188625	2218.107692
333.581847	2223.148846
333.975006	2278.601538
334.368100	2253.395769
334.761129	2311.369038
335.154095	2308.848462
335.546996	2361.780577
335.939833	2308.848462
336.332606	2316.410192
336.725315	2434.877308
337.117960	2404.630385
337.510540	2394.548077
337.903056	2444.959615
338.295508	2422.274423
338.687896	2346.657115
339.080220	2492.850577
339.472480	2412.192115
339.864676	2452.521346
340.256807	2475.206538
340.648875	2457.562500
341.040879	2555.865000
341.432818	2429.836154
341.824694	2465.124231
342.216506	2452.521346
342.608253	2472.685962
342.999937	2472.685962
343.391557	2480.247692
343.783113	2477.727115
344.174605	2520.576923
344.566033	2475.206538
344.957397	2450.000769
345.348697	2470.165385
345.739934	2402.109808
346.131106	2424.795000
346.522215	2457.562500
346.913260	2480.247692
347.304241	2465.124231
347.695159	2409.671538
348.086012	2386.986346
348.476802	2361.780577
348.867528	2450.000769
349.258191	2482.768269
349.648789	2429.836154
350.039324	2502.932885
350.429796	2475.206538
350.820203	2450.000769
351.210548	2424.795000
351.600828	2419.753846
351.991045	2394.548077
352.381198	2452.521346
352.771288	2434.877308
353.161314	2482.768269
353.551276	2399.589231
353.941175	2477.727115
354.331010	2460.083077
354.720782	2432.356731
355.110490	2439.918462
355.500135	2465.124231
355.889717	2487.809423
356.279235	2470.165385
356.668689	2409.671538
357.058080	2439.918462
357.447408	2447.480192
357.836672	2432.356731
358.225873	2384.465769
358.615010	2485.288846
359.004084	2379.424615
359.393095	2467.644808
359.782043	2520.576923
360.170927	2492.850577
360.559748	2513.015192
360.948505	2470.165385
361.337199	2462.603654
361.725830	2480.247692
362.114398	2404.630385
362.502903	2374.383462
362.891344	2525.618077
363.279722	2364.301154
363.668037	2510.494615
364.056289	2563.426731
364.444478	2523.097500
364.832603	2477.727115
365.220665	2422.274423
365.608665	2429.836154
365.996601	2510.494615
366.384474	2444.959615
366.772284	2502.932885
367.160031	2455.041923
367.547715	2475.206538
367.935336	2394.548077
368.322893	2452.521346
368.710388	2515.535769
369.097820	2432.356731
369.485189	2507.974038
369.872495	2447.480192
370.259738	2434.877308
370.646918	2482.768269
371.034035	2429.836154
371.421090	2513.015192
371.808081	2397.068654
372.195010	2341.615962
372.581875	2419.753846
372.968678	2460.083077
373.355418	2399.589231
373.742096	2336.574808
374.128710	2434.877308
374.515262	2389.506923
374.901751	2379.424615
375.288177	2465.124231
375.674540	2472.685962
376.060841	2386.986346
376.447079	2379.424615
376.833254	2450.000769
377.219367	2407.150962
377.605417	2530.659231
377.991404	2452.521346
378.377329	2414.712692
378.763191	2520.576923
379.148991	2482.768269
379.534727	2460.083077
379.920402	2439.918462
380.306013	2502.932885
380.691563	2424.795000
381.077049	2475.206538
381.462474	2439.918462
381.847835	2485.288846
382.233134	2379.424615
382.618371	2452.521346
383.003545	2427.315577
383.388657	2480.247692
383.773706	2538.220962
384.158693	2455.041923
384.543618	2379.424615
384.928480	2482.768269
385.313280	2414.712692
385.698017	2528.138654
386.082692	2437.397885
386.467305	2434.877308
386.851856	2505.453462
387.236344	2417.233269
387.620770	2386.986346
388.005133	2533.179808
388.389435	2477.727115
388.773674	2417.233269
389.157851	2452.521346
389.541965	2482.768269
389.926018	2414.712692
390.310008	2417.233269
390.693936	2462.603654
391.077802	2444.959615
391.461606	2495.371154
391.845348	2417.233269
392.229027	2482.768269
392.612645	2525.618077
392.996200	2528.138654
393.379694	2502.932885
393.763125	2518.056346
394.146494	2500.412308
394.529801	2492.850577
394.913047	2417.233269
395.296230	2424.795000
395.679351	2376.904038
396.062410	2465.124231
396.445408	2450.000769
396.828343	2457.562500
397.211217	2397.068654
397.594028	2497.891731
397.976778	2412.192115
398.359466	2444.959615
398.742092	2392.027500
399.124656	2477.727115
399.507158	2497.891731
399.889598	2465.124231
400.271977	2523.097500
400.654294	2439.918462
401.036549	2407.150962
401.418742	2528.138654
401.800874	2558.385577
402.182944	2444.959615
402.564952	2439.918462
402.946898	2427.315577
403.328783	2447.480192
403.710606	2432.356731
404.092367	2623.920577
404.474067	2444.959615
404.855705	2452.521346
405.237282	2578.550192
405.618797	2485.288846
406.000250	2470.165385
406.381642	2442.439038
406.762972	2515.535769
407.144240	2432.356731
407.525447	2523.097500
407.906593	2485.288846
408.287677	2460.083077
408.668700	2543.262115
409.049661	2419.753846
409.430560	2545.782692
409.811399	2452.521346
410.192176	2500.412308
410.572891	2444.959615
410.953545	2570.988462
411.334138	2477.727115
411.714669	2515.535769
412.095139	2475.206538
412.475547	2502.932885
412.855894	2444.959615
413.236180	2437.397885
413.616405	2502.932885
413.996568	2417.233269
414.376670	2515.535769
414.756711	2502.932885
415.136691	2457.562500
415.516609	2465.124231
415.896466	2497.891731
416.276262	2397.068654
416.655997	2485.288846
417.035670	2407.150962
417.415283	2432.356731
417.794834	2523.097500
418.174324	2437.397885
418.553753	2487.809423
418.933121	2487.809423
419.312428	2455.041923
419.691674	2581.070769
420.070859	2497.891731
420.449983	2462.603654
420.829045	2492.850577
421.208047	2497.891731
421.586988	2535.700385
421.965867	2467.644808
422.344686	2475.206538
422.723444	2545.782692
423.102141	2427.315577
423.480777	2497.891731
423.859352	2417.233269
424.237866	2482.768269
424.616319	2336.574808
424.994712	2477.727115
425.373044	2467.644808
425.751314	2523.097500
426.129524	2530.659231
426.507673	2457.562500
426.885762	2502.932885
427.263789	2502.932885
427.641756	2434.877308
428.019662	2480.247692
428.397508	2447.480192
428.775292	2470.165385
429.153016	2465.124231
429.530679	2447.480192
429.908282	2490.330000
430.285824	2563.426731
430.663305	2444.959615
431.040726	2548.303269
431.418086	2558.385577
431.795385	2485.288846
432.172624	2465.124231
432.549802	2502.932885
432.926920	2447.480192
433.303977	2467.644808
433.680974	2513.015192
434.057910	2563.426731
434.434786	2450.000769
434.811601	2457.562500
435.188355	2487.809423
435.565050	2465.124231
435.941683	2475.206538
436.318257	2525.618077
436.694770	2402.109808
437.071222	2513.015192
437.447614	2472.685962
437.823946	2417.233269
438.200218	2467.644808
438.576429	2439.918462
438.952580	2495.371154
439.328670	2490.330000
439.704700	2432.356731
440.080670	2538.220962
440.456580	2505.453462
440.832429	2502.932885
441.208218	2485.288846
441.583947	2444.959615
441.959616	2487.809423
442.335224	2392.027500
442.710773	2460.083077
443.086261	2482.768269
443.461689	2492.850577
443.837057	2523.097500
444.212365	2475.206538
444.587612	2424.795000
444.962800	2560.906154
445.337927	2490.330000
445.712995	2429.836154
446.088002	2472.685962
446.462949	2513.015192
446.837837	2485.288846
447.212664	2525.618077
447.587431	2480.247692
447.962139	2515.535769
448.336786	2565.947308
448.711374	2543.262115
449.085901	2497.891731
449.460369	2465.124231
449.834776	2417.233269
450.209124	2533.179808
450.583412	2439.918462
450.957640	2523.097500
451.331808	2533.179808
451.705917	2417.233269
452.079965	2414.712692
452.453954	2480.247692
452.827883	2480.247692
453.201752	2565.947308
453.575562	2412.192115
453.949311	2492.850577
454.323001	2495.371154
454.696632	2525.618077
455.070202	2412.192115
455.443713	2530.659231
455.817164	2414.712692
456.190556	2558.385577
456.563888	2538.220962
456.937160	2475.206538
457.310373	2515.535769
457.683526	2477.727115
458.056619	2462.603654
458.429653	2482.768269
458.802628	2422.274423
459.175542	2513.015192
459.548398	2487.809423
459.921194	2480.247692
460.293930	2560.906154
460.666607	2424.795000
461.039224	2530.659231
461.411782	2447.480192
461.784280	2515.535769
462.156719	2565.947308
462.529099	2457.562500
462.901419	2419.753846
463.273680	2457.562500
463.645882	2442.439038
464.018024	2548.303269
464.390106	2513.015192
464.762130	2490.330000
465.134094	2467.644808
465.505999	2515.535769
465.877845	2487.809423
466.249631	2480.247692
466.621358	2530.659231
466.993026	2381.945192
467.364634	2457.562500
467.736184	2482.768269
468.107674	2535.700385
468.479105	2384.465769
468.850477	2535.700385
469.221790	2467.644808
469.593043	2550.823846
469.964238	2588.632500
470.335373	2361.780577
470.706449	2548.303269
471.077467	2563.426731
471.448425	2505.453462
471.819324	2422.274423
472.190164	2500.412308
472.560945	2502.932885
472.931667	2515.535769
473.302330	2427.315577
473.672934	2540.741538
474.043479	2601.235385
474.413965	2611.317692
474.784393	2422.274423
475.154761	2563.426731
475.525070	2470.165385
475.895321	2475.206538
476.265513	2460.083077
476.635645	2455.041923
477.005719	2550.823846
477.375734	2485.288846
477.745691	2492.850577
478.115588	2465.124231
478.485427	2523.097500
478.855207	2570.988462
479.224928	2462.603654
479.594591	2530.659231
479.964194	2523.097500
480.333739	2515.535769
480.703226	2530.659231
481.072653	2570.988462
481.442022	2560.906154
481.811333	2545.782692
482.180584	2452.521346
482.549777	2570.988462
482.918912	2495.371154
483.287988	2505.453462
483.657005	2497.891731
484.025964	2470.165385
484.394864	2404.630385
484.763706	2482.768269
485.132489	2502.932885
485.501213	2482.768269
485.869879	2550.823846
486.238487	2492.850577
486.607036	2500.412308
486.975527	2495.371154
487.343959	2510.494615
487.712333	2465.124231
488.080648	2535.700385
488.448905	2520.576923
488.817104	2497.891731
489.185244	2495.371154
489.553326	2502.932885
489.921350	2583.591346
490.289315	2515.535769
490.657222	2437.397885
491.025070	2518.056346
491.392861	2429.836154
491.760593	2500.412308
492.128267	2472.685962
492.495883	2507.974038
492.863440	2402.109808
493.230939	2505.453462
493.598380	2510.494615
493.965763	2475.206538
494.333088	2447.480192
494.700354	2565.947308
495.067563	2432.356731
495.434713	2535.700385
495.801805	2533.179808
496.168839	2538.220962
496.535815	2497.891731
496.902733	2444.959615
497.269593	2548.303269
497.636395	2485.288846
498.003139	2513.015192
498.369825	2437.397885
498.736453	2492.850577
499.103023	2482.768269
499.469535	2593.673654
499.835989	2540.741538
500.202385	2563.426731
500.568723	2490.330000
500.935003	2505.453462
501.301226	2419.753846
501.667390	2470.165385
502.033497	2450.000769
502.399546	2455.041923
502.765537	2432.356731
503.131470	2550.823846
503.497345	2505.453462
503.863163	2490.330000
504.228923	2452.521346
504.594625	2505.453462
504.960269	2530.659231
505.325856	2457.562500
505.691385	2525.618077
506.056856	2450.000769
506.422270	2477.727115
506.787625	2520.576923
507.152924	2487.809423
507.518164	2533.179808
507.883347	2424.795000
508.248472	2457.562500
508.613540	2495.371154
508.978550	2513.015192
509.343503	2505.453462
509.708398	2507.974038
510.073236	2533.179808
510.438016	2462.603654
510.802738	2414.712692
511.167403	2437.397885
511.532010	2487.809423
511.896561	2424.795000
512.261053	2455.041923
512.625488	2497.891731
512.989866	2427.315577
513.354186	2502.932885
513.718449	2528.138654
514.082655	2457.562500
514.446803	2477.727115
514.810894	2462.603654
515.174927	2510.494615
515.538904	2442.439038
515.902822	2402.109808
516.266684	2507.974038
516.630488	2520.576923
516.994235	2520.576923
517.357925	2525.618077
517.721558	2505.453462
518.085133	2487.809423
518.448651	2439.918462
518.812112	2384.465769
519.175516	2452.521346
519.538863	2563.426731
519.902152	2457.562500
520.265385	2485.288846
520.628560	2518.056346
520.991678	2455.041923
521.354739	2490.330000
521.717743	2578.550192
522.080690	2477.727115
522.443580	2462.603654
522.806413	2412.192115
523.169189	2500.412308
523.531908	2482.768269
523.894569	2507.974038
524.257174	2470.165385
524.619722	2475.206538
524.982213	2495.371154
525.344647	2495.371154
525.707025	2502.932885
526.069345	2500.412308
526.431608	2492.850577
526.793815	2487.809423
527.155964	2543.262115
527.518057	2444.959615
527.880093	2475.206538
528.242072	2530.659231
528.603995	2442.439038
528.965860	2505.453462
529.327669	2533.179808
529.689421	2467.644808
530.051117	2485.288846
530.412755	2455.041923
530.774337	2573.509038
531.135862	2480.247692
531.497331	2447.480192
531.858743	2502.932885
532.220098	2477.727115
532.581396	2530.659231
532.942638	2424.795000
533.303824	2452.521346
533.664953	2379.424615
534.026025	2533.179808
534.387040	2570.988462
534.747999	2502.932885
535.108902	2444.959615
535.469748	2591.153077
535.830537	2465.124231
536.191270	2465.124231
536.551947	2601.235385
536.912567	2538.220962
537.273131	2475.206538
537.633638	2442.439038
537.994089	2518.056346
538.354483	2500.412308
538.714821	2492.850577
539.075103	2533.179808
539.435328	2535.700385
539.795497	2558.385577
540.155609	2520.576923
540.515665	2500.412308
540.875665	2500.412308
541.235609	2482.768269
541.595496	2528.138654
541.955328	2490.330000
542.315102	2545.782692
542.674821	2444.959615
543.034483	2540.741538
543.394090	2497.891731
543.753640	2520.576923
544.113134	2518.056346
544.472571	2437.397885
544.831953	2535.700385
545.191278	2528.138654
545.550548	2555.865000
545.909761	2507.974038
546.268918	2513.015192
546.628019	2497.891731
546.987064	2502.932885
547.346053	2502.932885
547.704986	2482.768269
548.063863	2404.630385
548.422684	2513.015192
548.781449	2470.165385
549.140158	2485.288846
549.498811	2560.906154
549.857408	2447.480192
550.215949	2540.741538
550.574434	2485.288846
550.932864	2548.303269
551.291237	2495.371154
551.649555	2412.192115
552.007817	2560.906154
552.366022	2487.809423
552.724173	2462.603654
553.082267	2467.644808
553.440305	2555.865000
553.798288	2455.041923
554.156215	2502.932885
554.514086	2606.276538
554.871902	2482.768269
555.229661	2497.891731
555.587365	2492.850577
555.945014	2591.153077
556.302606	2548.303269
556.660143	2525.618077
557.017625	2497.891731
557.375050	2505.453462
557.732421	2480.247692
558.089735	2482.768269
558.446994	2492.850577
558.804197	2457.562500
559.161345	2502.932885
559.518437	2409.671538
559.875474	2439.918462
560.232455	2515.535769
560.589381	2487.809423
560.946251	2460.083077
561.303065	2424.795000
561.659825	2500.412308
562.016528	2613.838269
562.373177	2528.138654
562.729770	2520.576923
563.086307	2533.179808
563.442789	2460.083077
563.799216	2485.288846
564.155587	2538.220962
564.511904	2399.589231
564.868164	2540.741538
565.224370	2475.206538
565.580520	2462.603654
565.936615	2513.015192
566.292654	2460.083077
566.648638	2470.165385
567.004567	2457.562500
567.360441	2465.124231
567.716260	2480.247692
568.072023	2500.412308
568.427732	2439.918462
568.783385	2558.385577
569.138982	2548.303269
569.494525	2419.753846
569.850013	2495.371154
570.205445	2515.535769
570.560823	2518.056346
570.916145	2528.138654
571.271412	2490.330000
571.626625	2432.356731
571.981782	2563.426731
572.336884	2507.974038
572.691931	2492.850577
573.046923	2495.371154
573.401860	2475.206538
573.756743	2465.124231
574.111570	2533.179808
574.466342	2485.288846
574.821059	2543.262115
575.175722	2472.685962
575.530330	2417.233269
575.884882	2490.330000
576.239380	2472.685962
576.593823	2520.576923
576.948211	2530.659231
577.302544	2467.644808
577.656823	2525.618077
578.011047	2475.206538
578.365216	2500.412308
578.719330	2505.453462
579.073389	2573.509038
579.427394	2563.426731
579.781344	2422.274423
580.135239	2530.659231
580.489080	2467.644808
580.842866	2500.412308
581.196597	2455.041923
581.550273	2550.823846
581.903895	2500.412308
582.257463	2457.562500
582.610975	2601.235385
582.964434	2548.303269
583.317837	2424.795000
583.671186	2495.371154
584.024481	2467.644808
584.377721	2540.741538
584.730906	2386.986346
585.084037	2523.097500
585.437113	2472.685962
585.790135	2482.768269
586.143103	2470.165385
586.496016	2548.303269
586.848874	2530.659231
587.201679	2475.206538
587.554428	2540.741538
587.907124	2505.453462
588.259765	2502.932885
588.612352	2485.288846
588.964884	2513.015192
589.317362	2470.165385
589.669786	2447.480192
590.022155	2525.618077
590.374470	2568.467885
590.726731	2510.494615
591.078937	2525.618077
591.431090	2402.109808
591.783188	2538.220962
592.135232	2452.521346
592.487222	2485.288846
592.839157	2573.509038
593.191038	2424.795000
593.542866	2502.932885
593.894639	2465.124231
594.246358	2513.015192
594.598022	2455.041923
594.949633	2543.262115
595.301190	2550.823846
595.652692	2502.932885
596.004141	2500.412308
596.355535	2533.179808
596.706876	2490.330000
597.058162	2444.959615
597.409395	2626.441154
597.760573	2450.000769
598.111698	2409.671538
598.462768	2500.412308
598.813785	2487.809423
599.164748	2482.768269
599.515657	2510.494615
599.866511	2510.494615
600.217312	2439.918462
600.568060	2543.262115
600.918753	2500.412308
601.269392	2480.247692
601.619978	2470.165385
601.970510	2470.165385
602.320988	2470.165385
602.671412	2560.906154
603.021783	2414.712692
603.372100	2520.576923
603.722363	2475.206538
604.072572	2485.288846
604.422728	2495.371154
604.772830	2513.015192
605.122878	2601.235385
605.472872	2497.891731
605.822813	2513.015192
606.172701	2543.262115
606.522534	2500.412308
606.872314	2555.865000
607.222041	2507.974038
607.571714	2399.589231
607.921333	2515.535769
608.270899	2444.959615
608.620411	2427.315577
608.969870	2528.138654
609.319276	2475.206538
609.668627	2427.315577
610.017926	2518.056346
610.367171	2487.809423
610.716362	2482.768269
611.065500	2518.056346
611.414585	2432.356731
611.763616	2457.562500
612.112594	2392.027500
612.461518	2560.906154
612.810389	2462.603654
613.159207	2545.782692
613.507971	2518.056346
613.856682	2596.194231
614.205340	2510.494615
614.553945	2480.247692
614.902496	2553.344423
615.250994	2518.056346
615.599439	2467.644808
615.947830	2485.288846
616.296169	2439.918462
616.644454	2475.206538
616.992686	2467.644808
617.340864	2528.138654
617.688990	2507.974038
618.037063	2475.206538
618.385082	2462.603654
618.733048	2548.303269
619.080961	2482.768269
619.428821	2492.850577
619.776628	2452.521346
620.124382	2444.959615
620.472083	2502.932885
620.819731	2490.330000
621.167326	2409.671538
621.514868	2540.741538
621.862357	2583.591346
622.209793	2429.836154
622.557176	2500.412308
622.904506	2419.753846
623.251783	2500.412308
623.599007	2540.741538
623.946179	2540.741538
624.293297	2515.535769
624.640363	2525.618077
624.987376	2470.165385
625.334336	2545.782692
625.681243	2444.959615
626.028097	2563.426731
626.374899	2457.562500
626.721647	2470.165385
627.068343	2528.138654
627.414987	2482.768269
627.761577	2470.165385
628.108115	2477.727115
628.454600	2505.453462
628.801032	2392.027500
629.147412	2465.124231
629.493739	2485.288846
629.840014	2548.303269
630.186236	2457.562500
630.532405	2525.618077
630.878521	2507.974038
631.224585	2578.550192
631.570597	2598.714808
631.916556	2563.426731
632.262462	2462.603654
632.608316	2528.138654
632.954117	2497.891731
633.299866	2528.138654
633.645562	2455.041923
633.991206	2444.959615
634.336797	2513.015192
634.682336	2533.179808
635.027823	2513.015192
635.373257	2437.397885
635.718639	2528.138654
636.063968	2429.836154
636.409245	2434.877308
636.754470	2525.618077
637.099642	2538.220962
637.444762	2553.344423
637.789829	2555.865000
638.134845	2518.056346
638.479808	2507.974038
638.824719	2457.562500
639.169577	2515.535769
639.514383	2523.097500
639.859137	2553.344423
640.203839	2487.809423
640.548489	2422.274423
640.893086	2462.603654
641.237632	2475.206538
641.582125	2485.288846
641.926566	2462.603654
642.270955	2550.823846
642.615292	2550.823846
642.959576	2452.521346
643.303809	2533.179808
643.647990	2475.206538
643.992118	2525.618077
644.336195	2525.618077
644.680219	2520.576923
645.024192	2460.083077
645.368112	2497.891731
645.711981	2417.233269
646.055797	2553.344423
646.399562	2515.535769
646.743274	2535.700385
647.086935	2462.603654
647.430544	2472.685962
647.774101	2515.535769
648.117606	2538.220962
648.461059	2507.974038
648.804460	2485.288846
649.147810	2439.918462
649.491108	2477.727115
649.834354	2482.768269
650.177548	2442.439038
650.520690	2487.809423
650.863781	2434.877308
651.206820	2543.262115
651.549807	2520.576923
651.892742	2470.165385
652.235626	2452.521346
652.578458	2513.015192
652.921238	2495.371154
653.263967	2450.000769
653.606644	2465.124231
653.949269	2576.029615
654.291843	2465.124231
654.634365	2507.974038
654.976836	2540.741538
655.319255	2427.315577
655.661622	2543.262115
656.003938	2533.179808
656.346203	2487.809423
656.688416	2530.659231
657.030577	2507.974038
657.372687	2480.247692
657.714746	2465.124231
658.056753	2467.644808
658.398708	2530.659231
658.740612	2467.644808
659.082465	2520.576923
659.424266	2422.274423
659.766016	2467.644808
660.107715	2495.371154
660.449362	2492.850577
660.790958	2465.124231
661.132503	2480.247692
661.473996	2608.797115
661.815438	2553.344423
662.156829	2515.535769
662.498168	2462.603654
662.839456	2555.865000
663.180693	2472.685962
663.521879	2565.947308
663.863013	2497.891731
664.204097	2495.371154
664.545129	2381.945192
664.886110	2490.330000
665.227040	2472.685962
665.567918	2558.385577
665.908746	2386.986346
666.249522	2505.453462
666.590248	2601.235385
666.930922	2434.877308
667.271545	2487.809423
667.612118	2513.015192
667.952639	2407.150962
668.293109	2515.535769
668.633528	2492.850577
668.973896	2472.685962
669.314213	2530.659231
669.654480	2533.179808
669.994695	2462.603654
670.334859	2550.823846
670.674973	2520.576923
671.015035	2520.576923
671.355047	2485.288846
671.695008	2581.070769
672.034918	2570.988462
672.374777	2470.165385
672.714585	2450.000769
673.054342	2462.603654
673.394049	2480.247692
673.733705	2490.330000
674.073310	2560.906154
674.412864	2535.700385
674.752368	2505.453462
675.091820	2535.700385
675.431223	2596.194231
675.770574	2505.453462
676.109875	2497.891731
676.449125	2553.344423
676.788324	2523.097500
677.127473	2518.056346
677.466571	2437.397885
677.805619	2558.385577
678.144616	2485.288846
678.483562	2565.947308
678.822458	2513.015192
679.161303	2507.974038
679.500098	2518.056346
679.838842	2462.603654
680.177535	2518.056346
680.516179	2555.865000
680.854771	2386.986346
681.193314	2578.550192
681.531805	2424.795000
681.870247	2523.097500
682.208638	2472.685962
682.546978	2472.685962
682.885268	2518.056346
683.223508	2497.891731
683.561697	2475.206538
683.899836	2570.988462
684.237925	2369.342308
684.575963	2528.138654
684.913951	2452.521346
685.251889	2523.097500
685.589776	2475.206538
685.927614	2444.959615
686.265401	2492.850577
686.603137	2525.618077
686.940824	2485.288846
687.278460	2528.138654
687.616046	2578.550192
687.953582	2505.453462
688.291068	2543.262115
688.628504	2477.727115
688.965889	2477.727115
689.303224	2593.673654
689.640510	2452.521346
689.977745	2520.576923
690.314930	2583.591346
690.652065	2502.932885
690.989150	2550.823846
691.326185	2500.412308
691.663170	2500.412308
692.000105	2505.453462
692.336990	2465.124231
692.673825	2475.206538
693.010610	2525.618077
693.347345	2550.823846
693.684030	2457.562500
694.020665	2467.644808
694.357251	2578.550192
694.693786	2502.932885
695.030272	2505.453462
695.366707	2427.315577
695.703093	2502.932885
696.039429	2528.138654
696.375716	2485.288846
696.711952	2538.220962
697.048139	2533.179808
697.384276	2520.576923
697.720363	2558.385577
698.056400	2457.562500
698.392388	2457.562500
698.728326	2495.371154
699.064214	2505.453462
699.400053	2492.850577
699.735842	2502.932885
700.071581	2422.274423
700.407270	2457.562500
700.742910	2472.685962
701.078501	2576.029615
701.414042	2475.206538
701.749533	2470.165385
702.084974	2502.932885
702.420366	2525.618077
702.755709	2507.974038
703.091002	2548.303269
703.426246	2485.288846
703.761440	2515.535769
704.096584	2492.850577
704.431679	2543.262115
704.766725	2462.603654
705.101721	2538.220962
705.436668	2513.015192
705.771565	2540.741538
706.106413	2434.877308
706.441212	2616.358846
706.775961	2462.603654
707.110661	2460.083077
707.445311	2530.659231
707.779913	2462.603654
708.114465	2518.056346
708.448967	2480.247692
708.783421	2475.206538
709.117825	2525.618077
709.452180	2480.247692
709.786485	2447.480192
710.120742	2560.906154
710.454949	2523.097500
710.789107	2578.550192
711.123216	2384.465769
711.457275	2502.932885
711.791286	2460.083077
712.125247	2429.836154
712.459159	2392.027500
712.793023	2457.562500
713.126837	2444.959615
713.460602	2545.782692
713.794318	2540.741538
714.127985	2434.877308
714.461602	2472.685962
714.795171	2523.097500
715.128691	2518.056346
715.462162	2419.753846
715.795584	2528.138654
716.128957	2560.906154
716.462281	2394.548077
716.795556	2447.480192
717.128782	2485.288846
717.461960	2543.262115
717.795088	2455.041923
718.128167	2477.727115
718.461198	2462.603654
718.794180	2457.562500
719.127113	2581.070769
719.459997	2442.439038
719.792833	2507.974038
720.125619	2450.000769
720.458357	2502.932885
720.791046	2550.823846
721.123686	2470.165385
721.456278	2447.480192
721.788821	2460.083077
722.121315	2555.865000
722.453761	2444.959615
722.786158	2535.700385
723.118506	2482.768269
723.450805	2419.753846
723.783056	2502.932885
724.115259	2538.220962
724.447412	2472.685962
724.779518	2550.823846
725.111574	2455.041923
725.443582	2495.371154
725.775542	2538.220962
726.107453	2485.288846
726.439315	2510.494615
726.771129	2497.891731
727.102895	2528.138654
727.434612	2427.315577
727.766281	2548.303269
728.097901	2500.412308
728.429473	2528.138654
728.760996	2472.685962
729.092471	2487.809423
729.423897	2513.015192
729.755276	2475.206538
730.086606	2452.521346
730.417887	2480.247692
730.749120	2492.850577
731.080305	2419.753846
731.411442	2462.603654
731.742530	2515.535769
732.073570	2394.548077
732.404562	2525.618077
732.735506	2470.165385
733.066401	2510.494615
733.397249	2477.727115
733.728048	2462.603654
734.058798	2447.480192
734.389501	2434.877308
734.720156	2510.494615
735.050762	2538.220962
735.381320	2591.153077
735.711831	2467.644808
736.042293	2502.932885
736.372707	2480.247692
736.703073	2513.015192
737.033391	2490.330000
737.363661	2472.685962
737.693883	2485.288846
738.024056	2540.741538
738.354182	2455.041923
738.684260	2606.276538
739.014290	2490.330000
739.344272	2442.439038
739.674207	2500.412308
740.004093	2412.192115
740.333931	2442.439038
740.663722	2505.453462
740.993464	2525.618077
741.323159	2470.165385
741.652806	2525.618077
741.982405	2424.795000
742.311956	2528.138654
742.641460	2422.274423
742.970915	2470.165385
743.300323	2452.521346
743.629683	2397.068654
743.958996	2533.179808
744.288260	2576.029615
744.617477	2555.865000
744.946647	2429.836154
745.275768	2477.727115
745.604842	2490.330000
745.933869	2548.303269
746.262847	2538.220962
746.591778	2520.576923
746.920662	2533.179808
747.249498	2485.288846
747.578286	2518.056346
747.907027	2492.850577
748.235720	2470.165385
748.564365	2424.795000
748.892963	2518.056346
749.221514	2437.397885
749.550017	2520.576923
749.878473	2500.412308
750.206881	2543.262115
750.535242	2442.439038
750.863555	2513.015192
751.191821	2555.865000
751.520039	2470.165385
751.848210	2485.288846
752.176334	2535.700385
752.504411	2475.206538
752.832440	2502.932885
753.160421	2510.494615
753.488356	2528.138654
753.816243	2457.562500
754.144082	2563.426731
754.471875	2495.371154
754.799620	2500.412308
755.127318	2528.138654
755.454969	2492.850577
755.782572	2475.206538
756.110129	2543.262115
756.437638	2439.918462
756.765100	2533.179808
757.092515	2429.836154
757.419882	2482.768269
757.747203	2505.453462
758.074477	2565.947308
758.401703	2450.000769
758.728882	2465.124231
759.056014	2490.330000
759.383099	2558.385577
759.710138	2513.015192
760.037129	2419.753846
760.364073	2482.768269
760.690970	2485.288846
761.017820	2422.274423
761.344623	2515.535769
761.671379	2535.700385
761.998088	2439.918462
762.324751	2513.015192
762.651366	2409.671538
762.977935	2462.603654
763.304456	2462.603654
763.630931	2455.041923
763.957359	2490.330000
764.283740	2465.124231
764.610074	2505.453462
764.936362	2510.494615
765.262602	2482.768269
765.588796	2545.782692
765.914943	2608.797115
766.241044	2513.015192
766.567097	2460.083077
766.893104	2510.494615
767.219064	2578.550192
767.544978	2502.932885
767.870845	2450.000769
768.196665	2565.947308
768.522438	2480.247692
768.848165	2407.150962
769.173846	2505.453462
769.499479	2520.576923
769.825066	2502.932885
770.150607	2444.959615
770.476101	2487.809423
770.801548	2381.945192
771.126949	2515.535769
771.452303	2439.918462
771.777611	2528.138654
772.102872	2427.315577
772.428087	2530.659231
772.753256	2437.397885
773.078378	2520.576923
773.403453	2477.727115
773.728482	2462.603654
774.053465	2510.494615
774.378401	2523.097500
774.703291	2555.865000
775.028135	2457.562500
775.352932	2444.959615
775.677683	2525.618077
776.002388	2409.671538
776.327046	2518.056346
776.651658	2518.056346
776.976224	2462.603654
777.300743	2437.397885
777.625216	2510.494615
777.949643	2507.974038
778.274024	2457.562500
778.598359	2480.247692
778.922647	2462.603654
779.246889	2485.288846
779.571086	2558.385577
779.895236	2376.904038
780.219339	2429.836154
780.543397	2500.412308
780.867409	2603.755962
781.191374	2497.891731
781.515294	2513.015192
781.839167	2520.576923
782.162995	2450.000769
782.486776	2550.823846
782.810511	2588.632500
783.134201	2540.741538
783.457844	2505.453462
783.781441	2465.124231
784.104993	2515.535769
784.428498	2578.550192
784.751958	2500.412308
785.075372	2482.768269
785.398739	2548.303269
785.722061	2507.974038
786.045337	2583.591346
786.368568	2495.371154
786.691752	2480.247692
787.014891	2452.521346
787.337983	2492.850577
787.661030	2450.000769
787.984031	2533.179808
788.306987	2450.000769
788.629897	2525.618077
788.952760	2485.288846
789.275579	2500.412308
789.598351	2495.371154
789.921078	2470.165385
790.243759	2588.632500
790.566395	2492.850577
790.888984	2525.618077
791.211529	2402.109808
791.534027	2485.288846
791.856480	2523.097500
792.178888	2480.247692
792.501249	2528.138654
792.823566	2490.330000
793.145836	2447.480192
793.468062	2444.959615
793.790241	2540.741538
794.112375	2487.809423
794.434464	2439.918462
794.756507	2477.727115
795.078505	2518.056346
795.400457	2555.865000
795.722364	2492.850577
796.044226	2520.576923
796.366042	2427.315577
796.687812	2568.467885
797.009538	2462.603654
797.331218	2500.412308
797.652852	2379.424615
797.974442	2513.015192
798.295986	2492.850577
798.617484	2510.494615
798.938938	2429.836154
799.260346	2455.041923
799.581709	2475.206538
799.903026	2475.206538
800.224299	2510.494615
800.545526	2515.535769
800.866708	2538.220962
801.187845	2518.056346
801.508936	2513.015192
801.829983	2510.494615
802.150984	2477.727115
802.471940	2432.356731
802.792851	2472.685962
803.113717	2490.330000
803.434538	2555.865000
803.755314	2492.850577
804.076045	2555.865000
804.396731	2480.247692
804.717372	2540.741538
805.037967	2507.974038
805.358518	2586.111923
805.679024	2538.220962
805.999485	2455.041923
806.319901	2540.741538
806.640272	2482.768269
806.960598	2523.097500
807.280879	2452.521346
807.601115	2538.220962
807.921306	2424.795000
808.241453	2530.659231
808.561554	2520.576923
808.881611	2480.247692
809.201623	2467.644808
809.521590	2528.138654
809.841513	2495.371154
810.161390	2570.988462
810.481223	2439.918462
810.801011	2518.056346
811.120755	2513.015192
811.440453	2482.768269
811.760107	2465.124231
812.079716	2434.877308
812.399281	2492.850577
812.718801	2490.330000
813.038276	2505.453462
813.357707	2432.356731
813.677093	2533.179808
813.996434	2439.918462
814.315731	2555.865000
814.634983	2553.344423
814.954191	2470.165385
815.273354	2485.288846
815.592473	2480.247692
815.911547	2492.850577
816.230577	2510.494615
816.549562	2490.330000
816.868502	2472.685962
817.187399	2500.412308
817.506250	2480.247692
817.825058	2485.288846
818.143821	2455.041923
818.462539	2414.712692
818.781213	2434.877308
819.099843	2480.247692
819.418429	2487.809423
819.736970	2513.015192
820.055466	2427.315577
820.373919	2507.974038
820.692327	2465.124231
821.010691	2502.932885
821.329011	2490.330000
821.647286	2417.233269
821.965517	2477.727115
822.283704	2487.809423
822.601847	2485.288846
822.919945	2455.041923
823.237999	2361.780577
823.556010	2487.809423
823.873976	2467.644808
824.191897	2497.891731
824.509775	2497.891731
824.827609	2510.494615
825.145398	2583.591346
825.463144	2502.932885
825.780845	2528.138654
826.098502	2462.603654
826.416116	2545.782692
826.733685	2379.424615
827.051210	2530.659231
827.368692	2538.220962
827.686129	2591.153077
828.003522	2432.356731
828.320872	2480.247692
828.638177	2505.453462
828.955439	2492.850577
829.272656	2560.906154
829.589830	2505.453462
829.906960	2485.288846
830.224046	2452.521346
830.541088	2465.124231
830.858086	2525.618077
831.175041	2472.685962
831.491952	2598.714808
831.808819	2460.083077
832.125642	2462.603654
832.442421	2513.015192
832.759157	2399.589231
833.075849	2457.562500
833.392497	2460.083077
833.709101	2510.494615
834.025662	2424.795000
834.342179	2444.959615
834.658653	2447.480192
834.975083	2535.700385
835.291469	2470.165385
835.607811	2472.685962
835.924110	2457.562500
836.240366	2518.056346
836.556578	2437.397885
836.872746	2490.330000
837.188871	2505.453462
837.504952	2548.303269
837.820990	2477.727115
838.136984	2437.397885
838.452935	2465.124231
838.768842	2543.262115
839.084706	2568.467885
839.400526	2422.274423
839.716303	2518.056346
840.032037	2442.439038
840.347727	2475.206538
840.663373	2588.632500
840.978977	2465.124231
841.294537	2472.685962
841.610054	2490.330000
841.925527	2477.727115
842.240957	2482.768269
842.556344	2482.768269
842.871687	2455.041923
843.186987	2450.000769
843.502244	2432.356731
843.817458	2581.070769
844.132629	2535.700385
844.447756	2497.891731
844.762840	2460.083077
845.077881	2555.865000
845.392879	2485.288846
845.707833	2452.521346
846.022745	2538.220962
846.337613	2470.165385
846.652438	2452.521346
846.967221	2553.344423
847.281960	2480.247692
847.596656	2477.727115
847.911309	2560.906154
848.225919	2419.753846
848.540485	2520.576923
848.855009	2444.959615
849.169490	2497.891731
849.483928	2505.453462
849.798323	2515.535769
850.112675	2535.700385
850.426984	2588.632500
850.741251	2432.356731
851.055474	2412.192115
851.369654	2543.262115
851.683792	2477.727115
851.997887	2437.397885
852.311938	2384.465769
852.625947	2434.877308
852.939914	2465.124231
853.253837	2492.850577
853.567718	2477.727115
853.881555	2482.768269
854.195350	2548.303269
854.509103	2573.509038
854.822812	2475.206538
855.136479	2568.467885
855.450103	2429.836154
855.763685	2402.109808
856.077224	2560.906154
856.390720	2482.768269
856.704173	2427.315577
857.017584	2525.618077
857.330953	2475.206538
857.644278	2480.247692
857.957561	2439.918462
858.270802	2513.015192
858.584000	2513.015192
858.897155	2533.179808
859.210268	2500.412308
859.523339	2586.111923
859.836367	2444.959615
860.149352	2510.494615
860.462295	2515.535769
860.775195	2530.659231
861.088054	2502.932885
861.400869	2502.932885
861.713642	2510.494615
862.026373	2397.068654
862.339062	2535.700385
862.651708	2520.576923
862.964312	2601.235385
863.276873	2424.795000
863.589392	2573.509038
863.901869	2472.685962
864.214303	2530.659231
864.526696	2530.659231
864.839045	2432.356731
865.151353	2439.918462
865.463619	2485.288846
865.775842	2565.947308
866.088023	2525.618077
866.400162	2500.412308
866.712258	2490.330000
867.024313	2497.891731
867.336325	2457.562500
867.648296	2482.768269
867.960224	2535.700385
868.272110	2439.918462
868.583954	2497.891731
868.895755	2533.179808
869.207515	2530.659231
869.519233	2507.974038
869.830909	2470.165385
870.142542	2528.138654
870.454134	2475.206538
870.765684	2485.288846
871.077191	2573.509038
871.388657	2525.618077
871.700081	2457.562500
872.011463	2538.220962
872.322803	2533.179808
872.634101	2460.083077
872.945357	2482.768269
873.256571	2472.685962
873.567744	2513.015192
873.878874	2475.206538
874.189963	2450.000769
874.501010	2434.877308
874.812015	2394.548077
875.122979	2510.494615
875.433900	2442.439038
875.744780	2510.494615
876.055618	2407.150962
876.366415	2457.562500
876.677169	2515.535769
876.987882	2500.412308
877.298554	2515.535769
877.609183	2513.015192
877.919771	2543.262115
878.230317	2487.809423
878.540822	2565.947308
878.851285	2442.439038
879.161707	2520.576923
879.472087	2429.836154
879.782425	2523.097500
880.092722	2528.138654
880.402977	2455.041923
880.713191	2429.836154
881.023363	2465.124231
881.333494	2490.330000
881.643583	2447.480192
881.953631	2497.891731
882.263637	2399.589231
882.573602	2482.768269
882.883526	2369.342308
883.193408	2442.439038
883.503248	2492.850577
883.813048	2510.494615
884.122806	2465.124231
884.432522	2439.918462
884.742197	2444.959615
885.051831	2485.288846
885.361424	2500.412308
885.670975	2407.150962
885.980485	2500.412308
886.289954	2432.356731
886.599382	2487.809423
886.908768	2480.247692
887.218113	2492.850577
887.527417	2495.371154
887.836680	2515.535769
888.145901	2482.768269
888.455082	2439.918462
888.764221	2505.453462
889.073319	2417.233269
889.382376	2452.521346
889.691392	2540.741538
890.000366	2586.111923
890.309300	2507.974038
890.618193	2487.809423
890.927044	2450.000769
891.235855	2505.453462
891.544625	2523.097500
891.853353	2548.303269
892.162041	2427.315577
892.470687	2485.288846
892.779293	2533.179808
893.087858	2555.865000
893.396381	2477.727115
893.704864	2447.480192
894.013306	2477.727115
894.321707	2535.700385
894.630068	2513.015192
894.938387	2427.315577
895.246665	2533.179808
895.554903	2427.315577
895.863100	2452.521346
896.171256	2465.124231
896.479371	2472.685962
896.787446	2475.206538
897.095480	2482.768269
897.403473	2550.823846
897.711425	2422.274423
898.019336	2505.453462
898.327207	2583.591346
898.635038	2530.659231
898.942827	2505.453462
899.250576	2470.165385
899.558284	2543.262115
899.865952	2505.453462
900.173579	2505.453462
900.481165	2502.932885
900.788711	2414.712692
901.096216	2444.959615
901.403681	2452.521346
901.711105	2467.644808
902.018489	2480.247692
902.325832	2513.015192
902.633135	2502.932885
902.940397	2581.070769
903.247619	2502.932885
903.554800	2389.506923
903.861941	2520.576923
904.169041	2444.959615
904.476101	2490.330000
904.783121	2560.906154
905.090100	2465.124231
905.397039	2495.371154
905.703938	2528.138654
906.010796	2465.124231
906.317614	2495.371154
906.624391	2507.974038
906.931129	2502.932885
907.237826	2437.397885
907.544483	2487.809423
907.851099	2467.644808
908.157675	2487.809423
908.464211	2434.877308
908.770707	2462.603654
909.077163	2487.809423
909.383578	2412.192115
909.689954	2518.056346
909.996289	2477.727115
910.302584	2586.111923
910.608839	2507.974038
910.915054	2560.906154
911.221229	2447.480192
911.527363	2487.809423
911.833458	2477.727115
912.139513	2482.768269
912.445527	2530.659231
912.751502	2447.480192
913.057436	2558.385577
913.363331	2487.809423
913.669186	2510.494615
913.975000	2384.465769
914.280775	2447.480192
914.586510	2492.850577
914.892205	2487.809423
915.197859	2404.630385
915.503475	2482.768269
915.809050	2447.480192
916.114585	2570.988462
916.420081	2422.274423
916.725536	2558.385577
917.030952	2389.506923
917.336328	2558.385577
917.641665	2520.576923
917.946961	2576.029615
918.252218	2407.150962
918.557435	2530.659231
918.862612	2492.850577
919.167750	2490.330000
919.472848	2407.150962
919.777906	2472.685962
920.082925	2500.412308
920.387904	2520.576923
920.692843	2475.206538
920.997743	2497.891731
921.302603	2455.041923
921.607423	2515.535769
921.912204	2515.535769
922.216946	2528.138654
922.521647	2477.727115
922.826310	2523.097500
923.130932	2487.809423
923.435516	2548.303269
923.740059	2477.727115
924.044564	2523.097500
924.349028	2530.659231
924.653454	2462.603654
924.957840	2497.891731
925.262186	2477.727115
925.566493	2480.247692
925.870761	2490.330000
926.174989	2530.659231
926.479178	2437.397885
926.783328	2507.974038
927.087438	2480.247692
927.391509	2490.330000
927.695541	2409.671538
927.999533	2533.179808
928.303486	2417.233269
928.607400	2515.535769
928.911275	2505.453462
929.215110	2495.371154
929.518906	2419.753846
929.822663	2447.480192
930.126381	2457.562500
930.430060	2371.862885
930.733699	2482.768269
931.037299	2500.412308
931.340861	2543.262115
931.644383	2502.932885
931.947866	2550.823846
932.251309	2485.288846
932.554714	2510.494615
932.858080	2520.576923
933.161407	2540.741538
933.464694	2500.412308
933.767943	2386.986346
934.071153	2460.083077
934.374323	2550.823846
934.677455	2485.288846
934.980548	2530.659231
935.283602	2492.850577
935.586617	2450.000769
935.889593	2455.041923
936.192530	2492.850577
936.495428	2525.618077
936.798287	2525.618077
937.101108	2586.111923
937.403890	2502.932885
937.706632	2480.247692
938.009336	2437.397885
938.312002	2528.138654
938.614628	2477.727115
938.917216	2520.576923
939.219765	2525.618077
939.522275	2518.056346
939.824747	2573.509038
940.127179	2407.150962
940.429573	2480.247692
940.731929	2528.138654
941.034246	2487.809423
941.336524	2455.041923
941.638763	2528.138654
941.940964	2475.206538
942.243126	2452.521346
942.545250	2492.850577
942.847335	2447.480192
943.149381	2492.850577
943.451389	2487.809423
943.753359	2429.836154
944.055290	2439.918462
944.357182	2523.097500
944.659036	2515.535769
944.960851	2492.850577
945.262628	2510.494615
945.564367	2480.247692
945.866067	2525.618077
946.167729	2538.220962
946.469352	2555.865000
946.770937	2485.288846
947.072484	2439.918462
947.373992	2502.932885
947.675462	2538.220962
947.976893	2452.521346
948.278286	2467.644808
948.579641	2485.288846
948.880958	2480.247692
949.182236	2482.768269
949.483476	2505.453462
949.784678	2437.397885
950.085841	2502.932885
950.386967	2540.741538
950.688054	2444.959615
950.989103	2462.603654
951.290114	2513.015192
951.591087	2404.630385
951.892021	2505.453462
952.192917	2392.027500
952.493776	2510.494615
952.794596	2399.589231
953.095378	2523.097500
953.396122	2538.220962
953.696828	2480.247692
953.997496	2530.659231
954.298126	2475.206538
954.598718	2535.700385
954.899272	2492.850577
955.199788	2475.206538
955.500266	2465.124231
955.800706	2482.768269
956.101108	2487.809423
956.401472	2570.988462
956.701798	2518.056346
957.002087	2422.274423
957.302337	2424.795000
957.602550	2518.056346
957.902724	2434.877308
958.202861	2447.480192
958.502960	2530.659231
958.803022	2538.220962
959.103045	2422.274423
959.403031	2523.097500
959.702979	2507.974038
960.002889	2490.330000
960.302762	2507.974038
960.602596	2475.206538
960.902393	2515.535769
961.202153	2502.932885
961.501875	2576.029615
961.801559	2467.644808
962.101205	2548.303269
962.400814	2366.821731
962.700385	2525.618077
962.999918	2432.356731
963.299414	2533.179808
963.598873	2513.015192
963.898293	2472.685962
964.197677	2467.644808
964.497022	2480.247692
964.796331	2434.877308
965.095601	2530.659231
965.394835	2505.453462
965.694030	2402.109808
965.993189	2535.700385
966.292309	2477.727115
966.591393	2485.288846
966.890439	2533.179808
967.189447	2515.535769
967.488419	2553.344423
967.787353	2492.850577
968.086249	2487.809423
968.385108	2485.288846
968.683930	2381.945192
968.982714	2455.041923
969.281462	2455.041923
969.580172	2533.179808
969.878844	2492.850577
970.177480	2540.741538
970.476078	2507.974038
970.774639	2502.932885
971.073162	2555.865000
971.371649	2439.918462
971.670098	2581.070769
971.968510	2482.768269
972.266885	2460.083077
972.565223	2452.521346
972.863524	2596.194231
973.161788	2460.083077
973.460014	2419.753846
973.758204	2565.947308
974.056356	2470.165385
974.354471	2457.562500
974.652550	2545.782692
974.950591	2490.330000
975.248595	2487.809423
975.546563	2525.618077
975.844493	2437.397885
976.142386	2467.644808
976.440243	2490.330000
976.738062	2513.015192
977.035845	2462.603654
977.333590	2457.562500
977.631299	2563.426731
977.928971	2520.576923
978.226606	2485.288846
978.524204	2470.165385
978.821765	2558.385577
979.119290	2586.111923
979.416777	2510.494615
979.714228	2467.644808
980.011642	2525.618077
980.309020	2477.727115
980.606360	2548.303269
980.903664	2510.494615
981.200931	2507.974038
981.498162	2366.821731
981.795356	2457.562500
982.092513	2528.138654
982.389633	2450.000769
982.686717	2548.303269
982.983764	2412.192115
983.280775	2523.097500
983.577749	2482.768269
983.874686	2450.000769
984.171587	2457.562500
984.468451	2475.206538
984.765279	2455.041923
985.062070	2515.535769
985.358824	2530.659231
985.655543	2487.809423
985.952224	2507.974038
986.248869	2437.397885
986.545478	2467.644808
986.842050	2450.000769
987.138586	2477.727115
987.435086	2533.179808
987.731549	2548.303269
988.027975	2457.562500
988.324366	2530.659231
988.620719	2447.480192
988.917037	2470.165385
989.213318	2507.974038
989.509563	2442.439038
989.805772	2505.453462
990.101944	2442.439038
990.398080	2404.630385
990.694180	2432.356731
990.990244	2530.659231
991.286271	2472.685962
991.582262	2545.782692
991.878217	2492.850577
992.174136	2485.288846
992.470019	2535.700385
992.765865	2540.741538
993.061676	2507.974038
993.357450	2460.083077
993.653188	2366.821731
993.948890	2492.850577
994.244556	2530.659231
994.540186	2487.809423
994.835780	2414.712692
995.131337	2447.480192
995.426859	2510.494615
995.722345	2480.247692
996.017795	2482.768269
996.313208	2381.945192
996.608586	2482.768269
996.903928	2540.741538
997.199234	2520.576923
997.494504	2505.453462
997.789738	2530.659231
998.084936	2520.576923
998.380099	2424.795000
998.675225	2490.330000
998.970316	2457.562500
999.265371	2475.206538
999.560390	2465.124231
999.855373	2452.521346
1000.150320	2570.988462
1000.445232	2513.015192
1000.740108	2518.056346
1001.034948	2457.562500
1001.329752	2490.330000
1001.624521	2550.823846
1001.919254	2490.330000
1002.213951	2502.932885
1002.508613	2462.603654
1002.803239	2515.535769
1003.097829	2414.712692
1003.392384	2495.371154
1003.686903	2545.782692
1003.981386	2520.576923
1004.275834	2507.974038
1004.570246	2417.233269
1004.864623	2417.233269
1005.158964	2477.727115
1005.453270	2490.330000
1005.747540	2487.809423
1006.041775	2492.850577
1006.335974	2402.109808
1006.630138	2432.356731
1006.924266	2399.589231
1007.218359	2523.097500
1007.512416	2500.412308
1007.806438	2465.124231
1008.100425	2480.247692
1008.394376	2470.165385
1008.688292	2545.782692
1008.982172	2495.371154
1009.276017	2482.768269
1009.569827	2470.165385
1009.863602	2470.165385
1010.157341	2548.303269
1010.451045	2462.603654
1010.744714	2455.041923
1011.038347	2404.630385
1011.331945	2510.494615
1011.625508	2487.809423
1011.919036	2439.918462
1012.212528	2507.974038
1012.505986	2523.097500
1012.799408	2576.029615
1013.092795	2392.027500
1013.386147	2505.453462
1013.679464	2447.480192
1013.972745	2545.782692
1014.265992	2543.262115
1014.559204	2495.371154
1014.852380	2518.056346
1015.145521	2568.467885
1015.438628	2583.591346
1015.731699	2465.124231
1016.024736	2523.097500
1016.317737	2462.603654
1016.610703	2513.015192
1016.903635	2465.124231
1017.196531	2452.521346
1017.489393	2535.700385
1017.782219	2444.959615
1018.075011	2465.124231
1018.367768	2573.509038
1018.660490	2470.165385
1018.953177	2470.165385
1019.245829	2470.165385
