Dividing Wavelength (nm)	Counts (n)	Blue Motor Position (mm): 8.800000	Red Motor Position (mm): 0.000000	
326.493990	2063.193035
326.888308	2063.193035
327.282561	2063.193035
327.676750	2037.198325
328.070874	2040.888449
328.464933	2046.484130
328.858929	2052.735161
329.252859	2066.918447
329.646726	2075.853893
330.040528	2096.023549
330.434265	2110.264809
330.827938	2134.437141
331.221547	2153.641417
331.615091	2173.788388
332.008571	2193.721111
332.401986	2213.691642
332.795338	2236.028994
333.188625	2254.431726
333.581847	2275.612134
333.975006	2288.439350
334.368100	2309.919707
334.761129	2324.508806
335.154095	2341.406754
335.546996	2366.302492
335.939833	2413.724626
336.332606	2426.627459
336.725315	2438.859819
337.117960	2451.319031
337.510540	2459.543673
337.903056	2469.129428
338.295508	2473.527834
338.687896	2485.198105
339.080220	2484.509988
339.472480	2493.027017
339.864676	2494.294868
340.256807	2496.344097
340.648875	2498.824344
341.040879	2498.234529
341.432818	2503.908348
341.824694	2502.590086
342.216506	2502.408605
342.608253	2501.357524
342.999937	2501.859119
343.391557	2497.198572
343.783113	2498.562204
344.174605	2496.034066
344.566033	2494.042810
344.957397	2492.074239
345.348697	2492.275885
345.739934	2490.776142
346.131106	2486.536532
346.522215	2487.418734
346.913260	2487.060812
347.304241	2484.714155
347.695159	2480.272898
348.086012	2483.227014
348.476802	2476.676035
348.867528	2477.250726
349.258191	2469.898203
349.648789	2474.402474
350.039324	2466.765126
350.429796	2473.699233
350.820203	2470.941722
351.210548	2471.163533
351.600828	2473.185036
351.991045	2471.438276
352.381198	2471.458441
352.771288	2471.665128
353.161314	2471.057669
353.551276	2469.520117
353.941175	2468.211938
354.331010	2473.013637
354.720782	2470.888790
355.110490	2470.616568
355.500135	2471.017340
355.889717	2471.846609
356.279235	2470.223358
356.668689	2471.715539
357.058080	2470.399798
357.447408	2471.029942
357.836672	2470.921558
358.225873	2469.323512
358.615010	2474.122690
359.004084	2474.152937
359.393095	2472.426342
359.782043	2475.022536
360.170927	2473.154789
360.559748	2474.790643
360.948505	2475.274594
361.337199	2477.059162
361.725830	2476.237454
362.114398	2475.088071
362.502903	2478.579070
362.891344	2478.221148
363.279722	2477.734677
363.668037	2477.752321
364.056289	2476.325675
364.444478	2479.647795
364.832603	2480.141828
365.220665	2477.633854
365.608665	2481.553351
365.996601	2482.062508
366.384474	2481.187867
366.772284	2481.520584
367.160031	2479.877168
367.547715	2484.295739
367.935336	2479.730974
368.322893	2478.949595
368.710388	2479.844400
369.097820	2478.417753
369.485189	2481.946561
369.872495	2483.809268
370.259738	2484.164669
370.646918	2485.092241
371.034035	2482.957312
371.421090	2482.533856
371.808081	2485.540904
372.195010	2481.986890
372.581875	2484.089052
372.968678	2485.119968
373.355418	2487.133908
373.742096	2484.681387
374.128710	2485.092241
374.515262	2488.147180
374.901751	2486.518888
375.288177	2487.459063
375.674540	2487.857314
376.060841	2487.811944
376.447079	2486.720534
376.833254	2489.478045
377.219367	2487.759012
377.605417	2490.110710
377.991404	2485.256079
378.377329	2489.591471
378.763191	2485.561068
379.148991	2489.110041
379.534727	2488.101810
379.920402	2492.550628
380.306013	2487.002838
380.691563	2492.621204
381.077049	2487.292705
381.462474	2489.576348
381.847835	2488.989053
382.233134	2492.444764
382.618371	2489.677171
383.003545	2490.632469
383.388657	2491.542397
383.773706	2492.475011
384.158693	2489.178096
384.543618	2491.557521
384.928480	2492.197748
385.313280	2494.037769
385.698017	2491.194558
386.082692	2491.098776
386.467305	2492.883344
386.851856	2495.434168
387.236344	2490.403097
387.620770	2490.977788
388.005133	2490.725731
388.389435	2491.789414
388.773674	2489.644403
389.157851	2492.873262
389.541965	2493.001812
389.926018	2494.057933
390.310008	2494.113386
390.693936	2495.950887
391.077802	2494.549446
391.461606	2496.757471
391.845348	2495.865187
392.229027	2495.986175
392.612645	2495.333345
392.996200	2496.661689
393.379694	2497.054899
393.763125	2498.153871
394.146494	2495.592965
394.529801	2497.110352
394.913047	2491.348313
395.296230	2496.288644
395.679351	2497.720332
396.062410	2495.673623
396.445408	2499.913233
396.828343	2496.515496
397.211217	2498.695795
397.594028	2497.382574
397.976778	2497.874087
398.359466	2495.277893
398.742092	2496.883500
399.124656	2498.945332
399.507158	2497.758140
399.889598	2498.494149
400.271977	2500.855929
400.654294	2500.024139
401.036549	2498.363079
401.418742	2500.356855
401.800874	2498.814262
402.182944	2500.762668
402.564952	2500.024139
402.946898	2498.461381
403.328783	2501.153357
403.710606	2502.645539
404.092367	2504.006650
404.474067	2499.943480
404.855705	2499.963645
405.237282	2499.938439
405.618797	2500.162771
406.000250	2501.027328
406.381642	2502.708553
406.762972	2500.069509
407.144240	2497.064982
407.525447	2500.087153
407.906593	2497.407780
408.287677	2503.827689
408.668700	2502.010353
409.049661	2503.817607
409.430560	2503.472288
409.811399	2504.631753
410.192176	2505.715602
410.572891	2506.411281
410.953545	2505.871877
411.334138	2504.041938
411.714669	2504.427587
412.095139	2505.287103
412.475547	2505.287103
412.855894	2505.186280
413.236180	2502.307782
413.616405	2506.804491
413.996568	2503.696619
414.376670	2506.668380
414.756711	2504.054541
415.136691	2508.722650
415.516609	2506.759120
415.896466	2506.295334
416.276262	2504.551095
416.655997	2504.583862
417.035670	2504.190653
417.415283	2506.786847
417.794834	2506.756600
418.174324	2503.905827
418.553753	2505.692916
418.933121	2503.951198
419.312428	2509.239368
419.691674	2507.555623
420.070859	2505.052690
420.449983	2508.715088
420.829045	2507.167454
421.208047	2505.914727
421.586988	2505.438338
421.965867	2506.567557
422.344686	2506.267608
422.723444	2504.475478
423.102141	2508.878926
423.480777	2507.873215
423.859352	2507.848010
424.237866	2507.749707
424.616319	2507.225427
424.994712	2510.915552
425.373044	2504.755262
425.751314	2506.413801
426.129524	2503.532782
426.507673	2505.375324
426.885762	2503.588235
427.263789	2509.604852
427.641756	2506.839779
428.019662	2506.857423
428.397508	2509.630057
428.775292	2509.889677
429.153016	2507.036384
429.530679	2507.283400
429.908282	2509.123422
430.285824	2507.202742
430.663305	2508.815911
431.040726	2506.285252
431.418086	2505.607217
431.795385	2510.971004
432.172624	2507.006137
432.549802	2511.255830
432.926920	2507.195180
433.303977	2509.075531
433.680974	2507.323730
434.057910	2509.073010
434.434786	2509.453617
434.811601	2510.666015
435.188355	2508.339522
435.565050	2507.911024
435.941683	2510.855058
436.318257	2509.312465
436.694770	2509.284738
437.071222	2510.771879
437.447614	2508.067300
437.823946	2506.847341
438.200218	2507.898421
438.576429	2507.716940
438.952580	2507.101919
439.328670	2508.543689
439.704700	2511.147445
440.080670	2510.008144
440.456580	2508.210973
440.832429	2509.640140
441.208218	2510.262722
441.583947	2508.238699
441.959616	2511.336488
442.335224	2510.476971
442.710773	2509.546878
443.086261	2509.682990
443.461689	2510.572753
443.837057	2509.632578
444.212365	2509.322547
444.587612	2508.851199
444.962800	2506.444048
445.337927	2507.961436
445.712995	2506.123935
446.088002	2511.228103
446.462949	2510.524862
446.837837	2510.890346
447.212664	2506.812053
447.587431	2508.972187
447.962139	2509.937568
448.336786	2509.589728
448.711374	2512.022085
449.085901	2510.333298
449.460369	2513.708351
449.834776	2509.751045
450.209124	2509.882115
450.583412	2510.355984
450.957640	2510.930675
451.331808	2510.010665
451.705917	2512.621982
452.079965	2509.042763
452.453954	2511.676766
452.827883	2511.328926
453.201752	2510.976046
453.575562	2512.183402
453.949311	2511.447393
454.323001	2512.561488
454.696632	2511.187774
455.070202	2508.450427
455.443713	2510.827332
455.817164	2511.109636
456.190556	2512.974863
456.563888	2510.499657
456.937160	2512.122908
457.310373	2510.033350
457.683526	2511.699451
458.056619	2510.875223
458.429653	2510.799605
458.802628	2509.728360
459.175542	2510.464368
459.548398	2509.851868
459.921194	2512.503515
460.293930	2515.039216
460.666607	2511.122239
461.039224	2512.478309
461.411782	2512.271622
461.784280	2513.259688
462.156719	2514.293125
462.529099	2512.977384
462.901419	2511.505367
463.273680	2509.584687
463.645882	2509.209121
464.018024	2509.967815
464.390106	2507.265756
464.762130	2513.675583
465.134094	2510.348422
465.505999	2515.266068
465.877845	2514.124246
466.249631	2511.994359
466.621358	2513.791530
466.993026	2510.434122
467.364634	2518.719258
467.736184	2513.327744
468.107674	2513.627692
468.479105	2509.791374
468.850477	2512.132990
469.221790	2513.766324
469.593043	2514.063752
469.964238	2513.685666
470.335373	2511.896056
470.706449	2514.925790
471.077467	2515.717251
471.448425	2514.214987
471.819324	2513.844462
472.190164	2517.723630
472.560945	2513.670542
472.931667	2514.048629
473.302330	2513.466376
473.672934	2516.150790
474.043479	2513.453773
474.413965	2511.147445
474.784393	2512.175840
475.154761	2514.204905
475.525070	2513.337826
475.895321	2513.998217
476.265513	2513.330264
476.635645	2513.342867
477.005719	2514.971160
477.375734	2513.935203
477.745691	2515.321520
478.115588	2514.593073
478.485427	2512.541324
478.855207	2516.423012
479.224928	2515.994514
479.594591	2518.409227
479.964194	2513.945285
480.333739	2515.732374
480.703226	2515.182888
481.072653	2516.249093
481.442022	2515.261026
481.811333	2513.131139
482.180584	2513.584843
482.549777	2514.199863
482.918912	2513.662981
483.287988	2518.066428
483.657005	2516.954854
484.025964	2518.467200
484.394864	2517.847138
484.763706	2517.516943
485.132489	2517.426202
485.501213	2515.092148
485.869879	2516.163393
486.238487	2519.019207
486.607036	2516.072652
486.975527	2516.319669
487.343959	2517.295132
487.712333	2517.824453
488.080648	2517.887468
488.448905	2518.217663
488.817104	2517.153980
489.185244	2518.106758
489.553326	2518.205060
489.921350	2515.253465
490.289315	2517.191788
490.657222	2519.677077
491.025070	2517.680780
491.392861	2517.708507
491.760593	2523.120185
492.128267	2516.725482
492.495883	2518.018537
492.863440	2519.248579
493.230939	2515.931500
493.598380	2520.342509
493.965763	2515.281191
494.333088	2518.419309
494.700354	2516.349916
495.067563	2519.805627
495.434713	2517.209432
495.801805	2520.448374
496.168839	2518.399145
496.535815	2519.503157
496.902733	2517.184227
497.269593	2517.519463
497.636395	2520.130781
498.003139	2520.365195
498.369825	2519.979546
498.736453	2518.439474
499.103023	2518.104237
499.469535	2519.384690
499.835989	2523.102541
500.202385	2516.269257
500.568723	2514.666170
500.935003	2514.351098
501.301226	2509.599811
501.667390	2518.333610
502.033497	2520.324865
502.399546	2516.526356
502.765537	2519.936697
503.131470	2516.400327
503.497345	2519.462828
503.863163	2518.469721
504.228923	2519.296470
504.594625	2516.503671
504.960269	2517.821932
505.325856	2519.102386
505.691385	2517.176665
506.056856	2519.145235
506.422270	2515.535769
506.787625	2519.747653
507.152924	2519.097344
507.518164	2519.573733
507.883347	2519.840915
508.248472	2520.924763
508.613540	2515.253465
508.978550	2518.767149
509.343503	2517.582478
509.708398	2517.484175
510.073236	2521.685977
510.438016	2520.733199
510.802738	2518.580626
511.167403	2521.955679
511.532010	2519.919052
511.896561	2523.102541
512.261053	2517.015348
512.625488	2516.886798
512.989866	2522.132119
513.354186	2519.031809
513.718449	2519.026768
514.082655	2520.967612
514.446803	2518.401665
514.810894	2521.938035
515.174927	2519.969464
515.538904	2519.276305
515.902822	2519.561131
516.266684	2519.117509
516.630488	2520.723117
516.994235	2518.847807
517.357925	2521.529701
517.721558	2521.925432
518.085133	2519.024248
518.448651	2519.987108
518.812112	2516.848990
519.175516	2520.282016
519.538863	2517.821932
519.902152	2523.268899
520.265385	2524.327542
520.628560	2525.040865
520.991678	2523.548683
521.354739	2525.940711
521.717743	2523.876358
522.080690	2525.991122
522.443580	2526.359127
522.806413	2526.734693
523.169189	2525.991122
523.531908	2523.170597
523.894569	2525.706297
524.257174	2529.187214
524.619722	2528.506658
524.982213	2527.511030
525.344647	2528.695701
525.707025	2529.971113
526.069345	2532.307688
526.431608	2531.294416
526.793815	2529.545136
527.155964	2528.665454
527.518057	2534.104859
527.880093	2533.232740
528.242072	2532.269879
528.603995	2535.292051
528.965860	2536.373379
529.327669	2535.160981
529.689421	2537.747093
530.051117	2536.116280
530.412755	2536.985879
530.774337	2536.950591
531.135862	2539.057793
531.497331	2540.169368
531.858743	2540.776827
532.220098	2542.258926
532.581396	2541.953936
532.942638	2543.645243
533.303824	2545.069369
533.664953	2547.358053
534.026025	2544.681200
534.387040	2545.039122
534.747999	2544.630789
535.108902	2546.561551
535.469748	2544.812270
535.830537	2547.569781
536.191270	2548.141952
536.551947	2548.275543
536.912567	2544.850079
537.273131	2550.402910
537.633638	2542.561395
537.994089	2551.958106
538.354483	2551.297715
538.714821	2554.166131
539.075103	2554.425751
539.435328	2553.725030
539.795497	2555.587737
540.155609	2555.522202
540.515665	2559.192162
540.875665	2557.826009
541.235609	2560.006308
541.595496	2558.420865
541.955328	2560.661658
542.315102	2562.373130
542.674821	2560.689384
543.034483	2562.494117
543.394090	2562.131154
543.753640	2564.732390
544.113134	2567.104252
544.472571	2565.206258
544.831953	2568.551064
545.191278	2566.746331
545.550548	2570.184397
545.909761	2568.840930
546.268918	2571.893349
546.628019	2573.730849
546.987064	2570.733883
547.346053	2572.957032
547.704986	2574.224882
548.063863	2571.590879
548.422684	2575.840572
548.781449	2574.774368
549.140158	2573.995510
549.498811	2575.787640
549.857408	2574.524831
550.215949	2578.023392
550.574434	2576.226220
550.932864	2578.648495
551.291237	2580.057497
551.649555	2576.080027
552.007817	2577.892322
552.366022	2580.294432
552.724173	2579.444997
553.082267	2581.161510
553.440305	2583.341809
553.798288	2583.644278
554.156215	2582.719227
554.514086	2583.477920
554.871902	2579.137487
555.229661	2581.947930
555.587365	2579.376942
555.945014	2584.312231
556.302606	2583.858527
556.660143	2586.797520
557.017625	2585.098651
557.375050	2586.482448
557.732421	2586.421954
558.089735	2586.106882
558.446994	2586.439598
558.804197	2589.328179
559.161345	2588.761049
559.518437	2584.624783
559.875474	2586.737026
560.232455	2588.093097
560.589381	2589.819692
560.946251	2588.801379
561.303065	2591.730289
561.659825	2590.210381
562.016528	2590.583427
562.373177	2592.317583
562.729770	2590.311204
563.086307	2590.744743
563.442789	2594.694487
563.799216	2593.408993
564.155587	2591.218612
564.511904	2590.467480
564.868164	2591.022007
565.224370	2592.436051
565.580520	2589.865062
565.936615	2593.381267
566.292654	2595.813624
566.648638	2594.911257
567.004567	2594.260948
567.360441	2594.500403
567.716260	2594.288675
568.072023	2595.586772
568.427732	2592.551997
568.783385	2595.294385
569.138982	2595.652307
569.494525	2597.320929
569.850013	2591.815989
570.205445	2595.959817
570.560823	2592.877152
570.916145	2595.735486
571.271412	2595.107862
571.626625	2593.237594
571.981782	2598.210692
572.336884	2594.008891
572.691931	2591.715166
573.046923	2594.467636
573.401860	2592.456215
573.756743	2594.848243
574.111570	2597.792277
574.466342	2599.102977
574.821059	2596.131216
575.175722	2596.499221
575.530330	2596.267327
575.884882	2594.535691
576.239380	2595.455702
576.593823	2595.480907
576.948211	2594.878490
577.302544	2594.576020
577.656823	2594.848243
578.011047	2594.767584
578.365216	2596.186669
578.719330	2596.857142
579.073389	2591.253900
579.427394	2595.707759
579.781344	2593.164497
580.135239	2593.966041
580.489080	2593.865218
580.842866	2594.281113
581.196597	2595.790938
581.550273	2594.941504
581.903895	2592.476380
582.257463	2595.324632
582.610975	2593.625763
582.964434	2592.778849
583.317837	2593.983685
583.671186	2594.896134
584.024481	2595.740527
584.377721	2592.115937
584.730906	2592.856987
585.084037	2594.805393
585.437113	2592.360433
585.790135	2592.867069
586.143103	2592.486462
586.496016	2594.311360
586.848874	2592.025197
587.201679	2595.987543
587.554428	2593.792121
587.907124	2593.290526
588.259765	2591.165680
588.612352	2596.085846
588.964884	2592.443612
589.317362	2595.254056
589.669786	2592.423448
590.022155	2592.879672
590.374470	2591.395052
590.726731	2592.362954
591.078937	2591.183324
591.431090	2595.251535
591.783188	2595.208685
592.135232	2597.910744
592.487222	2594.240784
592.839157	2598.576176
593.191038	2595.788418
593.542866	2596.128696
593.894639	2594.465115
594.246358	2595.337235
594.598022	2597.177256
594.949633	2592.763726
595.301190	2595.599375
595.652692	2593.340938
596.004141	2594.699529
596.355535	2595.100300
596.706876	2596.239601
597.058162	2595.604416
597.409395	2596.887389
597.760573	2597.699015
598.111698	2595.531319
598.462768	2595.639704
598.813785	2597.023501
599.164748	2596.436206
599.515657	2601.968872
599.866511	2598.722369
600.217312	2596.705908
600.568060	2597.353696
600.918753	2603.272011
601.269392	2601.474839
601.619978	2601.923502
601.970510	2603.481219
602.320988	2605.187649
602.671412	2609.298710
603.021783	2607.229317
603.372100	2605.495160
603.722363	2606.352156
604.072572	2606.861312
604.422728	2608.217383
604.772830	2606.294182
605.122878	2608.567743
605.472872	2613.810543
605.822813	2611.980604
606.172701	2614.697786
606.522534	2613.954216
606.872314	2616.910852
607.222041	2616.265585
607.571714	2617.014196
607.921333	2615.685852
608.270899	2621.236162
608.620411	2625.001904
608.969870	2623.381173
609.319276	2626.181534
609.668627	2631.373923
610.017926	2632.508182
610.367171	2632.646814
610.716362	2636.561270
611.065500	2638.907927
611.414585	2642.605614
611.763616	2644.150727
612.112594	2645.920172
612.461518	2649.023002
612.810389	2651.790596
613.159207	2655.001811
613.507971	2656.864517
613.856682	2661.033552
614.205340	2666.248625
614.553945	2670.546209
614.902496	2670.858760
615.250994	2677.946623
615.599439	2680.376459
615.947830	2683.915349
616.296169	2687.794517
616.644454	2692.976823
616.992686	2698.943028
617.340864	2707.245809
617.688990	2707.137424
618.037063	2714.815101
618.385082	2724.047975
618.733048	2731.062740
619.080961	2737.137331
619.428821	2741.099677
619.776628	2747.776686
620.124382	2753.463107
620.472083	2758.320259
620.819731	2761.758326
621.167326	2761.057606
621.514868	2769.415839
621.862357	2765.743358
622.209793	2776.425563
622.557176	2774.963628
622.904506	2778.832714
623.251783	2782.585853
623.599007	2782.409413
623.946179	2785.628189
624.293297	2791.939714
624.640363	2792.532050
624.987376	2794.702266
625.334336	2797.805097
625.681243	2805.359266
626.028097	2808.013433
626.374899	2814.889567
626.721647	2825.097903
627.068343	2832.959583
627.414987	2837.405881
627.761577	2844.660101
628.108115	2855.128057
628.454600	2857.479755
628.801032	2864.920498
629.147412	2875.161602
629.493739	2883.129146
629.840014	2886.753736
630.186236	2902.048596
630.532405	2907.820718
630.878521	2920.864703
631.224585	2932.671085
631.570597	2937.929009
631.916556	2956.689663
632.262462	2964.969758
632.608316	2978.525421
632.954117	2987.294508
633.299866	2997.764984
633.645562	3007.479288
633.991206	3010.430883
634.336797	3013.589166
634.682336	3014.955319
635.027823	3024.326824
635.373257	3032.372506
635.718639	3033.037938
636.063968	3043.979762
636.409245	3043.591593
636.754470	3051.319682
637.099642	3057.842935
637.444762	3061.003739
637.789829	3073.649473
638.134845	3080.215576
638.479808	3088.334354
638.824719	3100.937239
639.169577	3106.023763
639.514383	3119.584467
639.859137	3122.752832
640.203839	3140.275883
640.548489	3149.344919
640.893086	3158.557628
641.237632	3168.372754
641.582125	3185.825229
641.926566	3195.738658
642.270955	3206.693085
642.615292	3218.461659
642.959576	3232.594533
643.303809	3242.878487
643.647990	3265.727517
643.992118	3281.576905
644.336195	3291.482772
644.680219	3312.098571
645.024192	3329.727486
645.368112	3368.763661
645.711981	3390.322155
646.055797	3431.757919
646.399562	3451.698203
646.743274	3502.898682
647.086935	3540.971997
647.430544	3567.748085
647.774101	3587.539655
648.117606	3618.310858
648.461059	3642.241216
648.804460	3646.763131
649.147810	3645.129797
649.491108	3647.438645
649.834354	3658.720747
650.177548	3643.478819
650.520690	3644.154333
650.863781	3660.648989
651.206820	3667.661234
651.549807	3674.277748
651.892742	3671.474867
652.235626	3687.828370
652.578458	3701.137016
652.921238	3693.108978
653.263967	3726.496540
653.606644	3736.016759
653.949269	3747.319026
654.291843	3754.306066
654.634365	3791.892909
654.976836	3793.238897
655.319255	3816.960046
655.661622	3828.501768
656.003938	3844.983820
656.346203	3855.479503
656.688416	3883.150396
657.030577	3893.928383
657.372687	3905.245773
657.714746	3929.854166
658.056753	3966.044609
658.398708	3951.193370
658.740612	3977.283862
659.082465	4005.910054
659.424266	4023.538969
659.766016	4045.861198
660.107715	4061.279567
660.449362	4084.562136
660.790958	4117.304431
661.132503	4135.611381
661.473996	4162.780679
661.815438	4188.540976
662.156829	4216.995768
662.498168	4228.051019
662.839456	4250.879884
663.180693	4281.472126
663.521879	4308.747289
663.863013	4333.562369
664.204097	4355.070452
664.545129	4406.744799
664.886110	4430.942338
665.227040	4461.963078
665.567918	4488.489629
665.908746	4520.324516
666.249522	4554.614444
666.590248	4583.951439
666.930922	4621.397130
667.271545	4646.212210
667.612118	4680.552550
667.952639	4688.560423
668.293109	4720.178540
668.633528	4731.022062
668.973896	4753.188015
669.314213	4773.771046
669.654480	4785.053148
669.994695	4808.794462
670.334859	4828.477648
670.674973	4836.321683
671.015035	4877.843147
671.355047	4897.720416
671.695008	4922.664046
672.034918	4939.763639
672.374777	4982.933560
672.714585	5001.142208
673.054342	5036.195871
673.394049	5053.804622
673.733705	5104.314463
674.073310	5107.971820
674.412864	5136.172034
674.752368	5133.371673
675.091820	5179.722563
675.431223	5168.095141
675.770574	5177.101162
676.109875	5179.687274
676.449125	5181.721380
676.788324	5192.242268
677.127473	5173.216953
677.466571	5183.488304
677.805619	5183.400084
678.144616	5203.811716
678.483562	5218.294951
678.822458	5212.227923
679.161303	5231.742229
679.500098	5250.023973
679.838842	5266.274133
680.177535	5302.928363
680.516179	5357.980283
680.854771	5403.892592
681.193314	5522.992372
681.531805	5685.004974
681.870247	5811.805117
682.208638	5930.443632
682.546978	5996.765052
682.885268	6045.061826
683.223508	6019.382188
683.561697	6019.394791
683.899836	6028.252098
684.237925	6016.629718
684.575963	6025.996182
684.913951	6016.665006
685.251889	6072.130302
685.589776	6112.479697
685.927614	6158.139948
686.265401	6212.216405
686.603137	6264.604076
686.940824	6377.150356
687.278460	6470.779707
687.616046	6537.544748
687.953582	6672.062897
688.291068	6701.357042
688.628504	6787.235619
688.965889	6823.806669
689.303224	6811.886861
689.640510	6803.274050
689.977745	6737.774338
690.314930	6654.486914
690.652065	6609.726509
690.989150	6530.986207
691.326185	6425.139620
691.663170	6355.110432
692.000105	6262.295227
692.336990	6189.853847
692.673825	6147.407331
693.010610	6096.854641
693.347345	6043.809099
693.684030	5967.785979
694.020665	5959.740297
694.357251	5871.822574
694.693786	5898.984311
695.030272	5888.740686
695.366707	5837.338561
695.703093	5811.941228
696.039429	5843.274520
696.375716	5830.205328
696.711952	5858.644998
697.048139	5858.932344
697.384276	5856.963773
697.720363	5905.449591
698.056400	5911.672895
698.392388	5907.813892
698.728326	5924.495070
699.064214	5921.830820
699.400053	5942.847391
699.735842	5898.276029
700.071581	5882.015787
700.407270	5857.714905
700.742910	5844.660837
701.078501	5817.299975
701.414042	5800.275998
701.749533	5760.629844
702.084974	5724.386468
702.420366	5786.942146
702.755709	5724.278083
703.091002	5690.814904
703.426246	5724.940995
703.761440	5728.913424
704.096584	5703.669846
704.431679	5712.877514
704.766725	5715.826589
705.101721	5725.412343
705.436668	5769.761894
705.771565	5735.224949
706.106413	5816.014480
706.441212	5850.490932
706.775961	5893.736470
707.110661	5936.165341
707.445311	6032.960536
707.779913	6029.388879
708.114465	6112.436847
708.448967	6197.728129
708.783421	6356.148909
709.117825	6462.713860
709.452180	6532.317072
709.786485	6656.974724
710.120742	6849.012438
710.454949	6903.514873
710.789107	7042.910339
711.123216	7230.156437
711.457275	7312.107954
711.791286	7453.799665
712.125247	7522.162753
712.459159	7492.399780
712.793023	7682.910025
713.126837	7481.692370
713.460602	7564.087509
713.794318	7511.354519
714.127985	7467.887170
714.461602	7287.381095
714.795171	7299.973897
715.128691	7096.583504
715.462162	6993.565004
715.795584	6902.526807
716.128957	6864.329984
716.462281	6798.754655
716.795556	6747.944866
717.128782	6654.207130
717.461960	6531.066865
717.795088	6539.951899
718.128167	6476.647610
718.461198	6385.193517
718.794180	6373.266147
719.127113	6311.075953
719.459997	6280.463546
719.792833	6210.938473
720.125619	6230.271298
720.458357	6166.046998
720.791046	6149.499410
721.123686	6123.504700
721.456278	6085.985913
721.788821	6098.654333
722.121315	6046.143153
722.453761	6086.222847
722.786158	6075.757412
723.118506	6113.848370
723.450805	6100.534683
723.783056	6162.467778
724.115259	6150.162322
724.447412	6165.792419
724.779518	6241.061888
725.111574	6275.308966
725.443582	6363.226689
725.775542	6371.743719
726.107453	6524.805752
726.439315	6527.608634
726.771129	6659.333984
727.102895	6788.833664
727.434612	6882.873869
727.766281	6945.215298
728.097901	7050.756895
728.429473	7092.106959
728.760996	7120.622246
729.092471	7170.053280
729.423897	7160.097001
729.755276	7147.433623
730.086606	7204.736418
730.417887	7387.042186
730.749120	7571.137562
731.080305	7654.157804
731.411442	7794.548898
731.742530	7857.202878
732.073570	7924.968589
732.404562	8039.370014
732.735506	8017.372939
733.066401	7973.033470
733.397249	7852.902774
733.728048	7684.896240
734.058798	7440.473375
734.389501	7236.825883
734.720156	7098.801612
735.050762	6935.032167
735.381320	6838.925090
735.711831	6766.387927
736.042293	6665.791702
736.372707	6693.303799
736.703073	6647.260420
737.033391	6718.570062
737.363661	6735.248720
737.693883	6786.297964
738.024056	6862.618513
738.354182	6945.900895
738.684260	7071.488640
739.014290	7177.499064
739.344272	7263.753207
739.674207	7385.731486
740.004093	7462.024308
740.333931	7497.629978
740.663722	7539.045577
740.993464	7575.430105
741.323159	7539.219497
741.652806	7461.621016
741.982405	7429.667662
742.311956	7335.972777
742.641460	7309.065618
742.970915	7222.834161
743.300323	7123.273893
743.629683	7064.186529
743.958996	6975.273178
744.288260	6883.400669
744.617477	6798.305992
744.946647	6797.368338
745.275768	6708.054215
745.604842	6649.516337
745.933869	6603.767866
746.262847	6605.353308
746.591778	6588.946873
746.920662	6559.894704
747.249498	6576.989256
747.578286	6648.482900
747.907027	6714.794238
748.235720	6826.165929
748.564365	6861.333018
748.892963	6848.934301
749.221514	6898.080509
749.550017	6862.953749
749.878473	6868.062959
750.206881	6799.316744
750.535242	6784.231091
750.863555	6767.743997
751.191821	6742.800368
751.520039	6765.445231
751.848210	6754.364775
752.176334	6777.768332
752.504411	6766.755931
752.832440	6708.969185
753.160421	6765.914058
753.488356	6733.950623
753.816243	6712.099741
754.144082	6663.008985
754.471875	6652.384753
754.799620	6650.300236
755.127318	6655.825341
755.454969	6654.980948
755.782572	6658.363562
756.110129	6679.206212
756.437638	6645.548949
756.765100	6662.678789
757.092515	6683.649989
757.419882	6710.831891
757.747203	6722.822275
758.074477	6762.546568
758.401703	6765.571260
758.728882	6851.646441
759.056014	6877.666357
759.383099	6955.499252
759.710138	7017.013932
760.037129	7064.612506
760.364073	7103.719257
760.690970	7131.647249
761.017820	7151.491752
761.344623	7259.609378
761.671379	7429.657580
761.998088	7740.953871
762.324751	8468.720046
762.651366	9810.241660
762.977935	11583.056672
763.304456	12816.891678
763.630931	13292.040593
763.957359	12865.700130
764.283740	11973.483955
764.610074	11080.531771
764.936362	10045.222444
765.262602	9293.006673
765.588796	8538.083802
765.914943	8006.710899
766.241044	7554.698360
766.567097	7233.281952
766.893104	6944.615401
767.219064	6764.774758
767.544978	6575.282826
767.870845	6413.807106
768.196665	6332.611762
768.522438	6239.549541
768.848165	6160.791595
769.173846	6083.241005
769.499479	6036.252410
769.825066	5968.292615
770.150607	5876.798193
770.476101	5851.650397
770.801548	5806.854704
771.126949	5750.169449
771.452303	5704.002562
771.777611	5628.231500
772.102872	5631.636799
772.428087	5572.047840
772.753256	5511.596844
773.078378	5481.039890
773.403453	5407.118930
773.728482	5359.099419
774.053465	5331.357950
774.378401	5287.988903
774.703291	5240.851594
775.028135	5192.746383
775.352932	5183.541237
775.677683	5140.451974
776.002388	5096.167958
776.327046	5107.813023
776.651658	5066.987239
776.976224	5023.643398
777.300743	5034.865007
777.625216	4998.283874
777.949643	4981.275021
778.274024	4992.572247
778.598359	4957.216114
778.922647	4973.254545
779.246889	4951.391061
779.571086	4957.977328
779.895236	4966.638031
780.219339	4971.749761
780.543397	4982.880628
780.867409	5017.911606
781.191374	5028.414850
781.515294	5020.079303
781.839167	5070.243824
782.162995	5065.694183
782.486776	5044.536460
782.810511	5029.670098
783.134201	4990.712061
783.457844	4999.932331
783.781441	4981.234692
784.104993	4954.166216
784.428498	4946.448209
784.751958	4942.773208
785.075372	4935.060243
785.398739	4914.018467
785.722061	4937.989153
786.045337	4950.085402
786.368568	5032.886354
786.691752	5052.456113
787.014891	5216.890990
787.337983	5385.734356
787.661030	5667.784393
787.984031	5976.983564
788.306987	6189.949629
788.629897	6308.298277
788.952760	6300.045908
789.275579	6208.291867
789.598351	6024.262025
789.921078	5859.980904
790.243759	5665.450338
790.566395	5527.872209
790.888984	5401.177930
791.211529	5304.561696
791.534027	5199.337692
791.856480	5099.391776
792.178888	5066.389862
792.501249	5016.053941
792.823566	4938.793217
793.145836	4947.990803
793.468062	4935.639976
793.790241	4917.184311
794.112375	4955.214776
794.434464	5042.351120
794.756507	5060.975663
795.078505	5141.727386
795.400457	5297.244462
795.722364	5468.507581
796.044226	5617.892093
796.366042	5765.055977
796.687812	5748.142906
797.009538	5803.288088
797.331218	5764.735863
797.652852	5725.256067
797.974442	5659.312734
798.295986	5614.547287
798.617484	5524.194687
798.938938	5454.304130
799.260346	5405.848559
799.581709	5306.487417
799.903026	5273.961892
800.224299	5221.937185
800.545526	5130.999811
800.866708	5079.257408
801.187845	5049.370927
801.508936	4994.266074
801.829983	4974.966017
802.150984	4894.673039
802.471940	4874.611767
802.792851	4867.929718
803.113717	4854.457234
803.434538	4833.652392
803.755314	4806.712466
804.076045	4813.124814
804.396731	4782.615751
804.717372	4802.954286
805.037967	4802.349347
805.358518	4822.617306
805.679024	4873.601016
805.999485	4876.958424
806.319901	4899.709152
806.640272	4911.510493
806.960598	4959.719047
807.280879	4967.794975
807.601115	5015.766595
807.921306	4986.235516
808.241453	4995.997711
808.561554	5015.930433
808.881611	5003.395604
809.201623	5012.308364
809.521590	4988.229293
809.841513	4985.007995
810.161390	5011.176625
810.481223	4939.110810
810.801011	4941.003763
811.120755	4932.436322
811.440453	4891.043408
811.760107	4878.498497
812.079716	4868.940469
812.399281	4836.800593
812.718801	4836.926622
813.038276	4814.044824
813.357707	4787.016678
813.677093	4812.799659
813.996434	4765.977422
814.315731	4791.268891
814.634983	4795.110250
814.954191	4807.824040
815.273354	4865.003328
815.592473	4912.279269
815.911547	4986.905990
816.230577	5037.824164
816.549562	5120.688130
816.868502	5189.023491
817.187399	5253.484726
817.506250	5354.227144
817.825058	5378.371750
818.143821	5541.697573
818.462539	5708.310228
818.781213	5924.051448
819.099843	6247.973309
819.418429	6819.829199
819.736970	7383.246197
820.055466	8092.395391
820.373919	8994.398966
820.692327	10369.189675
821.010691	12652.555104
821.329011	17290.303217
821.647286	23750.640173
821.965517	31019.242970
822.283704	35381.124020
822.601847	37940.502704
822.919945	35724.262760
823.237999	32695.134237
823.556010	29033.529949
823.873976	25339.362328
824.191897	21774.593565
824.509775	19133.021388
824.827609	16674.637180
825.145398	15298.293795
825.463144	14587.649899
825.780845	14780.441266
826.098502	15737.776546
826.416116	17825.514959
826.733685	19878.471931
827.051210	20569.450285
827.368692	19642.480396
827.686129	17457.755224
828.003522	15154.925900
828.320872	13048.194940
828.638177	11411.433110
828.955439	10172.030148
829.272656	9115.318603
829.589830	8267.499869
829.906960	7511.979622
830.224046	6957.838347
830.541088	6517.284351
830.858086	6252.505307
831.175041	6029.033477
831.491952	5964.985618
831.808819	6003.641185
832.125642	6265.473675
832.442421	6820.696277
832.759157	7908.448728
833.075849	9596.804248
833.392497	11447.994078
833.709101	12713.081718
834.025662	12655.196669
834.342179	11729.532438
834.658653	10475.421910
834.975083	9332.110903
835.291469	8371.997948
835.607811	7556.087197
835.924110	6994.941239
836.240366	6467.634027
836.556578	5972.670857
836.872746	5584.433955
837.188871	5276.139671
837.504952	5017.513355
837.820990	4822.602183
838.136984	4681.404505
838.452935	4621.069455
838.768842	4646.681037
839.084706	4907.401952
839.400526	5649.046424
839.716303	6607.125274
840.032037	7294.705891
840.347727	7265.757065
840.663373	6692.580393
840.978977	6049.651797
841.294537	5544.397111
841.610054	5160.107433
841.925527	4890.738418
842.240957	4663.778110
842.556344	4447.898259
842.871687	4270.361423
843.186987	4094.987242
843.502244	3951.145479
843.817458	3845.374510
844.132629	3756.004934
844.447756	3698.876058
844.762840	3645.497801
845.077881	3601.990123
845.392879	3560.261972
845.707833	3524.966333
846.022745	3498.346520
846.337613	3479.122080
846.652438	3451.587298
846.967221	3441.056327
847.281960	3421.569747
847.596656	3414.023140
847.911309	3397.470511
848.225919	3381.512739
848.540485	3372.368086
848.855009	3362.890716
849.169490	3352.821012
849.483928	3345.471009
849.798323	3338.904906
850.112675	3326.029799
850.426984	3330.612208
850.741251	3321.155004
851.055474	3318.198367
851.369654	3325.296312
851.683792	3320.703820
851.997887	3327.436281
852.311938	3328.384018
852.625947	3332.825275
852.939914	3325.722289
853.253837	3329.941735
853.567718	3332.399297
853.881555	3325.611384
854.195350	3334.987930
854.509103	3331.060871
854.822812	3332.580779
855.136479	3327.821930
855.450103	3337.122858
855.763685	3323.231959
856.077224	3324.366219
856.390720	3340.054289
856.704173	3352.266485
857.017584	3363.021786
857.330953	3372.852036
857.644278	3384.731515
857.957561	3395.340624
858.270802	3389.613873
858.584000	3392.764594
858.897155	3390.929614
859.210268	3383.967781
859.523339	3367.851212
859.836367	3368.383053
860.149352	3365.983464
860.462295	3362.341231
860.775195	3351.641382
861.088054	3350.159282
861.400869	3346.900176
861.713642	3349.985363
862.026373	3357.955427
862.339062	3364.493803
862.651708	3375.826317
862.964312	3401.400091
863.276873	3408.558529
863.589392	3446.594035
863.901869	3479.878253
864.214303	3505.522603
864.526696	3529.347096
864.839045	3558.752146
865.151353	3582.037236
865.463619	3588.890684
865.775842	3596.747323
866.088023	3610.111422
866.400162	3601.425513
866.712258	3612.140486
867.024313	3613.637709
867.336325	3613.851958
867.648296	3618.404120
867.960224	3620.304635
868.272110	3628.698156
868.583954	3630.434833
868.895755	3642.417656
869.207515	3641.709374
869.519233	3670.983354
869.830909	3679.512987
870.142542	3698.840770
870.454134	3707.319991
870.765684	3729.332189
871.077191	3753.605345
871.388657	3771.088067
871.700081	3797.924649
872.011463	3828.171572
872.322803	3850.450952
872.634101	3868.717573
872.945357	3893.978795
873.256571	3933.574537
873.567744	3954.545737
873.878874	3964.708704
874.189963	3994.514526
874.501010	3999.563241
874.812015	4002.966020
875.122979	4033.669168
875.433900	4029.815206
875.744780	4043.093605
876.055618	4069.652924
876.366415	4072.160898
876.677169	4086.654215
876.987882	4124.646871
877.298554	4162.793282
877.609183	4224.625555
877.919771	4300.439468
878.230317	4409.524996
878.540822	4567.272782
878.851285	4790.217811
879.161707	5116.413232
879.472087	5648.880066
879.782425	6483.342262
880.092722	7890.373671
880.402977	9816.671652
880.713191	11800.617748
881.023363	13689.114637
881.333494	14806.786336
881.643583	15608.869201
881.953631	15837.732545
882.263637	15581.919193
882.573602	14892.934614
882.883526	14072.799377
883.193408	13123.973565
883.503248	12126.551030
883.813048	11186.537154
884.122806	10301.817175
884.432522	9396.756140
884.742197	8624.237121
885.051831	7945.319727
885.361424	7299.686551
885.670975	6771.867661
885.980485	6327.638664
886.289954	5947.424758
886.599382	5630.421881
886.908768	5384.103542
887.218113	5131.382938
887.527417	4935.977733
887.836680	4750.216255
888.145901	4601.477011
888.455082	4487.723374
888.764221	4383.280749
889.073319	4292.592912
889.382376	4242.292278
889.691392	4202.225188
890.000366	4182.615099
890.309300	4168.026000
890.618193	4171.368285
890.927044	4162.579033
891.235855	4179.640818
891.544625	4199.838201
891.853353	4246.647835
892.162041	4328.813602
892.470687	4460.299497
892.779293	4634.776352
893.087858	4894.544489
893.396381	5295.961488
893.704864	5839.634807
894.013306	6599.324088
894.321707	7373.579784
894.630068	7931.718694
894.938387	8092.201306
895.246665	7952.521015
895.554903	7560.183135
895.863100	7093.667196
896.171256	6716.558642
896.479371	6369.591146
896.787446	6042.044695
897.095480	5738.264765
897.403473	5517.053893
897.711425	5296.319410
898.019336	5112.541626
898.327207	4917.698509
898.635038	4762.602370
898.942827	4591.366977
899.250576	4456.753045
899.558284	4319.326150
899.865952	4232.751895
900.173579	4131.351606
900.481165	4056.992066
900.788711	3990.000172
901.096216	3936.760547
901.403681	3890.737333
901.711105	3873.375599
902.018489	3867.996688
902.325832	3917.286569
902.633135	4005.007687
902.940397	4251.409205
903.247619	4792.566988
903.554800	5743.711731
903.861941	6983.502861
904.169041	7990.453177
904.476101	8420.786234
904.783121	8230.606185
905.090100	7771.898994
905.397039	7228.878504
905.703938	6719.878242
906.010796	6246.849132
906.317614	5869.367532
906.624391	5499.936655
906.931129	5209.614084
907.237826	4926.192853
907.544483	4664.872041
907.851099	4405.870159
908.157675	4161.722037
908.464211	3941.322791
908.770707	3781.971918
909.077163	3636.126296
909.383578	3534.103424
909.689954	3451.040333
909.996289	3401.402611
910.302584	3352.896629
910.608839	3331.300326
910.915054	3308.519352
911.221229	3296.954945
911.527363	3306.868374
911.833458	3319.241886
912.139513	3339.580421
912.445527	3363.523381
912.751502	3421.269798
913.057436	3498.044051
913.363331	3597.707662
913.669186	3744.727873
913.975000	3931.994136
914.280775	4238.574428
914.586510	4643.076612
914.892205	5191.723029
915.197859	5889.511983
915.503475	6689.127203
915.809050	7379.039354
916.114585	7819.737023
916.420081	8008.331630
916.725536	8017.982919
917.030952	7733.576142
917.336328	7467.614948
917.641665	7195.354831
917.946961	6875.695266
918.252218	6590.323108
918.557435	6238.049798
918.862612	5949.562208
919.167750	5689.287434
919.472848	5398.259102
919.777906	5137.651613
920.082925	4885.939240
920.387904	4632.142349
920.692843	4446.592600
920.997743	4274.943832
921.302603	4107.915282
921.607423	3993.425637
921.912204	3874.484653
922.216946	3788.762352
922.521647	3703.352603
922.826310	3622.686580
923.130932	3557.809450
923.435516	3483.807832
923.740059	3435.241356
924.044564	3378.483005
924.349028	3335.386181
924.653454	3285.987914
924.957840	3235.049575
925.262186	3202.171170
925.566493	3157.710714
925.870761	3114.485340
926.174989	3086.285125
926.479178	3056.721279
926.783328	3027.308667
927.087438	3008.482478
927.391509	2981.804691
927.695541	2956.896350
927.999533	2941.631736
928.303486	2926.886361
928.607400	2913.489495
928.911275	2902.280489
929.215110	2888.944117
929.518906	2886.229456
929.822663	2883.522356
930.126381	2880.401882
930.430060	2887.925804
930.733699	2889.360012
931.037299	2898.497103
931.340861	2894.161711
931.644383	2904.019688
931.947866	2899.815365
932.251309	2895.870662
932.554714	2895.240518
932.858080	2890.038047
933.161407	2885.374980
933.464694	2879.522200
933.767943	2875.219576
934.071153	2871.436190
934.374323	2864.945704
934.677455	2860.038141
934.980548	2856.151411
935.283602	2852.327696
935.586617	2848.418281
935.889593	2856.607636
936.192530	2860.534694
936.495428	2871.531972
936.798287	2888.140053
937.101108	2911.682241
937.403890	2950.889815
937.706632	2995.803976
938.009336	3054.097358
938.312002	3112.297479
938.614628	3157.730878
938.917216	3197.029193
939.219765	3223.664129
939.522275	3243.652304
939.824747	3254.190837
940.127179	3251.080445
940.429573	3245.194897
940.731929	3245.136924
941.034246	3235.767940
941.336524	3225.725961
941.638763	3214.305227
941.940964	3205.780636
942.243126	3172.009947
942.545250	3152.593942
942.847335	3128.867752
943.149381	3102.517641
943.451389	3076.409505
943.753359	3049.867830
944.055290	3032.143133
944.357182	3016.197963
944.659036	3004.671365
944.960851	2995.231805
945.262628	2985.391472
945.564367	2983.984990
945.866067	2980.453662
946.167729	2976.645070
946.469352	2975.777992
946.770937	2976.642550
947.072484	2966.779532
947.373992	2963.527988
947.675462	2960.979685
947.976893	2945.727674
948.278286	2941.467899
948.579641	2937.825665
948.880958	2932.880293
949.182236	2935.552105
949.483476	2930.730241
949.784678	2932.434151
950.085841	2932.895417
950.386967	2941.029318
950.688054	2953.319652
950.989103	2970.701550
951.290114	2983.569095
951.591087	3004.200017
951.892021	3025.408152
952.192917	3044.078065
952.493776	3063.325190
952.794596	3069.427507
953.095378	3068.938515
953.396122	3068.071437
953.696828	3064.361147
953.997496	3051.526370
954.298126	3037.375851
954.598718	3022.247348
954.899272	3001.503000
955.199788	2981.948364
955.500266	2955.056329
955.800706	2931.614964
956.101108	2901.121024
956.401472	2878.738301
956.701798	2855.269209
957.002087	2823.464570
957.302337	2802.614357
957.602550	2783.374794
957.902724	2759.721700
958.202861	2738.450551
958.502960	2723.967316
958.803022	2709.045501
959.103045	2691.464477
959.403031	2679.307734
959.702979	2671.718277
960.002889	2661.943480
960.302762	2650.704227
960.602596	2642.628299
960.902393	2635.439613
961.202153	2626.294960
961.501875	2621.117695
961.801559	2617.659464
962.101205	2612.535131
962.400814	2606.314347
962.700385	2603.037597
962.999918	2599.168512
963.299414	2588.725761
963.598873	2589.194589
963.898293	2585.630493
964.197677	2588.226687
964.497022	2583.311562
964.796331	2583.545976
965.095601	2582.152097
965.394835	2580.201170
965.694030	2578.945923
965.993189	2577.199163
966.292309	2576.919379
966.591393	2575.278483
966.890439	2575.268401
967.189447	2574.968453
967.488419	2572.684810
967.787353	2578.731674
968.086249	2579.079513
968.385108	2575.938875
968.683930	2581.501788
968.982714	2585.580081
969.281462	2586.341296
969.580172	2592.824219
969.878844	2596.048037
970.177480	2602.727566
970.476078	2609.601179
970.774639	2616.111830
971.073162	2622.342696
971.371649	2627.371247
971.670098	2631.598254
971.968510	2634.779222
972.266885	2637.085550
972.565223	2642.348515
972.863524	2641.882208
973.161788	2646.693989
973.460014	2649.454021
973.758204	2652.589619
974.056356	2650.822694
974.354471	2653.980977
974.652550	2654.154897
974.950591	2652.264464
975.248595	2651.856131
975.546563	2652.042654
975.844493	2650.389155
976.142386	2643.969246
976.440243	2642.000675
976.738062	2636.505817
977.035845	2629.702780
977.333590	2626.552059
977.631299	2623.507202
977.928971	2616.696603
978.226606	2609.971704
978.524204	2611.010182
978.821765	2604.865015
979.119290	2609.137393
979.416777	2609.891046
979.714228	2611.736108
980.011642	2616.462190
980.309020	2619.862448
980.606360	2631.946094
980.903664	2652.942500
981.200931	2678.861592
981.498162	2716.703013
981.795356	2772.914399
982.092513	2837.085767
982.389633	2908.932292
982.686717	2972.634833
982.983764	3023.225332
983.280775	3060.091290
983.577749	3067.224523
983.874686	3055.239179
984.171587	3036.203783
984.468451	3007.244874
984.765279	2975.223465
985.062070	2941.387240
985.358824	2907.682086
985.655543	2865.772453
985.952224	2828.586382
986.248869	2782.515277
986.545478	2739.796539
986.842050	2700.087370
987.138586	2667.753410
987.435086	2639.898514
987.731549	2615.998404
988.027975	2597.071392
988.324366	2583.150245
988.620719	2571.747155
988.917037	2564.071998
989.213318	2555.814588
989.509563	2550.581871
989.805772	2549.094730
990.101944	2543.083154
990.398080	2540.935623
990.694180	2540.406302
990.990244	2543.065510
991.286271	2542.180788
991.582262	2542.261446
991.878217	2544.144317
992.174136	2547.584905
992.470019	2550.183620
992.765865	2553.717468
993.061676	2555.232335
993.357450	2562.736093
993.653188	2569.274469
993.948890	2585.096131
994.244556	2599.604571
994.540186	2613.939092
994.835780	2641.720891
995.131337	2670.158040
995.426859	2701.166177
995.722345	2735.231774
996.017795	2771.044131
996.313208	2799.629994
996.608586	2819.424085
996.903928	2829.965137
997.199234	2828.094869
997.494504	2826.940445
997.789738	2817.586584
998.084936	2798.677216
998.380099	2776.319699
998.675225	2753.296749
998.970316	2733.941239
999.265371	2705.153730
999.560390	2678.007117
999.855373	2654.868220
1000.150320	2632.798049
1000.445232	2614.841459
1000.740108	2598.692122
1001.034948	2581.423650
1001.329752	2570.552402
1001.624521	2564.003943
1001.919254	2553.783003
1002.213951	2550.186140
1002.508613	2537.547967
1002.803239	2535.503780
1003.097829	2530.392050
1003.392384	2527.120341
1003.686903	2526.033972
1003.981386	2523.284023
1004.275834	2518.230266
1004.570246	2518.290760
1004.864623	2515.719771
1005.158964	2517.562313
1005.453270	2512.649709
1005.747540	2510.156858
1006.041775	2507.994203
1006.335974	2509.347753
1006.630138	2507.782475
1006.924266	2509.481343
1007.218359	2504.936743
1007.512416	2503.784840
1007.806438	2502.033039
1008.100425	2502.907679
1008.394376	2499.197390
1008.688292	2505.342556
1008.982172	2501.697802
1009.276017	2505.161075
1009.569827	2500.283758
1009.863602	2503.182422
1010.157341	2503.580673
1010.451045	2503.109325
1010.744714	2500.913902
1011.038347	2498.612616
1011.331945	2500.762668
1011.625508	2499.507421
1011.919036	2496.898623
1012.212528	2495.177069
1012.505986	2495.648417
1012.799408	2497.271669
1013.092795	2494.549446
1013.386147	2494.549446
1013.679464	2496.707060
1013.972745	2496.409632
1014.265992	2493.926863
1014.559204	2493.896616
1014.852380	2496.666730
1015.145521	2497.571618
1015.438628	2495.174549
1015.731699	2495.683705
1016.024736	2499.325939
1016.317737	2497.737976
1016.610703	2499.764519
1016.903635	2500.802997
1017.196531	2502.559839
1017.489393	2501.826351
1017.782219	2503.328615
1018.075011	2506.058400
1018.367768	2502.867350
1018.660490	2505.035046
1018.953177	2505.035046
1019.245829	2505.035046
