Dividing Wavelength (nm)	Counts (n)	Blue Motor Position (mm): 39.700000	Red Motor Position (mm): 0.000000	
326.493990	2245.629872
326.888308	2245.629872
327.282561	2245.629872
327.676750	2206.843234
328.070874	2204.216793
328.464933	2203.090095
328.858929	2208.582432
329.252859	2211.786085
329.646726	2222.377550
330.040528	2233.440362
330.434265	2246.348236
330.827938	2264.766092
331.221547	2283.075563
331.615091	2298.352779
332.008571	2318.618218
332.401986	2337.139417
332.795338	2357.427541
333.188625	2376.188195
333.581847	2395.629404
333.975006	2417.215625
334.368100	2432.747420
334.761129	2454.457149
335.154095	2467.314612
335.546996	2494.935094
335.939833	2532.383305
336.332606	2550.526418
336.725315	2562.874724
337.117960	2572.044583
337.510540	2587.800710
337.903056	2600.184304
338.295508	2608.086313
338.687896	2615.995883
339.080220	2624.621297
339.472480	2628.218161
339.864676	2633.523975
340.256807	2638.983545
340.648875	2643.492857
341.040879	2646.320944
341.432818	2649.617859
341.824694	2649.927890
342.216506	2649.980822
342.608253	2652.725730
342.999937	2653.393683
343.391557	2653.192037
343.783113	2651.586429
344.174605	2653.229845
344.566033	2651.777993
344.957397	2649.920328
345.348697	2648.259268
345.739934	2644.284318
346.131106	2648.965029
346.522215	2644.548978
346.913260	2643.870943
347.304241	2642.184677
347.695159	2638.658390
348.086012	2634.338121
348.476802	2635.585807
348.867528	2632.435086
349.258191	2628.991978
349.648789	2627.764457
350.039324	2626.761267
350.429796	2627.189765
350.820203	2626.557100
351.210548	2625.798407
351.600828	2624.588530
351.991045	2623.340844
352.381198	2620.694238
352.771288	2622.209105
353.161314	2620.595936
353.551276	2620.359002
353.941175	2622.519136
354.331010	2622.138529
354.720782	2617.914042
355.110490	2618.934876
355.500135	2621.042078
355.889717	2620.401852
356.279235	2619.587705
356.668689	2618.380349
357.058080	2619.938065
357.447408	2620.953858
357.836672	2618.342540
358.225873	2621.261368
358.615010	2620.676594
359.004084	2623.792027
359.393095	2622.894702
359.782043	2624.485186
360.170927	2624.394445
360.559748	2621.117695
360.948505	2623.222377
361.337199	2626.179014
361.725830	2628.263531
362.114398	2628.071967
362.502903	2629.670013
362.891344	2628.618932
363.279722	2628.114817
363.668037	2628.674385
364.056289	2628.833181
364.444478	2630.925260
364.832603	2629.609519
365.220665	2629.929632
365.608665	2631.482308
365.996601	2633.125724
366.384474	2632.336783
366.772284	2632.906434
367.160031	2632.540950
367.547715	2634.426342
367.935336	2635.565642
368.322893	2631.338635
368.710388	2632.896351
369.097820	2632.815693
369.485189	2634.494397
369.872495	2638.630664
370.259738	2635.744603
370.646918	2638.091260
371.034035	2639.207876
371.421090	2641.002527
371.808081	2640.936992
372.195010	2640.407671
372.581875	2641.693165
372.968678	2642.837507
373.355418	2642.469502
373.742096	2645.504277
374.128710	2643.271046
374.515262	2642.318268
374.901751	2642.020840
375.288177	2647.450162
375.674540	2644.871612
376.060841	2644.939668
376.447079	2648.866727
376.833254	2646.855306
377.219367	2647.828249
377.605417	2648.609628
377.991404	2649.065852
378.377329	2648.720533
378.763191	2647.155255
379.148991	2651.321769
379.534727	2652.854279
379.920402	2652.145997
380.306013	2648.508805
380.691563	2652.972747
381.077049	2651.258754
381.462474	2655.493323
381.847835	2651.904022
382.233134	2655.034578
382.618371	2654.590957
383.003545	2655.654640
383.388657	2653.713796
383.773706	2656.783859
384.158693	2657.784528
384.543618	2657.993736
384.928480	2660.025321
385.313280	2661.560352
385.698017	2657.096410
386.082692	2660.468942
386.467305	2662.361896
386.851856	2664.093532
387.236344	2664.388439
387.620770	2664.085970
388.005133	2662.944149
388.389435	2668.766682
388.773674	2669.311126
389.157851	2675.776406
389.541965	2686.728313
389.926018	2694.146371
390.310008	2704.815973
390.693936	2719.803323
391.077802	2735.481312
391.461606	2756.533170
391.845348	2778.648712
392.229027	2809.757672
392.612645	2843.742611
392.996200	2889.488562
393.379694	2937.147630
393.763125	2997.253307
394.146494	3054.798078
394.529801	3115.644805
394.913047	3186.422605
395.296230	3234.142168
395.679351	3317.036381
396.062410	3396.739544
396.445408	3451.420940
396.828343	3535.041079
397.211217	3620.579377
397.594028	3642.105104
397.976778	3753.819594
398.359466	3845.435004
398.742092	3924.384514
399.124656	3941.794139
399.507158	4074.747010
399.889598	4177.079912
400.271977	4321.493847
400.654294	4375.590468
401.036549	4471.586641
401.418742	4483.153568
401.800874	4680.418959
402.182944	4788.907111
402.564952	4935.224080
402.946898	5034.565058
403.328783	4978.870390
403.710606	5037.307446
404.092367	5349.523747
404.474067	5416.528244
404.855705	5389.583277
405.237282	5381.673706
405.618797	5637.504702
406.000250	5663.582591
406.381642	5879.853132
406.762972	5936.956802
407.144240	6023.891500
407.525447	6047.347989
407.906593	6103.904694
408.287677	6270.542555
408.668700	6208.811106
409.049661	6348.836716
409.430560	6397.272122
409.811399	6273.181599
410.192176	6560.411422
410.572891	6573.407517
410.953545	6789.814169
411.334138	6540.473658
411.714669	6715.711728
412.095139	6521.977665
412.475547	6775.746829
412.855894	6843.320976
413.236180	7021.515682
413.616405	6721.418314
413.996568	6939.342354
414.376670	6968.076931
414.756711	6871.604369
415.136691	6972.402241
415.516609	7171.593352
415.896466	7167.484812
416.276262	7360.296344
416.655997	7350.584561
417.035670	7541.172944
417.415283	7880.263637
417.794834	7923.327693
418.174324	7791.088146
418.553753	7700.889301
418.933121	8025.968106
419.312428	8121.409752
419.691674	7907.004437
420.070859	8377.064307
420.449983	8060.689053
420.829045	8425.640866
421.208047	8199.741721
421.586988	8494.369437
421.965867	8517.780555
422.344686	8630.115107
422.723444	8660.397318
423.102141	8035.054786
423.480777	8781.271584
423.859352	8304.837175
424.237866	8928.644676
424.616319	8793.806413
424.994712	9204.521820
425.373044	8774.095502
425.751314	9226.468483
426.129524	9096.089121
426.507673	9218.732833
426.885762	9381.819201
427.263789	9288.026013
427.641756	9208.902583
428.019662	9304.394639
428.397508	9551.680880
428.775292	9237.546419
429.153016	9619.643195
429.530679	9450.963667
429.908282	9486.675201
430.285824	9211.486174
430.663305	9890.083455
431.040726	9342.833437
431.418086	9327.601591
431.795385	9651.588987
432.172624	9733.331297
432.549802	9656.678032
432.926920	9739.108459
433.303977	9609.034087
433.680974	9814.665273
434.057910	9902.318335
434.434786	9976.239295
434.811601	9808.353748
435.188355	10377.489935
435.565050	10107.160581
435.941683	10036.599550
436.318257	10520.845227
436.694770	10658.695579
437.071222	10725.498429
437.447614	10570.130068
437.823946	10464.603594
438.200218	10597.443039
438.576429	10419.041646
438.952580	10651.892542
439.328670	10708.950842
439.704700	10486.434311
440.080670	10485.526903
440.456580	11034.959740
440.832429	10790.544437
441.208218	10395.585157
441.583947	10724.286032
441.959616	10867.575789
442.335224	10682.757006
442.710773	10813.927829
443.086261	11022.513132
443.461689	10300.819026
443.837057	10961.487444
444.212365	11231.279915
444.587612	10869.226767
444.962800	11099.549524
445.337927	10856.644047
445.712995	10463.355909
446.088002	11540.060671
446.462949	11208.783766
446.837837	11180.195383
447.212664	11148.814200
447.587431	11686.208762
447.962139	12416.374526
448.336786	14691.366598
448.711374	15218.338574
449.085901	13058.688102
449.460369	12687.613809
449.834776	12135.657874
450.209124	13020.450950
450.583412	13434.591821
450.957640	14370.459347
451.331808	13484.998318
451.705917	12505.721416
452.079965	11794.974177
452.453954	12697.998586
452.827883	12337.919049
453.201752	12631.276394
453.575562	12150.796459
453.949311	12568.047722
454.323001	12541.916901
454.696632	12771.546500
455.070202	13052.220302
455.443713	13276.012244
455.817164	13749.124533
456.190556	13725.264752
456.563888	14098.804169
456.937160	14257.250155
457.310373	13607.077420
457.683526	13689.434751
458.056619	13236.391296
458.429653	13406.943613
458.802628	12816.805979
459.175542	13197.879401
459.548398	14154.607222
459.921194	14497.680426
460.293930	14568.289348
460.666607	15432.484269
461.039224	16475.067981
461.411782	17186.331939
461.784280	17024.929317
462.156719	17091.936333
462.529099	16776.546625
462.901419	15716.626385
463.273680	15498.851060
463.645882	15379.484098
464.018024	15104.499238
464.390106	15332.704711
464.762130	16053.443518
465.134094	16829.657702
465.505999	18848.518829
465.877845	22100.264706
466.249631	24926.786736
466.621358	24584.769653
466.993026	23150.843688
467.364634	22589.019695
467.736184	21118.361363
468.107674	20317.188426
468.479105	20459.540529
468.850477	19915.728578
469.221790	19510.036681
469.593043	18826.042845
469.964238	18256.735259
470.335373	17912.744564
470.706449	18371.976036
471.077467	17936.972350
471.448425	19787.521953
471.819324	23871.055694
472.190164	25803.458513
472.560945	22204.588865
472.931667	19873.022443
473.302330	19238.736905
473.672934	18810.296801
474.043479	19087.156970
474.413965	18901.405574
474.784393	18527.341877
475.154761	19238.810001
475.525070	19201.651656
475.895321	18887.555004
476.265513	19478.990735
476.635645	20068.989737
477.005719	19843.201498
477.375734	20035.634943
477.745691	20520.573778
478.115588	21043.843027
478.485427	21590.150349
478.855207	22663.525428
479.224928	24438.387148
479.594591	26671.678796
479.964194	26638.185370
480.333739	26867.678858
480.703226	26446.220752
481.072653	26136.976210
481.442022	26730.420841
481.811333	27637.271486
482.180584	27562.448160
482.549777	26594.125685
482.918912	26257.726968
483.287988	26385.500054
483.657005	26038.976180
484.025964	25795.919468
484.394864	25702.217020
484.763706	25364.487439
485.132489	24815.120137
485.501213	24975.363294
485.869879	24888.415993
486.238487	24734.002930
486.607036	24868.707602
486.975527	24599.053763
487.343959	24914.004890
487.712333	24828.706047
488.080648	24484.780887
488.448905	24987.013401
488.817104	24743.881071
489.185244	25429.004126
489.553326	25383.265737
489.921350	26407.270277
490.289315	28721.273318
490.657222	30461.532558
491.025070	30960.082509
491.392861	30743.506978
491.760593	29879.753157
492.128267	28971.322111
492.495883	27922.668849
492.863440	27055.950830
493.230939	26176.314854
493.598380	26023.963623
493.965763	25630.889735
494.333088	25157.283413
494.700354	25117.241528
495.067563	24977.727595
495.434713	24723.766867
495.801805	24883.306784
496.168839	24678.126781
496.535815	24533.700244
496.902733	24750.661423
497.269593	24432.688124
497.636395	24598.040491
498.003139	24550.015938
498.369825	24306.913856
498.736453	24515.746175
499.103023	24379.428333
499.469535	24391.113728
499.835989	24613.771411
500.202385	24620.652586
500.568723	24155.948942
500.935003	24359.813204
501.301226	24005.757846
501.667390	24857.153278
502.033497	25072.408026
502.399546	24809.925228
502.765537	24349.902295
503.131470	24747.130095
503.497345	24887.422886
503.863163	24112.993270
504.228923	24682.396638
504.594625	24905.629013
504.960269	24454.044972
505.325856	24931.142293
505.691385	24336.901160
506.056856	24944.735764
506.422270	24913.697380
506.787625	24471.749504
507.152924	24879.672112
507.518164	24929.098105
507.883347	24737.451080
508.248472	24404.624020
508.613540	25192.415214
508.978550	24980.853111
509.343503	24997.070503
509.708398	25226.760595
510.073236	25390.832509
510.438016	25592.211482
510.802738	25258.469453
511.167403	25515.686766
511.532010	25238.072945
511.896561	26003.592321
512.261053	25979.435112
512.625488	25807.680479
512.989866	25687.786718
513.354186	25536.605034
513.718449	25659.367213
514.082655	26025.052513
514.446803	25764.719766
514.810894	26240.624854
515.174927	25720.927263
515.538904	25758.269610
515.902822	26253.152121
516.266684	26004.504770
516.630488	25912.148311
516.994235	25866.906475
517.357925	26190.059560
517.721558	26354.537287
518.085133	26469.861243
518.448651	26353.450918
518.812112	26114.694310
519.175516	26337.160430
519.538863	26477.402809
519.902152	26259.829130
520.265385	26528.983895
520.628560	26335.368299
520.991678	26331.421076
521.354739	26383.367646
521.717743	26463.902599
522.080690	26242.520328
522.443580	26573.532572
522.806413	26573.920741
523.169189	26682.083737
523.531908	26716.766876
523.894569	26335.537178
524.257174	26422.897854
524.619722	26569.983599
524.982213	26281.276719
525.344647	26316.148900
525.707025	26467.108773
526.069345	26443.818642
526.431608	26399.683340
526.793815	26575.213797
527.155964	26069.094553
527.518057	26238.046304
527.880093	26160.629304
528.242072	26386.117595
528.603995	26097.403153
528.965860	25888.822892
529.327669	25924.766319
529.689421	25916.844145
530.051117	25761.359837
530.412755	25939.148731
530.774337	25719.397273
531.135862	25603.178512
531.497331	25799.546578
531.858743	25373.884150
532.220098	25848.007190
532.581396	25538.132504
532.942638	25432.543016
533.303824	25559.479270
533.664953	25545.477465
534.026025	25209.444232
534.387040	25464.907224
534.747999	25516.085017
535.108902	25665.532544
535.469748	25174.304869
535.830537	25347.077814
536.191270	25480.668391
536.551947	25326.328425
536.912567	24950.270951
537.273131	25362.886873
537.633638	25038.337388
537.994089	25268.589569
538.354483	24769.906028
538.714821	25279.833863
539.075103	25327.886142
539.435328	25100.819969
539.795497	24679.455125
540.155609	25049.251486
540.515665	25365.205803
540.875665	24574.813374
541.235609	24906.291925
541.595496	24836.933210
541.955328	25207.732760
542.315102	25125.287210
542.674821	24645.870958
543.034483	24528.601117
543.394090	24701.351377
543.753640	24498.765048
544.113134	25133.877336
544.472571	24716.779828
544.831953	25024.678382
545.191278	24676.831205
545.550548	24562.966663
545.909761	24760.731128
546.268918	24988.868545
546.628019	24967.373065
546.987064	24668.954402
547.346053	24406.259875
547.704986	24507.929866
548.063863	24670.837273
548.422684	24698.440111
548.781449	24198.801271
549.140158	24605.662715
549.498811	24197.936713
549.857408	23951.179794
550.215949	24347.505227
550.574434	24054.694847
550.932864	24253.296144
551.291237	24420.554067
551.649555	24265.039512
552.007817	24337.485933
552.366022	24179.226470
552.724173	24206.516757
553.082267	24176.234545
553.440305	24662.461396
553.798288	23895.752307
554.156215	24406.433795
554.514086	24522.879407
554.871902	23896.377410
555.229661	24183.103118
555.587365	24026.171998
555.945014	23919.148302
556.302606	24145.115503
556.660143	24123.383088
557.017625	24369.555234
557.375050	23875.063412
557.732421	24273.397745
558.089735	24085.488735
558.446994	24143.671212
558.804197	24183.035062
559.161345	24100.372742
559.518437	23873.293967
559.875474	24052.592686
560.232455	24234.220417
560.589381	24049.328538
560.946251	24034.346229
561.303065	24326.627288
561.659825	24443.690442
562.016528	24040.088103
562.373177	23788.794146
562.729770	24141.773218
563.086307	23999.867258
563.442789	24171.871427
563.799216	24012.336552
564.155587	24014.703373
564.511904	23994.493388
564.868164	23928.330764
565.224370	23909.892744
565.580520	23836.909439
565.936615	23947.267858
566.292654	23642.940962
566.648638	23908.680346
567.004567	23744.033741
567.360441	23692.969373
567.716260	23415.572321
568.072023	23735.672987
568.427732	23514.711653
568.783385	23274.339355
569.138982	23524.864536
569.494525	23544.847670
569.850013	23313.320077
570.205445	23401.739395
570.560823	23229.377304
570.916145	22987.270849
571.271412	23176.689684
571.626625	22924.546292
571.981782	23039.610629
572.336884	22842.919929
572.691931	22981.874294
573.046923	22708.305998
573.401860	22596.415068
573.756743	22621.716619
574.111570	22515.116380
574.466342	22435.554369
574.821059	22504.204802
575.175722	22224.496381
575.530330	22199.333462
575.884882	22213.010112
576.239380	22138.743834
576.593823	22017.557016
576.948211	21997.465497
577.302544	21840.284841
577.656823	21715.110470
578.011047	21816.495636
578.365216	21681.685100
578.719330	21562.025751
579.073389	21450.001231
579.427394	21611.630705
579.781344	21360.863548
580.135239	21250.898339
580.489080	21200.259948
580.842866	20976.956998
581.196597	21184.518946
581.550273	21153.248668
581.903895	21025.813340
582.257463	21346.435766
582.610975	20879.786237
582.964434	21205.101977
583.317837	20882.377390
583.671186	20975.593366
584.024481	20951.410951
584.377721	20719.689273
584.730906	20800.032662
585.084037	20793.703494
585.437113	20714.385979
585.790135	20925.847259
586.143103	20375.083558
586.496016	20402.058772
586.848874	20632.396653
587.201679	20547.604445
587.554428	20249.125288
587.907124	20573.153013
588.259765	20339.918989
588.612352	20419.286915
588.964884	19978.241406
589.317362	20146.308434
589.669786	20215.170596
590.022155	20220.662933
590.374470	20445.387489
590.726731	20217.764270
591.078937	20000.445168
591.431090	20095.213820
591.783188	19863.250167
592.135232	19806.698503
592.487222	19919.975750
592.839157	19931.315826
593.191038	19801.753131
593.542866	19702.969201
593.894639	19412.568492
594.246358	19634.661566
594.598022	19515.839049
594.949633	19275.378531
595.301190	19256.501931
595.652692	19420.450336
596.004141	19641.323451
596.355535	18976.065063
596.706876	19003.481378
597.058162	18878.768273
597.409395	19126.031828
597.760573	19179.556279
598.111698	18952.356516
598.462768	18902.544875
598.813785	18876.615700
599.164748	18676.305452
599.515657	18723.767916
599.866511	18518.119086
600.217312	18874.218632
600.568060	18387.593530
600.918753	18709.511533
601.269392	18599.584132
601.619978	18391.981855
601.970510	18586.126772
602.320988	18533.013175
602.671412	18734.198063
603.021783	18657.196959
603.372100	18370.831694
603.722363	18525.012864
604.072572	18467.049677
604.422728	18625.848543
604.772830	18370.231797
605.122878	18339.090069
605.472872	18311.772056
605.822813	18300.132032
606.172701	18276.211757
606.522534	18461.791753
606.872314	18485.661617
607.222041	18325.252101
607.571714	18538.692035
607.921333	18359.602524
608.270899	18442.405996
608.620411	18612.968395
608.969870	18388.831134
609.319276	18384.848622
609.668627	18416.643179
610.017926	18547.682933
610.367171	18666.376900
610.716362	18714.441781
611.065500	18526.061424
611.414585	18669.562909
611.763616	18668.647940
612.112594	18593.832175
612.461518	18558.980158
612.810389	18753.369571
613.159207	18605.318444
613.507971	18522.275517
613.856682	18779.679353
614.205340	18702.428712
614.553945	18856.572073
614.902496	18604.751315
615.250994	18825.919337
615.599439	18767.459596
615.947830	18755.292771
616.296169	18831.653649
616.644454	18788.587072
616.992686	18756.437113
617.340864	18969.758579
617.688990	18725.018122
618.037063	18886.476197
618.385082	18753.624149
618.733048	19034.998672
619.080961	18917.640610
619.428821	18942.175906
619.776628	18819.391042
620.124382	18750.763295
620.472083	18807.350247
620.819731	18813.361823
621.167326	18505.506119
621.514868	18551.582265
621.862357	18323.487698
622.209793	18323.195311
622.557176	18154.475453
622.904506	17981.460532
623.251783	17915.736489
623.599007	17656.411974
623.946179	17607.613604
624.293297	17529.105195
624.640363	17277.970034
624.987376	17310.004046
625.334336	17104.453518
625.681243	16945.528623
626.028097	16972.012325
626.374899	16889.060138
626.721647	16752.091988
627.068343	16585.726349
627.414987	16519.470464
627.761577	16477.535626
628.108115	16513.741193
628.454600	16245.264463
628.801032	16351.012747
629.147412	16286.924558
629.493739	16297.319417
629.840014	16101.765498
630.186236	16203.780808
630.532405	15967.587627
630.878521	16171.595561
631.224585	16068.710652
631.570597	15882.845830
631.916556	15912.825572
632.262462	15889.820267
632.608316	15807.979655
632.954117	15751.196098
633.299866	15753.562919
633.645562	15658.194371
633.991206	15425.361119
634.336797	15291.389935
634.682336	15254.851652
635.027823	15135.754392
635.373257	15008.805535
635.718639	14920.880251
636.063968	14872.439803
636.409245	14619.169713
636.754470	14655.849149
637.099642	14500.122865
637.444762	14272.129121
637.789829	14308.443073
638.134845	14147.710923
638.479808	14178.209904
638.824719	14104.319192
639.169577	13963.784425
639.514383	13999.362369
639.859137	13835.013192
640.203839	13932.982975
640.548489	13772.896094
640.893086	13750.347013
641.237632	13631.211944
641.582125	13786.834884
641.926566	13598.784722
642.270955	13613.343575
642.615292	13577.347216
642.959576	13582.544645
643.303809	13618.359523
643.647990	13548.095920
643.992118	13607.127832
644.336195	13380.943862
644.680219	13595.933950
645.024192	13509.710054
645.368112	13753.669133
645.711981	13800.022543
646.055797	13989.960617
646.399562	13959.320484
646.743274	14220.606008
647.086935	14500.080016
647.430544	14466.526096
647.774101	14505.889945
648.117606	14643.581501
648.461059	14625.657678
648.804460	14601.921406
649.147810	14330.392257
649.491108	14243.376900
649.834354	14249.166665
650.177548	13930.716977
650.520690	13747.294594
650.863781	13661.859639
651.206820	13718.292836
651.549807	13540.007389
651.892742	13334.101460
652.235626	13274.767079
652.578458	13280.231690
652.921238	12973.598466
653.263967	13176.585567
653.606644	13002.582580
653.949269	12976.058549
654.291843	12782.314404
654.634365	12947.679374
654.976836	12790.581897
655.319255	12793.157926
655.661622	12754.260383
656.003938	12676.926563
656.346203	12602.372938
656.688416	12679.205164
657.030577	12641.872899
657.372687	12544.361860
657.714746	12524.093901
658.056753	12718.203530
658.398708	12521.744724
658.740612	12531.496836
659.082465	12637.356025
659.424266	12600.089296
659.766016	12641.071356
660.107715	12542.360522
660.449362	12619.243160
660.790958	12569.244996
661.132503	12511.672498
661.473996	12588.466915
661.815438	12604.858227
662.156829	12632.627423
662.498168	12595.199376
662.839456	12596.557967
663.180693	12610.597581
663.521879	12717.109600
663.863013	12677.198785
664.204097	12643.912046
664.545129	12785.850774
664.886110	12754.888007
665.227040	12848.514837
665.567918	12844.912932
665.908746	12867.371273
666.249522	12861.820962
666.590248	12916.618304
666.930922	13026.018905
667.271545	13005.425791
667.612118	13080.670053
667.952639	12985.929129
668.293109	13010.678673
668.633528	12959.730252
668.973896	12936.407354
669.314213	13004.662056
669.654480	12748.153025
669.994695	12827.904079
670.334859	12862.496477
670.674973	12791.378399
671.015035	12831.082527
671.355047	12772.552210
671.695008	12741.786048
672.034918	12758.676434
672.374777	12788.746917
672.714585	12712.834701
673.054342	12745.544228
673.394049	12695.218389
673.733705	12800.303762
674.073310	12698.883308
674.412864	12709.673898
674.752368	12564.226527
675.091820	12604.782610
675.431223	12582.455339
675.770574	12451.816358
676.109875	12371.110006
676.449125	12323.768530
676.788324	12275.691046
677.127473	12103.311310
677.466571	12098.786875
677.805619	11990.994403
678.144616	11923.450503
678.483562	11892.865822
678.822458	11765.765731
679.161303	11737.749519
679.500098	11723.783002
679.838842	11678.067298
680.177535	11712.102648
680.516179	11773.705548
680.854771	11722.326108
681.193314	11936.055908
681.531805	12095.905855
681.870247	12530.465920
682.208638	12944.931945
682.546978	13253.074994
682.885268	13278.162297
683.223508	12979.632728
683.561697	12826.868122
683.899836	12730.324985
684.237925	12523.630115
684.575963	12440.602311
684.913951	12357.027542
685.251889	12321.167294
685.589776	12403.267526
685.927614	12333.636588
686.265401	12304.196250
686.603137	12351.809948
686.940824	12496.100374
687.278460	12621.418417
687.616046	12676.240966
687.953582	12830.704440
688.291068	12763.523503
688.628504	12997.284328
688.965889	13003.263136
689.303224	12962.583545
689.640510	12860.406918
689.977745	12528.620858
690.314930	12319.584372
690.652065	12226.141544
690.989150	11932.574991
691.326185	11710.020652
691.663170	11504.765032
692.000105	11262.076324
692.336990	11144.619960
692.673825	10881.496935
693.010610	10776.424165
693.347345	10564.126053
693.684030	10373.058761
694.020665	10306.545777
694.357251	10114.256005
694.693786	10041.653307
695.030272	9888.321572
695.366707	9767.923694
695.703093	9706.978665
696.039429	9702.771822
696.375716	9609.815466
696.711952	9484.179830
697.048139	9528.799082
697.384276	9484.999017
697.720363	9507.217903
698.056400	9442.733983
698.392388	9384.324654
698.728326	9347.723357
699.064214	9288.807392
699.400053	9329.441612
699.735842	9147.450917
700.071581	9106.431048
700.407270	9034.032518
700.742910	8951.763407
701.078501	8859.291002
701.414042	8725.307215
701.749533	8671.276128
702.084974	8528.785394
702.420366	8650.675453
702.755709	8527.167183
703.091002	8389.238694
703.426246	8424.166328
703.761440	8371.241774
704.096584	8336.979572
704.431679	8264.586083
704.766725	8250.188547
705.101721	8202.325312
705.436668	8252.804906
705.771565	8139.136969
706.106413	8224.967654
706.441212	8263.383767
706.775961	8219.359371
707.110661	8265.564066
707.445311	8395.484683
707.779913	8296.209241
708.114465	8423.485772
708.448967	8461.891803
708.783421	8617.797047
709.117825	8792.934294
709.452180	8828.434099
709.786485	8914.849558
710.120742	9204.035349
710.454949	9204.171460
710.789107	9312.311772
711.123216	9526.180203
711.457275	9699.424496
711.791286	9852.211787
712.125247	9845.247433
712.459159	9835.996915
712.793023	10067.642976
713.126837	9651.944388
713.460602	9812.336260
713.794318	9632.664496
714.127985	9658.908742
714.461602	9324.178648
714.795171	9281.759859
715.128691	9028.920787
715.462162	8779.610524
715.795584	8725.486176
716.128957	8564.262514
716.462281	8400.077174
716.795556	8445.848331
717.128782	8238.104901
717.461960	7982.657033
717.795088	8051.720841
718.128167	7957.509237
718.461198	7794.989999
718.794180	7741.594097
719.127113	7731.458857
719.459997	7559.656334
719.792833	7343.093406
720.125619	7403.551964
720.458357	7254.825323
720.791046	7255.614264
721.123686	7244.054898
721.456278	7084.663696
721.788821	7107.394258
722.121315	7003.745615
722.453761	7069.895635
722.786158	7010.513364
723.118506	7021.891248
723.450805	6984.080073
723.783056	7044.962088
724.115259	6966.839327
724.447412	6962.090560
724.779518	7019.027873
725.111574	7013.308683
725.443582	7086.657472
725.775542	7065.409008
726.107453	7263.395285
726.439315	7175.018817
726.771129	7244.604384
727.102895	7416.679129
727.434612	7521.749378
727.766281	7565.816624
728.097901	7641.194477
728.429473	7640.503839
728.760996	7629.188969
729.092471	7597.139834
729.423897	7539.194291
729.755276	7542.153448
730.086606	7456.663041
730.417887	7568.594300
730.749120	7780.773945
731.080305	7963.851009
731.411442	8070.426042
731.742530	8056.560348
732.073570	8170.800456
732.404562	8259.582737
732.735506	8117.512940
733.066401	8249.513032
733.397249	8174.563678
733.728048	7929.755165
734.058798	7602.576718
734.389501	7370.628189
734.720156	7196.055552
735.050762	6969.727908
735.381320	6879.372788
735.711831	6816.446585
736.042293	6712.563527
736.372707	6727.606330
736.703073	6596.916938
737.033391	6630.135621
737.363661	6642.229349
737.693883	6680.864752
738.024056	6764.313492
738.354182	6796.647453
738.684260	6828.293296
739.014290	6956.141999
739.344272	7067.813639
739.674207	7100.548371
740.004093	7171.832807
740.333931	7180.821185
740.663722	7186.149684
740.993464	7264.161540
741.323159	7241.425936
741.652806	7001.600604
741.982405	7028.114552
742.311956	7077.535504
742.641460	6895.723770
742.970915	6700.757145
743.300323	6697.041815
743.629683	6646.169011
743.958996	6518.441296
744.288260	6421.331028
744.617477	6376.994080
744.946647	6367.539396
745.275768	6204.130394
745.604842	6163.443242
745.933869	6144.188555
746.262847	6100.232214
746.591778	6095.453200
746.920662	6047.930243
747.249498	6048.235232
747.578286	6095.470844
747.907027	6170.304252
748.235720	6227.654939
748.564365	6202.207194
748.892963	6238.964768
749.221514	6384.152519
749.550017	6198.191915
749.878473	6084.650007
750.206881	6152.733310
750.535242	6095.095278
750.863555	6020.587024
751.191821	6028.920051
751.520039	6031.609507
751.848210	5937.977636
752.176334	5967.627182
752.504411	6007.837946
752.832440	5935.245331
753.160421	5868.137491
753.488356	5912.396301
753.816243	5944.009377
754.144082	5795.439011
754.471875	5772.849601
754.799620	5809.498789
755.127318	5818.696374
755.454969	5780.343276
755.782572	5746.728862
756.110129	5786.322084
756.437638	5769.000680
756.765100	5709.981371
757.092515	5716.118976
757.419882	5770.407162
757.747203	5745.922277
758.074477	5805.775897
758.401703	5791.718639
758.728882	5747.018728
759.056014	5812.934335
759.383099	5930.032778
759.710138	5942.796979
760.037129	5929.102685
760.364073	5935.699034
760.690970	6016.463360
761.017820	5999.318396
761.344623	5952.775943
761.671379	6060.482716
761.998088	6181.939235
762.324751	6440.379028
762.651366	7069.812456
762.977935	8420.367819
763.304456	10069.835878
763.630931	10939.833167
763.957359	10498.951496
764.283740	9544.648470
764.610074	8691.750774
764.936362	7685.216353
765.262602	7094.088133
765.588796	6560.459313
765.914943	6224.824331
766.241044	6056.769906
766.567097	5849.452454
766.893104	5584.035704
767.219064	5412.328963
767.544978	5353.423080
767.870845	5271.806799
768.196665	5163.742105
768.522438	5091.880457
768.848165	5059.806115
769.173846	4989.562678
769.499479	4947.804280
769.825066	4897.228904
770.150607	4832.661805
770.476101	4807.791273
770.801548	4804.761539
771.126949	4723.213314
771.452303	4670.029141
771.777611	4631.479438
772.102872	4650.419053
772.428087	4612.741469
772.753256	4571.850149
773.078378	4521.012633
773.403453	4452.972180
773.728482	4437.069860
774.053465	4393.816760
774.378401	4379.235223
774.703291	4377.617012
775.028135	4303.577586
775.352932	4256.006738
775.677683	4244.573401
776.002388	4267.044344
776.327046	4275.168163
776.651658	4198.323335
776.976224	4139.881238
777.300743	4141.484325
777.625216	4163.977953
777.949643	4155.602076
778.274024	4112.921147
778.598359	4073.758944
778.922647	4100.003191
779.246889	4088.804267
779.571086	4081.207248
779.895236	4065.778797
780.219339	4054.080800
780.543397	4048.303637
780.867409	4104.033593
781.191374	4113.513483
781.515294	4047.633164
781.839167	4045.664593
782.162995	4065.239394
782.486776	4052.883526
782.810511	4064.326945
783.134201	4055.991397
783.457844	4005.771422
783.781441	3953.204791
784.104993	3959.377683
784.428498	3979.025581
784.751958	3976.603306
785.075372	3951.364769
785.398739	3918.357815
785.722061	3932.016821
786.045337	3973.679437
786.368568	4001.335207
786.691752	3910.859098
787.014891	3971.547029
787.337983	4100.908078
787.661030	4265.214405
787.984031	4425.233231
788.306987	4590.033591
788.629897	4673.830171
788.952760	4630.856855
789.275579	4565.505857
789.598351	4495.073376
789.921078	4350.001572
790.243759	4150.707116
790.566395	4133.859580
790.888984	4125.241727
791.211529	4019.085110
791.534027	3960.302735
791.856480	3943.056948
792.178888	3885.996127
792.501249	3839.274714
792.823566	3851.439018
793.145836	3879.306516
793.468062	3821.139163
793.790241	3781.591311
794.112375	3811.838234
794.434464	3876.788460
794.756507	3896.517016
795.078505	3876.241495
795.400457	3917.710026
795.722364	4057.972570
796.044226	4162.778159
796.366042	4236.820106
796.687812	4211.795818
797.009538	4213.862691
797.331218	4174.365251
797.652852	4146.076816
797.974442	4128.926811
798.295986	4126.338178
798.617484	4043.464130
798.938938	3957.025985
799.260346	4000.142974
799.581709	3990.501767
799.903026	3916.094337
800.224299	3884.521590
800.545526	3877.859705
800.866708	3839.083150
801.187845	3780.943523
801.508936	3815.296465
801.829983	3803.830361
802.150984	3731.172211
802.471940	3723.711303
802.792851	3731.293198
803.113717	3731.731779
803.434538	3731.199937
803.755314	3671.288344
804.076045	3651.945437
804.396731	3671.200124
804.717372	3696.776418
805.037967	3680.059952
805.358518	3666.436233
805.679024	3699.410421
805.999485	3710.528686
806.319901	3716.409192
806.640272	3729.173393
806.960598	3742.015733
807.280879	3711.622616
807.601115	3732.624063
807.921306	3751.876229
808.241453	3784.623565
808.561554	3762.724793
808.881611	3692.740974
809.201623	3733.952407
809.521590	3744.944643
809.841513	3717.871126
810.161390	3748.002103
810.481223	3724.951427
810.801011	3668.387160
811.120755	3668.467818
811.440453	3702.409907
811.760107	3700.206923
812.079716	3654.599604
812.399281	3626.041468
812.718801	3651.723626
813.038276	3623.344450
813.357707	3617.108543
813.677093	3635.826347
813.996434	3583.690734
814.315731	3594.738423
814.634983	3596.109617
814.954191	3617.043008
815.273354	3641.855567
815.592473	3636.239722
815.911547	3647.973007
816.230577	3687.203267
816.549562	3737.798807
816.868502	3777.845733
817.187399	3805.521668
817.506250	3801.493786
817.825058	3775.390692
818.143821	3874.630846
818.462539	3972.043582
818.781213	4013.807022
819.099843	4083.828648
819.418429	4342.767516
819.736970	4580.772992
820.055466	4835.661292
820.373919	5203.917580
820.692327	5620.495849
821.010691	6095.657367
821.329011	7549.508492
821.647286	10404.288709
821.965517	15086.504840
822.283704	19106.535166
822.601847	21144.043521
822.919945	19237.317820
823.237999	16615.237264
823.556010	14108.112660
823.873976	11970.696197
824.191897	9858.372077
824.509775	8513.682097
824.827609	7391.102835
825.145398	6856.942173
825.463144	6740.383135
825.780845	6847.394228
826.098502	7062.737197
826.416116	7986.752971
826.733685	9347.325106
827.051210	10443.702970
827.368692	10419.601214
827.686129	9105.881563
828.003522	7600.356090
828.320872	6577.558907
828.638177	5868.331575
828.955439	5294.980983
829.272656	4795.720230
829.589830	4524.617058
829.906960	4343.032176
830.224046	4153.139473
830.541088	4028.670864
830.858086	3984.941375
831.175041	3902.407604
831.491952	3894.397210
831.808819	3902.334507
832.125642	3981.737721
832.442421	4134.086432
832.759157	4423.284825
833.075849	4997.452083
833.392497	5882.366147
833.709101	6669.353277
834.025662	6984.806000
834.342179	6582.700884
834.658653	5909.787504
834.975083	5249.348459
835.291469	4669.391435
835.607811	4267.366978
835.924110	4124.687200
836.240366	3922.443670
836.556578	3715.511866
836.872746	3608.344497
837.188871	3569.096594
837.504952	3497.353413
837.820990	3416.246289
838.136984	3369.930688
838.452935	3394.312228
838.768842	3387.678070
839.084706	3415.374169
839.400526	3581.182760
839.716303	3939.971762
840.032037	4482.611644
840.347727	4726.346391
840.663373	4419.763579
840.978977	4034.037172
841.294537	3726.282291
841.610054	3499.493383
841.925527	3391.209398
842.240957	3320.255158
842.556344	3267.023094
842.871687	3205.609237
843.186987	3155.933707
843.502244	3118.735033
843.817458	3084.135073
844.132629	3055.148439
844.447756	3064.358627
844.762840	3047.947150
845.077881	3012.205370
845.392879	2996.229953
845.707833	2994.329438
846.022745	2995.516630
846.337613	2996.078718
846.652438	2981.348467
846.967221	2978.999289
847.281960	2961.284675
847.596656	2960.145374
847.911309	2961.882051
848.225919	2956.379632
848.540485	2951.154476
848.855009	2948.737243
849.169490	2939.741304
849.483928	2928.983481
849.798323	2932.146805
850.112675	2923.990218
850.426984	2938.425563
850.741251	2935.925150
851.055474	2923.286977
851.369654	2918.860844
851.683792	2925.752102
851.997887	2933.071857
852.311938	2932.204779
852.625947	2923.823860
852.939914	2925.641196
853.253837	2929.318718
853.567718	2914.326327
853.881555	2917.842531
854.195350	2930.795776
854.509103	2925.063984
854.822812	2918.432346
855.136479	2912.410688
855.450103	2916.153745
855.763685	2908.047569
856.077224	2905.758886
856.390720	2921.671288
856.704173	2927.614808
857.017584	2921.517533
857.330953	2922.301432
857.644278	2927.713111
857.957561	2940.497477
858.270802	2939.083433
858.584000	2940.000923
858.897155	2924.312852
859.210268	2928.819644
859.523339	2923.281936
859.836367	2926.495672
860.149352	2919.677511
860.462295	2912.899680
860.775195	2920.133736
861.088054	2919.906884
861.400869	2902.656055
861.713642	2902.318298
862.026373	2919.841349
862.339062	2919.057449
862.651708	2924.282605
862.964312	2927.466094
863.276873	2920.907553
863.589392	2933.207968
863.901869	2944.971501
864.214303	2967.026549
864.526696	2986.543376
864.839045	2978.843013
865.151353	2977.280256
865.463619	2976.077941
865.775842	2978.079279
866.088023	2997.449912
866.400162	3002.710356
866.712258	2971.745069
867.024313	2964.810962
867.336325	2971.243474
867.648296	2995.357833
867.960224	2987.662512
868.272110	2971.392188
868.583954	2975.228506
868.895755	2989.989005
869.207515	2978.487612
869.519233	2986.056905
869.830909	2993.167452
870.142542	3002.027280
870.454134	3001.853360
870.765684	3006.692868
871.077191	3003.975686
871.388657	3013.873992
871.700081	3027.243132
872.011463	3037.572456
872.322803	3038.923485
872.634101	3036.556663
872.945357	3054.077193
873.256571	3082.862182
873.567744	3074.093095
873.878874	3069.223340
874.189963	3089.965168
874.501010	3091.487596
874.812015	3084.873602
875.122979	3078.751121
875.433900	3079.509815
875.744780	3085.516349
876.055618	3091.807709
876.366415	3087.888212
876.677169	3101.083433
876.987882	3097.363061
877.298554	3092.795776
877.609183	3116.794188
877.919771	3138.796304
878.230317	3169.219668
878.540822	3218.829663
878.851285	3257.409613
879.161707	3305.776964
879.472087	3414.370979
879.782425	3655.335613
880.092722	4108.187504
880.402977	4649.904855
880.713191	5303.835770
881.023363	6498.501012
881.333494	7807.771844
881.643583	8336.346908
881.953631	8014.827156
882.263637	7349.538522
882.573602	6737.555048
882.883526	6158.162633
883.193408	5585.306075
883.503248	5126.777844
883.813048	4815.673117
884.122806	4492.527594
884.432522	4172.540353
884.742197	3930.622942
885.051831	3741.927512
885.361424	3610.179477
885.670975	3534.675595
885.980485	3444.738890
886.289954	3364.415665
886.599382	3318.316834
886.908768	3283.127060
887.218113	3240.446131
887.527417	3178.999506
887.836680	3128.242649
888.145901	3125.850621
888.455082	3110.603652
888.764221	3058.450394
889.073319	3031.308822
889.382376	3026.794469
889.691392	3032.266641
890.000366	3032.808565
890.309300	3019.124353
890.618193	3033.000129
890.927044	3046.644012
891.235855	3048.993190
891.544625	3035.263607
891.853353	3046.114691
892.162041	3063.247052
892.470687	3104.226592
892.779293	3155.164931
893.087858	3206.867005
893.396381	3283.149745
893.704864	3413.776123
894.013306	3661.226201
894.321707	3966.858756
894.630068	4168.525074
894.938387	4157.132067
895.246665	4115.313175
895.554903	3989.823732
895.863100	3784.762197
896.171256	3615.001341
896.479371	3472.608909
896.787446	3346.012933
897.095480	3240.662900
897.403473	3175.793332
897.711425	3143.313178
898.019336	3134.433186
898.327207	3098.978751
898.635038	3064.598082
898.942827	3049.552758
899.250576	3038.338711
899.558284	3007.496932
899.865952	2987.475989
900.173579	2966.630818
900.481165	2958.375929
900.788711	2944.411933
901.096216	2919.405289
901.403681	2907.326684
901.711105	2916.491502
902.018489	2913.018147
902.325832	2914.873292
902.633135	2927.887030
902.940397	2960.510858
903.247619	3052.254816
903.554800	3253.568254
903.861941	3614.282976
904.169041	4056.724885
904.476101	4352.133980
904.783121	4285.457158
905.090100	4029.174979
905.397039	3749.068307
905.703938	3495.861231
906.010796	3312.355670
906.317614	3194.463246
906.624391	3101.791715
906.931129	3026.544932
907.237826	2963.815334
907.544483	2916.178951
907.851099	2888.389590
908.157675	2865.439737
908.464211	2846.923579
908.770707	2831.439675
909.077163	2817.092551
909.383578	2801.845581
909.689954	2788.060546
909.996289	2790.767646
910.302584	2790.140022
910.608839	2790.611370
910.915054	2784.894702
911.221229	2778.167282
911.527363	2780.604680
911.833458	2788.549538
912.139513	2791.879220
912.445527	2797.643780
912.751502	2803.715849
913.057436	2812.684062
913.363331	2828.815754
913.669186	2852.236955
913.975000	2889.675084
914.280775	2948.265895
914.586510	3020.243489
914.892205	3103.931684
915.197859	3238.472519
915.503475	3442.094805
915.809050	3661.327024
916.114585	3809.247081
916.420081	3821.623113
916.725536	3755.962085
917.030952	3634.354330
917.336328	3505.336080
917.641665	3369.850029
917.946961	3268.064092
918.252218	3195.784028
918.557435	3115.271760
918.862612	3053.880588
919.167750	3003.559791
919.472848	2965.864563
919.777906	2938.160902
920.082925	2909.640574
920.387904	2878.927344
920.692843	2860.721217
920.997743	2849.789475
921.302603	2836.702640
921.607423	2825.937256
921.912204	2811.701037
922.216946	2801.457412
922.521647	2791.685136
922.826310	2783.972170
923.130932	2775.442538
923.435516	2767.207813
923.740059	2760.011566
924.044564	2752.323807
924.349028	2744.963722
924.653454	2740.915675
924.957840	2733.409397
925.262186	2729.694067
925.566493	2723.473283
925.870761	2720.221739
926.174989	2714.623537
926.479178	2712.488609
926.783328	2706.512321
927.087438	2704.894111
927.391509	2703.724563
927.695541	2699.424459
927.999533	2695.358768
928.303486	2694.940352
928.607400	2693.304498
928.911275	2693.123016
929.215110	2692.946576
929.518906	2691.288036
929.822663	2690.042871
930.126381	2689.745443
930.430060	2689.979857
930.733699	2691.719055
931.037299	2693.773325
931.340861	2693.019673
931.644383	2693.130578
931.947866	2693.024714
932.251309	2690.055474
932.554714	2692.167718
932.858080	2690.899867
933.161407	2686.173786
933.464694	2689.105217
933.767943	2682.539114
934.071153	2687.718899
934.374323	2683.552386
934.677455	2684.028775
934.980548	2682.834021
935.283602	2683.098682
935.586617	2684.457273
935.889593	2682.486182
936.192530	2680.956192
936.495428	2682.347550
936.798287	2683.985925
937.101108	2691.338448
937.403890	2691.524971
937.706632	2697.768440
938.009336	2703.651466
938.312002	2713.698486
938.614628	2720.657799
938.917216	2727.914540
939.219765	2728.353120
939.522275	2729.061402
939.824747	2725.701473
940.127179	2722.220556
940.429573	2719.916749
940.731929	2719.488251
941.034246	2712.269319
941.336524	2709.920141
941.638763	2710.981304
941.940964	2706.671117
942.243126	2702.260108
942.545250	2704.216075
942.847335	2699.850436
943.149381	2696.964376
943.451389	2690.395752
943.753359	2688.006245
944.055290	2687.885257
944.357182	2684.253106
944.659036	2686.932479
944.960851	2683.317972
945.262628	2683.922911
945.564367	2686.027592
945.866067	2687.368539
946.167729	2687.444157
946.469352	2687.368539
946.770937	2687.663447
947.072484	2685.609177
947.373992	2684.890812
947.675462	2682.544155
947.976893	2676.489729
948.278286	2675.892352
948.579641	2678.070131
948.880958	2674.334636
949.182236	2676.424194
949.483476	2675.536951
949.784678	2676.472085
950.085841	2675.887311
950.386967	2676.164575
950.688054	2675.148782
950.989103	2676.346056
951.290114	2680.643640
951.591087	2680.946109
951.892021	2684.013651
952.192917	2687.129084
952.493776	2687.678570
952.794596	2689.629497
953.095378	2687.892819
953.396122	2686.705627
953.696828	2689.198478
953.997496	2683.776717
954.298126	2682.087931
954.598718	2680.532735
954.899272	2677.291273
955.199788	2675.141221
955.500266	2671.632578
955.800706	2669.827844
956.101108	2666.601506
956.401472	2666.926660
956.701798	2667.700477
957.002087	2662.059426
957.302337	2663.904489
957.602550	2660.731082
957.902724	2658.974240
958.202861	2656.400731
958.502960	2656.017603
958.803022	2654.477531
959.103045	2654.785041
959.403031	2654.964002
959.702979	2653.983498
960.002889	2653.733961
960.302762	2652.400576
960.602596	2650.434526
960.902393	2650.094248
961.202153	2651.586429
961.501875	2653.600370
961.801559	2649.832108
962.101205	2649.451501
962.400814	2650.358908
962.700385	2650.013589
962.999918	2646.860347
963.299414	2646.988897
963.598873	2644.705254
963.898293	2641.733494
964.197677	2648.554175
964.497022	2649.423774
964.796331	2645.721047
965.095601	2647.855975
965.394835	2648.067704
965.694030	2647.475368
965.993189	2646.509987
966.292309	2647.946716
966.591393	2647.883702
966.890439	2648.886891
967.189447	2646.711633
967.488419	2645.582415
967.787353	2648.201294
968.086249	2646.898156
968.385108	2645.345481
968.683930	2648.271871
968.982714	2647.185502
969.281462	2647.245996
969.580172	2647.523259
969.878844	2648.271871
970.177480	2648.652478
970.476078	2645.098464
970.774639	2644.753145
971.073162	2647.069555
971.371649	2646.610810
971.670098	2649.023002
971.968510	2646.242806
972.266885	2646.953609
972.565223	2649.907725
972.863524	2650.250523
973.161788	2645.960502
973.460014	2647.167858
973.758204	2649.897643
974.056356	2645.630306
974.354471	2648.087868
974.652550	2650.845380
974.950591	2648.193733
975.248595	2646.409164
975.546563	2648.632313
975.844493	2645.602580
976.142386	2646.532672
976.440243	2645.907569
976.738062	2647.377066
977.035845	2647.457724
977.333590	2644.367497
977.631299	2646.515028
977.928971	2643.429842
978.226606	2641.393216
978.524204	2643.404637
978.821765	2641.630150
979.119290	2644.944709
979.416777	2644.100316
979.714228	2646.167189
980.011642	2644.238947
980.309020	2645.491674
980.606360	2642.550161
980.903664	2644.092754
981.200931	2646.152065
981.498162	2647.651809
981.795356	2646.167189
982.092513	2648.934782
982.389633	2652.876965
982.686717	2654.205309
982.983764	2660.264776
983.280775	2664.995898
983.577749	2664.453974
983.874686	2660.879796
984.171587	2659.425423
984.468451	2654.969043
984.765279	2654.308652
985.062070	2656.249497
985.358824	2651.707417
985.655543	2648.644916
985.952224	2647.099802
986.248869	2646.933444
986.545478	2644.816160
986.842050	2645.320275
987.138586	2645.181643
987.435086	2646.010913
987.731549	2644.992600
988.027975	2643.046715
988.324366	2641.042856
988.620719	2642.577887
988.917037	2642.313227
989.213318	2642.237609
989.509563	2642.978659
989.805772	2641.080665
990.101944	2642.643422
990.398080	2643.046715
990.694180	2641.983031
990.990244	2642.434214
991.286271	2639.802732
991.582262	2642.875315
991.878217	2643.409678
992.174136	2644.727939
992.470019	2640.072434
992.765865	2639.638895
993.061676	2638.396250
993.357450	2636.563791
993.653188	2637.307361
993.948890	2641.700727
994.244556	2642.189718
994.540186	2642.449338
994.835780	2643.160141
995.131337	2644.186015
995.426859	2644.254071
995.722345	2645.355563
996.017795	2644.899339
996.313208	2647.157776
996.608586	2644.243989
996.903928	2647.309010
997.199234	2647.099802
997.494504	2645.267343
997.789738	2643.770120
998.084936	2645.345481
998.380099	2647.036788
998.675225	2646.454535
998.970316	2643.389513
999.265371	2645.683238
999.560390	2643.636530
999.855373	2641.413381
1000.150320	2641.315078
1000.445232	2641.647794
1000.740108	2641.851961
1001.034948	2641.660397
1001.329752	2640.982362
1001.624521	2639.467495
1001.919254	2643.061838
1002.213951	2640.634522
1002.508613	2641.526807
1002.803239	2640.606796
1003.097829	2639.772485
1003.392384	2640.949595
1003.686903	2638.708802
1003.981386	2638.529841
1004.275834	2639.769965
1004.570246	2638.998668
1004.864623	2639.916158
1005.158964	2639.873308
1005.453270	2641.105870
1005.747540	2639.807773
1006.041775	2640.027063
1006.335974	2637.839203
1006.630138	2641.098309
1006.924266	2644.218783
1007.218359	2640.647125
1007.512416	2635.825262
1007.806438	2638.247536
1008.100425	2635.243008
1008.394376	2637.017495
1008.688292	2642.910603
1008.982172	2640.473206
1009.276017	2640.505973
1009.569827	2639.840541
1009.863602	2641.597383
1010.157341	2640.105201
1010.451045	2638.527320
1010.744714	2636.836013
1011.038347	2638.870119
1011.331945	2639.749800
1011.625508	2635.900879
1011.919036	2639.457413
1012.212528	2638.315592
1012.505986	2633.430714
1012.799408	2638.192083
1013.092795	2638.867598
1013.386147	2638.199645
1013.679464	2638.726446
1013.972745	2638.071096
1014.265992	2640.901704
1014.559204	2638.953298
1014.852380	2637.574542
1015.145521	2638.918010
1015.438628	2637.176291
1015.731699	2637.864408
1016.024736	2637.718215
1016.317737	2637.067906
1016.610703	2639.127217
1016.903635	2639.706950
1017.196531	2638.865077
1017.489393	2638.328195
1017.782219	2637.181332
1018.075011	2638.113946
1018.367768	2640.604276
1018.660490	2637.947587
1018.953177	2637.947587
1019.245829	2637.947587
