Dividing Wavelength (nm)	Counts (n)	Blue Motor Position (mm): 3.000000	Red Motor Position (mm): 0.000000	
326.493990	2097.120000
326.888308	2097.120000
327.282561	2097.120000
327.676750	2071.914231
328.070874	1996.296923
328.464933	2051.749615
328.858929	2109.722885
329.252859	2087.037692
329.646726	2024.023269
330.040528	2157.613846
330.434265	2094.599423
330.827938	2177.778462
331.221547	2117.284615
331.615091	2150.052115
332.008571	2152.572692
332.401986	2276.080962
332.795338	2187.860769
333.188625	2339.095385
333.581847	2258.436923
333.975006	2281.122115
334.368100	2265.998654
334.761129	2419.753846
335.154095	2344.136538
335.546996	2318.930769
335.939833	2394.548077
336.332606	2422.274423
336.725315	2429.836154
337.117960	2412.192115
337.510540	2429.836154
337.903056	2397.068654
338.295508	2424.795000
338.687896	2444.959615
339.080220	2439.918462
339.472480	2480.247692
339.864676	2467.644808
340.256807	2442.439038
340.648875	2462.603654
341.040879	2510.494615
341.432818	2444.959615
341.824694	2583.591346
342.216506	2439.918462
342.608253	2495.371154
342.999937	2460.083077
343.391557	2497.891731
343.783113	2429.836154
344.174605	2450.000769
344.566033	2452.521346
344.957397	2530.659231
345.348697	2397.068654
345.739934	2429.836154
346.131106	2606.276538
346.522215	2450.000769
346.913260	2490.330000
347.304241	2472.685962
347.695159	2500.412308
348.086012	2543.262115
348.476802	2535.700385
348.867528	2424.795000
349.258191	2364.301154
349.648789	2419.753846
350.039324	2409.671538
350.429796	2356.739423
350.820203	2417.233269
351.210548	2447.480192
351.600828	2465.124231
351.991045	2560.906154
352.381198	2472.685962
352.771288	2437.397885
353.161314	2412.192115
353.551276	2477.727115
353.941175	2450.000769
354.331010	2434.877308
354.720782	2462.603654
355.110490	2369.342308
355.500135	2417.233269
355.889717	2359.260000
356.279235	2487.809423
356.668689	2465.124231
357.058080	2480.247692
357.447408	2492.850577
357.836672	2439.918462
358.225873	2442.439038
358.615010	2452.521346
359.004084	2495.371154
359.393095	2500.412308
359.782043	2540.741538
360.170927	2465.124231
360.559748	2429.836154
360.948505	2412.192115
361.337199	2404.630385
361.725830	2404.630385
362.114398	2432.356731
362.502903	2419.753846
362.891344	2460.083077
363.279722	2432.356731
363.668037	2497.891731
364.056289	2495.371154
364.444478	2495.371154
364.832603	2500.412308
365.220665	2475.206538
365.608665	2427.315577
365.996601	2412.192115
366.384474	2492.850577
366.772284	2475.206538
367.160031	2386.986346
367.547715	2543.262115
367.935336	2465.124231
368.322893	2444.959615
368.710388	2467.644808
369.097820	2457.562500
369.485189	2455.041923
369.872495	2497.891731
370.259738	2502.932885
370.646918	2376.904038
371.034035	2442.439038
371.421090	2432.356731
371.808081	2417.233269
372.195010	2490.330000
372.581875	2482.768269
372.968678	2490.330000
373.355418	2510.494615
373.742096	2437.397885
374.128710	2525.618077
374.515262	2455.041923
374.901751	2480.247692
375.288177	2455.041923
375.674540	2533.179808
376.060841	2437.397885
376.447079	2407.150962
376.833254	2465.124231
377.219367	2482.768269
377.605417	2485.288846
377.991404	2467.644808
378.377329	2467.644808
378.763191	2402.109808
379.148991	2465.124231
379.534727	2553.344423
379.920402	2507.974038
380.306013	2477.727115
380.691563	2434.877308
381.077049	2427.315577
381.462474	2439.918462
381.847835	2447.480192
382.233134	2472.685962
382.618371	2482.768269
383.003545	2432.356731
383.388657	2460.083077
383.773706	2497.891731
384.158693	2480.247692
384.543618	2439.918462
384.928480	2485.288846
385.313280	2480.247692
385.698017	2402.109808
386.082692	2515.535769
386.467305	2505.453462
386.851856	2371.862885
387.236344	2450.000769
387.620770	2424.795000
388.005133	2452.521346
388.389435	2492.850577
388.773674	2515.535769
389.157851	2460.083077
389.541965	2497.891731
389.926018	2429.836154
390.310008	2475.206538
390.693936	2452.521346
391.077802	2444.959615
391.461606	2402.109808
391.845348	2404.630385
392.229027	2523.097500
392.612645	2475.206538
392.996200	2437.397885
393.379694	2444.959615
393.763125	2477.727115
394.146494	2485.288846
394.529801	2477.727115
394.913047	2432.356731
395.296230	2507.974038
395.679351	2492.850577
396.062410	2467.644808
396.445408	2497.891731
396.828343	2495.371154
397.211217	2497.891731
397.594028	2455.041923
397.976778	2442.439038
398.359466	2482.768269
398.742092	2482.768269
399.124656	2412.192115
399.507158	2523.097500
399.889598	2500.412308
400.271977	2500.412308
400.654294	2429.836154
401.036549	2409.671538
401.418742	2525.618077
401.800874	2500.412308
402.182944	2444.959615
402.564952	2495.371154
402.946898	2525.618077
403.328783	2442.439038
403.710606	2555.865000
404.092367	2462.603654
404.474067	2492.850577
404.855705	2518.056346
405.237282	2470.165385
405.618797	2457.562500
406.000250	2455.041923
406.381642	2470.165385
406.762972	2523.097500
407.144240	2439.918462
407.525447	2497.891731
407.906593	2538.220962
408.287677	2444.959615
408.668700	2515.535769
409.049661	2515.535769
409.430560	2497.891731
409.811399	2513.015192
410.192176	2507.974038
410.572891	2472.685962
410.953545	2467.644808
411.334138	2442.439038
411.714669	2500.412308
412.095139	2447.480192
412.475547	2490.330000
412.855894	2477.727115
413.236180	2465.124231
413.616405	2434.877308
413.996568	2533.179808
414.376670	2485.288846
414.756711	2518.056346
415.136691	2432.356731
415.516609	2482.768269
415.896466	2500.412308
416.276262	2422.274423
416.655997	2422.274423
417.035670	2515.535769
417.415283	2555.865000
417.794834	2545.782692
418.174324	2439.918462
418.553753	2565.947308
418.933121	2442.439038
419.312428	2472.685962
419.691674	2563.426731
420.070859	2434.877308
420.449983	2548.303269
420.829045	2434.877308
421.208047	2540.741538
421.586988	2525.618077
421.965867	2472.685962
422.344686	2442.439038
422.723444	2457.562500
423.102141	2414.712692
423.480777	2447.480192
423.859352	2460.083077
424.237866	2460.083077
424.616319	2457.562500
424.994712	2397.068654
425.373044	2533.179808
425.751314	2490.330000
426.129524	2490.330000
426.507673	2452.521346
426.885762	2457.562500
427.263789	2510.494615
427.641756	2515.535769
428.019662	2480.247692
428.397508	2460.083077
428.775292	2523.097500
429.153016	2490.330000
429.530679	2452.521346
429.908282	2455.041923
430.285824	2490.330000
430.663305	2434.877308
431.040726	2535.700385
431.418086	2480.247692
431.795385	2472.685962
432.172624	2450.000769
432.549802	2452.521346
432.926920	2477.727115
433.303977	2439.918462
433.680974	2515.535769
434.057910	2450.000769
434.434786	2460.083077
434.811601	2477.727115
435.188355	2460.083077
435.565050	2548.303269
435.941683	2480.247692
436.318257	2480.247692
436.694770	2477.727115
437.071222	2520.576923
437.447614	2518.056346
437.823946	2404.630385
438.200218	2520.576923
438.576429	2467.644808
438.952580	2429.836154
439.328670	2568.467885
439.704700	2518.056346
440.080670	2450.000769
440.456580	2533.179808
440.832429	2505.453462
441.208218	2472.685962
441.583947	2467.644808
441.959616	2510.494615
442.335224	2550.823846
442.710773	2497.891731
443.086261	2475.206538
443.461689	2528.138654
443.837057	2490.330000
444.212365	2460.083077
444.587612	2397.068654
444.962800	2497.891731
445.337927	2518.056346
445.712995	2439.918462
446.088002	2465.124231
446.462949	2497.891731
446.837837	2477.727115
447.212664	2573.509038
447.587431	2429.836154
447.962139	2507.974038
448.336786	2467.644808
448.711374	2482.768269
449.085901	2444.959615
449.460369	2535.700385
449.834776	2492.850577
450.209124	2513.015192
450.583412	2505.453462
450.957640	2528.138654
451.331808	2442.439038
451.705917	2510.494615
452.079965	2460.083077
452.453954	2492.850577
452.827883	2457.562500
453.201752	2510.494615
453.575562	2500.412308
453.949311	2530.659231
454.323001	2394.548077
454.696632	2507.974038
455.070202	2570.988462
455.443713	2540.741538
455.817164	2500.412308
456.190556	2457.562500
456.563888	2553.344423
456.937160	2535.700385
457.310373	2535.700385
457.683526	2465.124231
458.056619	2507.974038
458.429653	2490.330000
458.802628	2487.809423
459.175542	2502.932885
459.548398	2568.467885
459.921194	2442.439038
460.293930	2500.412308
460.666607	2417.233269
461.039224	2460.083077
461.411782	2447.480192
461.784280	2505.453462
462.156719	2520.576923
462.529099	2553.344423
462.901419	2550.823846
463.273680	2518.056346
463.645882	2482.768269
464.018024	2439.918462
464.390106	2550.823846
464.762130	2434.877308
465.134094	2442.439038
465.505999	2475.206538
465.877845	2460.083077
466.249631	2545.782692
466.621358	2533.179808
466.993026	2444.959615
467.364634	2472.685962
467.736184	2450.000769
468.107674	2492.850577
468.479105	2586.111923
468.850477	2538.220962
469.221790	2455.041923
469.593043	2450.000769
469.964238	2525.618077
470.335373	2457.562500
470.706449	2502.932885
471.077467	2432.356731
471.448425	2520.576923
471.819324	2518.056346
472.190164	2427.315577
472.560945	2490.330000
472.931667	2510.494615
473.302330	2495.371154
473.672934	2482.768269
474.043479	2502.932885
474.413965	2480.247692
474.784393	2500.412308
475.154761	2543.262115
475.525070	2480.247692
475.895321	2495.371154
476.265513	2540.741538
476.635645	2540.741538
477.005719	2480.247692
477.375734	2510.494615
477.745691	2462.603654
478.115588	2505.453462
478.485427	2444.959615
478.855207	2565.947308
479.224928	2560.906154
479.594591	2460.083077
479.964194	2533.179808
480.333739	2412.192115
480.703226	2528.138654
481.072653	2510.494615
481.442022	2555.865000
481.811333	2465.124231
482.180584	2525.618077
482.549777	2482.768269
482.918912	2414.712692
483.287988	2477.727115
483.657005	2437.397885
484.025964	2492.850577
484.394864	2465.124231
484.763706	2467.644808
485.132489	2533.179808
485.501213	2477.727115
485.869879	2455.041923
486.238487	2422.274423
486.607036	2523.097500
486.975527	2419.753846
487.343959	2482.768269
487.712333	2462.603654
488.080648	2480.247692
488.448905	2495.371154
488.817104	2450.000769
489.185244	2394.548077
489.553326	2500.412308
489.921350	2455.041923
490.289315	2472.685962
490.657222	2530.659231
491.025070	2467.644808
491.392861	2505.453462
491.760593	2553.344423
492.128267	2470.165385
492.495883	2495.371154
492.863440	2548.303269
493.230939	2457.562500
493.598380	2485.288846
493.965763	2465.124231
494.333088	2467.644808
494.700354	2553.344423
495.067563	2563.426731
495.434713	2467.644808
495.801805	2447.480192
496.168839	2538.220962
496.535815	2530.659231
496.902733	2545.782692
497.269593	2553.344423
497.636395	2573.509038
498.003139	2462.603654
498.369825	2480.247692
498.736453	2407.150962
499.103023	2455.041923
499.469535	2520.576923
499.835989	2434.877308
500.202385	2429.836154
500.568723	2578.550192
500.935003	2523.097500
501.301226	2510.494615
501.667390	2568.467885
502.033497	2555.865000
502.399546	2497.891731
502.765537	2439.918462
503.131470	2550.823846
503.497345	2558.385577
503.863163	2553.344423
504.228923	2543.262115
504.594625	2450.000769
504.960269	2525.618077
505.325856	2513.015192
505.691385	2545.782692
506.056856	2490.330000
506.422270	2505.453462
506.787625	2553.344423
507.152924	2500.412308
507.518164	2397.068654
507.883347	2515.535769
508.248472	2523.097500
508.613540	2490.330000
508.978550	2450.000769
509.343503	2507.974038
509.708398	2467.644808
510.073236	2450.000769
510.438016	2510.494615
510.802738	2560.906154
511.167403	2452.521346
511.532010	2487.809423
511.896561	2495.371154
512.261053	2515.535769
512.625488	2540.741538
512.989866	2540.741538
513.354186	2487.809423
513.718449	2462.603654
514.082655	2533.179808
514.446803	2460.083077
514.810894	2490.330000
515.174927	2487.809423
515.538904	2515.535769
515.902822	2570.988462
516.266684	2485.288846
516.630488	2490.330000
516.994235	2502.932885
517.357925	2462.603654
517.721558	2490.330000
518.085133	2487.809423
518.448651	2480.247692
518.812112	2429.836154
519.175516	2475.206538
519.538863	2570.988462
519.902152	2472.685962
520.265385	2490.330000
520.628560	2429.836154
520.991678	2513.015192
521.354739	2505.453462
521.717743	2444.959615
522.080690	2515.535769
522.443580	2480.247692
522.806413	2455.041923
523.169189	2533.179808
523.531908	2482.768269
523.894569	2487.809423
524.257174	2475.206538
524.619722	2472.685962
524.982213	2455.041923
525.344647	2490.330000
525.707025	2548.303269
526.069345	2462.603654
526.431608	2465.124231
526.793815	2417.233269
527.155964	2515.535769
527.518057	2447.480192
527.880093	2525.618077
528.242072	2573.509038
528.603995	2467.644808
528.965860	2487.809423
529.327669	2492.850577
529.689421	2513.015192
530.051117	2621.400000
530.412755	2513.015192
530.774337	2528.138654
531.135862	2500.412308
531.497331	2495.371154
531.858743	2515.535769
532.220098	2510.494615
532.581396	2507.974038
532.942638	2485.288846
533.303824	2492.850577
533.664953	2553.344423
534.026025	2470.165385
534.387040	2502.932885
534.747999	2548.303269
535.108902	2450.000769
535.469748	2565.947308
535.830537	2475.206538
536.191270	2480.247692
536.551947	2427.315577
536.912567	2465.124231
537.273131	2497.891731
537.633638	2502.932885
537.994089	2510.494615
538.354483	2457.562500
538.714821	2492.850577
539.075103	2568.467885
539.435328	2510.494615
539.795497	2555.865000
540.155609	2578.550192
540.515665	2525.618077
540.875665	2467.644808
541.235609	2485.288846
541.595496	2492.850577
541.955328	2482.768269
542.315102	2447.480192
542.674821	2593.673654
543.034483	2467.644808
543.394090	2540.741538
543.753640	2505.453462
544.113134	2568.467885
544.472571	2545.782692
544.831953	2558.385577
545.191278	2500.412308
545.550548	2543.262115
545.909761	2523.097500
546.268918	2538.220962
546.628019	2447.480192
546.987064	2540.741538
547.346053	2550.823846
547.704986	2510.494615
548.063863	2477.727115
548.422684	2462.603654
548.781449	2525.618077
549.140158	2525.618077
549.498811	2550.823846
549.857408	2452.521346
550.215949	2525.618077
550.574434	2437.397885
550.932864	2533.179808
551.291237	2520.576923
551.649555	2500.412308
552.007817	2507.974038
552.366022	2482.768269
552.724173	2545.782692
553.082267	2510.494615
553.440305	2480.247692
553.798288	2513.015192
554.156215	2540.741538
554.514086	2472.685962
554.871902	2505.453462
555.229661	2480.247692
555.587365	2520.576923
555.945014	2470.165385
556.302606	2424.795000
556.660143	2513.015192
557.017625	2455.041923
557.375050	2505.453462
557.732421	2591.153077
558.089735	2417.233269
558.446994	2490.330000
558.804197	2528.138654
559.161345	2553.344423
559.518437	2450.000769
559.875474	2472.685962
560.232455	2444.959615
560.589381	2533.179808
560.946251	2550.823846
561.303065	2565.947308
561.659825	2439.918462
562.016528	2477.727115
562.373177	2485.288846
562.729770	2389.506923
563.086307	2568.467885
563.442789	2495.371154
563.799216	2462.603654
564.155587	2472.685962
564.511904	2535.700385
564.868164	2502.932885
565.224370	2487.809423
565.580520	2545.782692
565.936615	2565.947308
566.292654	2492.850577
566.648638	2490.330000
567.004567	2502.932885
567.360441	2548.303269
567.716260	2513.015192
568.072023	2520.576923
568.427732	2465.124231
568.783385	2495.371154
569.138982	2457.562500
569.494525	2626.441154
569.850013	2520.576923
570.205445	2538.220962
570.560823	2417.233269
570.916145	2518.056346
571.271412	2538.220962
571.626625	2525.618077
571.981782	2523.097500
572.336884	2538.220962
572.691931	2538.220962
573.046923	2392.027500
573.401860	2477.727115
573.756743	2520.576923
574.111570	2482.768269
574.466342	2502.932885
574.821059	2510.494615
575.175722	2482.768269
575.530330	2565.947308
575.884882	2535.700385
576.239380	2565.947308
576.593823	2450.000769
576.948211	2530.659231
577.302544	2497.891731
577.656823	2492.850577
578.011047	2578.550192
578.365216	2485.288846
578.719330	2520.576923
579.073389	2507.974038
579.427394	2495.371154
579.781344	2513.015192
580.135239	2507.974038
580.489080	2475.206538
580.842866	2417.233269
581.196597	2497.891731
581.550273	2429.836154
581.903895	2477.727115
582.257463	2543.262115
582.610975	2397.068654
582.964434	2518.056346
583.317837	2450.000769
583.671186	2452.521346
584.024481	2520.576923
584.377721	2402.109808
584.730906	2462.603654
585.084037	2495.371154
585.437113	2495.371154
585.790135	2490.330000
586.143103	2505.453462
586.496016	2384.465769
586.848874	2417.233269
587.201679	2568.467885
587.554428	2515.535769
587.907124	2417.233269
588.259765	2477.727115
588.612352	2502.932885
588.964884	2457.562500
589.317362	2513.015192
589.669786	2447.480192
590.022155	2543.262115
590.374470	2480.247692
590.726731	2467.644808
591.078937	2525.618077
591.431090	2543.262115
591.783188	2450.000769
592.135232	2475.206538
592.487222	2518.056346
592.839157	2482.768269
593.191038	2439.918462
593.542866	2475.206538
593.894639	2578.550192
594.246358	2477.727115
594.598022	2480.247692
594.949633	2465.124231
595.301190	2518.056346
595.652692	2598.714808
596.004141	2487.809423
596.355535	2510.494615
596.706876	2518.056346
597.058162	2492.850577
597.409395	2513.015192
597.760573	2452.521346
598.111698	2515.535769
598.462768	2548.303269
598.813785	2570.988462
599.164748	2565.947308
599.515657	2480.247692
599.866511	2568.467885
600.217312	2472.685962
600.568060	2586.111923
600.918753	2513.015192
601.269392	2475.206538
601.619978	2422.274423
601.970510	2530.659231
602.320988	2553.344423
602.671412	2525.618077
603.021783	2518.056346
603.372100	2510.494615
603.722363	2485.288846
604.072572	2450.000769
604.422728	2538.220962
604.772830	2482.768269
605.122878	2485.288846
605.472872	2553.344423
605.822813	2530.659231
606.172701	2472.685962
606.522534	2515.535769
606.872314	2487.809423
607.222041	2460.083077
607.571714	2500.412308
607.921333	2470.165385
608.270899	2502.932885
608.620411	2442.439038
608.969870	2530.659231
609.319276	2520.576923
609.668627	2495.371154
610.017926	2480.247692
610.367171	2490.330000
610.716362	2500.412308
611.065500	2505.453462
611.414585	2518.056346
611.763616	2490.330000
612.112594	2560.906154
612.461518	2429.836154
612.810389	2482.768269
613.159207	2472.685962
613.507971	2515.535769
613.856682	2439.918462
614.205340	2550.823846
614.553945	2480.247692
614.902496	2495.371154
615.250994	2502.932885
615.599439	2470.165385
615.947830	2475.206538
616.296169	2465.124231
616.644454	2518.056346
616.992686	2475.206538
617.340864	2500.412308
617.688990	2528.138654
618.037063	2507.974038
618.385082	2482.768269
618.733048	2492.850577
619.080961	2429.836154
619.428821	2578.550192
619.776628	2523.097500
620.124382	2550.823846
620.472083	2475.206538
620.819731	2525.618077
621.167326	2442.439038
621.514868	2404.630385
621.862357	2495.371154
622.209793	2442.439038
622.557176	2482.768269
622.904506	2475.206538
623.251783	2518.056346
623.599007	2457.562500
623.946179	2480.247692
624.293297	2480.247692
624.640363	2457.562500
624.987376	2472.685962
625.334336	2598.714808
625.681243	2465.124231
626.028097	2444.959615
626.374899	2533.179808
626.721647	2520.576923
627.068343	2533.179808
627.414987	2528.138654
627.761577	2528.138654
628.108115	2555.865000
628.454600	2500.412308
628.801032	2505.453462
629.147412	2497.891731
629.493739	2538.220962
629.840014	2437.397885
630.186236	2520.576923
630.532405	2507.974038
630.878521	2533.179808
631.224585	2543.262115
631.570597	2502.932885
631.916556	2591.153077
632.262462	2518.056346
632.608316	2545.782692
632.954117	2540.741538
633.299866	2485.288846
633.645562	2460.083077
633.991206	2492.850577
634.336797	2513.015192
634.682336	2550.823846
635.027823	2492.850577
635.373257	2560.906154
635.718639	2460.083077
636.063968	2500.412308
636.409245	2414.712692
636.754470	2545.782692
637.099642	2450.000769
637.444762	2596.194231
637.789829	2500.412308
638.134845	2518.056346
638.479808	2442.439038
638.824719	2485.288846
639.169577	2492.850577
639.514383	2475.206538
639.859137	2533.179808
640.203839	2530.659231
640.548489	2528.138654
640.893086	2545.782692
641.237632	2513.015192
641.582125	2424.795000
641.926566	2470.165385
642.270955	2628.961731
642.615292	2518.056346
642.959576	2535.700385
643.303809	2518.056346
643.647990	2555.865000
643.992118	2543.262115
644.336195	2472.685962
644.680219	2507.974038
645.024192	2477.727115
645.368112	2573.509038
645.711981	2520.576923
646.055797	2540.741538
646.399562	2553.344423
646.743274	2472.685962
647.086935	2409.671538
647.430544	2460.083077
647.774101	2525.618077
648.117606	2394.548077
648.461059	2439.918462
648.804460	2555.865000
649.147810	2505.453462
649.491108	2492.850577
649.834354	2543.262115
650.177548	2485.288846
650.520690	2472.685962
650.863781	2497.891731
651.206820	2505.453462
651.549807	2409.671538
651.892742	2513.015192
652.235626	2495.371154
652.578458	2543.262115
652.921238	2578.550192
653.263967	2510.494615
653.606644	2399.589231
653.949269	2487.809423
654.291843	2485.288846
654.634365	2518.056346
654.976836	2596.194231
655.319255	2490.330000
655.661622	2533.179808
656.003938	2467.644808
656.346203	2467.644808
656.688416	2568.467885
657.030577	2434.877308
657.372687	2480.247692
657.714746	2507.974038
658.056753	2518.056346
658.398708	2492.850577
658.740612	2548.303269
659.082465	2424.795000
659.424266	2543.262115
659.766016	2447.480192
660.107715	2465.124231
660.449362	2492.850577
660.790958	2513.015192
661.132503	2424.795000
661.473996	2407.150962
661.815438	2553.344423
662.156829	2530.659231
662.498168	2545.782692
662.839456	2583.591346
663.180693	2472.685962
663.521879	2495.371154
663.863013	2460.083077
664.204097	2533.179808
664.545129	2515.535769
664.886110	2439.918462
665.227040	2447.480192
665.567918	2505.453462
665.908746	2515.535769
666.249522	2507.974038
666.590248	2475.206538
666.930922	2497.891731
667.271545	2518.056346
667.612118	2558.385577
667.952639	2457.562500
668.293109	2462.603654
668.633528	2528.138654
668.973896	2583.591346
669.314213	2477.727115
669.654480	2502.932885
669.994695	2455.041923
670.334859	2568.467885
670.674973	2525.618077
671.015035	2407.150962
671.355047	2535.700385
671.695008	2578.550192
672.034918	2457.562500
672.374777	2538.220962
672.714585	2492.850577
673.054342	2497.891731
673.394049	2482.768269
673.733705	2548.303269
674.073310	2487.809423
674.412864	2455.041923
674.752368	2477.727115
675.091820	2525.618077
675.431223	2507.974038
675.770574	2462.603654
676.109875	2507.974038
676.449125	2513.015192
676.788324	2492.850577
677.127473	2462.603654
677.466571	2480.247692
677.805619	2588.632500
678.144616	2419.753846
678.483562	2555.865000
678.822458	2495.371154
679.161303	2565.947308
679.500098	2548.303269
679.838842	2515.535769
680.177535	2513.015192
680.516179	2467.644808
680.854771	2482.768269
681.193314	2523.097500
681.531805	2427.315577
681.870247	2399.589231
682.208638	2497.891731
682.546978	2485.288846
682.885268	2485.288846
683.223508	2543.262115
683.561697	2596.194231
683.899836	2462.603654
684.237925	2477.727115
684.575963	2553.344423
684.913951	2455.041923
685.251889	2452.521346
685.589776	2535.700385
685.927614	2573.509038
686.265401	2525.618077
686.603137	2543.262115
686.940824	2455.041923
687.278460	2477.727115
687.616046	2490.330000
687.953582	2477.727115
688.291068	2520.576923
688.628504	2477.727115
688.965889	2477.727115
689.303224	2545.782692
689.640510	2523.097500
689.977745	2485.288846
690.314930	2502.932885
690.652065	2452.521346
690.989150	2568.467885
691.326185	2480.247692
691.663170	2452.521346
692.000105	2429.836154
692.336990	2560.906154
692.673825	2452.521346
693.010610	2429.836154
693.347345	2480.247692
693.684030	2460.083077
694.020665	2490.330000
694.357251	2490.330000
694.693786	2586.111923
695.030272	2495.371154
695.366707	2485.288846
695.703093	2570.988462
696.039429	2550.823846
696.375716	2427.315577
696.711952	2533.179808
697.048139	2523.097500
697.384276	2455.041923
697.720363	2490.330000
698.056400	2457.562500
698.392388	2586.111923
698.728326	2455.041923
699.064214	2518.056346
699.400053	2550.823846
699.735842	2497.891731
700.071581	2507.974038
700.407270	2477.727115
700.742910	2487.809423
701.078501	2444.959615
701.414042	2477.727115
701.749533	2518.056346
702.084974	2553.344423
702.420366	2452.521346
702.755709	2573.509038
703.091002	2462.603654
703.426246	2533.179808
703.761440	2465.124231
704.096584	2565.947308
704.431679	2495.371154
704.766725	2495.371154
705.101721	2525.618077
705.436668	2472.685962
705.771565	2447.480192
706.106413	2472.685962
706.441212	2507.974038
706.775961	2513.015192
707.110661	2545.782692
707.445311	2518.056346
707.779913	2550.823846
708.114465	2528.138654
708.448967	2475.206538
708.783421	2507.974038
709.117825	2477.727115
709.452180	2460.083077
709.786485	2513.015192
710.120742	2492.850577
710.454949	2558.385577
710.789107	2457.562500
711.123216	2540.741538
711.457275	2470.165385
711.791286	2409.671538
712.125247	2397.068654
712.459159	2477.727115
712.793023	2490.330000
713.126837	2535.700385
713.460602	2550.823846
713.794318	2432.356731
714.127985	2502.932885
714.461602	2480.247692
714.795171	2598.714808
715.128691	2424.795000
715.462162	2535.700385
715.795584	2475.206538
716.128957	2540.741538
716.462281	2518.056346
716.795556	2492.850577
717.128782	2513.015192
717.461960	2432.356731
717.795088	2480.247692
718.128167	2422.274423
718.461198	2535.700385
718.794180	2560.906154
719.127113	2611.317692
719.459997	2450.000769
719.792833	2490.330000
720.125619	2467.644808
720.458357	2545.782692
720.791046	2500.412308
721.123686	2525.618077
721.456278	2439.918462
721.788821	2467.644808
722.121315	2502.932885
722.453761	2540.741538
722.786158	2502.932885
723.118506	2465.124231
723.450805	2533.179808
723.783056	2495.371154
724.115259	2439.918462
724.447412	2535.700385
724.779518	2482.768269
725.111574	2525.618077
725.443582	2477.727115
725.775542	2460.083077
726.107453	2507.974038
726.439315	2434.877308
726.771129	2492.850577
727.102895	2548.303269
727.434612	2460.083077
727.766281	2492.850577
728.097901	2467.644808
728.429473	2465.124231
728.760996	2472.685962
729.092471	2520.576923
729.423897	2621.400000
729.755276	2467.644808
730.086606	2371.862885
730.417887	2460.083077
730.749120	2535.700385
731.080305	2450.000769
731.411442	2563.426731
731.742530	2470.165385
732.073570	2470.165385
732.404562	2472.685962
732.735506	2525.618077
733.066401	2515.535769
733.397249	2485.288846
733.728048	2455.041923
734.058798	2515.535769
734.389501	2518.056346
734.720156	2442.439038
735.050762	2437.397885
735.381320	2487.809423
735.711831	2452.521346
736.042293	2487.809423
736.372707	2550.823846
736.703073	2472.685962
737.033391	2492.850577
737.363661	2565.947308
737.693883	2497.891731
738.024056	2525.618077
738.354182	2455.041923
738.684260	2525.618077
739.014290	2472.685962
739.344272	2487.809423
739.674207	2427.315577
740.004093	2482.768269
740.333931	2513.015192
740.663722	2389.506923
740.993464	2437.397885
741.323159	2467.644808
741.652806	2515.535769
741.982405	2530.659231
742.311956	2515.535769
742.641460	2487.809423
742.970915	2497.891731
743.300323	2447.480192
743.629683	2450.000769
743.958996	2538.220962
744.288260	2472.685962
744.617477	2523.097500
744.946647	2422.274423
745.275768	2500.412308
745.604842	2507.974038
745.933869	2525.618077
746.262847	2641.564615
746.591778	2505.453462
746.920662	2505.453462
747.249498	2487.809423
747.578286	2422.274423
747.907027	2419.753846
748.235720	2482.768269
748.564365	2533.179808
748.892963	2482.768269
749.221514	2439.918462
749.550017	2505.453462
749.878473	2485.288846
750.206881	2510.494615
750.535242	2495.371154
750.863555	2480.247692
751.191821	2477.727115
751.520039	2523.097500
751.848210	2606.276538
752.176334	2543.262115
752.504411	2424.795000
752.832440	2533.179808
753.160421	2480.247692
753.488356	2568.467885
753.816243	2565.947308
754.144082	2578.550192
754.471875	2490.330000
754.799620	2520.576923
755.127318	2563.426731
755.454969	2513.015192
755.782572	2507.974038
756.110129	2545.782692
756.437638	2495.371154
756.765100	2520.576923
757.092515	2450.000769
757.419882	2507.974038
757.747203	2487.809423
758.074477	2502.932885
758.401703	2510.494615
758.728882	2470.165385
759.056014	2513.015192
759.383099	2462.603654
759.710138	2550.823846
760.037129	2429.836154
760.364073	2555.865000
760.690970	2535.700385
761.017820	2500.412308
761.344623	2570.988462
761.671379	2470.165385
761.998088	2452.521346
762.324751	2523.097500
762.651366	2545.782692
762.977935	2460.083077
763.304456	2570.988462
763.630931	2460.083077
763.957359	2520.576923
764.283740	2442.439038
764.610074	2444.959615
764.936362	2490.330000
765.262602	2475.206538
765.588796	2490.330000
765.914943	2591.153077
766.241044	2457.562500
766.567097	2515.535769
766.893104	2497.891731
767.219064	2576.029615
767.544978	2500.412308
767.870845	2472.685962
768.196665	2588.632500
768.522438	2533.179808
768.848165	2472.685962
769.173846	2505.453462
769.499479	2515.535769
769.825066	2432.356731
770.150607	2495.371154
770.476101	2444.959615
770.801548	2492.850577
771.126949	2497.891731
771.452303	2434.877308
771.777611	2543.262115
772.102872	2457.562500
772.428087	2530.659231
772.753256	2442.439038
773.078378	2497.891731
773.403453	2475.206538
773.728482	2392.027500
774.053465	2500.412308
774.378401	2505.453462
774.703291	2442.439038
775.028135	2533.179808
775.352932	2495.371154
775.677683	2505.453462
776.002388	2487.809423
776.327046	2434.877308
776.651658	2490.330000
776.976224	2507.974038
777.300743	2487.809423
777.625216	2507.974038
777.949643	2568.467885
778.274024	2444.959615
778.598359	2497.891731
778.922647	2487.809423
779.246889	2618.879423
779.571086	2402.109808
779.895236	2548.303269
780.219339	2538.220962
780.543397	2543.262115
780.867409	2518.056346
781.191374	2550.823846
781.515294	2477.727115
781.839167	2507.974038
782.162995	2434.877308
782.486776	2507.974038
782.810511	2450.000769
783.134201	2593.673654
783.457844	2608.797115
783.781441	2472.685962
784.104993	2558.385577
784.428498	2545.782692
784.751958	2450.000769
785.075372	2477.727115
785.398739	2515.535769
785.722061	2518.056346
786.045337	2487.809423
786.368568	2424.795000
786.691752	2523.097500
787.014891	2528.138654
787.337983	2497.891731
787.661030	2437.397885
787.984031	2578.550192
788.306987	2520.576923
788.629897	2442.439038
788.952760	2457.562500
789.275579	2472.685962
789.598351	2467.644808
789.921078	2490.330000
790.243759	2470.165385
790.566395	2497.891731
790.888984	2465.124231
791.211529	2442.439038
791.534027	2455.041923
791.856480	2465.124231
792.178888	2548.303269
792.501249	2437.397885
792.823566	2460.083077
793.145836	2467.644808
793.468062	2528.138654
793.790241	2502.932885
794.112375	2518.056346
794.434464	2515.535769
794.756507	2462.603654
795.078505	2507.974038
795.400457	2500.412308
795.722364	2462.603654
796.044226	2538.220962
796.366042	2465.124231
796.687812	2513.015192
797.009538	2399.589231
797.331218	2555.865000
797.652852	2497.891731
797.974442	2553.344423
798.295986	2485.288846
798.617484	2576.029615
798.938938	2538.220962
799.260346	2513.015192
799.581709	2495.371154
799.903026	2583.591346
800.224299	2477.727115
800.545526	2437.397885
800.866708	2525.618077
801.187845	2538.220962
801.508936	2404.630385
801.829983	2528.138654
802.150984	2417.233269
802.471940	2553.344423
802.792851	2518.056346
803.113717	2477.727115
803.434538	2422.274423
803.755314	2407.150962
804.076045	2540.741538
804.396731	2467.644808
804.717372	2482.768269
805.037967	2505.453462
805.358518	2477.727115
805.679024	2576.029615
805.999485	2533.179808
806.319901	2550.823846
806.640272	2477.727115
806.960598	2472.685962
807.280879	2502.932885
807.601115	2455.041923
807.921306	2510.494615
808.241453	2467.644808
808.561554	2565.947308
808.881611	2525.618077
809.201623	2497.891731
809.521590	2470.165385
809.841513	2518.056346
810.161390	2467.644808
810.481223	2578.550192
810.801011	2528.138654
811.120755	2540.741538
811.440453	2533.179808
811.760107	2472.685962
812.079716	2502.932885
812.399281	2427.315577
812.718801	2470.165385
813.038276	2500.412308
813.357707	2500.412308
813.677093	2455.041923
813.996434	2558.385577
814.315731	2545.782692
814.634983	2404.630385
814.954191	2475.206538
815.273354	2472.685962
815.592473	2558.385577
815.911547	2563.426731
816.230577	2487.809423
816.549562	2442.439038
816.868502	2414.712692
817.187399	2437.397885
817.506250	2540.741538
817.825058	2457.562500
818.143821	2500.412308
818.462539	2523.097500
818.781213	2452.521346
819.099843	2495.371154
819.418429	2553.344423
819.736970	2485.288846
820.055466	2465.124231
820.373919	2470.165385
820.692327	2462.603654
821.010691	2540.741538
821.329011	2492.850577
821.647286	2497.891731
821.965517	2465.124231
822.283704	2510.494615
822.601847	2495.371154
822.919945	2460.083077
823.237999	2523.097500
823.556010	2523.097500
823.873976	2490.330000
824.191897	2528.138654
824.509775	2586.111923
824.827609	2525.618077
825.145398	2470.165385
825.463144	2485.288846
825.780845	2553.344423
826.098502	2523.097500
826.416116	2538.220962
826.733685	2490.330000
827.051210	2588.632500
827.368692	2495.371154
827.686129	2530.659231
828.003522	2452.521346
828.320872	2465.124231
828.638177	2452.521346
828.955439	2553.344423
829.272656	2475.206538
829.589830	2525.618077
829.906960	2462.603654
830.224046	2565.947308
830.541088	2429.836154
830.858086	2538.220962
831.175041	2543.262115
831.491952	2520.576923
831.808819	2533.179808
832.125642	2500.412308
832.442421	2497.891731
832.759157	2550.823846
833.075849	2525.618077
833.392497	2495.371154
833.709101	2515.535769
834.025662	2492.850577
834.342179	2404.630385
834.658653	2548.303269
834.975083	2472.685962
835.291469	2477.727115
835.607811	2495.371154
835.924110	2487.809423
836.240366	2487.809423
836.556578	2439.918462
836.872746	2507.974038
837.188871	2467.644808
837.504952	2523.097500
837.820990	2462.603654
838.136984	2550.823846
838.452935	2477.727115
838.768842	2472.685962
839.084706	2576.029615
839.400526	2530.659231
839.716303	2495.371154
840.032037	2472.685962
840.347727	2525.618077
840.663373	2623.920577
840.978977	2560.906154
841.294537	2457.562500
841.610054	2555.865000
841.925527	2548.303269
842.240957	2455.041923
842.556344	2525.618077
842.871687	2563.426731
843.186987	2507.974038
843.502244	2513.015192
843.817458	2518.056346
844.132629	2528.138654
844.447756	2475.206538
844.762840	2482.768269
845.077881	2510.494615
845.392879	2543.262115
845.707833	2528.138654
846.022745	2513.015192
846.337613	2409.671538
846.652438	2560.906154
846.967221	2500.412308
847.281960	2422.274423
847.596656	2470.165385
847.911309	2485.288846
848.225919	2475.206538
848.540485	2490.330000
848.855009	2490.330000
849.169490	2545.782692
849.483928	2518.056346
849.798323	2543.262115
850.112675	2434.877308
850.426984	2520.576923
850.741251	2442.439038
851.055474	2497.891731
851.369654	2460.083077
851.683792	2442.439038
851.997887	2439.918462
852.311938	2520.576923
852.625947	2563.426731
852.939914	2505.453462
853.253837	2465.124231
853.567718	2520.576923
853.881555	2434.877308
854.195350	2475.206538
854.509103	2457.562500
854.822812	2553.344423
855.136479	2510.494615
855.450103	2467.644808
855.763685	2472.685962
856.077224	2578.550192
856.390720	2480.247692
856.704173	2515.535769
857.017584	2518.056346
857.330953	2409.671538
857.644278	2497.891731
857.957561	2485.288846
858.270802	2558.385577
858.584000	2528.138654
858.897155	2560.906154
859.210268	2487.809423
859.523339	2427.315577
859.836367	2543.262115
860.149352	2523.097500
860.462295	2475.206538
860.775195	2497.891731
861.088054	2548.303269
861.400869	2439.918462
861.713642	2389.506923
862.026373	2482.768269
862.339062	2477.727115
862.651708	2497.891731
862.964312	2439.918462
863.276873	2530.659231
863.589392	2581.070769
863.901869	2497.891731
864.214303	2588.632500
864.526696	2535.700385
864.839045	2424.795000
865.151353	2450.000769
865.463619	2528.138654
865.775842	2553.344423
866.088023	2487.809423
866.400162	2507.974038
866.712258	2444.959615
867.024313	2482.768269
867.336325	2545.782692
867.648296	2492.850577
867.960224	2583.591346
868.272110	2412.192115
868.583954	2490.330000
868.895755	2553.344423
869.207515	2399.589231
869.519233	2500.412308
869.830909	2444.959615
870.142542	2530.659231
870.454134	2570.988462
870.765684	2450.000769
871.077191	2470.165385
871.388657	2533.179808
871.700081	2465.124231
872.011463	2530.659231
872.322803	2444.959615
872.634101	2439.918462
872.945357	2510.494615
873.256571	2538.220962
873.567744	2520.576923
873.878874	2513.015192
874.189963	2475.206538
874.501010	2490.330000
874.812015	2467.644808
875.122979	2510.494615
875.433900	2465.124231
875.744780	2477.727115
876.055618	2505.453462
876.366415	2538.220962
876.677169	2419.753846
876.987882	2538.220962
877.298554	2497.891731
877.609183	2422.274423
877.919771	2507.974038
878.230317	2485.288846
878.540822	2472.685962
878.851285	2528.138654
879.161707	2540.741538
879.472087	2472.685962
879.782425	2477.727115
880.092722	2535.700385
880.402977	2608.797115
880.713191	2525.618077
881.023363	2565.947308
881.333494	2548.303269
881.643583	2553.344423
881.953631	2412.192115
882.263637	2361.780577
882.573602	2497.891731
882.883526	2472.685962
883.193408	2444.959615
883.503248	2591.153077
883.813048	2495.371154
884.122806	2497.891731
884.432522	2525.618077
884.742197	2487.809423
885.051831	2515.535769
885.361424	2507.974038
885.670975	2588.632500
885.980485	2472.685962
886.289954	2397.068654
886.599382	2487.809423
886.908768	2442.439038
887.218113	2533.179808
887.527417	2515.535769
887.836680	2538.220962
888.145901	2487.809423
888.455082	2490.330000
888.764221	2500.412308
889.073319	2502.932885
889.382376	2452.521346
889.691392	2538.220962
890.000366	2560.906154
890.309300	2460.083077
890.618193	2530.659231
890.927044	2455.041923
891.235855	2482.768269
891.544625	2515.535769
891.853353	2455.041923
892.162041	2414.712692
892.470687	2528.138654
892.779293	2409.671538
893.087858	2538.220962
893.396381	2477.727115
893.704864	2507.974038
894.013306	2492.850577
894.321707	2515.535769
894.630068	2593.673654
894.938387	2472.685962
895.246665	2492.850577
895.554903	2530.659231
895.863100	2422.274423
896.171256	2485.288846
896.479371	2591.153077
896.787446	2475.206538
897.095480	2465.124231
897.403473	2490.330000
897.711425	2482.768269
898.019336	2475.206538
898.327207	2412.192115
898.635038	2467.644808
898.942827	2490.330000
899.250576	2505.453462
899.558284	2533.179808
899.865952	2414.712692
900.173579	2548.303269
900.481165	2520.576923
900.788711	2533.179808
901.096216	2515.535769
901.403681	2563.426731
901.711105	2447.480192
902.018489	2520.576923
902.325832	2414.712692
902.633135	2497.891731
902.940397	2429.836154
903.247619	2487.809423
903.554800	2450.000769
903.861941	2457.562500
904.169041	2588.632500
904.476101	2460.083077
904.783121	2538.220962
905.090100	2455.041923
905.397039	2482.768269
905.703938	2462.603654
906.010796	2450.000769
906.317614	2452.521346
906.624391	2392.027500
906.931129	2545.782692
907.237826	2515.535769
907.544483	2460.083077
907.851099	2525.618077
908.157675	2485.288846
908.464211	2442.439038
908.770707	2513.015192
909.077163	2419.753846
909.383578	2457.562500
909.689954	2447.480192
909.996289	2515.535769
910.302584	2540.741538
910.608839	2470.165385
910.915054	2528.138654
911.221229	2507.974038
911.527363	2548.303269
911.833458	2455.041923
912.139513	2424.795000
912.445527	2462.603654
912.751502	2492.850577
913.057436	2457.562500
913.363331	2538.220962
913.669186	2422.274423
913.975000	2460.083077
914.280775	2465.124231
914.586510	2467.644808
914.892205	2457.562500
915.197859	2495.371154
915.503475	2439.918462
915.809050	2543.262115
916.114585	2583.591346
916.420081	2502.932885
916.725536	2553.344423
917.030952	2470.165385
917.336328	2581.070769
917.641665	2404.630385
917.946961	2500.412308
918.252218	2429.836154
918.557435	2465.124231
918.862612	2505.453462
919.167750	2442.439038
919.472848	2480.247692
919.777906	2525.618077
920.082925	2563.426731
920.387904	2477.727115
920.692843	2490.330000
920.997743	2485.288846
921.302603	2523.097500
921.607423	2500.412308
921.912204	2447.480192
922.216946	2530.659231
922.521647	2583.591346
922.826310	2591.153077
923.130932	2626.441154
923.435516	2457.562500
923.740059	2505.453462
924.044564	2475.206538
924.349028	2510.494615
924.653454	2477.727115
924.957840	2568.467885
925.262186	2487.809423
925.566493	2553.344423
925.870761	2465.124231
926.174989	2553.344423
926.479178	2477.727115
926.783328	2548.303269
927.087438	2550.823846
927.391509	2392.027500
927.695541	2480.247692
927.999533	2462.603654
928.303486	2538.220962
928.607400	2424.795000
928.911275	2525.618077
929.215110	2424.795000
929.518906	2560.906154
929.822663	2492.850577
930.126381	2513.015192
930.430060	2543.262115
930.733699	2487.809423
931.037299	2520.576923
931.340861	2475.206538
931.644383	2414.712692
931.947866	2530.659231
932.251309	2472.685962
932.554714	2505.453462
932.858080	2513.015192
933.161407	2422.274423
933.464694	2444.959615
933.767943	2475.206538
934.071153	2472.685962
934.374323	2540.741538
934.677455	2444.959615
934.980548	2533.179808
935.283602	2492.850577
935.586617	2490.330000
935.889593	2444.959615
936.192530	2543.262115
936.495428	2439.918462
936.798287	2570.988462
937.101108	2495.371154
937.403890	2533.179808
937.706632	2414.712692
938.009336	2439.918462
938.312002	2475.206538
938.614628	2457.562500
938.917216	2480.247692
939.219765	2397.068654
939.522275	2404.630385
939.824747	2487.809423
940.127179	2518.056346
940.429573	2500.412308
940.731929	2467.644808
941.034246	2573.509038
941.336524	2457.562500
941.638763	2507.974038
941.940964	2515.535769
942.243126	2513.015192
942.545250	2470.165385
942.847335	2528.138654
943.149381	2447.480192
943.451389	2482.768269
943.753359	2419.753846
944.055290	2424.795000
944.357182	2502.932885
944.659036	2543.262115
944.960851	2500.412308
945.262628	2515.535769
945.564367	2497.891731
945.866067	2485.288846
946.167729	2455.041923
946.469352	2550.823846
946.770937	2467.644808
947.072484	2462.603654
947.373992	2437.397885
947.675462	2472.685962
947.976893	2500.412308
948.278286	2467.644808
948.579641	2409.671538
948.880958	2553.344423
949.182236	2470.165385
949.483476	2545.782692
949.784678	2583.591346
950.085841	2455.041923
950.386967	2530.659231
950.688054	2505.453462
950.989103	2497.891731
951.290114	2485.288846
951.591087	2523.097500
951.892021	2450.000769
952.192917	2502.932885
952.493776	2502.932885
952.794596	2507.974038
953.095378	2530.659231
953.396122	2626.441154
953.696828	2490.330000
953.997496	2540.741538
954.298126	2543.262115
954.598718	2455.041923
954.899272	2457.562500
955.199788	2424.795000
955.500266	2545.782692
955.800706	2450.000769
956.101108	2553.344423
956.401472	2477.727115
956.701798	2492.850577
957.002087	2513.015192
957.302337	2510.494615
957.602550	2455.041923
957.902724	2502.932885
958.202861	2550.823846
958.502960	2439.918462
958.803022	2470.165385
959.103045	2477.727115
959.403031	2510.494615
959.702979	2555.865000
960.002889	2510.494615
960.302762	2550.823846
960.602596	2427.315577
960.902393	2530.659231
961.202153	2523.097500
961.501875	2460.083077
961.801559	2490.330000
962.101205	2467.644808
962.400814	2480.247692
962.700385	2450.000769
962.999918	2525.618077
963.299414	2535.700385
963.598873	2528.138654
963.898293	2470.165385
964.197677	2490.330000
964.497022	2528.138654
964.796331	2477.727115
965.095601	2422.274423
965.394835	2394.548077
965.694030	2419.753846
965.993189	2538.220962
966.292309	2422.274423
966.591393	2510.494615
966.890439	2467.644808
967.189447	2545.782692
967.488419	2518.056346
967.787353	2515.535769
968.086249	2490.330000
968.385108	2507.974038
968.683930	2472.685962
968.982714	2578.550192
969.281462	2477.727115
969.580172	2525.618077
969.878844	2482.768269
970.177480	2520.576923
970.476078	2482.768269
970.774639	2482.768269
971.073162	2548.303269
971.371649	2429.836154
971.670098	2515.535769
971.968510	2394.548077
972.266885	2460.083077
972.565223	2442.439038
972.863524	2560.906154
973.161788	2437.397885
973.460014	2427.315577
973.758204	2429.836154
974.056356	2581.070769
974.354471	2455.041923
974.652550	2513.015192
974.950591	2518.056346
975.248595	2490.330000
975.546563	2480.247692
975.844493	2497.891731
976.142386	2550.823846
976.440243	2513.015192
976.738062	2470.165385
977.035845	2581.070769
977.333590	2588.632500
977.631299	2560.906154
977.928971	2465.124231
978.226606	2480.247692
978.524204	2505.453462
978.821765	2447.480192
979.119290	2409.671538
979.416777	2402.109808
979.714228	2490.330000
980.011642	2472.685962
980.309020	2518.056346
980.606360	2540.741538
980.903664	2495.371154
981.200931	2535.700385
981.498162	2460.083077
981.795356	2523.097500
982.092513	2525.618077
982.389633	2497.891731
982.686717	2457.562500
982.983764	2475.206538
983.280775	2540.741538
983.577749	2477.727115
983.874686	2533.179808
984.171587	2457.562500
984.468451	2482.768269
984.765279	2500.412308
985.062070	2492.850577
985.358824	2485.288846
985.655543	2467.644808
985.952224	2460.083077
986.248869	2409.671538
986.545478	2565.947308
986.842050	2412.192115
987.138586	2497.891731
987.435086	2470.165385
987.731549	2586.111923
988.027975	2588.632500
988.324366	2540.741538
988.620719	2467.644808
988.917037	2530.659231
989.213318	2502.932885
989.509563	2487.809423
989.805772	2379.424615
990.101944	2507.974038
990.398080	2490.330000
990.694180	2480.247692
990.990244	2513.015192
991.286271	2485.288846
991.582262	2492.850577
991.878217	2480.247692
992.174136	2540.741538
992.470019	2475.206538
992.765865	2543.262115
993.061676	2596.194231
993.357450	2485.288846
993.653188	2500.412308
993.948890	2502.932885
994.244556	2429.836154
994.540186	2427.315577
994.835780	2528.138654
995.131337	2465.124231
995.426859	2470.165385
995.722345	2505.453462
996.017795	2518.056346
996.313208	2528.138654
996.608586	2513.015192
996.903928	2439.918462
997.199234	2487.809423
997.494504	2492.850577
997.789738	2462.603654
998.084936	2525.618077
998.380099	2414.712692
998.675225	2523.097500
998.970316	2500.412308
999.265371	2545.782692
999.560390	2583.591346
999.855373	2528.138654
1000.150320	2505.453462
1000.445232	2470.165385
1000.740108	2492.850577
1001.034948	2470.165385
1001.329752	2502.932885
1001.624521	2513.015192
1001.919254	2450.000769
1002.213951	2465.124231
1002.508613	2515.535769
1002.803239	2550.823846
1003.097829	2500.412308
1003.392384	2500.412308
1003.686903	2477.727115
1003.981386	2528.138654
1004.275834	2424.795000
1004.570246	2515.535769
1004.864623	2439.918462
1005.158964	2457.562500
1005.453270	2442.439038
1005.747540	2477.727115
1006.041775	2407.150962
1006.335974	2450.000769
1006.630138	2558.385577
1006.924266	2505.453462
1007.218359	2513.015192
1007.512416	2523.097500
1007.806438	2555.865000
1008.100425	2528.138654
1008.394376	2477.727115
1008.688292	2460.083077
1008.982172	2500.412308
1009.276017	2467.644808
1009.569827	2513.015192
1009.863602	2442.439038
1010.157341	2500.412308
1010.451045	2460.083077
1010.744714	2492.850577
1011.038347	2465.124231
1011.331945	2480.247692
1011.625508	2434.877308
1011.919036	2470.165385
1012.212528	2510.494615
1012.505986	2507.974038
1012.799408	2515.535769
1013.092795	2538.220962
1013.386147	2535.700385
1013.679464	2465.124231
1013.972745	2422.274423
1014.265992	2528.138654
1014.559204	2513.015192
1014.852380	2392.027500
1015.145521	2523.097500
1015.438628	2510.494615
1015.731699	2497.891731
1016.024736	2565.947308
1016.317737	2495.371154
1016.610703	2550.823846
1016.903635	2515.535769
1017.196531	2538.220962
1017.489393	2492.850577
1017.782219	2457.562500
1018.075011	2500.412308
1018.367768	2432.356731
1018.660490	2487.809423
1018.953177	2487.809423
1019.245829	2487.809423
