Dividing Wavelength (nm)	Counts (n)	Blue Motor Position (mm): 31.200000	Red Motor Position (mm): 0.000000	
326.493990	2054.623073
326.888308	2054.623073
327.282561	2054.623073
327.676750	2029.051820
328.070874	2030.549043
328.464933	2037.513397
328.858929	2046.675694
329.252859	2058.484597
329.646726	2067.699826
330.040528	2087.675398
330.434265	2103.605444
330.827938	2126.550256
331.221547	2146.399799
331.615091	2163.023004
332.008571	2185.481345
332.401986	2207.796012
332.795338	2226.259238
333.188625	2245.990314
333.581847	2265.882707
333.975006	2283.493978
334.368100	2299.587862
334.761129	2318.086376
335.154095	2333.716473
335.546996	2387.185472
335.939833	2489.422592
336.332606	2498.252173
336.725315	2514.207425
337.117960	2524.493900
337.510540	2531.052441
337.903056	2539.665252
338.295508	2548.419216
338.687896	2553.722510
339.080220	2559.421534
339.472480	2562.917574
339.864676	2567.681465
340.256807	2569.791187
340.648875	2570.297823
341.040879	2573.287228
341.432818	2576.720253
341.824694	2575.994327
342.216506	2574.121539
342.608253	2576.460634
342.999937	2571.774882
343.391557	2571.913513
343.783113	2571.061558
344.174605	2568.651887
344.566033	2567.315981
344.957397	2566.015363
345.348697	2566.602658
345.739934	2562.509241
346.131106	2561.856411
346.522215	2563.225085
346.913260	2561.112841
347.304241	2558.168807
347.695159	2553.551110
348.086012	2556.167469
348.476802	2553.092365
348.867528	2550.612118
349.258191	2545.903680
349.648789	2546.619524
350.039324	2542.609286
350.429796	2545.288659
350.820203	2544.847558
351.210548	2545.553320
351.600828	2545.984338
351.991045	2542.349667
352.381198	2539.950077
352.771288	2544.106509
353.161314	2541.643905
353.551276	2541.986703
353.941175	2541.369162
354.331010	2540.618030
354.720782	2545.631458
355.110490	2547.975594
355.500135	2543.272198
355.889717	2540.340767
356.279235	2544.356046
356.668689	2544.305634
357.058080	2543.720860
357.447408	2544.330840
357.836672	2544.366128
358.225873	2545.570964
358.615010	2545.739842
359.004084	2546.317055
359.393095	2546.097764
359.782043	2546.760676
360.170927	2546.644730
360.559748	2547.030378
360.948505	2550.448280
361.337199	2550.589432
361.725830	2548.005841
362.114398	2551.141439
362.502903	2548.131870
362.891344	2554.234187
363.279722	2554.035061
363.668037	2554.143446
364.056289	2551.123795
364.444478	2554.687891
364.832603	2554.206460
365.220665	2557.483210
365.608665	2557.707542
365.996601	2555.900288
366.384474	2554.307283
366.772284	2554.332489
367.160031	2554.889537
367.547715	2556.938766
367.935336	2553.629248
368.322893	2554.476162
368.710388	2555.365926
369.097820	2558.007490
369.485189	2556.719476
369.872495	2559.134188
370.259738	2560.404559
370.646918	2558.645196
371.034035	2559.769374
371.421090	2561.090156
371.808081	2557.019424
372.195010	2561.397666
372.581875	2558.864487
372.968678	2563.716597
373.355418	2560.197872
373.742096	2563.630898
374.128710	2562.841957
374.515262	2562.463870
374.901751	2562.020249
375.288177	2564.145095
375.674540	2566.206927
376.060841	2563.638459
376.447079	2563.061247
376.833254	2564.233315
377.219367	2566.723645
377.605417	2567.104252
377.991404	2566.224571
378.377329	2566.796742
378.763191	2562.683161
379.148991	2564.031669
379.534727	2568.165415
379.920402	2568.568708
380.306013	2566.312791
380.691563	2568.387226
381.077049	2566.912689
381.462474	2566.937894
381.847835	2567.716753
382.233134	2567.729356
382.618371	2570.789336
383.003545	2568.798080
383.388657	2569.801270
383.773706	2570.864953
384.158693	2568.969479
384.543618	2572.616754
384.928480	2570.565005
385.313280	2572.125242
385.698017	2571.119532
386.082692	2571.895869
386.467305	2576.236303
386.851856	2573.360324
387.236344	2574.159347
387.620770	2571.487536
388.005133	2567.366392
388.389435	2570.678431
388.773674	2569.781105
389.157851	2574.411405
389.541965	2575.427198
389.926018	2575.217990
390.310008	2575.338977
390.693936	2574.940726
391.077802	2576.377455
391.461606	2578.114132
391.845348	2576.090109
392.229027	2575.822928
392.612645	2576.054821
392.996200	2578.698906
393.379694	2576.798391
393.763125	2578.671180
394.146494	2578.615727
394.529801	2579.356777
394.913047	2582.066397
395.296230	2584.027406
395.679351	2583.979515
396.062410	2582.547827
396.445408	2580.072621
396.828343	2583.145204
397.211217	2578.290573
397.594028	2581.274936
397.976778	2581.776531
398.359466	2583.266192
398.742092	2583.077148
399.124656	2584.511357
399.507158	2581.917683
399.889598	2584.949937
400.271977	2583.298959
400.654294	2585.315421
401.036549	2583.553537
401.418742	2586.008579
401.800874	2587.969588
402.182944	2585.718713
402.564952	2585.716192
402.946898	2586.361460
403.328783	2587.036975
403.710606	2586.815164
404.092367	2589.620566
404.474067	2588.433374
404.855705	2592.904878
405.237282	2589.456729
405.618797	2590.706935
406.000250	2592.486462
406.381642	2590.323807
406.762972	2588.980340
407.144240	2587.273909
407.525447	2590.807758
407.906593	2591.311873
408.287677	2591.316914
408.668700	2593.408993
409.049661	2597.257914
409.430560	2594.651638
409.811399	2597.109200
410.192176	2597.774632
410.572891	2595.380084
410.953545	2596.133737
411.334138	2597.192379
411.714669	2598.298912
412.095139	2599.082812
412.475547	2600.486773
412.855894	2598.800507
413.236180	2599.319746
413.616405	2601.011053
413.996568	2599.092894
414.376670	2602.833430
414.756711	2602.425097
415.136691	2603.420725
415.516609	2606.921806
415.896466	2604.048348
416.276262	2605.855602
416.655997	2604.875098
417.035670	2608.000613
417.415283	2610.695110
417.794834	2610.871550
418.174324	2608.877774
418.553753	2610.332147
418.933121	2610.211159
419.312428	2613.976901
419.691674	2613.261057
420.070859	2616.348764
420.449983	2616.222735
420.829045	2617.394803
421.208047	2621.573920
421.586988	2620.729527
421.965867	2627.308232
422.344686	2629.198665
422.723444	2633.493728
423.102141	2633.975158
423.480777	2641.330202
423.859352	2641.332722
424.237866	2653.360915
424.616319	2654.999290
424.994712	2667.713080
425.373044	2669.497649
425.751314	2683.728826
426.129524	2683.852334
426.507673	2696.971937
426.885762	2703.364120
427.263789	2722.853221
427.641756	2737.747310
428.019662	2753.221132
428.397508	2766.234871
428.775292	2781.060904
429.153016	2805.336580
429.530679	2817.911739
429.908282	2842.162209
430.285824	2857.494879
430.663305	2891.149622
431.040726	2905.146385
431.418086	2926.442740
431.795385	2959.341310
432.172624	2994.339520
432.549802	3014.708303
432.926920	3051.024775
433.303977	3071.554874
433.680974	3104.150975
434.057910	3154.895229
434.434786	3187.700538
434.811601	3216.780434
435.188355	3288.889098
435.565050	3309.661173
435.941683	3343.169723
436.318257	3421.839449
436.694770	3453.540745
437.071222	3521.795447
437.447614	3528.469935
437.823946	3564.766243
438.200218	3629.129174
438.576429	3656.190088
438.952580	3725.800861
439.328670	3773.550670
439.704700	3835.133406
440.080670	3857.410265
440.456580	3960.285091
440.832429	4007.591279
441.208218	3997.725741
441.583947	4074.739448
441.959616	4152.390861
442.335224	4212.501580
442.710773	4292.015699
443.086261	4393.531935
443.461689	4378.625243
443.837057	4474.906240
444.212365	4595.568778
444.587612	4651.760000
444.962800	4683.055483
445.337927	4786.729332
445.712995	4700.331517
446.088002	4984.483715
446.462949	5071.478907
446.837837	5144.247963
447.212664	5239.553497
447.587431	5661.707282
447.962139	6122.413291
448.336786	6508.502661
448.711374	6431.534324
449.085901	6031.362490
449.460369	6111.617660
449.834776	6162.568602
450.209124	6675.821078
450.583412	6664.332288
450.957640	6843.121850
451.331808	6734.172433
451.705917	6583.668785
452.079965	6631.221989
452.453954	6816.938097
452.827883	6888.313274
453.201752	6944.592715
453.575562	7041.085441
453.949311	7322.759912
454.323001	7465.457334
454.696632	7501.050400
455.070202	7946.388452
455.443713	8072.437463
455.817164	8260.873273
456.190556	8552.977891
456.563888	8537.748565
456.937160	8766.251466
457.310373	8535.265797
457.683526	8652.878437
458.056619	8768.819934
458.429653	8913.216224
458.802628	9130.353844
459.175542	9258.817567
459.548398	9737.432275
459.921194	10237.192103
460.293930	10557.108767
460.666607	11248.024108
461.039224	11887.738969
461.411782	12187.304495
461.784280	11985.597847
462.156719	12023.101512
462.529099	12050.895913
462.901419	11702.640403
463.273680	11503.300577
463.645882	11787.488063
464.018024	11834.300218
464.390106	12260.229827
464.762130	13339.666894
465.134094	14809.339681
465.505999	16780.027542
465.877845	18601.403988
466.249631	19477.402772
466.621358	19038.426657
466.993026	18424.643491
467.364634	17894.102377
467.736184	17358.923403
468.107674	16968.193651
468.479105	16920.070796
468.850477	16766.091272
469.221790	16467.077753
469.593043	15972.469984
469.964238	15728.760443
470.335373	15884.370779
470.706449	16732.088690
471.077467	17854.620061
471.448425	20096.829509
471.819324	21539.728728
472.190164	21098.111048
472.560945	19569.981042
472.931667	18304.810222
473.302330	18118.448847
473.672934	17730.070793
474.043479	18203.064614
474.413965	18036.890540
474.784393	17937.778934
475.154761	18575.318538
475.525070	18737.847858
475.895321	18619.030383
476.265513	19146.337596
476.635645	19730.143540
477.005719	19829.663479
477.375734	20220.698221
477.745691	20826.135757
478.115588	21498.900423
478.485427	22759.508998
478.855207	24614.378870
479.224928	26319.486144
479.594591	27469.191855
479.964194	26957.270244
480.333739	27327.603487
480.703226	27629.175393
481.072653	28162.824377
481.442022	28646.162646
481.811333	28958.661253
482.180584	28476.817686
482.549777	28298.055850
482.918912	28115.455175
483.287988	28078.682478
483.657005	27912.929340
484.025964	27588.389938
484.394864	27794.873079
484.763706	27746.828362
485.132489	27272.067616
485.501213	27354.797992
485.869879	27550.727477
486.238487	27516.447631
486.607036	27792.970043
486.975527	27528.800979
487.343959	27866.684315
487.712333	28181.481688
488.080648	28167.507609
488.448905	28604.099259
488.817104	28538.286995
489.185244	29427.082748
489.553326	30603.831728
489.921350	32525.249873
490.289315	34891.111263
490.657222	35556.997275
491.025070	35951.606195
491.392861	35543.658382
491.760593	34747.909727
492.128267	33742.381016
492.495883	32818.161076
492.863440	31998.219923
493.230939	31132.719343
493.598380	30633.566974
493.965763	30532.161644
494.333088	30096.182495
494.700354	29919.979044
495.067563	29900.371476
495.434713	29825.727111
495.801805	30114.497007
496.168839	29983.338786
496.535815	29863.124911
496.902733	30007.732930
497.269593	29834.423102
497.636395	30000.191364
498.003139	30298.564657
498.369825	30069.562682
498.736453	30470.236110
499.103023	30323.205817
499.469535	30422.748441
499.835989	30572.972305
500.202385	30428.999472
500.568723	30514.031134
500.935003	30835.172799
501.301226	30751.378739
501.667390	31447.378083
502.033497	31631.939767
502.399546	31442.987238
502.765537	31046.109799
503.131470	31519.700997
503.497345	31957.444550
503.863163	30955.734513
504.228923	31709.689483
504.594625	32107.590276
504.960269	31622.742182
505.325856	32294.705304
505.691385	31979.358446
506.056856	32286.435291
506.422270	32778.998872
506.787625	32330.706704
507.152924	32799.470998
507.518164	32990.326562
507.883347	32566.567169
508.248472	32741.880856
508.613540	33415.981428
508.978550	33656.230217
509.343503	33505.023328
509.708398	33871.096797
510.073236	34476.524251
510.438016	34597.829536
510.802738	34294.780572
511.167403	34845.319942
511.532010	35098.945434
511.896561	35569.416158
512.261053	36319.570097
512.625488	36117.825640
512.989866	36058.009829
513.354186	36108.907839
513.718449	36091.672134
514.082655	36969.992369
514.446803	36680.040323
514.810894	37292.590927
515.174927	37331.904365
515.538904	37314.124216
515.902822	37973.928075
516.266684	37677.225924
516.630488	38023.785087
516.994235	38038.467447
517.357925	38629.925863
517.721558	38897.593488
518.085133	39267.667113
518.448651	39463.342020
518.812112	39370.509172
519.175516	39518.018375
519.538863	39956.271084
519.902152	40019.426660
520.265385	40569.794631
520.628560	40594.957550
520.991678	40558.421788
521.354739	40781.379419
521.717743	41148.629998
522.080690	41069.183934
522.443580	41747.302305
522.806413	41761.609100
523.169189	41907.648806
523.531908	42135.004844
523.894569	41991.636950
524.257174	42198.951881
524.619722	42532.071327
524.982213	42677.301928
525.344647	42714.969430
525.707025	42840.698327
526.069345	43292.294971
526.431608	43199.802401
526.793815	43594.915437
527.155964	43147.308866
527.518057	43411.941717
527.880093	43267.946198
528.242072	43888.769335
528.603995	43639.138959
528.965860	43560.202051
529.327669	43790.000529
529.689421	43848.316596
530.051117	43787.111947
530.412755	44072.834465
530.774337	44157.896375
531.135862	44077.237913
531.497331	44230.935132
531.858743	44236.084671
532.220098	44646.086754
532.581396	44369.902100
532.942638	44139.211338
533.303824	44397.522582
533.664953	44462.656810
534.026025	44120.947237
534.387040	44704.085229
534.747999	44783.105316
535.108902	45093.446308
535.469748	44423.643320
535.830537	44678.314851
536.191270	44930.289364
536.551947	44658.334238
536.912567	44965.080887
537.273131	45106.820489
537.633638	44731.574641
537.994089	44931.065702
538.354483	44675.481722
538.714821	45336.147619
539.075103	45609.680627
539.435328	45475.538043
539.795497	45244.819555
540.155609	45340.394791
540.515665	45936.604495
540.875665	45245.119504
541.235609	45533.092897
541.595496	45626.946579
541.955328	46224.436735
542.315102	45663.583164
542.674821	45544.841306
543.034483	45442.064782
543.394090	45455.728829
543.753640	45425.867555
544.113134	46489.913979
544.472571	45612.269259
544.831953	46734.631752
545.191278	45999.187899
545.550548	45689.330858
545.909761	46324.637230
546.268918	46479.637587
546.628019	46884.285965
546.987064	46327.785430
547.346053	45626.651671
547.704986	46517.521858
548.063863	46178.368151
548.422684	46362.581995
548.781449	45977.548746
549.140158	46510.169335
549.498811	46265.738909
549.857408	45654.864489
550.215949	46493.125194
550.574434	46328.526480
550.932864	46253.372958
551.291237	46983.778178
551.649555	46737.406907
552.007817	46921.537572
552.366022	46575.434634
552.724173	46652.894483
553.082267	47038.623411
553.440305	47390.170795
553.798288	46648.637229
554.156215	47050.321408
554.514086	47231.417298
554.871902	46866.808285
555.229661	47045.396201
555.587365	46731.208808
555.945014	46861.661267
556.302606	46871.224336
556.660143	46980.478742
557.017625	47182.550874
557.375050	46889.826193
557.732421	47303.919173
558.089735	47353.957666
558.446994	47217.105463
558.804197	47694.439718
559.161345	47557.048111
559.518437	46914.578259
559.875474	47163.689397
560.232455	47396.898215
560.589381	47451.279662
560.946251	47243.027076
561.303065	47918.445909
561.659825	47595.260057
562.016528	47402.970284
562.373177	46984.478898
562.729770	47585.497862
563.086307	47138.029923
563.442789	47683.044189
563.799216	47511.065226
564.155587	47404.223011
564.511904	47381.961276
564.868164	47429.811908
565.224370	47746.920650
565.580520	47482.154208
565.936615	47673.594546
566.292654	47332.131991
566.648638	47693.315540
567.004567	47611.467366
567.360441	47709.270792
567.716260	47442.417313
568.072023	47817.403542
568.427732	47728.056652
568.783385	47285.050134
569.138982	47671.459618
569.494525	47815.097214
569.850013	47407.139319
570.205445	47532.074234
570.560823	47319.897110
570.916145	47182.641614
571.271412	47424.652287
571.626625	47077.359637
571.981782	47153.929723
572.336884	46749.059534
572.691931	47062.029488
573.046923	46730.170330
573.401860	46582.439317
573.756743	46594.086903
574.111570	46745.296312
574.466342	46657.429001
574.821059	46795.412943
575.175722	46298.163610
575.530330	46397.691111
575.884882	46036.013528
576.239380	45938.636080
576.593823	46023.534152
576.948211	45956.375900
577.302544	45506.420152
577.656823	45493.114026
578.011047	45772.948476
578.365216	45598.761488
578.719330	45305.792311
579.073389	45291.697245
579.427394	45332.674264
579.781344	45269.085149
580.135239	45035.881372
580.489080	45088.342140
580.842866	44579.230972
581.196597	45066.508903
581.550273	45075.963587
581.903895	45000.321073
582.257463	45454.035002
582.610975	44868.116814
582.964434	45197.717534
583.317837	44718.944030
583.671186	44676.505077
584.024481	44939.862515
584.377721	44498.751471
584.730906	44700.669847
585.084037	44814.030274
585.437113	44525.083938
585.790135	44656.920194
586.143103	44186.245303
586.496016	44367.202562
586.848874	44472.204755
587.201679	44501.350186
587.554428	43999.863763
587.907124	44281.664263
588.259765	44048.702462
588.612352	44199.906830
588.964884	43679.211091
589.317362	43964.217764
589.669786	43975.973735
590.022155	43828.610726
590.374470	44271.352583
590.726731	43856.611815
591.078937	43188.991647
591.431090	43531.797670
591.783188	43060.180083
592.135232	42842.180427
592.487222	43115.605049
592.839157	43267.144655
593.191038	42901.290476
593.542866	42703.268912
593.894639	42119.732669
594.246358	42417.506065
594.598022	42402.987542
594.949633	41978.804693
595.301190	41960.724594
595.652692	41902.932807
596.004141	42375.321689
596.355535	41304.436940
596.706876	41315.698877
597.058162	41018.457323
597.409395	41514.516944
597.760573	41742.775349
598.111698	41344.244411
598.462768	41260.571339
598.813785	41284.093363
599.164748	40891.095092
599.515657	41163.350167
599.866511	40671.504951
600.217312	41354.525844
600.568060	40301.600205
600.918753	41118.758641
601.269392	41032.330578
601.619978	40761.907963
601.970510	40965.283232
602.320988	41113.478032
602.671412	41352.577438
603.021783	41231.771227
603.372100	40810.829840
603.722363	40916.459657
604.072572	40940.395056
604.422728	40935.167379
604.772830	40715.441127
605.122878	40874.189582
605.472872	40748.170818
605.822813	40996.228355
606.172701	40740.641855
606.522534	41064.137739
606.872314	41283.455657
607.222041	41112.547939
607.571714	41440.187651
607.921333	40940.947062
608.270899	41152.128558
608.620411	41537.502085
608.969870	41280.441047
609.319276	41296.124077
609.668627	41322.955618
610.017926	41731.815880
610.367171	41858.376568
610.716362	41896.013823
611.065500	41795.563791
611.414585	42009.893488
611.763616	42184.791280
612.112594	42091.464399
612.461518	42207.562172
612.810389	42598.430556
613.159207	42398.422777
613.507971	42382.598595
613.856682	42870.121022
614.205340	42695.626523
614.553945	43380.583219
614.902496	42710.389542
615.250994	43139.946261
615.599439	43190.199003
615.947830	43311.746263
616.296169	43307.115963
616.644454	43340.984956
616.992686	43513.868806
617.340864	43960.141992
617.688990	43498.422711
618.037063	44156.124409
618.385082	43985.075538
618.733048	44342.964694
619.080961	44206.447727
619.428821	44220.936003
619.776628	44228.165018
620.124382	44046.839755
620.472083	44150.064942
620.819731	44247.666722
621.167326	43803.047035
621.514868	43800.995285
621.862357	43272.596662
622.209793	43338.227444
622.557176	42911.287084
622.904506	42672.270857
623.251783	42297.251860
623.599007	41984.284427
623.946179	41898.970460
624.293297	41646.106183
624.640363	41112.961314
624.987376	40957.746707
625.334336	40751.722311
625.681243	40342.879693
626.028097	40265.172827
626.374899	40089.748235
626.721647	40047.624354
627.068343	39839.865801
627.414987	39556.318541
627.761577	39296.938573
628.108115	39614.090164
628.454600	38874.905776
628.801032	39114.552147
629.147412	38998.401442
629.493739	38910.881970
629.840014	38470.537182
630.186236	38914.274667
630.532405	38348.879016
630.878521	38583.446425
631.224585	38373.227789
631.570597	38027.568472
631.916556	38203.235040
632.262462	38085.705579
632.608316	38020.291567
632.954117	37883.819971
633.299866	37846.744805
633.645562	37749.838704
633.991206	37218.768270
634.336797	36819.040058
634.682336	36706.950002
635.027823	36467.212890
635.373257	36342.436771
635.718639	36022.540271
636.063968	35912.872490
636.409245	35252.055358
636.754470	35217.866253
637.099642	34988.937374
637.444762	34432.998928
637.789829	34570.413220
638.134845	34188.424829
638.479808	34123.784634
638.824719	34061.811209
639.169577	33550.993610
639.514383	33641.673886
639.859137	33262.954682
640.203839	33426.371246
640.548489	33140.290806
640.893086	33150.990655
641.237632	32871.483880
641.582125	32971.074395
641.926566	32771.295989
642.270955	32812.961125
642.615292	32741.805239
642.959576	32620.613380
643.303809	32628.719555
643.647990	32714.351115
643.992118	32682.445652
644.336195	32525.983360
644.680219	32605.409260
645.024192	32818.032526
645.368112	33335.595189
645.711981	33371.881414
646.055797	34099.957620
646.399562	33915.179167
646.743274	34786.484636
647.086935	35173.199109
647.430544	35119.289010
647.774101	35173.370508
648.117606	35445.935615
648.461059	35582.455102
648.804460	35168.866237
649.147810	34659.939072
649.491108	34308.409332
649.834354	34154.412164
650.177548	33321.787468
650.520690	32842.156968
650.863781	32835.069106
651.206820	32661.681140
651.549807	32240.167581
651.892742	31676.027178
652.235626	31582.206264
652.578458	31452.630966
652.921238	30775.339344
653.263967	31072.477554
653.606644	30775.931679
653.949269	30697.876974
654.291843	30312.236266
654.634365	30669.396975
654.976836	30206.946727
655.319255	30277.505237
655.661622	30165.614307
656.003938	30028.510045
656.346203	29846.078249
656.688416	30094.695354
657.030577	29860.594252
657.372687	29703.942917
657.714746	29851.220226
658.056753	30040.661747
658.398708	29419.707539
658.740612	29488.287396
659.082465	29703.446363
659.424266	29587.459495
659.766016	29602.585478
660.107715	29464.256216
660.449362	29566.977287
660.790958	29553.882890
661.132503	29471.482710
661.473996	29544.307218
661.815438	29615.357241
662.156829	29736.405427
662.498168	29541.138853
662.839456	29528.435146
663.180693	29656.709826
663.521879	29758.591545
663.863013	29702.261692
664.204097	29677.151705
664.545129	30087.859550
664.886110	30025.863440
665.227040	30134.936365
665.567918	30125.332967
665.908746	30214.332017
666.249522	30291.285231
666.590248	30321.065847
666.930922	30422.866908
667.271545	30418.987740
667.612118	30468.489350
667.952639	30262.989234
668.293109	30312.029579
668.633528	30170.849545
668.973896	30127.301537
669.314213	30102.037795
669.654480	29915.850339
669.994695	29903.744008
670.334859	29830.107874
670.674973	29664.473203
671.015035	29855.963952
671.355047	29798.520004
671.695008	29723.706760
672.034918	29621.693971
672.374777	29734.641023
672.714585	29595.724467
673.054342	29737.053215
673.394049	29593.332440
673.733705	29806.419492
674.073310	29533.771207
674.412864	29565.679190
674.752368	29268.198181
675.091820	29502.813481
675.431223	29100.053015
675.770574	28898.540452
676.109875	28728.411592
676.449125	28532.144349
676.788324	28430.648278
677.127473	27951.148848
677.466571	27858.371453
677.805619	27565.598881
678.144616	27513.463268
678.483562	27455.001007
678.822458	27144.234037
679.161303	27096.277540
679.500098	27024.826746
679.838842	26948.493595
680.177535	27029.459567
680.516179	27283.740408
680.854771	27411.757989
681.193314	28186.870681
681.531805	29210.509737
681.870247	29978.000204
682.208638	30707.752594
682.546978	30947.472062
682.885268	31083.668916
683.223508	30626.491715
683.561697	30342.160555
683.899836	30200.410871
684.237925	29783.799835
684.575963	29649.770678
684.913951	29276.780746
685.251889	29468.218563
685.589776	29485.066099
685.927614	29504.111578
686.265401	29692.486895
686.603137	29793.940116
686.940824	30299.151951
687.278460	30660.401036
687.616046	30823.915902
687.953582	31489.925422
688.291068	31384.456922
688.628504	31727.391494
688.965889	31716.253065
689.303224	31443.534204
689.640510	31139.038429
689.977745	30505.682983
690.314930	29753.189949
690.652065	29321.621809
690.989150	28646.482760
691.326185	27797.398697
691.663170	27151.173185
692.000105	26424.773163
692.336990	25824.792676
692.673825	25406.659212
693.010610	24915.020683
693.347345	24419.636577
693.684030	23811.635614
694.020665	23607.262196
694.357251	22940.299898
694.693786	22943.085136
695.030272	22715.471998
695.366707	22230.129871
695.703093	21950.323147
696.039429	22017.083147
696.375716	21784.484309
696.711952	21796.462090
697.048139	21661.923777
697.384276	21504.269252
697.720363	21622.501953
698.056400	21513.381137
698.392388	21361.987726
698.728326	21359.192406
699.064214	21195.455729
699.400053	21182.507525
699.735842	20804.678086
700.071581	20606.711974
700.407270	20362.024449
700.742910	20189.654796
701.078501	19943.371745
701.414042	19738.307689
701.749533	19435.815773
702.084974	19120.486559
702.420366	19357.607312
702.755709	18938.231203
703.091002	18646.484507
703.426246	18711.253251
703.761440	18638.811871
704.096584	18408.282426
704.431679	18338.170058
704.766725	18295.509294
705.101721	18232.472185
705.436668	18349.099280
705.771565	18078.202795
706.106413	18383.490031
706.441212	18468.216704
706.775961	18583.754909
707.110661	18652.932143
707.445311	19010.188633
707.779913	18905.390607
708.114465	19202.715340
708.448967	19504.435959
708.783421	20137.967845
709.117825	20516.366935
709.452180	20737.222406
709.786485	21197.288188
710.120742	21964.108182
710.454949	22077.680337
710.789107	22581.583993
711.123216	23287.595069
711.457275	23522.101984
711.791286	24074.546911
712.125247	24221.851947
712.459159	23934.607000
712.793023	24672.127808
713.126837	23642.605726
713.460602	23888.878694
713.794318	23545.747516
714.127985	23261.345781
714.461602	22374.382488
714.795171	22347.523220
715.128691	21367.908561
715.462162	20839.157057
715.795584	20410.122097
716.128957	20154.391925
716.462281	19778.117681
716.795556	19505.643316
717.128782	19030.701088
717.461960	18427.728677
717.795088	18393.758862
718.128167	18050.763795
718.461198	17594.562057
718.794180	17475.295919
719.127113	17132.386552
719.459997	16958.870037
719.792833	16594.039212
720.125619	16635.618649
720.458357	16308.155377
720.791046	16157.795402
721.123686	16013.845254
721.456278	15799.210568
721.788821	15792.843590
722.121315	15540.548964
722.453761	15639.161495
722.786158	15523.630851
723.118506	15601.741010
723.450805	15480.425642
723.783056	15662.938097
724.115259	15561.714248
724.447412	15552.889708
724.779518	15773.780467
725.111574	15838.022411
725.443582	16103.847494
725.775542	16053.720781
726.107453	16569.214050
726.439315	16494.872154
726.771129	16913.376144
727.102895	17339.293150
727.434612	17612.170808
727.766281	17772.292977
728.097901	18073.587619
728.429473	18175.822219
728.760996	18185.120627
729.092471	18299.118760
729.423897	18188.772943
729.755276	18066.973625
730.086606	18183.699022
730.417887	18767.159647
730.749120	19332.683848
731.080305	19537.430311
731.411442	19932.117369
731.742530	20032.010353
732.073570	20202.416477
732.404562	20520.185609
732.735506	20360.867504
733.066401	20134.625560
733.397249	19640.206835
733.728048	19008.514970
734.058798	18142.853073
734.389501	17397.336995
734.720156	16888.377062
735.050762	16313.960266
735.381320	15936.569407
735.711831	15662.804506
736.042293	15306.578931
736.372707	15342.867677
736.703073	15136.860925
737.033391	15336.483056
737.363661	15335.147150
737.693883	15472.833665
738.024056	15676.957546
738.354182	15906.261990
738.684260	16262.401865
739.014290	16543.269752
739.344272	16768.695028
739.674207	17119.846682
740.004093	17293.736243
740.333931	17337.695104
740.663722	17414.257628
740.993464	17449.427238
741.323159	17290.368752
741.652806	16981.761916
741.982405	16813.079867
742.311956	16455.694827
742.641460	16346.009402
742.970915	16007.974831
743.300323	15660.266285
743.629683	15444.683862
743.958996	15130.619977
744.288260	14821.209077
744.617477	14516.776317
744.946647	14492.989633
745.275768	14173.617413
745.604842	13968.555878
745.933869	13792.760761
746.262847	13759.995781
746.591778	13689.835523
746.920662	13574.526690
747.249498	13583.106734
747.578286	13745.028595
747.907027	13918.925718
748.235720	14190.212892
748.564365	14256.690587
748.892963	14186.008569
749.221514	14281.339309
749.550017	14148.341068
749.878473	14125.597902
750.206881	13898.861926
750.535242	13819.022652
750.863555	13749.996652
751.191821	13647.620900
751.520039	13661.191686
751.848210	13592.929422
752.176334	13642.073110
752.504411	13562.609402
752.832440	13384.853277
753.160421	13508.414478
753.488356	13398.464392
753.816243	13300.550061
754.144082	13138.902942
754.471875	13083.074684
754.799620	13056.359089
755.127318	13034.702292
755.454969	13019.823327
755.782572	12986.879386
756.110129	12998.753824
756.437638	12906.793096
756.765100	12914.947162
757.092515	12944.949589
757.419882	12978.848828
757.747203	12995.590500
758.074477	13087.616763
758.401703	13070.189495
758.728882	13278.396710
759.056014	13317.881548
759.383099	13489.318587
759.710138	13608.093213
760.037129	13733.315474
760.364073	13784.029482
760.690970	13819.113392
761.017820	13845.513915
761.344623	14061.456781
761.671379	14448.950113
761.998088	15148.261495
762.324751	16923.113132
762.651366	20356.098572
762.977935	24833.059083
763.304456	27794.069015
763.630931	28792.174626
763.957359	27562.065032
764.283740	25284.713700
764.610074	23026.612014
764.936362	20389.350023
765.262602	18512.561214
765.588796	16601.663957
765.914943	15321.697352
766.241044	14226.917533
766.567097	13438.599538
766.893104	12731.751631
767.219064	12265.729726
767.544978	11790.779937
767.870845	11413.537791
768.196665	11191.419512
768.522438	10964.930552
768.848165	10754.873233
769.173846	10561.527339
769.499479	10428.710579
769.825066	10256.172047
770.150607	10025.488847
770.476101	9953.400347
770.801548	9822.095934
771.126949	9663.370164
771.452303	9556.777486
771.777611	9356.547897
772.102872	9342.795629
772.428087	9209.424342
772.753256	9050.965753
773.078378	8959.993091
773.403453	8782.060525
773.728482	8667.298657
774.053465	8595.164787
774.378401	8492.753747
774.703291	8372.431487
775.028135	8249.079493
775.352932	8220.685194
775.677683	8113.326261
776.002388	8000.656473
776.327046	8015.555603
776.651658	7921.681757
776.976224	7818.401117
777.300743	7815.474728
777.625216	7731.794094
777.949643	7690.887651
778.274024	7704.962553
778.598359	7619.104141
778.922647	7639.432594
779.246889	7587.453257
779.571086	7601.996986
779.895236	7605.172913
780.219339	7609.881350
780.543397	7614.914942
780.867409	7699.394598
781.191374	7710.404478
781.515294	7671.330495
781.839167	7772.022502
782.162995	7740.590908
782.486776	7682.907505
782.810511	7632.145606
783.134201	7543.809467
783.457844	7541.969446
783.781441	7487.504820
784.104993	7419.108965
784.428498	7402.069865
784.751958	7385.383646
785.075372	7352.197730
785.398739	7302.197046
785.722061	7348.449632
786.045337	7349.029365
786.368568	7508.768407
786.691752	7535.141203
787.014891	7876.969243
787.337983	8237.376455
787.661030	8841.415070
787.984031	9463.906829
788.306987	9868.343479
788.629897	10071.943080
788.952760	10013.208597
789.275579	9788.579822
789.598351	9386.585612
789.921078	9030.052527
790.243759	8615.997355
790.566395	8325.931884
790.888984	8078.998524
791.211529	7870.992955
791.534027	7647.816033
791.856480	7450.459901
792.178888	7373.242027
792.501249	7276.025896
792.823566	7121.368337
793.145836	7126.616178
793.468062	7099.371262
793.790241	7050.671195
794.112375	7123.513348
794.434464	7273.190247
794.756507	7318.404355
795.078505	7479.849828
795.400457	7791.262066
795.722364	8152.400245
796.044226	8434.699819
796.366042	8705.898772
796.687812	8656.001432
797.009538	8733.788956
797.331218	8622.167728
797.652852	8534.880149
797.974442	8376.890387
798.295986	8289.005432
798.617484	8099.974765
798.938938	7956.954710
799.260346	7858.052313
799.581709	7658.697363
799.903026	7583.080056
800.224299	7470.458158
800.545526	7297.818804
800.866708	7208.391255
801.187845	7137.157231
801.508936	7036.104781
801.829983	6995.712536
802.150984	6847.553024
802.471940	6797.035622
802.792851	6785.093128
803.113717	6755.236895
803.434538	6717.826492
803.755314	6663.044273
804.076045	6669.877557
804.396731	6617.883096
804.717372	6648.150184
805.037967	6653.672768
805.358518	6693.782709
805.679024	6777.775893
805.999485	6788.591689
806.319901	6832.820252
806.640272	6854.255238
806.960598	6942.165400
807.280879	6938.770183
807.601115	7013.301122
807.921306	6960.724408
808.241453	6977.062787
808.561554	6993.912844
808.881611	6956.421783
809.201623	6964.031405
809.521590	6906.504278
809.841513	6888.681278
810.161390	6927.687206
810.481223	6795.281300
810.801011	6776.180368
811.120755	6751.307315
811.440453	6677.766963
811.760107	6644.202961
812.079716	6611.435461
812.399281	6547.198558
812.718801	6531.276073
813.038276	6491.587069
813.357707	6427.463592
813.677093	6469.842052
813.996434	6374.196240
814.315731	6421.139465
814.634983	6412.803917
814.954191	6421.746924
815.273354	6529.146186
815.592473	6595.432318
815.911547	6720.556277
816.230577	6802.240613
816.549562	6947.471214
816.868502	7049.597429
817.187399	7149.422358
817.506250	7298.673279
817.825058	7329.300809
818.143821	7597.578414
818.462539	7871.055969
818.781213	8241.696723
819.099843	8795.598543
819.418429	9799.088107
819.736970	10773.757395
820.055466	11961.866616
820.373919	13488.133916
820.692327	15826.805844
821.010691	19989.336986
821.329011	29016.132927
821.647286	42075.715834
821.965517	55540.370576
822.283704	60899.291034
822.601847	62843.969063
822.919945	60103.862492
823.237999	55850.882968
823.556010	49616.583788
823.873976	42886.603074
824.191897	36366.346963
824.509775	31525.944466
824.827609	27003.278334
825.145398	24428.773668
825.463144	23073.920722
825.780845	23402.515733
826.098502	25197.335380
826.416116	29016.077474
826.733685	32700.130020
827.051210	33867.479769
827.368692	32063.114697
827.686129	28085.873684
828.003522	23932.613224
828.320872	20215.006758
828.638177	17354.615737
828.955439	15212.437904
829.272656	13409.224735
829.589830	11927.032243
829.906960	10657.702472
830.224046	9716.244306
830.541088	8970.650090
830.858086	8513.979525
831.175041	8142.222155
831.491952	8021.383177
831.808819	8077.052639
832.125642	8468.170560
832.442421	9371.943580
832.759157	11177.319404
833.075849	14119.271254
833.392497	17358.000872
833.709101	19543.371311
834.025662	19364.155771
834.342179	17649.641704
834.658653	15448.673935
834.975083	13510.098223
835.291469	11886.622353
835.607811	10562.535569
835.924110	9658.933948
836.240366	8795.636352
836.556578	7989.805389
836.872746	7347.640527
837.188871	6842.658064
837.504952	6429.636329
837.820990	6117.276355
838.136984	5898.505401
838.452935	5806.509385
838.768842	5839.652451
839.084706	6263.616010
839.400526	7482.514078
839.716303	9072.370493
840.032037	10170.636269
840.347727	10082.375748
840.663373	9102.897200
840.978977	8063.655772
841.294537	7242.655978
841.610054	6646.897457
841.925527	6211.671961
842.240957	5857.440162
842.556344	5518.924161
842.871687	5239.694649
843.186987	4959.434222
843.502244	4736.615222
843.817458	4569.816044
844.132629	4434.259417
844.447756	4344.327753
844.762840	4264.851442
845.077881	4190.176830
845.392879	4129.148622
845.707833	4081.164399
846.022745	4037.989437
846.337613	4007.422400
846.652438	3966.231132
846.967221	3950.495170
847.281960	3915.179367
847.596656	3897.046337
847.911309	3877.655538
848.225919	3853.289121
848.540485	3837.144826
848.855009	3826.240810
849.169490	3802.388591
849.483928	3792.071870
849.798323	3783.101136
850.112675	3766.820730
850.426984	3769.142181
850.741251	3757.121550
851.055474	3754.764811
851.369654	3755.362187
851.683792	3755.967126
851.997887	3762.243362
852.311938	3760.456273
852.625947	3768.658231
852.939914	3756.698093
853.253837	3765.603291
853.567718	3767.435751
853.881555	3754.152310
854.195350	3769.225360
854.509103	3764.839557
854.822812	3763.493568
855.136479	3752.947475
855.450103	3761.020882
855.763685	3753.068462
856.077224	3751.349429
856.390720	3769.709311
856.704173	3794.872231
857.017584	3802.267603
857.330953	3818.273267
857.644278	3838.831092
857.957561	3846.044983
858.270802	3844.704036
858.584000	3848.527752
858.897155	3836.854960
859.210268	3821.418947
859.523339	3799.409269
859.836367	3799.774753
860.149352	3791.850059
860.462295	3783.146507
860.775195	3774.911782
861.088054	3771.299795
861.400869	3768.292747
861.713642	3766.256121
862.026373	3783.234727
862.339062	3783.186836
862.651708	3804.800783
862.964312	3837.835464
863.276873	3849.074717
863.589392	3910.899427
863.901869	3952.957774
864.214303	4002.013242
864.526696	4031.042727
864.839045	4080.688010
865.151353	4104.835137
865.463619	4118.589925
865.775842	4121.783496
866.088023	4141.116321
866.400162	4128.475628
866.712258	4137.075836
867.024313	4138.633552
867.336325	4138.091628
867.648296	4140.158502
867.960224	4140.771002
868.272110	4153.751973
868.583954	4154.545955
868.895755	4169.248480
869.207515	4164.227491
869.519233	4208.889593
869.830909	4220.665728
870.142542	4245.281683
870.454134	4262.484620
870.765684	4289.716933
871.077191	4328.057429
871.388657	4347.286910
871.700081	4388.634454
872.011463	4432.668933
872.322803	4465.960713
872.634101	4502.027648
872.945357	4539.438051
873.256571	4597.002987
873.567744	4623.194301
873.878874	4637.798524
874.189963	4674.054502
874.501010	4687.927758
874.812015	4683.599927
875.122979	4732.819233
875.433900	4729.348398
875.744780	4739.995315
876.055618	4768.553452
876.366415	4767.101600
876.677169	4785.368221
876.987882	4829.281712
877.298554	4881.462695
877.609183	4960.891115
877.919771	5069.369184
878.230317	5216.006267
878.540822	5434.636068
878.851285	5758.497436
879.161707	6220.088167
879.472087	6978.139074
879.782425	8216.266623
880.092722	10405.962372
880.402977	13733.451586
880.713191	17514.039707
881.023363	21254.933783
881.333494	23478.846363
881.643583	24694.981879
881.953631	24687.155488
882.263637	23818.466378
882.573602	22318.539106
882.883526	20747.587018
883.193408	19064.791891
883.503248	17344.576279
883.813048	15801.131247
884.122806	14364.346948
884.432522	12895.165674
884.742197	11633.740433
885.051831	10537.874245
885.361424	9536.025576
885.670975	8719.726657
885.980485	8025.219495
886.289954	7456.020294
886.599382	6990.694067
886.908768	6607.624348
887.218113	6244.552887
887.527417	5962.913703
887.836680	5688.120407
888.145901	5472.986646
888.455082	5311.047141
888.764221	5162.607845
889.073319	5027.600704
889.382376	4957.684941
889.691392	4896.389552
890.000366	4870.150346
890.309300	4856.327502
890.618193	4863.145663
890.927044	4846.285524
891.235855	4865.396538
891.544625	4901.100510
891.853353	4961.992607
892.162041	5078.516358
892.470687	5266.080048
892.779293	5514.450137
893.087858	5889.242281
893.396381	6467.787782
893.704864	7277.906246
894.013306	8434.785519
894.321707	9620.961457
894.630068	10450.148086
894.938387	10654.602162
895.246665	10412.483105
895.554903	9801.099528
895.863100	9099.060882
896.171256	8535.442238
896.479371	8015.863113
896.787446	7524.834564
897.095480	7094.990499
897.403473	6766.975221
897.711425	6452.424865
898.019336	6191.449372
898.327207	5914.715232
898.635038	5684.074881
898.942827	5441.683602
899.250576	5241.141460
899.558284	5049.832193
899.865952	4923.611783
900.173579	4778.260194
900.481165	4668.284902
900.788711	4576.271241
901.096216	4504.918750
901.403681	4439.638328
901.711105	4414.372065
902.018489	4399.450250
902.325832	4470.394408
902.633135	4595.352009
902.940397	4940.963434
903.247619	5741.433130
903.554800	7189.940632
903.861941	9118.592832
904.169041	10644.408949
904.476101	11270.069073
904.783121	10901.434698
905.090100	10157.897274
905.397039	9313.604828
905.703938	8553.850011
906.010796	7860.167077
906.317614	7299.348794
906.624391	6775.343537
906.931129	6348.372929
907.237826	5946.043482
907.544483	5569.905350
907.851099	5196.305438
908.157675	4840.450388
908.464211	4518.076161
908.770707	4283.017240
909.077163	4084.529369
909.383578	3937.466308
909.689954	3825.451870
909.996289	3755.762959
910.302584	3690.661498
910.608839	3658.561951
910.915054	3623.868730
911.221229	3615.913790
911.527363	3623.629276
911.833458	3638.387253
912.139513	3665.168383
912.445527	3699.612067
912.751502	3778.846402
913.057436	3881.509501
913.363331	4018.270963
913.669186	4220.627920
913.975000	4477.706601
914.280775	4900.493051
914.586510	5482.075847
914.892205	6282.711901
915.197859	7327.390212
915.503475	8554.336482
915.809050	9622.085634
916.114585	10275.595613
916.420081	10534.726044
916.725536	10504.642959
917.030952	10052.927848
917.336328	9646.986414
917.641665	9226.307166
917.946961	8740.440759
918.252218	8311.015109
918.557435	7805.117677
918.862612	7370.310596
919.167750	6997.340829
919.472848	6569.805612
919.777906	6187.476943
920.082925	5828.080482
920.387904	5461.187826
920.692843	5194.324265
920.997743	4951.360814
921.302603	4717.733580
921.607423	4555.675607
921.912204	4387.679155
922.216946	4273.597844
922.521647	4151.438083
922.826310	4043.365827
923.130932	3953.839976
923.435516	3853.687373
923.740059	3785.936785
924.044564	3706.803273
924.349028	3650.823780
924.653454	3583.789037
924.957840	3513.860671
925.262186	3466.642704
925.566493	3408.213210
925.870761	3352.337061
926.174989	3315.811381
926.479178	3277.680093
926.783328	3231.979513
927.087438	3209.443034
927.391509	3172.201510
927.695541	3143.479536
927.999533	3116.718571
928.303486	3096.080087
928.607400	3083.547779
928.911275	3068.162177
929.215110	3050.157696
929.518906	3044.526728
929.822663	3043.987324
930.126381	3041.721325
930.430060	3046.991852
930.733699	3049.671225
931.037299	3057.961402
931.340861	3058.788152
931.644383	3066.289389
931.947866	3065.346693
932.251309	3059.080539
932.554714	3059.748492
932.858080	3051.239024
933.161407	3044.864485
933.464694	3037.789225
933.767943	3030.272865
934.071153	3025.909746
934.374323	3013.337109
934.677455	3009.107581
934.980548	3003.635408
935.283602	2996.035869
935.586617	2994.515961
935.889593	3003.431241
936.192530	3009.233609
936.495428	3021.130732
936.798287	3043.533620
937.101108	3079.398909
937.403890	3131.642907
937.706632	3196.789738
938.009336	3275.041049
938.312002	3346.108715
938.614628	3408.934095
938.917216	3463.731437
939.219765	3496.299812
939.522275	3529.319369
939.824747	3531.323228
940.127179	3526.251827
940.429573	3522.400386
940.731929	3516.179602
941.034246	3505.056296
941.336524	3491.339316
941.638763	3475.580669
941.940964	3463.791931
942.243126	3416.684869
942.545250	3393.883730
942.847335	3358.870396
943.149381	3321.074345
943.451389	3288.798358
943.753359	3257.802823
944.055290	3232.624780
944.357182	3205.115204
944.659036	3190.939479
944.960851	3181.497398
945.262628	3165.514420
945.564367	3168.899555
945.866067	3161.947803
946.167729	3159.525529
946.469352	3157.284736
946.770937	3153.728202
947.072484	3139.870070
947.373992	3143.608086
947.675462	3135.080974
947.976893	3116.887450
948.278286	3107.173146
948.579641	3099.545881
948.880958	3094.471959
949.182236	3096.135540
949.483476	3090.499530
949.784678	3091.840477
950.085841	3093.849377
950.386967	3104.002261
950.688054	3121.721916
950.989103	3142.685555
951.290114	3164.828823
951.591087	3191.307483
951.892021	3216.994683
952.192917	3247.959970
952.493776	3274.385699
952.794596	3281.347532
953.095378	3285.052780
953.396122	3281.032460
953.696828	3273.881583
953.997496	3259.423554
954.298126	3239.364803
954.598718	3217.445866
954.899272	3192.151877
955.199788	3161.035355
955.500266	3131.874800
955.800706	3093.506578
956.101108	3058.016855
956.401472	3024.445291
956.701798	2994.095024
957.002087	2951.366204
957.302337	2925.822678
957.602550	2895.399314
957.902724	2868.058617
958.202861	2841.388392
958.502960	2819.091369
958.803022	2801.553194
959.103045	2779.934206
959.403031	2764.515837
959.702979	2749.253744
960.002889	2734.682289
960.302762	2723.674929
960.602596	2711.414843
960.902393	2704.485777
961.202153	2696.155270
961.501875	2686.756039
961.801559	2682.040040
962.101205	2674.420336
962.400814	2667.884480
962.700385	2661.540187
962.999918	2657.275371
963.299414	2648.803712
963.598873	2646.136942
963.898293	2643.381951
964.197677	2643.752476
964.497022	2639.591004
964.796331	2638.731487
965.095601	2634.391053
965.394835	2630.678244
965.694030	2630.824437
965.993189	2630.090949
966.292309	2628.087091
966.591393	2629.155815
966.890439	2626.952831
967.189447	2624.268417
967.488419	2625.634569
967.787353	2629.032307
968.086249	2631.106742
968.385108	2631.288223
968.683930	2632.074643
968.982714	2637.393061
969.281462	2643.104688
969.580172	2649.106182
969.878844	2653.708755
970.177480	2662.402225
970.476078	2667.632422
970.774639	2675.390758
971.073162	2683.922911
971.371649	2690.219312
971.670098	2695.383974
971.968510	2700.485622
972.266885	2704.087526
972.565223	2708.793443
972.863524	2712.327292
973.161788	2713.527087
973.460014	2716.685369
973.758204	2720.325082
974.056356	2721.822305
974.354471	2724.524364
974.652550	2724.841956
974.950591	2722.966647
975.248595	2721.973540
975.546563	2721.567727
975.844493	2716.239227
976.142386	2711.356870
976.440243	2705.882177
976.738062	2700.989737
977.035845	2695.202492
977.333590	2688.593540
977.631299	2684.253106
977.928971	2675.579801
978.226606	2667.803821
978.524204	2667.947494
978.821765	2663.896927
979.119290	2666.553615
979.416777	2664.330466
979.714228	2667.216527
980.011642	2673.331446
980.309020	2677.818073
980.606360	2692.114786
980.903664	2717.040771
981.200931	2752.142325
981.498162	2799.781229
981.795356	2878.760986
982.092513	2967.452526
982.389633	3069.833320
982.686717	3168.834020
982.983764	3246.288828
983.280775	3291.878503
983.577749	3299.588948
983.874686	3282.953140
984.171587	3252.391145
984.468451	3213.284394
984.765279	3169.968279
985.062070	3121.454735
985.358824	3075.716346
985.655543	3019.499919
985.952224	2964.367340
986.248869	2902.769481
986.545478	2842.552899
986.842050	2788.637758
987.138586	2741.681931
987.435086	2702.988554
987.731549	2675.630212
988.027975	2648.453352
988.324366	2630.211937
988.620719	2617.994701
988.917037	2609.248299
989.213318	2599.284458
989.509563	2588.511512
989.805772	2587.425144
990.101944	2586.200143
990.398080	2579.195460
990.694180	2576.700089
990.990244	2578.177147
991.286271	2580.271746
991.582262	2578.063721
991.878217	2580.874164
992.174136	2588.244331
992.470019	2588.934969
992.765865	2590.225505
993.061676	2596.070722
993.357450	2607.662856
993.653188	2610.246447
993.948890	2627.555249
994.244556	2648.425626
994.540186	2671.849347
994.835780	2703.225489
995.131337	2739.942733
995.426859	2781.149124
995.722345	2829.297185
996.017795	2880.548075
996.313208	2920.290012
996.608586	2946.572067
996.903928	2959.071608
997.199234	2959.185034
997.494504	2957.440795
997.789738	2938.924637
998.084936	2915.337078
998.380099	2884.775083
998.675225	2857.237780
998.970316	2825.770897
999.265371	2789.225053
999.560390	2751.706265
999.855373	2719.899105
1000.150320	2691.766946
1000.445232	2667.130827
1000.740108	2648.148362
1001.034948	2626.995681
1001.329752	2614.360029
1001.624521	2602.213368
1001.919254	2587.566296
1002.213951	2581.688311
1002.508613	2572.710016
1002.803239	2567.817576
1003.097829	2560.792728
1003.392384	2556.079249
1003.686903	2552.636141
1003.981386	2549.987015
1004.275834	2547.237065
1004.570246	2542.500901
1004.864623	2541.943854
1005.158964	2539.819007
1005.453270	2535.191228
1005.747540	2536.179294
1006.041775	2529.877852
1006.335974	2532.214427
1006.630138	2530.107224
1006.924266	2531.491021
1007.218359	2530.523120
1007.512416	2523.084897
1007.806438	2522.502644
1008.100425	2527.175793
1008.394376	2522.444671
1008.688292	2528.244518
1008.982172	2525.333252
1009.276017	2525.862573
1009.569827	2526.112110
1009.863602	2523.243693
1010.157341	2523.407531
1010.451045	2520.639938
1010.744714	2520.400483
1011.038347	2520.675226
1011.331945	2520.075328
1011.625508	2520.957530
1011.919036	2517.728671
1012.212528	2516.672549
1012.505986	2514.250275
1012.799408	2515.634072
1013.092795	2515.538290
1013.386147	2512.974863
1013.679464	2514.373783
1013.972745	2511.759945
1014.265992	2513.121057
1014.559204	2512.092661
1014.852380	2513.710872
1015.145521	2510.731550
1015.438628	2513.607528
1015.731699	2512.435460
1016.024736	2514.673732
1016.317737	2518.613394
1016.610703	2515.964267
1016.903635	2517.670698
1017.196531	2519.321676
1017.489393	2521.832170
1017.782219	2519.407375
1018.075011	2522.217819
1018.367768	2520.408044
1018.660490	2523.394928
1018.953177	2523.394928
1019.245829	2523.394928
