Dividing Wavelength (nm)	Counts (n)	Blue Motor Position (mm): 9.700000	Red Motor Position (mm): 0.000000	
326.493990	2034.105577
326.888308	2034.105577
327.282561	2034.105577
327.676750	2104.681731
328.070874	2084.517115
328.464933	2018.982115
328.858929	2003.858654
329.252859	2044.187885
329.646726	2134.928654
330.040528	2104.681731
330.434265	2087.037692
330.827938	2190.381346
331.221547	2215.587115
331.615091	2145.010962
332.008571	2165.175577
332.401986	2177.778462
332.795338	2182.819615
333.188625	2210.545962
333.581847	2326.492500
333.975006	2286.163269
334.368100	2323.971923
334.761129	2356.739423
335.154095	2313.889615
335.546996	2336.574808
335.939833	2356.739423
336.332606	2316.410192
336.725315	2326.492500
337.117960	2381.945192
337.510540	2397.068654
337.903056	2356.739423
338.295508	2482.768269
338.687896	2487.809423
339.080220	2379.424615
339.472480	2412.192115
339.864676	2518.056346
340.256807	2460.083077
340.648875	2492.850577
341.040879	2409.671538
341.432818	2505.453462
341.824694	2492.850577
342.216506	2439.918462
342.608253	2465.124231
342.999937	2439.918462
343.391557	2507.974038
343.783113	2444.959615
344.174605	2495.371154
344.566033	2386.986346
344.957397	2535.700385
345.348697	2528.138654
345.739934	2452.521346
346.131106	2538.220962
346.522215	2437.397885
346.913260	2497.891731
347.304241	2437.397885
347.695159	2490.330000
348.086012	2457.562500
348.476802	2467.644808
348.867528	2417.233269
349.258191	2467.644808
349.648789	2450.000769
350.039324	2341.615962
350.429796	2437.397885
350.820203	2417.233269
351.210548	2497.891731
351.600828	2404.630385
351.991045	2450.000769
352.381198	2386.986346
352.771288	2392.027500
353.161314	2407.150962
353.551276	2366.821731
353.941175	2485.288846
354.331010	2381.945192
354.720782	2465.124231
355.110490	2497.891731
355.500135	2422.274423
355.889717	2477.727115
356.279235	2399.589231
356.668689	2417.233269
357.058080	2437.397885
357.447408	2419.753846
357.836672	2477.727115
358.225873	2439.918462
358.615010	2422.274423
359.004084	2437.397885
359.393095	2429.836154
359.782043	2452.521346
360.170927	2434.877308
360.559748	2429.836154
360.948505	2467.644808
361.337199	2399.589231
361.725830	2439.918462
362.114398	2356.739423
362.502903	2480.247692
362.891344	2412.192115
363.279722	2404.630385
363.668037	2495.371154
364.056289	2417.233269
364.444478	2465.124231
364.832603	2439.918462
365.220665	2472.685962
365.608665	2427.315577
365.996601	2457.562500
366.384474	2457.562500
366.772284	2409.671538
367.160031	2434.877308
367.547715	2407.150962
367.935336	2457.562500
368.322893	2477.727115
368.710388	2444.959615
369.097820	2417.233269
369.485189	2462.603654
369.872495	2472.685962
370.259738	2507.974038
370.646918	2366.821731
371.034035	2457.562500
371.421090	2414.712692
371.808081	2455.041923
372.195010	2442.439038
372.581875	2452.521346
372.968678	2528.138654
373.355418	2492.850577
373.742096	2492.850577
374.128710	2505.453462
374.515262	2480.247692
374.901751	2603.755962
375.288177	2460.083077
375.674540	2465.124231
376.060841	2467.644808
376.447079	2490.330000
376.833254	2434.877308
377.219367	2434.877308
377.605417	2497.891731
377.991404	2442.439038
378.377329	2379.424615
378.763191	2417.233269
379.148991	2502.932885
379.534727	2472.685962
379.920402	2475.206538
380.306013	2495.371154
380.691563	2472.685962
381.077049	2439.918462
381.462474	2535.700385
381.847835	2457.562500
382.233134	2477.727115
382.618371	2414.712692
383.003545	2434.877308
383.388657	2487.809423
383.773706	2442.439038
384.158693	2472.685962
384.543618	2422.274423
384.928480	2477.727115
385.313280	2467.644808
385.698017	2364.301154
386.082692	2419.753846
386.467305	2480.247692
386.851856	2452.521346
387.236344	2457.562500
387.620770	2427.315577
388.005133	2485.288846
388.389435	2495.371154
388.773674	2490.330000
389.157851	2497.891731
389.541965	2543.262115
389.926018	2497.891731
390.310008	2533.179808
390.693936	2409.671538
391.077802	2376.904038
391.461606	2505.453462
391.845348	2447.480192
392.229027	2530.659231
392.612645	2450.000769
392.996200	2502.932885
393.379694	2513.015192
393.763125	2502.932885
394.146494	2439.918462
394.529801	2480.247692
394.913047	2419.753846
395.296230	2450.000769
395.679351	2439.918462
396.062410	2540.741538
396.445408	2389.506923
396.828343	2444.959615
397.211217	2490.330000
397.594028	2455.041923
397.976778	2550.823846
398.359466	2470.165385
398.742092	2553.344423
399.124656	2495.371154
399.507158	2417.233269
399.889598	2450.000769
400.271977	2429.836154
400.654294	2470.165385
401.036549	2502.932885
401.418742	2442.439038
401.800874	2465.124231
402.182944	2525.618077
402.564952	2475.206538
402.946898	2515.535769
403.328783	2455.041923
403.710606	2477.727115
404.092367	2457.562500
404.474067	2437.397885
404.855705	2427.315577
405.237282	2502.932885
405.618797	2386.986346
406.000250	2442.439038
406.381642	2502.932885
406.762972	2507.974038
407.144240	2460.083077
407.525447	2543.262115
407.906593	2429.836154
408.287677	2444.959615
408.668700	2452.521346
409.049661	2450.000769
409.430560	2455.041923
409.811399	2495.371154
410.192176	2492.850577
410.572891	2490.330000
410.953545	2480.247692
411.334138	2467.644808
411.714669	2518.056346
412.095139	2465.124231
412.475547	2384.465769
412.855894	2475.206538
413.236180	2427.315577
413.616405	2502.932885
413.996568	2507.974038
414.376670	2462.603654
414.756711	2528.138654
415.136691	2477.727115
415.516609	2414.712692
415.896466	2477.727115
416.276262	2480.247692
416.655997	2412.192115
417.035670	2538.220962
417.415283	2507.974038
417.794834	2487.809423
418.174324	2480.247692
418.553753	2525.618077
418.933121	2422.274423
419.312428	2422.274423
419.691674	2523.097500
420.070859	2480.247692
420.449983	2422.274423
420.829045	2455.041923
421.208047	2515.535769
421.586988	2565.947308
421.965867	2439.918462
422.344686	2565.947308
422.723444	2492.850577
423.102141	2563.426731
423.480777	2507.974038
423.859352	2500.412308
424.237866	2518.056346
424.616319	2429.836154
424.994712	2389.506923
425.373044	2457.562500
425.751314	2439.918462
426.129524	2472.685962
426.507673	2500.412308
426.885762	2515.535769
427.263789	2492.850577
427.641756	2505.453462
428.019662	2450.000769
428.397508	2414.712692
428.775292	2507.974038
429.153016	2419.753846
429.530679	2402.109808
429.908282	2540.741538
430.285824	2402.109808
430.663305	2507.974038
431.040726	2399.589231
431.418086	2525.618077
431.795385	2455.041923
432.172624	2535.700385
432.549802	2623.920577
432.926920	2490.330000
433.303977	2538.220962
433.680974	2457.562500
434.057910	2518.056346
434.434786	2404.630385
434.811601	2520.576923
435.188355	2492.850577
435.565050	2518.056346
435.941683	2543.262115
436.318257	2502.932885
436.694770	2460.083077
437.071222	2465.124231
437.447614	2497.891731
437.823946	2460.083077
438.200218	2470.165385
438.576429	2525.618077
438.952580	2462.603654
439.328670	2558.385577
439.704700	2419.753846
440.080670	2495.371154
440.456580	2563.426731
440.832429	2439.918462
441.208218	2462.603654
441.583947	2465.124231
441.959616	2442.439038
442.335224	2550.823846
442.710773	2545.782692
443.086261	2520.576923
443.461689	2472.685962
443.837057	2505.453462
444.212365	2525.618077
444.587612	2568.467885
444.962800	2450.000769
445.337927	2480.247692
445.712995	2472.685962
446.088002	2487.809423
446.462949	2502.932885
446.837837	2485.288846
447.212664	2485.288846
447.587431	2530.659231
447.962139	2482.768269
448.336786	2429.836154
448.711374	2603.755962
449.085901	2507.974038
449.460369	2560.906154
449.834776	2510.494615
450.209124	2525.618077
450.583412	2545.782692
450.957640	2518.056346
451.331808	2434.877308
451.705917	2515.535769
452.079965	2467.644808
452.453954	2442.439038
452.827883	2553.344423
453.201752	2442.439038
453.575562	2543.262115
453.949311	2543.262115
454.323001	2490.330000
454.696632	2545.782692
455.070202	2480.247692
455.443713	2404.630385
455.817164	2535.700385
456.190556	2470.165385
456.563888	2523.097500
456.937160	2424.795000
457.310373	2472.685962
457.683526	2477.727115
458.056619	2495.371154
458.429653	2555.865000
458.802628	2523.097500
459.175542	2450.000769
459.548398	2477.727115
459.921194	2487.809423
460.293930	2578.550192
460.666607	2439.918462
461.039224	2480.247692
461.411782	2462.603654
461.784280	2558.385577
462.156719	2386.986346
462.529099	2465.124231
462.901419	2470.165385
463.273680	2465.124231
463.645882	2492.850577
464.018024	2558.385577
464.390106	2507.974038
464.762130	2510.494615
465.134094	2447.480192
465.505999	2505.453462
465.877845	2412.192115
466.249631	2447.480192
466.621358	2470.165385
466.993026	2412.192115
467.364634	2492.850577
467.736184	2465.124231
468.107674	2462.603654
468.479105	2450.000769
468.850477	2439.918462
469.221790	2550.823846
469.593043	2452.521346
469.964238	2500.412308
470.335373	2480.247692
470.706449	2500.412308
471.077467	2399.589231
471.448425	2505.453462
471.819324	2500.412308
472.190164	2439.918462
472.560945	2495.371154
472.931667	2444.959615
473.302330	2487.809423
473.672934	2485.288846
474.043479	2465.124231
474.413965	2487.809423
474.784393	2452.521346
475.154761	2487.809423
475.525070	2472.685962
475.895321	2543.262115
476.265513	2447.480192
476.635645	2515.535769
477.005719	2442.439038
477.375734	2485.288846
477.745691	2576.029615
478.115588	2518.056346
478.485427	2457.562500
478.855207	2495.371154
479.224928	2477.727115
479.594591	2442.439038
479.964194	2528.138654
480.333739	2497.891731
480.703226	2457.562500
481.072653	2442.439038
481.442022	2470.165385
481.811333	2507.974038
482.180584	2497.891731
482.549777	2548.303269
482.918912	2530.659231
483.287988	2576.029615
483.657005	2442.439038
484.025964	2427.315577
484.394864	2507.974038
484.763706	2450.000769
485.132489	2487.809423
485.501213	2515.535769
485.869879	2528.138654
486.238487	2533.179808
486.607036	2515.535769
486.975527	2548.303269
487.343959	2467.644808
487.712333	2502.932885
488.080648	2475.206538
488.448905	2477.727115
488.817104	2462.603654
489.185244	2502.932885
489.553326	2439.918462
489.921350	2487.809423
490.289315	2492.850577
490.657222	2550.823846
491.025070	2450.000769
491.392861	2475.206538
491.760593	2492.850577
492.128267	2510.494615
492.495883	2404.630385
492.863440	2525.618077
493.230939	2538.220962
493.598380	2475.206538
493.965763	2439.918462
494.333088	2472.685962
494.700354	2487.809423
495.067563	2528.138654
495.434713	2553.344423
495.801805	2399.589231
496.168839	2535.700385
496.535815	2417.233269
496.902733	2518.056346
497.269593	2419.753846
497.636395	2530.659231
498.003139	2553.344423
498.369825	2447.480192
498.736453	2538.220962
499.103023	2409.671538
499.469535	2540.741538
499.835989	2465.124231
500.202385	2477.727115
500.568723	2467.644808
500.935003	2500.412308
501.301226	2540.741538
501.667390	2507.974038
502.033497	2422.274423
502.399546	2462.603654
502.765537	2475.206538
503.131470	2570.988462
503.497345	2457.562500
503.863163	2470.165385
504.228923	2525.618077
504.594625	2543.262115
504.960269	2480.247692
505.325856	2533.179808
505.691385	2439.918462
506.056856	2583.591346
506.422270	2480.247692
506.787625	2490.330000
507.152924	2485.288846
507.518164	2419.753846
507.883347	2455.041923
508.248472	2581.070769
508.613540	2460.083077
508.978550	2442.439038
509.343503	2500.412308
509.708398	2477.727115
510.073236	2465.124231
510.438016	2515.535769
510.802738	2485.288846
511.167403	2505.453462
511.532010	2523.097500
511.896561	2482.768269
512.261053	2472.685962
512.625488	2553.344423
512.989866	2528.138654
513.354186	2520.576923
513.718449	2444.959615
514.082655	2545.782692
514.446803	2515.535769
514.810894	2497.891731
515.174927	2450.000769
515.538904	2538.220962
515.902822	2543.262115
516.266684	2472.685962
516.630488	2497.891731
516.994235	2419.753846
517.357925	2497.891731
517.721558	2470.165385
518.085133	2570.988462
518.448651	2412.192115
518.812112	2475.206538
519.175516	2538.220962
519.538863	2490.330000
519.902152	2450.000769
520.265385	2520.576923
520.628560	2578.550192
520.991678	2472.685962
521.354739	2495.371154
521.717743	2419.753846
522.080690	2555.865000
522.443580	2523.097500
522.806413	2545.782692
523.169189	2442.439038
523.531908	2465.124231
523.894569	2533.179808
524.257174	2535.700385
524.619722	2437.397885
524.982213	2485.288846
525.344647	2452.521346
525.707025	2409.671538
526.069345	2497.891731
526.431608	2482.768269
526.793815	2472.685962
527.155964	2439.918462
527.518057	2455.041923
527.880093	2513.015192
528.242072	2621.400000
528.603995	2429.836154
528.965860	2475.206538
529.327669	2573.509038
529.689421	2490.330000
530.051117	2480.247692
530.412755	2560.906154
530.774337	2472.685962
531.135862	2460.083077
531.497331	2480.247692
531.858743	2520.576923
532.220098	2540.741538
532.581396	2525.618077
532.942638	2439.918462
533.303824	2460.083077
533.664953	2520.576923
534.026025	2565.947308
534.387040	2528.138654
534.747999	2475.206538
535.108902	2500.412308
535.469748	2470.165385
535.830537	2497.891731
536.191270	2538.220962
536.551947	2442.439038
536.912567	2510.494615
537.273131	2535.700385
537.633638	2447.480192
537.994089	2482.768269
538.354483	2475.206538
538.714821	2505.453462
539.075103	2558.385577
539.435328	2397.068654
539.795497	2505.453462
540.155609	2467.644808
540.515665	2523.097500
540.875665	2457.562500
541.235609	2447.480192
541.595496	2482.768269
541.955328	2492.850577
542.315102	2500.412308
542.674821	2533.179808
543.034483	2533.179808
543.394090	2480.247692
543.753640	2465.124231
544.113134	2450.000769
544.472571	2505.453462
544.831953	2419.753846
545.191278	2434.877308
545.550548	2523.097500
545.909761	2444.959615
546.268918	2518.056346
546.628019	2485.288846
546.987064	2412.192115
547.346053	2485.288846
547.704986	2507.974038
548.063863	2376.904038
548.422684	2502.932885
548.781449	2505.453462
549.140158	2538.220962
549.498811	2457.562500
549.857408	2402.109808
550.215949	2429.836154
550.574434	2457.562500
550.932864	2407.150962
551.291237	2538.220962
551.649555	2460.083077
552.007817	2505.453462
552.366022	2553.344423
552.724173	2593.673654
553.082267	2513.015192
553.440305	2429.836154
553.798288	2593.673654
554.156215	2545.782692
554.514086	2500.412308
554.871902	2470.165385
555.229661	2465.124231
555.587365	2465.124231
555.945014	2492.850577
556.302606	2460.083077
556.660143	2495.371154
557.017625	2588.632500
557.375050	2422.274423
557.732421	2500.412308
558.089735	2470.165385
558.446994	2487.809423
558.804197	2533.179808
559.161345	2520.576923
559.518437	2550.823846
559.875474	2495.371154
560.232455	2502.932885
560.589381	2576.029615
560.946251	2460.083077
561.303065	2535.700385
561.659825	2427.315577
562.016528	2500.412308
562.373177	2386.986346
562.729770	2414.712692
563.086307	2548.303269
563.442789	2492.850577
563.799216	2485.288846
564.155587	2502.932885
564.511904	2507.974038
564.868164	2472.685962
565.224370	2444.959615
565.580520	2492.850577
565.936615	2500.412308
566.292654	2533.179808
566.648638	2455.041923
567.004567	2538.220962
567.360441	2419.753846
567.716260	2540.741538
568.072023	2434.877308
568.427732	2543.262115
568.783385	2462.603654
569.138982	2480.247692
569.494525	2455.041923
569.850013	2568.467885
570.205445	2535.700385
570.560823	2495.371154
570.916145	2530.659231
571.271412	2472.685962
571.626625	2528.138654
571.981782	2462.603654
572.336884	2452.521346
572.691931	2460.083077
573.046923	2470.165385
573.401860	2573.509038
573.756743	2535.700385
574.111570	2480.247692
574.466342	2470.165385
574.821059	2450.000769
575.175722	2505.453462
575.530330	2442.439038
575.884882	2525.618077
576.239380	2495.371154
576.593823	2525.618077
576.948211	2462.603654
577.302544	2450.000769
577.656823	2492.850577
578.011047	2492.850577
578.365216	2507.974038
578.719330	2460.083077
579.073389	2470.165385
579.427394	2465.124231
579.781344	2545.782692
580.135239	2507.974038
580.489080	2560.906154
580.842866	2545.782692
581.196597	2618.879423
581.550273	2462.603654
581.903895	2548.303269
582.257463	2555.865000
582.610975	2513.015192
582.964434	2563.426731
583.317837	2535.700385
583.671186	2412.192115
584.024481	2497.891731
584.377721	2439.918462
584.730906	2419.753846
585.084037	2472.685962
585.437113	2510.494615
585.790135	2578.550192
586.143103	2480.247692
586.496016	2555.865000
586.848874	2485.288846
587.201679	2455.041923
587.554428	2462.603654
587.907124	2520.576923
588.259765	2452.521346
588.612352	2497.891731
588.964884	2437.397885
589.317362	2434.877308
589.669786	2495.371154
590.022155	2555.865000
590.374470	2528.138654
590.726731	2492.850577
591.078937	2437.397885
591.431090	2417.233269
591.783188	2482.768269
592.135232	2533.179808
592.487222	2555.865000
592.839157	2513.015192
593.191038	2497.891731
593.542866	2560.906154
593.894639	2505.453462
594.246358	2392.027500
594.598022	2485.288846
594.949633	2502.932885
595.301190	2450.000769
595.652692	2442.439038
596.004141	2530.659231
596.355535	2472.685962
596.706876	2510.494615
597.058162	2530.659231
597.409395	2495.371154
597.760573	2535.700385
598.111698	2465.124231
598.462768	2510.494615
598.813785	2485.288846
599.164748	2457.562500
599.515657	2467.644808
599.866511	2513.015192
600.217312	2515.535769
600.568060	2457.562500
600.918753	2523.097500
601.269392	2523.097500
601.619978	2510.494615
601.970510	2432.356731
602.320988	2513.015192
602.671412	2439.918462
603.021783	2465.124231
603.372100	2540.741538
603.722363	2424.795000
604.072572	2465.124231
604.422728	2535.700385
604.772830	2417.233269
605.122878	2540.741538
605.472872	2452.521346
605.822813	2553.344423
606.172701	2472.685962
606.522534	2467.644808
606.872314	2465.124231
607.222041	2419.753846
607.571714	2540.741538
607.921333	2505.453462
608.270899	2487.809423
608.620411	2437.397885
608.969870	2581.070769
609.319276	2450.000769
609.668627	2507.974038
610.017926	2397.068654
610.367171	2467.644808
610.716362	2490.330000
611.065500	2495.371154
611.414585	2462.603654
611.763616	2427.315577
612.112594	2523.097500
612.461518	2434.877308
612.810389	2533.179808
613.159207	2480.247692
613.507971	2533.179808
613.856682	2646.605769
614.205340	2462.603654
614.553945	2560.906154
614.902496	2444.959615
615.250994	2419.753846
615.599439	2447.480192
615.947830	2510.494615
616.296169	2530.659231
616.644454	2442.439038
616.992686	2510.494615
617.340864	2457.562500
617.688990	2500.412308
618.037063	2581.070769
618.385082	2550.823846
618.733048	2616.358846
619.080961	2472.685962
619.428821	2480.247692
619.776628	2460.083077
620.124382	2500.412308
620.472083	2462.603654
620.819731	2434.877308
621.167326	2490.330000
621.514868	2570.988462
621.862357	2555.865000
622.209793	2455.041923
622.557176	2507.974038
622.904506	2485.288846
623.251783	2460.083077
623.599007	2492.850577
623.946179	2538.220962
624.293297	2543.262115
624.640363	2578.550192
624.987376	2480.247692
625.334336	2434.877308
625.681243	2457.562500
626.028097	2419.753846
626.374899	2553.344423
626.721647	2465.124231
627.068343	2407.150962
627.414987	2523.097500
627.761577	2606.276538
628.108115	2545.782692
628.454600	2502.932885
628.801032	2507.974038
629.147412	2495.371154
629.493739	2487.809423
629.840014	2523.097500
630.186236	2450.000769
630.532405	2487.809423
630.878521	2553.344423
631.224585	2432.356731
631.570597	2555.865000
631.916556	2414.712692
632.262462	2513.015192
632.608316	2450.000769
632.954117	2550.823846
633.299866	2548.303269
633.645562	2487.809423
633.991206	2530.659231
634.336797	2535.700385
634.682336	2510.494615
635.027823	2477.727115
635.373257	2467.644808
635.718639	2505.453462
636.063968	2538.220962
636.409245	2465.124231
636.754470	2507.974038
637.099642	2402.109808
637.444762	2462.603654
637.789829	2553.344423
638.134845	2507.974038
638.479808	2477.727115
638.824719	2505.453462
639.169577	2485.288846
639.514383	2480.247692
639.859137	2598.714808
640.203839	2573.509038
640.548489	2462.603654
640.893086	2442.439038
641.237632	2510.494615
641.582125	2477.727115
641.926566	2455.041923
642.270955	2520.576923
642.615292	2450.000769
642.959576	2424.795000
643.303809	2502.932885
643.647990	2507.974038
643.992118	2465.124231
644.336195	2414.712692
644.680219	2533.179808
645.024192	2439.918462
645.368112	2502.932885
645.711981	2492.850577
646.055797	2492.850577
646.399562	2591.153077
646.743274	2555.865000
647.086935	2530.659231
647.430544	2475.206538
647.774101	2490.330000
648.117606	2434.877308
648.461059	2543.262115
648.804460	2505.453462
649.147810	2452.521346
649.491108	2480.247692
649.834354	2437.397885
650.177548	2480.247692
650.520690	2497.891731
650.863781	2424.795000
651.206820	2399.589231
651.549807	2497.891731
651.892742	2570.988462
652.235626	2482.768269
652.578458	2472.685962
652.921238	2500.412308
653.263967	2528.138654
653.606644	2505.453462
653.949269	2505.453462
654.291843	2510.494615
654.634365	2485.288846
654.976836	2452.521346
655.319255	2513.015192
655.661622	2442.439038
656.003938	2500.412308
656.346203	2472.685962
656.688416	2560.906154
657.030577	2495.371154
657.372687	2515.535769
657.714746	2535.700385
658.056753	2439.918462
658.398708	2485.288846
658.740612	2427.315577
659.082465	2558.385577
659.424266	2492.850577
659.766016	2505.453462
660.107715	2462.603654
660.449362	2578.550192
660.790958	2482.768269
661.132503	2429.836154
661.473996	2523.097500
661.815438	2450.000769
662.156829	2497.891731
662.498168	2369.342308
662.839456	2525.618077
663.180693	2560.906154
663.521879	2535.700385
663.863013	2568.467885
664.204097	2434.877308
664.545129	2533.179808
664.886110	2490.330000
665.227040	2502.932885
665.567918	2492.850577
665.908746	2588.632500
666.249522	2444.959615
666.590248	2520.576923
666.930922	2520.576923
667.271545	2485.288846
667.612118	2563.426731
667.952639	2543.262115
668.293109	2460.083077
668.633528	2444.959615
668.973896	2502.932885
669.314213	2475.206538
669.654480	2460.083077
669.994695	2444.959615
670.334859	2543.262115
670.674973	2500.412308
671.015035	2482.768269
671.355047	2525.618077
671.695008	2563.426731
672.034918	2490.330000
672.374777	2530.659231
672.714585	2560.906154
673.054342	2457.562500
673.394049	2480.247692
673.733705	2450.000769
674.073310	2424.795000
674.412864	2490.330000
674.752368	2507.974038
675.091820	2465.124231
675.431223	2485.288846
675.770574	2553.344423
676.109875	2520.576923
676.449125	2507.974038
676.788324	2472.685962
677.127473	2472.685962
677.466571	2500.412308
677.805619	2520.576923
678.144616	2518.056346
678.483562	2530.659231
678.822458	2520.576923
679.161303	2444.959615
679.500098	2505.453462
679.838842	2472.685962
680.177535	2505.453462
680.516179	2439.918462
680.854771	2507.974038
681.193314	2487.809423
681.531805	2485.288846
681.870247	2538.220962
682.208638	2550.823846
682.546978	2487.809423
682.885268	2502.932885
683.223508	2523.097500
683.561697	2432.356731
683.899836	2555.865000
684.237925	2588.632500
684.575963	2495.371154
684.913951	2560.906154
685.251889	2475.206538
685.589776	2513.015192
685.927614	2518.056346
686.265401	2568.467885
686.603137	2465.124231
686.940824	2523.097500
687.278460	2525.618077
687.616046	2417.233269
687.953582	2462.603654
688.291068	2513.015192
688.628504	2455.041923
688.965889	2422.274423
689.303224	2477.727115
689.640510	2560.906154
689.977745	2465.124231
690.314930	2482.768269
690.652065	2434.877308
690.989150	2502.932885
691.326185	2480.247692
691.663170	2523.097500
692.000105	2439.918462
692.336990	2472.685962
692.673825	2424.795000
693.010610	2460.083077
693.347345	2510.494615
693.684030	2465.124231
694.020665	2480.247692
694.357251	2432.356731
694.693786	2475.206538
695.030272	2465.124231
695.366707	2497.891731
695.703093	2490.330000
696.039429	2495.371154
696.375716	2558.385577
696.711952	2472.685962
697.048139	2513.015192
697.384276	2550.823846
697.720363	2452.521346
698.056400	2432.356731
698.392388	2419.753846
698.728326	2515.535769
699.064214	2480.247692
699.400053	2485.288846
699.735842	2475.206538
700.071581	2550.823846
700.407270	2578.550192
700.742910	2485.288846
701.078501	2457.562500
701.414042	2477.727115
701.749533	2535.700385
702.084974	2487.809423
702.420366	2502.932885
702.755709	2523.097500
703.091002	2462.603654
703.426246	2457.562500
703.761440	2477.727115
704.096584	2535.700385
704.431679	2490.330000
704.766725	2470.165385
705.101721	2447.480192
705.436668	2568.467885
705.771565	2427.315577
706.106413	2550.823846
706.441212	2525.618077
706.775961	2543.262115
707.110661	2548.303269
707.445311	2518.056346
707.779913	2434.877308
708.114465	2447.480192
708.448967	2550.823846
708.783421	2477.727115
709.117825	2507.974038
709.452180	2467.644808
709.786485	2422.274423
710.120742	2419.753846
710.454949	2543.262115
710.789107	2523.097500
711.123216	2472.685962
711.457275	2480.247692
711.791286	2530.659231
712.125247	2641.564615
712.459159	2465.124231
712.793023	2510.494615
713.126837	2500.412308
713.460602	2460.083077
713.794318	2465.124231
714.127985	2533.179808
714.461602	2550.823846
714.795171	2586.111923
715.128691	2460.083077
715.462162	2467.644808
715.795584	2480.247692
716.128957	2475.206538
716.462281	2507.974038
716.795556	2419.753846
717.128782	2502.932885
717.461960	2480.247692
717.795088	2523.097500
718.128167	2548.303269
718.461198	2525.618077
718.794180	2495.371154
719.127113	2485.288846
719.459997	2565.947308
719.792833	2543.262115
720.125619	2457.562500
720.458357	2528.138654
720.791046	2492.850577
721.123686	2553.344423
721.456278	2555.865000
721.788821	2538.220962
722.121315	2447.480192
722.453761	2495.371154
722.786158	2470.165385
723.118506	2543.262115
723.450805	2472.685962
723.783056	2427.315577
724.115259	2558.385577
724.447412	2560.906154
724.779518	2419.753846
725.111574	2515.535769
725.443582	2583.591346
725.775542	2402.109808
726.107453	2631.482308
726.439315	2475.206538
726.771129	2558.385577
727.102895	2429.836154
727.434612	2525.618077
727.766281	2485.288846
728.097901	2487.809423
728.429473	2502.932885
728.760996	2525.618077
729.092471	2452.521346
729.423897	2472.685962
729.755276	2407.150962
730.086606	2490.330000
730.417887	2381.945192
730.749120	2500.412308
731.080305	2490.330000
731.411442	2412.192115
731.742530	2525.618077
732.073570	2470.165385
732.404562	2465.124231
732.735506	2475.206538
733.066401	2576.029615
733.397249	2533.179808
733.728048	2570.988462
734.058798	2502.932885
734.389501	2578.550192
734.720156	2457.562500
735.050762	2495.371154
735.381320	2460.083077
735.711831	2530.659231
736.042293	2447.480192
736.372707	2573.509038
736.703073	2507.974038
737.033391	2535.700385
737.363661	2485.288846
737.693883	2568.467885
738.024056	2530.659231
738.354182	2487.809423
738.684260	2437.397885
739.014290	2442.439038
739.344272	2477.727115
739.674207	2570.988462
740.004093	2507.974038
740.333931	2492.850577
740.663722	2470.165385
740.993464	2472.685962
741.323159	2470.165385
741.652806	2432.356731
741.982405	2490.330000
742.311956	2490.330000
742.641460	2500.412308
742.970915	2490.330000
743.300323	2434.877308
743.629683	2515.535769
743.958996	2480.247692
744.288260	2485.288846
744.617477	2510.494615
744.946647	2457.562500
745.275768	2523.097500
745.604842	2495.371154
745.933869	2487.809423
746.262847	2475.206538
746.591778	2507.974038
746.920662	2540.741538
747.249498	2472.685962
747.578286	2553.344423
747.907027	2507.974038
748.235720	2472.685962
748.564365	2475.206538
748.892963	2475.206538
749.221514	2565.947308
749.550017	2528.138654
749.878473	2485.288846
750.206881	2518.056346
750.535242	2472.685962
750.863555	2593.673654
751.191821	2497.891731
751.520039	2518.056346
751.848210	2452.521346
752.176334	2550.823846
752.504411	2419.753846
752.832440	2442.439038
753.160421	2427.315577
753.488356	2520.576923
753.816243	2515.535769
754.144082	2500.412308
754.471875	2500.412308
754.799620	2472.685962
755.127318	2520.576923
755.454969	2457.562500
755.782572	2520.576923
756.110129	2455.041923
756.437638	2500.412308
756.765100	2424.795000
757.092515	2528.138654
757.419882	2495.371154
757.747203	2502.932885
758.074477	2530.659231
758.401703	2507.974038
758.728882	2502.932885
759.056014	2427.315577
759.383099	2500.412308
759.710138	2429.836154
760.037129	2538.220962
760.364073	2530.659231
760.690970	2437.397885
761.017820	2550.823846
761.344623	2520.576923
761.671379	2518.056346
761.998088	2460.083077
762.324751	2518.056346
762.651366	2460.083077
762.977935	2424.795000
763.304456	2533.179808
763.630931	2480.247692
763.957359	2523.097500
764.283740	2576.029615
764.610074	2462.603654
764.936362	2550.823846
765.262602	2540.741538
765.588796	2535.700385
765.914943	2487.809423
766.241044	2520.576923
766.567097	2510.494615
766.893104	2424.795000
767.219064	2548.303269
767.544978	2447.480192
767.870845	2560.906154
768.196665	2500.412308
768.522438	2467.644808
768.848165	2457.562500
769.173846	2497.891731
769.499479	2550.823846
769.825066	2439.918462
770.150607	2482.768269
770.476101	2543.262115
770.801548	2407.150962
771.126949	2470.165385
771.452303	2520.576923
771.777611	2414.712692
772.102872	2576.029615
772.428087	2432.356731
772.753256	2409.671538
773.078378	2560.906154
773.403453	2457.562500
773.728482	2452.521346
774.053465	2535.700385
774.378401	2500.412308
774.703291	2450.000769
775.028135	2502.932885
775.352932	2470.165385
775.677683	2467.644808
776.002388	2450.000769
776.327046	2490.330000
776.651658	2500.412308
776.976224	2500.412308
777.300743	2452.521346
777.625216	2495.371154
777.949643	2470.165385
778.274024	2465.124231
778.598359	2414.712692
778.922647	2444.959615
779.246889	2492.850577
779.571086	2434.877308
779.895236	2523.097500
780.219339	2472.685962
780.543397	2513.015192
780.867409	2455.041923
781.191374	2442.439038
781.515294	2500.412308
781.839167	2515.535769
782.162995	2510.494615
782.486776	2457.562500
782.810511	2490.330000
783.134201	2535.700385
783.457844	2447.480192
783.781441	2530.659231
784.104993	2427.315577
784.428498	2555.865000
784.751958	2472.685962
785.075372	2518.056346
785.398739	2450.000769
785.722061	2507.974038
786.045337	2543.262115
786.368568	2490.330000
786.691752	2507.974038
787.014891	2470.165385
787.337983	2558.385577
787.661030	2500.412308
787.984031	2520.576923
788.306987	2568.467885
788.629897	2495.371154
788.952760	2507.974038
789.275579	2455.041923
789.598351	2520.576923
789.921078	2482.768269
790.243759	2533.179808
790.566395	2437.397885
790.888984	2427.315577
791.211529	2515.535769
791.534027	2434.877308
791.856480	2465.124231
792.178888	2407.150962
792.501249	2502.932885
792.823566	2523.097500
793.145836	2513.015192
793.468062	2467.644808
793.790241	2507.974038
794.112375	2525.618077
794.434464	2520.576923
794.756507	2520.576923
795.078505	2477.727115
795.400457	2497.891731
795.722364	2472.685962
796.044226	2560.906154
796.366042	2485.288846
796.687812	2543.262115
797.009538	2513.015192
797.331218	2530.659231
797.652852	2490.330000
797.974442	2523.097500
798.295986	2439.918462
798.617484	2475.206538
798.938938	2455.041923
799.260346	2485.288846
799.581709	2480.247692
799.903026	2470.165385
800.224299	2432.356731
800.545526	2472.685962
800.866708	2533.179808
801.187845	2510.494615
801.508936	2450.000769
801.829983	2500.412308
802.150984	2455.041923
802.471940	2480.247692
802.792851	2555.865000
803.113717	2560.906154
803.434538	2434.877308
803.755314	2487.809423
804.076045	2535.700385
804.396731	2583.591346
804.717372	2434.877308
805.037967	2467.644808
805.358518	2437.397885
805.679024	2543.262115
805.999485	2581.070769
806.319901	2513.015192
806.640272	2523.097500
806.960598	2472.685962
807.280879	2500.412308
807.601115	2455.041923
807.921306	2495.371154
808.241453	2465.124231
808.561554	2485.288846
808.881611	2475.206538
809.201623	2513.015192
809.521590	2497.891731
809.841513	2482.768269
810.161390	2492.850577
810.481223	2492.850577
810.801011	2434.877308
811.120755	2593.673654
811.440453	2409.671538
811.760107	2424.795000
812.079716	2465.124231
812.399281	2462.603654
812.718801	2500.412308
813.038276	2520.576923
813.357707	2533.179808
813.677093	2437.397885
813.996434	2545.782692
814.315731	2576.029615
814.634983	2581.070769
814.954191	2480.247692
815.273354	2523.097500
815.592473	2507.974038
815.911547	2467.644808
816.230577	2500.412308
816.549562	2535.700385
816.868502	2480.247692
817.187399	2417.233269
817.506250	2492.850577
817.825058	2480.247692
818.143821	2497.891731
818.462539	2475.206538
818.781213	2497.891731
819.099843	2450.000769
819.418429	2505.453462
819.736970	2452.521346
820.055466	2523.097500
820.373919	2558.385577
820.692327	2450.000769
821.010691	2543.262115
821.329011	2450.000769
821.647286	2399.589231
821.965517	2543.262115
822.283704	2460.083077
822.601847	2500.412308
822.919945	2510.494615
823.237999	2485.288846
823.556010	2485.288846
823.873976	2500.412308
824.191897	2530.659231
824.509775	2560.906154
824.827609	2477.727115
825.145398	2528.138654
825.463144	2450.000769
825.780845	2490.330000
826.098502	2439.918462
826.416116	2497.891731
826.733685	2563.426731
827.051210	2434.877308
827.368692	2505.453462
827.686129	2465.124231
828.003522	2497.891731
828.320872	2460.083077
828.638177	2528.138654
828.955439	2417.233269
829.272656	2528.138654
829.589830	2558.385577
829.906960	2576.029615
830.224046	2492.850577
830.541088	2492.850577
830.858086	2507.974038
831.175041	2523.097500
831.491952	2513.015192
831.808819	2500.412308
832.125642	2550.823846
832.442421	2447.480192
832.759157	2490.330000
833.075849	2429.836154
833.392497	2429.836154
833.709101	2444.959615
834.025662	2563.426731
834.342179	2404.630385
834.658653	2480.247692
834.975083	2545.782692
835.291469	2492.850577
835.607811	2535.700385
835.924110	2467.644808
836.240366	2460.083077
836.556578	2447.480192
836.872746	2515.535769
837.188871	2563.426731
837.504952	2492.850577
837.820990	2606.276538
838.136984	2528.138654
838.452935	2487.809423
838.768842	2550.823846
839.084706	2414.712692
839.400526	2412.192115
839.716303	2417.233269
840.032037	2558.385577
840.347727	2450.000769
840.663373	2513.015192
840.978977	2475.206538
841.294537	2452.521346
841.610054	2472.685962
841.925527	2480.247692
842.240957	2500.412308
842.556344	2492.850577
842.871687	2535.700385
843.186987	2576.029615
843.502244	2525.618077
843.817458	2495.371154
844.132629	2404.630385
844.447756	2442.439038
844.762840	2487.809423
845.077881	2533.179808
845.392879	2422.274423
845.707833	2553.344423
846.022745	2414.712692
846.337613	2553.344423
846.652438	2500.412308
846.967221	2485.288846
847.281960	2485.288846
847.596656	2432.356731
847.911309	2485.288846
848.225919	2525.618077
848.540485	2457.562500
848.855009	2543.262115
849.169490	2495.371154
849.483928	2548.303269
849.798323	2462.603654
850.112675	2442.439038
850.426984	2439.918462
850.741251	2497.891731
851.055474	2477.727115
851.369654	2399.589231
851.683792	2455.041923
851.997887	2510.494615
852.311938	2518.056346
852.625947	2513.015192
852.939914	2450.000769
853.253837	2467.644808
853.567718	2455.041923
853.881555	2568.467885
854.195350	2389.506923
854.509103	2414.712692
854.822812	2437.397885
855.136479	2578.550192
855.450103	2502.932885
855.763685	2490.330000
856.077224	2477.727115
856.390720	2528.138654
856.704173	2447.480192
857.017584	2480.247692
857.330953	2520.576923
857.644278	2432.356731
857.957561	2523.097500
858.270802	2518.056346
858.584000	2495.371154
858.897155	2490.330000
859.210268	2490.330000
859.523339	2470.165385
859.836367	2487.809423
860.149352	2518.056346
860.462295	2480.247692
860.775195	2460.083077
861.088054	2510.494615
861.400869	2528.138654
861.713642	2507.974038
862.026373	2480.247692
862.339062	2530.659231
862.651708	2510.494615
862.964312	2497.891731
863.276873	2472.685962
863.589392	2560.906154
863.901869	2540.741538
864.214303	2490.330000
864.526696	2482.768269
864.839045	2434.877308
865.151353	2550.823846
865.463619	2470.165385
865.775842	2596.194231
866.088023	2439.918462
866.400162	2502.932885
866.712258	2470.165385
867.024313	2500.412308
867.336325	2467.644808
867.648296	2419.753846
867.960224	2570.988462
868.272110	2460.083077
868.583954	2480.247692
868.895755	2467.644808
869.207515	2500.412308
869.519233	2429.836154
869.830909	2470.165385
870.142542	2434.877308
870.454134	2427.315577
870.765684	2530.659231
871.077191	2525.618077
871.388657	2586.111923
871.700081	2553.344423
872.011463	2457.562500
872.322803	2455.041923
872.634101	2467.644808
872.945357	2568.467885
873.256571	2525.618077
873.567744	2563.426731
873.878874	2497.891731
874.189963	2432.356731
874.501010	2528.138654
874.812015	2457.562500
875.122979	2540.741538
875.433900	2366.821731
875.744780	2540.741538
876.055618	2477.727115
876.366415	2497.891731
876.677169	2429.836154
876.987882	2472.685962
877.298554	2429.836154
877.609183	2528.138654
877.919771	2427.315577
878.230317	2495.371154
878.540822	2555.865000
878.851285	2505.453462
879.161707	2407.150962
879.472087	2452.521346
879.782425	2447.480192
880.092722	2477.727115
880.402977	2432.356731
880.713191	2477.727115
881.023363	2490.330000
881.333494	2502.932885
881.643583	2497.891731
881.953631	2505.453462
882.263637	2477.727115
882.573602	2429.836154
882.883526	2520.576923
883.193408	2518.056346
883.503248	2447.480192
883.813048	2533.179808
884.122806	2510.494615
884.432522	2460.083077
884.742197	2502.932885
885.051831	2422.274423
885.361424	2495.371154
885.670975	2475.206538
885.980485	2505.453462
886.289954	2520.576923
886.599382	2455.041923
886.908768	2518.056346
887.218113	2548.303269
887.527417	2518.056346
887.836680	2490.330000
888.145901	2447.480192
888.455082	2497.891731
888.764221	2513.015192
889.073319	2442.439038
889.382376	2530.659231
889.691392	2402.109808
890.000366	2467.644808
890.309300	2591.153077
890.618193	2485.288846
890.927044	2480.247692
891.235855	2480.247692
891.544625	2477.727115
891.853353	2515.535769
892.162041	2472.685962
892.470687	2470.165385
892.779293	2500.412308
893.087858	2482.768269
893.396381	2386.986346
893.704864	2465.124231
894.013306	2490.330000
894.321707	2505.453462
894.630068	2439.918462
894.938387	2497.891731
895.246665	2487.809423
895.554903	2444.959615
895.863100	2371.862885
896.171256	2439.918462
896.479371	2487.809423
896.787446	2462.603654
897.095480	2548.303269
897.403473	2409.671538
897.711425	2540.741538
898.019336	2437.397885
898.327207	2455.041923
898.635038	2482.768269
898.942827	2505.453462
899.250576	2460.083077
899.558284	2482.768269
899.865952	2487.809423
900.173579	2480.247692
900.481165	2492.850577
900.788711	2515.535769
901.096216	2515.535769
901.403681	2452.521346
901.711105	2550.823846
902.018489	2495.371154
902.325832	2502.932885
902.633135	2482.768269
902.940397	2439.918462
903.247619	2475.206538
903.554800	2467.644808
903.861941	2480.247692
904.169041	2520.576923
904.476101	2565.947308
904.783121	2497.891731
905.090100	2553.344423
905.397039	2444.959615
905.703938	2475.206538
906.010796	2502.932885
906.317614	2578.550192
906.624391	2475.206538
906.931129	2538.220962
907.237826	2467.644808
907.544483	2455.041923
907.851099	2543.262115
908.157675	2407.150962
908.464211	2412.192115
908.770707	2477.727115
909.077163	2507.974038
909.383578	2495.371154
909.689954	2482.768269
909.996289	2429.836154
910.302584	2502.932885
910.608839	2477.727115
910.915054	2442.439038
911.221229	2515.535769
911.527363	2480.247692
911.833458	2465.124231
912.139513	2447.480192
912.445527	2555.865000
912.751502	2477.727115
913.057436	2505.453462
913.363331	2437.397885
913.669186	2502.932885
913.975000	2447.480192
914.280775	2477.727115
914.586510	2593.673654
914.892205	2568.467885
915.197859	2581.070769
915.503475	2502.932885
915.809050	2457.562500
916.114585	2520.576923
916.420081	2442.439038
916.725536	2520.576923
917.030952	2520.576923
917.336328	2513.015192
917.641665	2495.371154
917.946961	2419.753846
918.252218	2530.659231
918.557435	2460.083077
918.862612	2565.947308
919.167750	2492.850577
919.472848	2394.548077
919.777906	2586.111923
920.082925	2434.877308
920.387904	2412.192115
920.692843	2424.795000
920.997743	2518.056346
921.302603	2507.974038
921.607423	2437.397885
921.912204	2540.741538
922.216946	2528.138654
922.521647	2497.891731
922.826310	2518.056346
923.130932	2528.138654
923.435516	2460.083077
923.740059	2417.233269
924.044564	2507.974038
924.349028	2492.850577
924.653454	2487.809423
924.957840	2565.947308
925.262186	2482.768269
925.566493	2523.097500
925.870761	2505.453462
926.174989	2502.932885
926.479178	2437.397885
926.783328	2530.659231
927.087438	2540.741538
927.391509	2487.809423
927.695541	2384.465769
927.999533	2502.932885
928.303486	2495.371154
928.607400	2581.070769
928.911275	2407.150962
929.215110	2447.480192
929.518906	2460.083077
929.822663	2457.562500
930.126381	2460.083077
930.430060	2518.056346
930.733699	2457.562500
931.037299	2475.206538
931.340861	2487.809423
931.644383	2414.712692
931.947866	2578.550192
932.251309	2634.002885
932.554714	2447.480192
932.858080	2497.891731
933.161407	2513.015192
933.464694	2513.015192
933.767943	2515.535769
934.071153	2487.809423
934.374323	2472.685962
934.677455	2495.371154
934.980548	2434.877308
935.283602	2482.768269
935.586617	2462.603654
935.889593	2525.618077
936.192530	2578.550192
936.495428	2507.974038
936.798287	2490.330000
937.101108	2570.988462
937.403890	2507.974038
937.706632	2533.179808
938.009336	2548.303269
938.312002	2404.630385
938.614628	2515.535769
938.917216	2472.685962
939.219765	2505.453462
939.522275	2467.644808
939.824747	2578.550192
940.127179	2523.097500
940.429573	2535.700385
940.731929	2442.439038
941.034246	2507.974038
941.336524	2437.397885
941.638763	2434.877308
941.940964	2457.562500
942.243126	2490.330000
942.545250	2558.385577
942.847335	2502.932885
943.149381	2442.439038
943.451389	2553.344423
943.753359	2490.330000
944.055290	2477.727115
944.357182	2394.548077
944.659036	2470.165385
944.960851	2384.465769
945.262628	2520.576923
945.564367	2502.932885
945.866067	2528.138654
946.167729	2525.618077
946.469352	2452.521346
946.770937	2439.918462
947.072484	2444.959615
947.373992	2492.850577
947.675462	2452.521346
947.976893	2505.453462
948.278286	2439.918462
948.579641	2538.220962
948.880958	2490.330000
949.182236	2424.795000
949.483476	2432.356731
949.784678	2515.535769
950.085841	2502.932885
950.386967	2475.206538
950.688054	2513.015192
950.989103	2470.165385
951.290114	2477.727115
951.591087	2455.041923
951.892021	2523.097500
952.192917	2434.877308
952.493776	2414.712692
952.794596	2462.603654
953.095378	2437.397885
953.396122	2429.836154
953.696828	2497.891731
953.997496	2598.714808
954.298126	2515.535769
954.598718	2528.138654
954.899272	2525.618077
955.199788	2472.685962
955.500266	2432.356731
955.800706	2533.179808
956.101108	2462.603654
956.401472	2513.015192
956.701798	2439.918462
957.002087	2540.741538
957.302337	2550.823846
957.602550	2555.865000
957.902724	2555.865000
958.202861	2510.494615
958.502960	2545.782692
958.803022	2525.618077
959.103045	2437.397885
959.403031	2417.233269
959.702979	2495.371154
960.002889	2442.439038
960.302762	2422.274423
960.602596	2507.974038
960.902393	2472.685962
961.202153	2487.809423
961.501875	2505.453462
961.801559	2500.412308
962.101205	2613.838269
962.400814	2530.659231
962.700385	2407.150962
962.999918	2457.562500
963.299414	2475.206538
963.598873	2485.288846
963.898293	2535.700385
964.197677	2472.685962
964.497022	2543.262115
964.796331	2477.727115
965.095601	2497.891731
965.394835	2417.233269
965.694030	2500.412308
965.993189	2455.041923
966.292309	2457.562500
966.591393	2533.179808
966.890439	2523.097500
967.189447	2535.700385
967.488419	2578.550192
967.787353	2462.603654
968.086249	2505.453462
968.385108	2455.041923
968.683930	2492.850577
968.982714	2523.097500
969.281462	2460.083077
969.580172	2472.685962
969.878844	2482.768269
970.177480	2455.041923
970.476078	2525.618077
970.774639	2601.235385
971.073162	2470.165385
971.371649	2414.712692
971.670098	2533.179808
971.968510	2452.521346
972.266885	2450.000769
972.565223	2485.288846
972.863524	2507.974038
973.161788	2495.371154
973.460014	2500.412308
973.758204	2555.865000
974.056356	2492.850577
974.354471	2558.385577
974.652550	2407.150962
974.950591	2565.947308
975.248595	2417.233269
975.546563	2500.412308
975.844493	2533.179808
976.142386	2507.974038
976.440243	2417.233269
976.738062	2543.262115
977.035845	2490.330000
977.333590	2525.618077
977.631299	2513.015192
977.928971	2457.562500
978.226606	2505.453462
978.524204	2455.041923
978.821765	2533.179808
979.119290	2560.906154
979.416777	2492.850577
979.714228	2543.262115
980.011642	2482.768269
980.309020	2515.535769
980.606360	2520.576923
980.903664	2520.576923
981.200931	2525.618077
981.498162	2480.247692
981.795356	2477.727115
982.092513	2429.836154
982.389633	2530.659231
982.686717	2588.632500
982.983764	2439.918462
983.280775	2528.138654
983.577749	2560.906154
983.874686	2515.535769
984.171587	2467.644808
984.468451	2470.165385
984.765279	2477.727115
985.062070	2450.000769
985.358824	2482.768269
985.655543	2432.356731
985.952224	2470.165385
986.248869	2528.138654
986.545478	2404.630385
986.842050	2500.412308
987.138586	2465.124231
987.435086	2535.700385
987.731549	2447.480192
988.027975	2457.562500
988.324366	2450.000769
988.620719	2472.685962
988.917037	2437.397885
989.213318	2427.315577
989.509563	2457.562500
989.805772	2540.741538
990.101944	2490.330000
990.398080	2513.015192
990.694180	2598.714808
990.990244	2487.809423
991.286271	2465.124231
991.582262	2460.083077
991.878217	2485.288846
992.174136	2472.685962
992.470019	2518.056346
992.765865	2573.509038
993.061676	2450.000769
993.357450	2407.150962
993.653188	2525.618077
993.948890	2457.562500
994.244556	2399.589231
994.540186	2465.124231
994.835780	2492.850577
995.131337	2513.015192
995.426859	2528.138654
995.722345	2480.247692
996.017795	2523.097500
996.313208	2429.836154
996.608586	2560.906154
996.903928	2472.685962
997.199234	2550.823846
997.494504	2550.823846
997.789738	2510.494615
998.084936	2490.330000
998.380099	2424.795000
998.675225	2530.659231
998.970316	2439.918462
999.265371	2490.330000
999.560390	2515.535769
999.855373	2568.467885
1000.150320	2530.659231
1000.445232	2490.330000
1000.740108	2470.165385
1001.034948	2528.138654
1001.329752	2472.685962
1001.624521	2545.782692
1001.919254	2515.535769
1002.213951	2465.124231
1002.508613	2538.220962
1002.803239	2470.165385
1003.097829	2497.891731
1003.392384	2518.056346
1003.686903	2548.303269
1003.981386	2477.727115
1004.275834	2465.124231
1004.570246	2568.467885
1004.864623	2523.097500
1005.158964	2487.809423
1005.453270	2497.891731
1005.747540	2513.015192
1006.041775	2472.685962
1006.335974	2460.083077
1006.630138	2467.644808
1006.924266	2502.932885
1007.218359	2500.412308
1007.512416	2520.576923
1007.806438	2586.111923
1008.100425	2482.768269
1008.394376	2545.782692
1008.688292	2460.083077
1008.982172	2515.535769
1009.276017	2392.027500
1009.569827	2535.700385
1009.863602	2518.056346
1010.157341	2510.494615
1010.451045	2497.891731
1010.744714	2444.959615
1011.038347	2548.303269
1011.331945	2482.768269
1011.625508	2545.782692
1011.919036	2558.385577
1012.212528	2487.809423
1012.505986	2513.015192
1012.799408	2510.494615
1013.092795	2492.850577
1013.386147	2528.138654
1013.679464	2437.397885
1013.972745	2490.330000
1014.265992	2510.494615
1014.559204	2465.124231
1014.852380	2462.603654
1015.145521	2492.850577
1015.438628	2470.165385
1015.731699	2560.906154
1016.024736	2452.521346
1016.317737	2545.782692
1016.610703	2424.795000
1016.903635	2465.124231
1017.196531	2495.371154
1017.489393	2540.741538
1017.782219	2523.097500
1018.075011	2487.809423
1018.367768	2528.138654
1018.660490	2432.356731
1018.953177	2432.356731
1019.245829	2432.356731
