Dividing Wavelength (nm)	Counts (n)	Blue Motor Position (mm): 0.800000	Red Motor Position (mm): 0.000000	
326.493990	2064.423076
326.888308	2064.423076
327.282561	2064.423076
327.676750	2037.475588
328.070874	2039.902904
328.464933	2041.178316
328.858929	2053.186344
329.252859	2064.259239
329.646726	2075.889181
330.040528	2092.598085
330.434265	2109.327154
330.827938	2132.471091
331.221547	2153.205357
331.615091	2172.502894
332.008571	2193.159022
332.401986	2216.920501
332.795338	2234.254508
333.188625	2254.015831
333.581847	2271.924530
333.975006	2289.109824
334.368100	2307.550364
334.761129	2326.101811
335.154095	2339.919613
335.546996	2353.303877
335.939833	2368.271063
336.332606	2383.666746
336.725315	2392.486245
337.117960	2402.883625
337.510540	2414.790830
337.903056	2422.917170
338.295508	2430.413366
338.687896	2435.421752
339.080220	2443.527928
339.472480	2445.045315
339.864676	2450.598146
340.256807	2450.464555
340.648875	2454.600822
341.040879	2456.725668
341.432818	2458.391770
341.824694	2457.542335
342.216506	2456.997891
342.608253	2456.642489
342.999937	2459.258848
343.391557	2455.399845
343.783113	2453.998404
344.174605	2451.044288
344.566033	2450.278033
344.957397	2451.513115
345.348697	2448.269133
345.739934	2444.032043
346.131106	2445.262085
346.522215	2442.733946
346.913260	2440.704882
347.304241	2439.487443
347.695159	2439.643719
348.086012	2438.242278
348.476802	2435.273038
348.867528	2432.941505
349.258191	2429.818510
349.648789	2431.043510
350.039324	2426.592171
350.429796	2430.045362
350.820203	2427.396235
351.210548	2431.015784
351.600828	2426.788776
351.991045	2428.409507
352.381198	2424.399269
352.771288	2426.687953
353.161314	2425.329362
353.551276	2427.169383
353.941175	2425.437747
354.331010	2425.823395
354.720782	2425.026893
355.110490	2427.129054
355.500135	2428.807758
355.889717	2429.657193
356.279235	2428.686771
356.668689	2429.692481
357.058080	2427.456729
357.447408	2429.848757
357.836672	2430.657862
358.225873	2428.182655
358.615010	2429.737851
359.004084	2431.827410
359.393095	2433.801021
359.782043	2433.513676
360.170927	2430.899837
360.559748	2431.242636
360.948505	2431.320774
361.337199	2432.921340
361.725830	2432.911258
362.114398	2435.157092
362.502903	2432.341607
362.891344	2434.146340
363.279722	2438.995930
363.668037	2435.686413
364.056289	2435.784715
364.444478	2434.476536
364.832603	2436.122473
365.220665	2434.844540
365.608665	2437.465940
365.996601	2439.865529
366.384474	2436.578697
366.772284	2436.011567
367.160031	2441.753442
367.547715	2439.691610
367.935336	2442.048349
368.322893	2436.384613
368.710388	2436.460230
369.097820	2436.245981
369.485189	2435.008378
369.872495	2438.668255
370.259738	2440.472988
370.646918	2439.404264
371.034035	2439.510128
371.421090	2439.172371
371.808081	2440.944336
372.195010	2442.229831
372.581875	2442.761672
372.968678	2441.922320
373.355418	2443.374173
373.742096	2445.279729
374.128710	2443.361570
374.515262	2440.838472
374.901751	2442.020623
375.288177	2442.870057
375.674540	2446.343412
376.060841	2447.029009
376.447079	2443.716971
376.833254	2446.834925
377.219367	2445.655295
377.605417	2445.907352
377.991404	2449.390790
378.377329	2444.137907
378.763191	2445.385593
379.148991	2444.319389
379.534727	2445.085644
379.920402	2442.146652
380.306013	2442.562547
380.691563	2447.518001
381.077049	2445.756118
381.462474	2448.039760
381.847835	2446.088834
382.233134	2447.523042
382.618371	2451.273661
383.003545	2450.000769
383.388657	2450.799792
383.773706	2447.956581
384.158693	2449.446242
384.543618	2449.519339
384.928480	2448.982456
385.313280	2449.368104
385.698017	2447.613783
386.082692	2451.566048
386.467305	2450.736778
386.851856	2450.227621
387.236344	2447.039091
387.620770	2451.709720
388.005133	2447.283587
388.389435	2448.218721
388.773674	2445.703186
389.157851	2448.662343
389.541965	2450.131839
389.926018	2452.402879
390.310008	2449.231993
390.693936	2453.229628
391.077802	2450.320883
391.461606	2450.565378
391.845348	2453.650565
392.229027	2455.238528
392.612645	2451.140070
392.996200	2454.815071
393.379694	2454.051336
393.763125	2454.484876
394.146494	2451.755091
394.529801	2453.804320
394.913047	2453.804320
395.296230	2452.503702
395.679351	2453.827005
396.062410	2456.539146
396.445408	2452.944803
396.828343	2456.584516
397.211217	2453.058229
397.594028	2456.239197
397.976778	2455.578806
398.359466	2455.420010
398.742092	2456.327417
399.124656	2457.433951
399.507158	2458.963941
399.889598	2454.510081
400.271977	2456.284567
400.654294	2457.837243
401.036549	2456.599640
401.418742	2454.941100
401.800874	2459.092490
402.182944	2457.060905
402.564952	2457.547377
402.946898	2458.454784
403.328783	2457.058385
403.710606	2459.037038
404.092367	2457.635597
404.474067	2456.521502
404.855705	2458.406893
405.237282	2460.304888
405.618797	2461.149281
406.000250	2459.858746
406.381642	2459.183231
406.762972	2456.425720
407.144240	2456.929835
407.525447	2457.885134
407.906593	2457.839763
408.287677	2460.438478
408.668700	2459.906637
409.049661	2458.260700
409.430560	2461.713890
409.811399	2458.810186
410.192176	2461.050978
410.572891	2459.571400
410.953545	2460.456122
411.334138	2460.836729
411.714669	2459.405042
412.095139	2460.166256
412.475547	2461.623149
412.855894	2463.362347
413.236180	2460.763633
413.616405	2462.878397
413.996568	2463.732872
414.376670	2461.812193
414.756711	2460.826647
415.136691	2464.640280
415.516609	2464.020218
415.896466	2463.725311
416.276262	2462.712039
416.655997	2464.484004
417.035670	2463.052317
417.415283	2466.654221
417.794834	2464.010136
418.174324	2462.439816
418.553753	2462.646504
418.933121	2461.550053
419.312428	2465.741772
419.691674	2463.271607
420.070859	2465.018367
420.449983	2464.184056
420.829045	2465.865280
421.208047	2464.413428
421.586988	2464.063068
421.965867	2462.739765
422.344686	2465.953501
422.723444	2465.184725
423.102141	2466.762606
423.480777	2465.673717
423.859352	2465.477112
424.237866	2466.197997
424.616319	2464.622636
424.994712	2470.261167
425.373044	2465.328397
425.751314	2463.848819
426.129524	2463.586679
426.507673	2466.921402
426.885762	2463.506020
427.263789	2468.668162
427.641756	2469.656228
428.019662	2468.118676
428.397508	2469.076495
428.775292	2466.782770
429.153016	2466.845785
429.530679	2468.965590
429.908282	2467.508697
430.285824	2467.150775
430.663305	2468.176649
431.040726	2466.099694
431.418086	2468.627833
431.795385	2469.910806
432.172624	2467.054993
432.549802	2468.975672
432.926920	2469.583131
433.303977	2469.464664
433.680974	2467.894345
434.057910	2469.880559
434.434786	2468.995837
434.811601	2468.647997
435.188355	2467.533902
435.565050	2470.392237
435.941683	2469.537761
436.318257	2470.780405
436.694770	2470.387195
437.071222	2469.499952
437.447614	2469.381485
437.823946	2470.301496
438.200218	2473.275777
438.576429	2472.481795
438.952580	2469.230251
439.328670	2473.595890
439.704700	2471.773513
440.080670	2471.551702
440.456580	2469.557926
440.832429	2471.622278
441.208218	2468.879890
441.583947	2469.464664
441.959616	2470.515745
442.335224	2470.956846
442.710773	2470.583800
443.086261	2471.967597
443.461689	2472.940540
443.837057	2470.367031
444.212365	2471.665128
444.587612	2470.437607
444.962800	2468.285034
445.337927	2469.885601
445.712995	2468.211937
446.088002	2472.796867
446.462949	2473.215283
446.837837	2472.186887
447.212664	2473.545478
447.587431	2471.629840
447.962139	2472.043214
448.336786	2475.330047
448.711374	2472.086064
449.085901	2474.384830
449.460369	2471.345015
449.834776	2475.662763
450.209124	2469.174798
450.583412	2474.072279
450.957640	2473.215283
451.331808	2473.442135
451.705917	2474.296610
452.079965	2473.694192
452.453954	2474.964563
452.827883	2475.894656
453.201752	2474.147896
453.575562	2472.948102
453.949311	2474.311734
454.323001	2475.690489
454.696632	2474.508339
455.070202	2473.535396
455.443713	2474.573874
455.817164	2474.735191
456.190556	2473.585807
456.563888	2477.041518
456.937160	2473.832824
457.310373	2472.466671
457.683526	2474.059676
458.056619	2475.410705
458.429653	2476.106384
458.802628	2475.393061
459.175542	2475.294759
459.548398	2475.209059
459.921194	2473.742083
460.293930	2477.999338
460.666607	2476.255098
461.039224	2474.919193
461.411782	2474.425160
461.784280	2475.987917
462.156719	2475.272073
462.529099	2477.268370
462.901419	2475.839203
463.273680	2473.341312
463.645882	2470.672021
464.018024	2475.045222
464.390106	2470.971969
464.762130	2475.965232
465.134094	2476.663432
465.505999	2476.965901
465.877845	2475.884574
466.249631	2476.008082
466.621358	2477.601087
466.993026	2475.128401
467.364634	2479.955305
467.736184	2477.490181
468.107674	2478.410192
468.479105	2475.461117
468.850477	2474.931796
469.221790	2474.286528
469.593043	2478.437918
469.964238	2474.672176
470.335373	2479.602425
470.706449	2478.775675
471.077467	2476.696199
471.448425	2477.545634
471.819324	2476.660911
472.190164	2479.206694
472.560945	2478.861375
472.931667	2473.895838
473.302330	2479.859523
473.672934	2476.270222
474.043479	2478.473206
474.413965	2480.368680
474.784393	2476.204687
475.154761	2478.100161
475.525070	2478.942033
475.895321	2476.008082
476.265513	2477.515387
476.635645	2477.850624
477.005719	2476.595376
477.375734	2479.108392
477.745691	2478.183340
478.115588	2476.529841
478.485427	2478.611838
478.855207	2479.320120
479.224928	2476.943216
479.594591	2478.750470
479.964194	2478.727784
480.333739	2480.524956
480.703226	2477.918679
481.072653	2483.128712
481.442022	2477.180150
481.811333	2476.970942
482.180584	2473.709316
482.549777	2475.534213
482.918912	2473.981538
483.287988	2480.529997
483.657005	2478.770634
484.025964	2480.998824
484.394864	2478.432877
484.763706	2478.143011
485.132489	2478.329533
485.501213	2478.044708
485.869879	2479.683083
486.238487	2478.977322
486.607036	2476.807105
486.975527	2481.656695
487.343959	2480.056128
487.712333	2481.127374
488.080648	2478.485809
488.448905	2478.989924
488.817104	2480.570326
489.185244	2478.332054
489.553326	2481.026551
489.921350	2480.424133
490.289315	2476.817187
490.657222	2479.418423
491.025070	2481.921355
491.392861	2480.343474
491.760593	2480.076293
492.128267	2479.587301
492.495883	2479.925058
492.863440	2480.966057
493.230939	2480.310707
493.598380	2481.240800
493.965763	2479.075624
494.333088	2480.381283
494.700354	2480.456900
495.067563	2480.930769
495.434713	2477.747280
495.801805	2482.344812
496.168839	2480.252733
496.535815	2480.482106
496.902733	2479.892291
497.269593	2480.446818
497.636395	2481.034112
498.003139	2480.303145
498.369825	2480.371201
498.736453	2480.943372
499.103023	2480.928248
499.469535	2483.194247
499.835989	2480.426653
500.202385	2477.938844
500.568723	2477.520428
500.935003	2479.725933
501.301226	2477.064204
501.667390	2484.915801
502.033497	2479.667960
502.399546	2481.820532
502.765537	2482.019658
503.131470	2481.351705
503.497345	2480.981180
503.863163	2480.330871
504.228923	2481.954123
504.594625	2483.295070
504.960269	2480.870275
505.325856	2479.257106
505.691385	2480.396406
506.056856	2483.108547
506.422270	2479.930100
506.787625	2483.206850
507.152924	2478.624441
507.518164	2482.617035
507.883347	2480.608135
508.248472	2480.474544
508.613540	2484.419247
508.978550	2482.173413
509.343503	2481.782724
509.708398	2481.361787
510.073236	2483.496716
510.438016	2482.170892
510.802738	2480.184678
511.167403	2481.533187
511.532010	2483.668115
511.896561	2479.829277
512.261053	2482.301963
512.625488	2482.566623
512.989866	2481.946561
513.354186	2481.518063
513.718449	2481.502940
514.082655	2480.968577
514.446803	2482.352374
514.810894	2484.338589
515.174927	2482.710296
515.538904	2482.072590
515.902822	2484.807416
516.266684	2482.974957
516.630488	2485.245996
516.994235	2480.567806
517.357925	2481.082003
517.721558	2482.589308
518.085133	2481.460090
518.448651	2480.474544
518.812112	2479.327682
519.175516	2480.371201
519.538863	2477.706951
519.902152	2483.320276
520.265385	2479.836838
520.628560	2481.404637
520.991678	2480.726602
521.354739	2483.048053
521.717743	2483.065697
522.080690	2483.549648
522.443580	2482.876654
522.806413	2483.370687
523.169189	2480.330871
523.531908	2481.676859
523.894569	2480.232569
524.257174	2481.318938
524.619722	2480.900522
524.982213	2484.189875
525.344647	2483.748774
525.707025	2483.413537
526.069345	2482.173413
526.431608	2483.385811
526.793815	2480.988742
527.155964	2483.796665
527.518057	2481.840697
527.880093	2482.692652
528.242072	2483.221973
528.603995	2483.053094
528.965860	2481.883547
529.327669	2482.586788
529.689421	2482.231386
530.051117	2484.084010
530.412755	2484.078969
530.774337	2483.537045
531.135862	2485.876141
531.497331	2482.848928
531.858743	2482.105358
532.220098	2485.465287
532.581396	2481.815491
532.942638	2484.159628
533.303824	2481.245841
533.664953	2482.528814
534.026025	2483.393372
534.387040	2482.531335
534.747999	2482.803557
535.108902	2483.741212
535.469748	2483.794144
535.830537	2484.073928
536.191270	2484.845225
536.551947	2481.818012
536.912567	2478.672332
537.273131	2481.770121
537.633638	2476.310551
537.994089	2483.199288
538.354483	2481.099647
538.714821	2484.628455
539.075103	2482.226345
539.435328	2481.956643
539.795497	2483.060656
540.155609	2481.762559
540.515665	2480.318268
540.875665	2485.029227
541.235609	2482.294401
541.595496	2483.647951
541.955328	2484.441932
542.315102	2482.183495
542.674821	2485.961840
543.034483	2483.201808
543.394090	2483.375728
543.753640	2483.600060
544.113134	2485.898826
544.472571	2483.242138
544.831953	2485.906388
545.191278	2485.419916
545.550548	2483.844556
545.909761	2482.581747
546.268918	2482.702734
546.628019	2482.959833
546.987064	2483.030409
547.346053	2484.119298
547.704986	2486.312200
548.063863	2485.172900
548.422684	2483.766418
548.781449	2483.884885
549.140158	2483.532004
549.498811	2484.262971
549.857408	2483.022848
550.215949	2483.680718
550.574434	2482.037302
550.932864	2484.124340
551.291237	2486.027375
551.649555	2486.551655
552.007817	2485.903867
552.366022	2485.487972
552.724173	2484.051243
553.082267	2483.912611
553.440305	2482.922024
553.798288	2485.326655
554.156215	2483.388331
554.514086	2482.221304
554.871902	2479.158803
555.229661	2483.549648
555.587365	2480.787096
555.945014	2485.656850
556.302606	2481.911273
556.660143	2483.940338
557.017625	2482.816160
557.375050	2484.600729
557.732421	2482.516212
558.089735	2482.448156
558.446994	2484.630976
558.804197	2487.005359
559.161345	2484.590646
559.518437	2485.109885
559.875474	2482.576705
560.232455	2487.527118
560.589381	2482.722899
560.946251	2485.127529
561.303065	2482.385142
561.659825	2483.902529
562.016528	2485.182982
562.373177	2484.320945
562.729770	2485.346819
563.086307	2485.777838
563.442789	2484.424288
563.799216	2485.908908
564.155587	2484.794813
564.511904	2482.821201
564.868164	2484.424288
565.224370	2484.141984
565.580520	2484.867910
565.936615	2484.467138
566.292654	2487.401090
566.648638	2487.277581
567.004567	2484.693990
567.360441	2483.403455
567.716260	2481.858341
568.072023	2485.407313
568.427732	2481.782724
568.783385	2485.223311
569.138982	2486.337406
569.494525	2485.924032
569.850013	2485.359422
570.205445	2484.023517
570.560823	2483.179123
570.916145	2484.199957
571.271412	2484.031078
571.626625	2479.957826
571.981782	2484.250368
572.336884	2482.052425
572.691931	2483.143835
573.046923	2481.722230
573.401860	2479.652836
573.756743	2485.225832
574.111570	2486.370174
574.466342	2483.458907
574.821059	2484.119298
575.175722	2483.877323
575.530330	2483.892447
575.884882	2483.446304
576.239380	2485.180461
576.593823	2488.522746
576.948211	2484.721716
577.302544	2482.125522
577.656823	2482.682570
578.011047	2484.159628
578.365216	2483.768938
578.719330	2485.545945
579.073389	2485.750112
579.427394	2485.455204
579.781344	2485.823208
580.135239	2484.101654
580.489080	2484.709113
580.842866	2483.723568
581.196597	2484.300780
581.550273	2485.117447
581.903895	2485.757673
582.257463	2482.793475
582.610975	2483.405975
582.964434	2483.819350
583.317837	2485.404793
583.671186	2486.229021
584.024481	2485.699700
584.377721	2486.476038
584.730906	2484.320945
585.084037	2484.431850
585.437113	2485.397231
585.790135	2484.615852
586.143103	2485.228352
586.496016	2483.292549
586.848874	2485.714824
587.201679	2486.395379
587.554428	2485.611480
587.907124	2484.588126
588.259765	2483.131232
588.612352	2486.455873
588.964884	2485.009062
589.317362	2482.017137
589.669786	2483.723568
590.022155	2482.027220
590.374470	2480.456900
590.726731	2483.390852
591.078937	2480.439256
591.431090	2485.142653
591.783188	2485.349340
592.135232	2484.101654
592.487222	2485.301449
592.839157	2482.710296
593.191038	2484.290698
593.542866	2485.377066
593.894639	2483.368167
594.246358	2484.479741
594.598022	2484.305821
594.949633	2481.762559
595.301190	2482.879175
595.652692	2482.927066
596.004141	2483.597539
596.355535	2486.813795
596.706876	2482.886736
597.058162	2486.145842
597.409395	2483.564772
597.760573	2485.886223
598.111698	2484.988898
598.462768	2485.626603
598.813785	2483.312714
599.164748	2484.399082
599.515657	2484.696511
599.866511	2486.748260
600.217312	2484.323465
600.568060	2485.109885
600.918753	2484.893116
601.269392	2485.424957
601.619978	2483.244658
601.970510	2485.306490
602.320988	2484.424288
602.671412	2483.526963
603.021783	2483.678197
603.372100	2485.840853
603.722363	2481.790285
604.072572	2484.525111
604.422728	2483.756335
604.772830	2482.493526
605.122878	2482.382621
605.472872	2482.511170
605.822813	2485.029227
606.172701	2484.487303
606.522534	2485.704741
606.872314	2485.087200
607.222041	2483.365646
607.571714	2481.898670
607.921333	2479.592342
608.270899	2484.446973
608.620411	2479.415902
608.969870	2485.513178
609.319276	2485.374546
609.668627	2488.066522
610.017926	2486.970071
610.367171	2482.722899
610.716362	2483.232055
611.065500	2482.092755
611.414585	2485.064515
611.763616	2488.263127
612.112594	2485.785400
612.461518	2485.810606
612.810389	2485.737509
613.159207	2487.814464
613.507971	2484.749443
613.856682	2485.089721
614.205340	2485.800523
614.553945	2483.849597
614.902496	2484.020996
615.250994	2483.645430
615.599439	2487.461583
615.947830	2485.004021
616.296169	2483.925214
616.644454	2483.683239
616.992686	2483.872282
617.340864	2483.005203
617.688990	2483.534525
618.037063	2484.835142
618.385082	2482.072590
618.733048	2484.610811
619.080961	2484.162148
619.428821	2484.814978
619.776628	2485.810606
620.124382	2481.351705
620.472083	2486.967550
620.819731	2485.089721
621.167326	2483.980667
621.514868	2482.538897
621.862357	2486.067704
622.209793	2484.731799
622.557176	2482.480923
622.904506	2483.617704
623.251783	2483.567292
623.599007	2485.051912
623.946179	2481.102168
624.293297	2484.605770
624.640363	2486.702890
624.987376	2481.419761
625.334336	2483.431181
625.681243	2480.706437
626.028097	2479.380614
626.374899	2483.078300
626.721647	2483.113588
627.068343	2482.758187
627.414987	2484.194916
627.761577	2484.968733
628.108115	2485.364463
628.454600	2484.840183
628.801032	2485.785400
629.147412	2483.416058
629.493739	2482.637199
629.840014	2484.225163
630.186236	2483.869761
630.532405	2485.268682
630.878521	2482.223825
631.224585	2484.225163
631.570597	2485.530822
631.916556	2484.295739
632.262462	2482.967395
632.608316	2483.363125
632.954117	2483.700883
633.299866	2485.528301
633.645562	2483.577374
633.991206	2485.813126
634.336797	2482.881695
634.682336	2486.413023
635.027823	2482.327168
635.373257	2485.364463
635.718639	2481.744915
636.063968	2485.677015
636.409245	2484.764566
636.754470	2483.703403
637.099642	2484.935965
637.444762	2484.333547
637.789829	2482.425471
638.134845	2485.329175
638.479808	2483.660553
638.824719	2484.661222
639.169577	2484.245327
639.514383	2484.048722
639.859137	2484.827581
640.203839	2484.512508
640.548489	2483.000162
640.893086	2482.561582
641.237632	2485.230873
641.582125	2482.874133
641.926566	2482.218783
642.270955	2483.602580
642.615292	2478.853813
642.959576	2482.347333
643.303809	2479.189050
643.647990	2484.762046
643.992118	2484.053763
644.336195	2482.135604
644.680219	2484.245327
645.024192	2484.560399
645.368112	2486.808754
645.711981	2482.803557
646.055797	2485.886223
646.399562	2481.999493
646.743274	2485.445122
647.086935	2483.499237
647.430544	2485.384628
647.774101	2484.981336
648.117606	2482.889257
648.461059	2483.537045
648.804460	2490.312356
649.147810	2482.289360
649.491108	2484.441932
649.834354	2484.467138
650.177548	2482.463279
650.520690	2484.762046
650.863781	2485.019144
651.206820	2481.437405
651.549807	2484.656181
651.892742	2483.834473
652.235626	2484.535194
652.578458	2485.059474
652.921238	2483.937817
653.263967	2486.775987
653.606644	2485.309011
653.949269	2484.336068
654.291843	2483.237097
654.634365	2484.681387
654.976836	2483.955461
655.319255	2481.538228
655.661622	2483.524442
656.003938	2483.884885
656.346203	2481.938999
656.688416	2482.924545
657.030577	2483.214411
657.372687	2486.506285
657.714746	2482.503609
658.056753	2484.111737
658.398708	2485.054433
658.740612	2484.177272
659.082465	2482.793475
659.424266	2480.182157
659.766016	2478.405151
660.107715	2481.760038
660.449362	2479.378093
660.790958	2483.839514
661.132503	2482.301963
661.473996	2483.509319
661.815438	2483.242138
662.156829	2483.143835
662.498168	2482.281798
662.839456	2484.416727
663.180693	2482.019658
663.521879	2483.015286
663.863013	2483.723568
664.204097	2485.893785
664.545129	2483.388331
664.886110	2486.060143
665.227040	2484.923362
665.567918	2483.020327
665.908746	2486.362612
666.249522	2482.304483
666.590248	2483.053094
666.930922	2482.866572
667.271545	2485.737509
667.612118	2481.381952
667.952639	2484.898157
668.293109	2483.030409
668.633528	2484.283136
668.973896	2482.911942
669.314213	2480.603094
669.654480	2481.462610
669.994695	2483.365646
670.334859	2485.394710
670.674973	2483.610142
671.015035	2483.718527
671.355047	2484.535194
671.695008	2485.341778
672.034918	2482.475882
672.374777	2483.889926
672.714585	2481.460090
673.054342	2482.329689
673.394049	2481.996973
673.733705	2482.881695
674.073310	2485.089721
674.412864	2482.700214
674.752368	2483.736171
675.091820	2483.350523
675.431223	2483.892447
675.770574	2484.169710
676.109875	2482.538897
676.449125	2482.959833
676.788324	2480.265336
677.127473	2476.776858
677.466571	2480.948413
677.805619	2481.591160
678.144616	2482.637199
678.483562	2484.603249
678.822458	2485.679536
679.161303	2487.247334
679.500098	2480.643423
679.838842	2483.796665
680.177535	2480.716520
680.516179	2482.611993
680.854771	2482.483444
681.193314	2482.067549
681.531805	2483.416058
681.870247	2482.115440
682.208638	2482.110399
682.546978	2483.968064
682.885268	2482.347333
683.223508	2483.060656
683.561697	2482.133084
683.899836	2483.816829
684.237925	2482.916983
684.575963	2481.039153
684.913951	2480.429174
685.251889	2482.611993
685.589776	2483.375728
685.927614	2485.631645
686.265401	2483.156438
686.603137	2484.020996
686.940824	2483.779021
687.278460	2484.308342
687.616046	2481.686942
687.953582	2482.155769
688.291068	2484.666264
688.628504	2482.299442
688.965889	2483.743732
689.303224	2484.245327
689.640510	2484.358753
689.977745	2485.588795
690.314930	2484.875472
690.652065	2484.404124
690.989150	2485.898826
691.326185	2483.058136
691.663170	2481.757518
692.000105	2479.935141
692.336990	2483.554689
692.673825	2484.913280
693.010610	2481.545789
693.347345	2483.398413
693.684030	2479.582260
694.020665	2481.618886
694.357251	2475.007413
694.693786	2482.564102
695.030272	2479.552013
695.366707	2486.216418
695.703093	2479.541931
696.039429	2482.644761
696.375716	2484.966212
696.711952	2484.192395
697.048139	2482.932107
697.384276	2480.968577
697.720363	2482.112919
698.056400	2484.865389
698.392388	2481.419761
698.728326	2481.697024
699.064214	2482.722899
699.400053	2482.334730
699.735842	2484.963692
700.071581	2482.249030
700.407270	2483.405975
700.742910	2482.843887
701.078501	2482.866572
701.414042	2482.664926
701.749533	2483.416058
702.084974	2485.518219
702.420366	2482.475882
702.755709	2481.646613
703.091002	2484.338589
703.426246	2479.070583
703.761440	2483.741212
704.096584	2484.580564
704.431679	2483.342961
704.766725	2484.431850
705.101721	2480.683752
705.436668	2481.596201
705.771565	2480.189719
706.106413	2484.822539
706.441212	2484.013434
706.775961	2483.849597
707.110661	2481.664257
707.445311	2484.840183
707.779913	2480.955974
708.114465	2483.199288
708.448967	2481.697024
708.783421	2484.794813
709.117825	2482.564103
709.452180	2483.811788
709.786485	2482.019658
710.120742	2482.995121
710.454949	2476.683597
710.789107	2482.186016
711.123216	2477.245685
711.457275	2480.968577
711.791286	2482.866572
712.125247	2481.502940
712.459159	2481.830615
712.793023	2483.360605
713.126837	2481.560913
713.460602	2482.909422
713.794318	2484.273054
714.127985	2483.952940
714.461602	2481.520584
714.795171	2484.225163
715.128691	2483.564772
715.462162	2482.861531
715.795584	2482.014617
716.128957	2480.840028
716.462281	2485.379587
716.795556	2483.547127
717.128782	2482.276757
717.461960	2482.145687
717.795088	2482.052425
718.128167	2481.376911
718.461198	2481.243320
718.794180	2482.077631
719.127113	2482.859010
719.459997	2481.742394
719.792833	2483.116109
720.125619	2482.440594
720.458357	2482.574185
720.791046	2481.351705
721.123686	2481.800368
721.456278	2481.218114
721.788821	2483.658033
722.121315	2483.703403
722.453761	2481.281129
722.786158	2483.857158
723.118506	2481.812971
723.450805	2480.230048
723.783056	2482.402786
724.115259	2485.248517
724.447412	2482.193578
724.779518	2485.916470
725.111574	2481.177785
725.443582	2479.952785
725.775542	2483.121150
726.107453	2483.353043
726.439315	2482.511170
726.771129	2483.227014
727.102895	2480.398927
727.434612	2479.481437
727.766281	2476.870119
728.097901	2482.692652
728.429473	2481.336582
728.760996	2480.953454
729.092471	2483.118629
729.423897	2484.666264
729.755276	2479.100830
730.086606	2483.421099
730.417887	2482.712817
730.749120	2482.846407
731.080305	2482.720378
731.411442	2479.312558
731.742530	2482.024699
732.073570	2483.988228
732.404562	2480.593011
732.735506	2481.530666
733.066401	2483.562251
733.397249	2481.379431
733.728048	2482.170892
734.058798	2480.681232
734.389501	2482.894298
734.720156	2482.445635
735.050762	2481.018989
735.381320	2484.376397
735.711831	2481.286170
736.042293	2481.820532
736.372707	2482.795996
736.703073	2482.811119
737.033391	2482.942189
737.363661	2482.087713
737.693883	2482.095275
738.024056	2483.625265
738.354182	2481.185347
738.684260	2483.481592
739.014290	2479.597383
739.344272	2483.622745
739.674207	2481.291211
740.004093	2483.600060
740.333931	2480.300624
740.663722	2481.477734
740.993464	2480.247692
741.323159	2482.412868
741.652806	2481.656695
741.982405	2482.155769
742.311956	2480.005717
742.641460	2483.559730
742.970915	2481.618886
743.300323	2481.024030
743.629683	2479.443628
743.958996	2481.021509
744.288260	2474.120170
744.617477	2481.097127
744.946647	2481.175265
745.275768	2483.718527
745.604842	2482.188537
745.933869	2481.220635
746.262847	2478.064873
746.591778	2479.700727
746.920662	2482.095275
747.249498	2478.619400
747.578286	2482.506129
747.907027	2480.842548
748.235720	2479.879688
748.564365	2482.974957
748.892963	2480.900522
749.221514	2481.530666
749.550017	2485.881182
749.878473	2481.525625
750.206881	2478.243834
750.535242	2481.250882
750.863555	2482.533856
751.191821	2482.397744
751.520039	2484.419247
751.848210	2479.778865
752.176334	2481.903711
752.504411	2480.464462
752.832440	2481.757518
753.160421	2478.689976
753.488356	2481.147538
753.816243	2480.688793
754.144082	2480.381283
754.471875	2481.271047
754.799620	2481.233238
755.127318	2482.705255
755.454969	2478.735346
755.782572	2483.736171
756.110129	2479.836838
756.437638	2481.495378
756.765100	2482.685090
757.092515	2480.761890
757.419882	2482.092755
757.747203	2479.695686
758.074477	2481.639051
758.401703	2479.748618
758.728882	2480.512353
759.056014	2481.132415
759.383099	2484.033599
759.710138	2476.645788
760.037129	2474.150417
760.364073	2480.557723
760.690970	2476.489512
761.017820	2481.059318
761.344623	2481.082003
761.671379	2481.606283
761.998088	2478.367342
762.324751	2477.752321
762.651366	2481.558392
762.977935	2482.337251
763.304456	2481.260964
763.630931	2481.681901
763.957359	2482.044864
764.283740	2480.048567
764.610074	2481.843217
764.936362	2479.809112
765.262602	2480.933289
765.588796	2478.689976
765.914943	2479.516725
766.241044	2479.428505
766.567097	2481.714668
766.893104	2484.225163
767.219064	2482.017137
767.544978	2480.119143
767.870845	2480.736684
768.196665	2479.468834
768.522438	2482.657364
768.848165	2479.703248
769.173846	2482.299442
769.499479	2479.131077
769.825066	2481.313896
770.150607	2479.151241
770.476101	2481.719709
770.801548	2479.519246
771.126949	2481.775162
771.452303	2483.557210
771.777611	2480.232569
772.102872	2481.374390
772.428087	2477.598566
772.753256	2480.961016
773.078378	2481.936479
773.403453	2480.708958
773.728482	2482.939668
774.053465	2481.286170
774.378401	2479.312558
774.703291	2483.269864
775.028135	2477.500263
775.352932	2484.676346
775.677683	2481.006386
776.002388	2480.509832
776.327046	2476.454224
776.651658	2478.848772
776.976224	2477.442290
777.300743	2481.858341
777.625216	2480.204842
777.949643	2479.889770
778.274024	2478.974801
778.598359	2481.490337
778.922647	2480.497229
779.246889	2481.344143
779.571086	2481.427322
779.895236	2482.518732
780.219339	2483.375728
780.543397	2477.717033
780.867409	2481.424802
781.191374	2479.299955
781.515294	2479.602425
781.839167	2481.626448
782.162995	2480.877837
782.486776	2479.667960
782.810511	2481.150059
783.134201	2480.086375
783.457844	2480.620738
783.781441	2482.879175
784.104993	2479.650316
784.428498	2483.504278
784.751958	2480.308186
785.075372	2481.056797
785.398739	2480.600573
785.722061	2479.340285
786.045337	2480.577888
786.368568	2478.715182
786.691752	2481.500419
787.014891	2480.943372
787.337983	2480.414050
787.661030	2480.983701
787.984031	2480.963536
788.306987	2481.631489
788.629897	2480.368680
788.952760	2480.409009
789.275579	2479.098309
789.598351	2480.973618
789.921078	2480.260295
790.243759	2480.832466
790.566395	2480.736684
790.888984	2480.782055
791.211529	2479.534369
791.534027	2480.998824
791.856480	2478.069914
792.178888	2477.616210
792.501249	2476.350880
792.823566	2479.325161
793.145836	2474.087402
793.468062	2478.251395
793.790241	2479.287353
794.112375	2478.067393
794.434464	2478.553865
794.756507	2478.415233
795.078505	2478.705099
795.400457	2480.199801
795.722364	2480.393886
796.044226	2480.479585
796.366042	2481.409678
796.687812	2479.466313
797.009538	2481.036633
797.331218	2480.187198
797.652852	2479.622589
797.974442	2479.302476
798.295986	2481.147538
798.617484	2480.419092
798.938938	2482.506129
799.260346	2479.267188
799.581709	2480.081334
799.903026	2480.081334
800.224299	2478.679893
800.545526	2477.979173
800.866708	2481.500419
801.187845	2477.084368
801.508936	2478.679893
801.829983	2479.904894
802.150984	2479.196612
802.471940	2481.954123
802.792851	2479.418422
803.113717	2479.884729
803.434538	2478.942033
803.755314	2480.671149
804.076045	2478.727784
804.396731	2480.572847
804.717372	2480.348515
805.037967	2482.884216
805.358518	2478.858854
805.679024	2480.681232
805.999485	2479.438587
806.319901	2481.568475
806.640272	2480.484627
806.960598	2478.004379
807.280879	2479.509163
807.601115	2483.292549
807.921306	2481.555872
808.241453	2476.343319
808.561554	2473.169912
808.881611	2476.222331
809.201623	2475.624954
809.521590	2479.151241
809.841513	2477.094451
810.161390	2478.016982
810.481223	2478.213587
810.801011	2480.678711
811.120755	2476.650829
811.440453	2478.541262
811.760107	2480.116622
812.079716	2477.805253
812.399281	2478.437918
812.718801	2481.754997
813.038276	2478.652167
813.357707	2479.604945
813.677093	2479.123515
813.996434	2481.722230
814.315731	2480.391365
814.634983	2482.622076
814.954191	2478.107722
815.273354	2481.079483
815.592473	2479.108392
815.911547	2479.007568
816.230577	2477.507825
816.549562	2480.174596
816.868502	2480.131746
817.187399	2478.042188
817.506250	2477.969091
817.825058	2478.594194
818.143821	2477.177630
818.462539	2478.947075
818.781213	2479.781386
819.099843	2478.125367
819.418429	2479.640233
819.736970	2477.797692
820.055466	2477.923720
820.373919	2479.635192
820.692327	2479.103350
821.010691	2479.824235
821.329011	2480.232569
821.647286	2477.979173
821.965517	2476.940695
822.283704	2483.320276
822.601847	2478.775675
822.919945	2481.223156
823.237999	2477.215438
823.556010	2479.151241
823.873976	2479.652836
824.191897	2475.786271
824.509775	2472.774182
824.827609	2477.071765
825.145398	2476.040849
825.463144	2479.567137
825.780845	2477.699389
826.098502	2476.597897
826.416116	2479.443628
826.733685	2479.771303
827.051210	2479.284832
827.368692	2477.616210
827.686129	2478.437918
828.003522	2478.125367
828.320872	2476.539924
828.638177	2482.138125
828.955439	2478.795840
829.272656	2477.850624
829.589830	2478.861375
829.906960	2479.549493
830.224046	2477.565798
830.541088	2478.430356
830.858086	2479.700727
831.175041	2479.252064
831.491952	2477.081848
831.808819	2481.150059
832.125642	2476.479430
832.442421	2478.344657
832.759157	2476.504636
833.075849	2479.247023
833.392497	2475.945067
833.709101	2477.933803
834.025662	2478.473206
834.342179	2480.971098
834.658653	2478.127887
834.975083	2478.382465
835.291469	2483.108547
835.607811	2476.310551
835.924110	2478.538741
836.240366	2479.864565
836.556578	2476.900366
836.872746	2477.754842
837.188871	2479.569657
837.504952	2476.983545
837.820990	2478.291725
838.136984	2478.032105
838.452935	2479.821715
838.768842	2481.213073
839.084706	2479.163844
839.400526	2479.307517
839.716303	2481.213073
840.032037	2473.956332
840.347727	2474.127732
840.663373	2478.732826
840.978977	2474.215952
841.294537	2475.211580
841.610054	2479.993114
841.925527	2479.652836
842.240957	2479.002527
842.556344	2476.746611
842.871687	2480.076293
843.186987	2480.482106
843.502244	2476.245016
843.817458	2479.241982
844.132629	2477.931282
844.447756	2479.362970
844.762840	2476.333236
845.077881	2478.846252
845.392879	2476.829790
845.707833	2480.290542
846.022745	2479.226859
846.337613	2478.715182
846.652438	2478.705099
846.967221	2478.558906
847.281960	2478.339616
847.596656	2476.345839
847.911309	2479.993114
848.225919	2479.617548
848.540485	2475.640078
848.855009	2480.517394
849.169490	2480.035964
849.483928	2477.767445
849.798323	2477.414564
850.112675	2480.955974
850.426984	2478.909266
850.741251	2477.240644
851.055474	2476.703761
851.369654	2476.832311
851.683792	2479.436067
851.997887	2476.938175
852.311938	2477.467496
852.625947	2478.952116
852.939914	2479.604945
853.253837	2479.395737
853.567718	2477.492702
853.881555	2478.783237
854.195350	2477.376755
854.509103	2477.696868
854.822812	2476.126549
855.136479	2479.604945
855.450103	2477.782568
855.763685	2475.564460
856.077224	2473.779892
856.390720	2476.371045
856.704173	2473.474902
857.017584	2476.862557
857.330953	2476.534882
857.644278	2479.715851
857.957561	2480.940851
858.270802	2477.308700
858.584000	2477.462455
858.897155	2479.957826
859.210268	2477.172588
859.523339	2477.626292
859.836367	2479.607466
860.149352	2476.847434
860.462295	2477.013792
860.775195	2479.899853
861.088054	2478.919348
861.400869	2479.257106
861.713642	2478.745428
862.026373	2480.000676
862.339062	2477.006230
862.651708	2478.314410
862.964312	2477.220479
863.276873	2480.015799
863.589392	2478.616879
863.901869	2477.422126
864.214303	2476.035808
864.526696	2481.623927
864.839045	2479.410861
865.151353	2477.079327
865.463619	2477.107053
865.775842	2479.158803
866.088023	2476.366004
866.400162	2479.252064
866.712258	2479.902373
867.024313	2477.437249
867.336325	2478.672332
867.648296	2477.137300
867.960224	2476.996148
868.272110	2479.083186
868.583954	2478.372383
868.895755	2478.011941
869.207515	2478.470686
869.519233	2477.704430
869.830909	2479.428505
870.142542	2476.013123
870.454134	2475.267032
870.765684	2476.255098
871.077191	2476.600417
871.388657	2475.723257
871.700081	2473.333750
872.011463	2476.905407
872.322803	2473.916003
872.634101	2477.868268
872.945357	2477.633854
873.256571	2476.318113
873.567744	2478.198463
873.878874	2478.001858
874.189963	2480.172075
874.501010	2477.583443
874.812015	2479.322641
875.122979	2480.164513
875.433900	2478.412712
875.744780	2478.284163
876.055618	2475.834162
876.366415	2478.395068
876.677169	2479.325161
876.987882	2476.489512
877.298554	2477.618731
877.609183	2475.874491
877.919771	2477.306179
878.230317	2475.491364
878.540822	2478.778196
878.851285	2478.818525
879.161707	2477.250726
879.472087	2478.153093
879.782425	2475.657722
880.092722	2477.729636
880.402977	2479.035295
880.713191	2474.596559
881.023363	2477.038998
881.333494	2476.673514
881.643583	2476.038329
881.953631	2478.450521
882.263637	2479.882209
882.573602	2479.819194
882.883526	2477.137300
883.193408	2477.089409
883.503248	2477.754842
883.813048	2475.080510
884.122806	2478.503453
884.432522	2479.292394
884.742197	2476.033288
885.051831	2475.468678
885.361424	2475.030098
885.670975	2478.407671
885.980485	2478.266519
886.289954	2477.485140
886.599382	2476.149234
886.908768	2473.114460
887.218113	2470.694706
887.527417	2476.141673
887.836680	2473.099336
888.145901	2476.797023
888.455082	2476.512197
888.764221	2477.490181
889.073319	2475.445993
889.382376	2473.421970
889.691392	2477.074286
890.000366	2476.275263
890.309300	2479.131077
890.618193	2477.565798
890.927044	2477.674183
891.235855	2476.960860
891.544625	2477.404482
891.853353	2477.540593
892.162041	2478.203504
892.470687	2477.661580
892.779293	2477.162506
893.087858	2478.090078
893.396381	2476.038329
893.704864	2477.293576
894.013306	2476.038329
894.321707	2475.551857
894.630068	2477.545634
894.938387	2474.720067
895.246665	2476.318113
895.554903	2476.290387
895.863100	2474.208390
896.171256	2473.744604
896.479371	2477.023874
896.787446	2479.206694
897.095480	2477.185191
897.403473	2477.870788
897.711425	2476.998669
898.019336	2475.360294
898.327207	2478.256437
898.635038	2475.491364
898.942827	2476.756693
899.250576	2476.265181
899.558284	2478.856334
899.865952	2477.301138
900.173579	2475.922382
900.481165	2475.004892
900.788711	2476.628144
901.096216	2477.386837
901.403681	2476.290387
901.711105	2477.946406
902.018489	2474.616723
902.325832	2476.683597
902.633135	2472.098667
902.940397	2474.195787
903.247619	2471.614716
903.554800	2474.226034
903.861941	2476.247537
904.169041	2476.562609
904.476101	2475.372897
904.783121	2477.802733
905.090100	2478.909266
905.397039	2478.861375
905.703938	2477.575881
906.010796	2476.693679
906.317614	2476.953298
906.624391	2474.999851
906.931129	2474.662094
907.237826	2476.355922
907.544483	2476.106384
907.851099	2477.764924
908.157675	2476.204687
908.464211	2476.020685
908.770707	2477.099492
909.077163	2476.885243
909.383578	2475.382979
909.689954	2477.280973
909.996289	2476.635706
910.302584	2477.560757
910.608839	2475.382979
910.915054	2478.596714
911.221229	2475.491364
911.527363	2476.912969
911.833458	2475.919862
912.139513	2477.631333
912.445527	2477.384317
912.751502	2477.245685
913.057436	2478.763072
913.363331	2476.139152
913.669186	2476.930613
913.975000	2477.079327
914.280775	2475.541775
914.586510	2476.045891
914.892205	2475.922382
915.197859	2473.830303
915.503475	2476.880202
915.809050	2476.270222
916.114585	2477.588484
916.420081	2475.705613
916.725536	2474.972125
917.030952	2476.945737
917.336328	2474.281487
917.641665	2474.178143
917.946961	2472.421301
918.252218	2475.934985
918.557435	2471.773513
918.862612	2477.926241
919.167750	2476.817187
919.472848	2473.966415
919.777906	2475.113277
920.082925	2476.663432
920.387904	2475.481281
920.692843	2475.655201
920.997743	2474.281487
921.302603	2478.253916
921.607423	2477.769965
921.912204	2476.882722
922.216946	2477.664101
922.521647	2477.096971
922.826310	2479.776344
923.130932	2477.596045
923.435516	2478.299286
923.740059	2475.370376
924.044564	2479.680563
924.349028	2476.595376
924.653454	2477.170068
924.957840	2477.102012
925.262186	2476.421457
925.566493	2476.053452
925.870761	2476.345839
926.174989	2475.957670
926.479178	2475.589666
926.783328	2475.798874
927.087438	2474.654532
927.391509	2476.741570
927.695541	2474.871302
927.999533	2475.952629
928.303486	2473.585807
928.607400	2476.038329
928.911275	2475.554378
929.215110	2478.652167
929.518906	2473.946250
929.822663	2476.988586
930.126381	2476.297948
930.430060	2477.343988
930.733699	2476.192084
931.037299	2475.428349
931.340861	2474.949440
931.644383	2476.116467
931.947866	2476.509677
932.251309	2475.667804
932.554714	2477.011272
932.858080	2474.596559
933.161407	2471.425673
933.464694	2473.122021
933.767943	2470.419963
934.071153	2477.467496
934.374323	2474.788123
934.677455	2473.792495
934.980548	2475.347691
935.283602	2474.483133
935.586617	2476.219810
935.889593	2476.239975
936.192530	2473.850468
936.495428	2477.069245
936.798287	2474.072279
937.101108	2475.509008
937.403890	2474.591518
937.706632	2476.877681
938.009336	2475.695530
938.312002	2475.700572
938.614628	2474.236116
938.917216	2478.758031
939.219765	2476.227372
939.522275	2476.519759
939.824747	2475.032619
940.127179	2475.188894
940.429573	2474.760396
940.731929	2475.597228
941.034246	2474.588997
941.336524	2476.880202
941.638763	2477.240644
941.940964	2474.709985
942.243126	2473.858030
942.545250	2476.638226
942.847335	2476.166878
943.149381	2475.783751
943.451389	2473.830303
943.753359	2474.778040
944.055290	2474.200828
944.357182	2476.444142
944.659036	2475.690489
944.960851	2472.645632
945.262628	2474.767958
945.564367	2475.622434
945.866067	2474.891466
946.167729	2476.441621
946.469352	2475.907259
946.770937	2474.566312
947.072484	2473.860550
947.373992	2473.679069
947.675462	2475.882053
947.976893	2473.308544
948.278286	2471.733183
948.579641	2472.146558
948.880958	2470.394757
949.182236	2475.163689
949.483476	2475.710654
949.784678	2475.836683
950.085841	2473.709316
950.386967	2472.733853
950.688054	2474.934316
950.989103	2475.869450
951.290114	2475.287197
951.591087	2476.444142
951.892021	2475.622434
952.192917	2475.617393
952.493776	2475.854327
952.794596	2472.696044
953.095378	2474.442804
953.396122	2475.461117
953.696828	2474.062197
953.997496	2474.142855
954.298126	2475.463637
954.598718	2474.715026
954.899272	2474.183184
955.199788	2474.399954
955.500266	2474.495736
955.800706	2474.735191
956.101108	2474.062197
956.401472	2475.677886
956.701798	2477.099492
957.002087	2478.415233
957.302337	2475.075468
957.602550	2475.743421
957.902724	2474.951960
958.202861	2477.336426
958.502960	2476.562609
958.803022	2474.160499
959.103045	2477.928762
959.403031	2477.144862
959.702979	2474.601600
960.002889	2475.398102
960.302762	2476.224852
960.602596	2475.304841
960.902393	2473.585807
961.202153	2475.325006
961.501875	2473.870633
961.801559	2474.435242
962.101205	2474.568833
962.400814	2475.501446
962.700385	2476.905407
962.999918	2473.873153
963.299414	2469.862915
963.598873	2472.416260
963.898293	2470.077164
964.197677	2474.344501
964.497022	2477.989255
964.796331	2473.772330
965.095601	2474.982207
965.394835	2475.418267
965.694030	2474.689820
965.993189	2475.990438
966.292309	2474.750314
966.591393	2475.584625
966.890439	2476.534882
967.189447	2476.514718
967.488419	2472.194449
967.787353	2475.738380
968.086249	2474.780561
968.385108	2475.516569
968.683930	2475.231744
968.982714	2475.869450
969.281462	2476.290387
969.580172	2474.576394
969.878844	2473.913483
970.177480	2475.950109
970.476078	2474.767958
970.774639	2475.715695
971.073162	2472.290231
971.371649	2473.623616
971.670098	2472.859881
971.968510	2474.788123
972.266885	2474.591518
972.565223	2474.707464
972.863524	2473.490026
973.161788	2476.590335
973.460014	2474.520942
973.758204	2474.178143
974.056356	2471.992803
974.354471	2474.601600
974.652550	2476.461786
974.950591	2474.747793
975.248595	2475.012454
975.546563	2474.596559
975.844493	2477.976652
976.142386	2474.485653
976.440243	2473.815180
976.738062	2474.306693
977.035845	2473.341312
977.333590	2475.420787
977.631299	2471.808801
977.928971	2471.254274
978.226606	2471.120683
978.524204	2471.090436
978.821765	2471.738225
979.119290	2475.012454
979.416777	2476.343319
979.714228	2474.402474
980.011642	2473.537917
980.309020	2473.671507
980.606360	2473.573205
980.903664	2474.163020
981.200931	2476.058493
981.498162	2475.783751
981.795356	2477.467496
982.092513	2474.157978
982.389633	2475.254429
982.686717	2474.266363
982.983764	2475.347691
983.280775	2472.383492
983.577749	2472.539768
983.874686	2474.588997
984.171587	2475.793833
984.468451	2473.507670
984.765279	2475.045222
985.062070	2472.829634
985.358824	2476.058493
985.655543	2470.906434
985.952224	2474.379789
986.248869	2476.066055
986.545478	2475.083030
986.842050	2474.289048
987.138586	2475.057824
987.435086	2476.421457
987.731549	2475.143524
988.027975	2474.992289
988.324366	2475.773668
988.620719	2477.349029
988.917037	2474.243678
989.213318	2473.633698
989.509563	2473.971456
989.805772	2474.846096
990.101944	2474.805767
990.398080	2473.545478
990.694180	2476.066055
990.990244	2470.861064
991.286271	2475.652681
991.582262	2473.361476
991.878217	2475.932465
992.174136	2477.016313
992.470019	2474.997331
992.765865	2469.401650
993.061676	2469.789819
993.357450	2470.009109
993.653188	2468.784108
993.948890	2474.493215
994.244556	2473.888277
994.540186	2475.539255
994.835780	2475.940026
995.131337	2472.688482
995.426859	2474.825931
995.722345	2475.350211
996.017795	2473.961373
996.313208	2475.451034
996.608586	2475.617393
996.903928	2472.229737
997.199234	2473.724439
997.494504	2473.046404
997.789738	2474.636888
998.084936	2474.931796
998.380099	2472.605303
998.675225	2476.534882
998.970316	2474.195787
999.265371	2474.800726
999.560390	2475.940026
999.855373	2472.023050
1000.150320	2474.341981
1000.445232	2472.610344
1000.740108	2478.410192
1001.034948	2477.071765
1001.329752	2475.493884
1001.624521	2473.628657
1001.919254	2476.358442
1002.213951	2474.636888
1002.508613	2474.145376
1002.803239	2476.093782
1003.097829	2470.039356
1003.392384	2475.294759
1003.686903	2474.271404
1003.981386	2473.048925
1004.275834	2471.140848
1004.570246	2474.815849
1004.864623	2476.741570
1005.158964	2474.765438
1005.453270	2473.452217
1005.747540	2474.669656
1006.041775	2473.608493
1006.335974	2471.718060
1006.630138	2474.939357
1006.924266	2472.572536
1007.218359	2472.413739
1007.512416	2472.310396
1007.806438	2467.009622
1008.100425	2471.236630
1008.394376	2467.334777
1008.688292	2476.043370
1008.982172	2472.930458
1009.276017	2474.483133
1009.569827	2474.677217
1009.863602	2475.972794
1010.157341	2471.322329
1010.451045	2473.290900
1010.744714	2475.715695
1011.038347	2473.341312
1011.331945	2472.466671
1011.625508	2473.674028
1011.919036	2475.995479
1012.212528	2471.778554
1012.505986	2472.960704
1012.799408	2475.483802
1013.092795	2474.306693
1013.386147	2471.196301
1013.679464	2473.270735
1013.972745	2472.839717
1014.265992	2476.363483
1014.559204	2476.111426
1014.852380	2474.606641
1015.145521	2476.602938
1015.438628	2474.021867
1015.731699	2471.632360
1016.024736	2474.021867
1016.317737	2470.682103
1016.610703	2472.136476
1016.903635	2471.597072
1017.196531	2472.640591
1017.489393	2471.866774
1017.782219	2472.033132
1018.075011	2473.427011
1018.367768	2472.789305
1018.660490	2473.434573
1018.953177	2473.434573
1019.245829	2473.434573
