Dividing Wavelength (nm)	Counts (n)	Blue Motor Position (mm): 1.500000	Red Motor Position (mm): 0.000000	
326.493990	2061.831923
326.888308	2061.831923
327.282561	2061.831923
327.676750	2122.325769
328.070874	1978.652885
328.464933	2074.434808
328.858929	2054.270192
329.252859	2112.243462
329.646726	2054.270192
330.040528	2132.408077
330.434265	2129.887500
330.827938	2185.340192
331.221547	2139.969808
331.615091	2145.010962
332.008571	2134.928654
332.401986	2202.984231
332.795338	2215.587115
333.188625	2218.107692
333.581847	2220.628269
333.975006	2311.369038
334.368100	2245.834038
334.761129	2376.904038
335.154095	2349.177692
335.546996	2288.683846
335.939833	2329.013077
336.332606	2346.657115
336.725315	2331.533654
337.117960	2359.260000
337.510540	2384.465769
337.903056	2450.000769
338.295508	2487.809423
338.687896	2414.712692
339.080220	2419.753846
339.472480	2417.233269
339.864676	2429.836154
340.256807	2502.932885
340.648875	2457.562500
341.040879	2581.070769
341.432818	2487.809423
341.824694	2540.741538
342.216506	2429.836154
342.608253	2442.439038
342.999937	2510.494615
343.391557	2553.344423
343.783113	2444.959615
344.174605	2500.412308
344.566033	2419.753846
344.957397	2510.494615
345.348697	2414.712692
345.739934	2437.397885
346.131106	2384.465769
346.522215	2444.959615
346.913260	2470.165385
347.304241	2538.220962
347.695159	2417.233269
348.086012	2518.056346
348.476802	2442.439038
348.867528	2414.712692
349.258191	2457.562500
349.648789	2386.986346
350.039324	2533.179808
350.429796	2389.506923
350.820203	2437.397885
351.210548	2492.850577
351.600828	2417.233269
351.991045	2455.041923
352.381198	2480.247692
352.771288	2457.562500
353.161314	2394.548077
353.551276	2502.932885
353.941175	2452.521346
354.331010	2550.823846
354.720782	2381.945192
355.110490	2447.480192
355.500135	2460.083077
355.889717	2424.795000
356.279235	2465.124231
356.668689	2399.589231
357.058080	2412.192115
357.447408	2485.288846
357.836672	2376.904038
358.225873	2402.109808
358.615010	2369.342308
359.004084	2429.836154
359.393095	2376.904038
359.782043	2437.397885
360.170927	2480.247692
360.559748	2444.959615
360.948505	2354.218846
361.337199	2427.315577
361.725830	2437.397885
362.114398	2495.371154
362.502903	2402.109808
362.891344	2472.685962
363.279722	2447.480192
363.668037	2482.768269
364.056289	2427.315577
364.444478	2500.412308
364.832603	2505.453462
365.220665	2386.986346
365.608665	2429.836154
365.996601	2427.315577
366.384474	2530.659231
366.772284	2427.315577
367.160031	2452.521346
367.547715	2490.330000
367.935336	2472.685962
368.322893	2439.918462
368.710388	2528.138654
369.097820	2414.712692
369.485189	2515.535769
369.872495	2460.083077
370.259738	2424.795000
370.646918	2457.562500
371.034035	2492.850577
371.421090	2392.027500
371.808081	2465.124231
372.195010	2467.644808
372.581875	2502.932885
372.968678	2520.576923
373.355418	2450.000769
373.742096	2457.562500
374.128710	2447.480192
374.515262	2444.959615
374.901751	2429.836154
375.288177	2450.000769
375.674540	2492.850577
376.060841	2477.727115
376.447079	2422.274423
376.833254	2525.618077
377.219367	2389.506923
377.605417	2439.918462
377.991404	2472.685962
378.377329	2470.165385
378.763191	2467.644808
379.148991	2485.288846
379.534727	2414.712692
379.920402	2470.165385
380.306013	2475.206538
380.691563	2432.356731
381.077049	2457.562500
381.462474	2432.356731
381.847835	2419.753846
382.233134	2432.356731
382.618371	2450.000769
383.003545	2492.850577
383.388657	2470.165385
383.773706	2480.247692
384.158693	2560.906154
384.543618	2419.753846
384.928480	2465.124231
385.313280	2550.823846
385.698017	2439.918462
386.082692	2525.618077
386.467305	2429.836154
386.851856	2568.467885
387.236344	2450.000769
387.620770	2409.671538
388.005133	2422.274423
388.389435	2399.589231
388.773674	2548.303269
389.157851	2450.000769
389.541965	2520.576923
389.926018	2419.753846
390.310008	2535.700385
390.693936	2452.521346
391.077802	2465.124231
391.461606	2455.041923
391.845348	2545.782692
392.229027	2407.150962
392.612645	2565.947308
392.996200	2447.480192
393.379694	2513.015192
393.763125	2397.068654
394.146494	2518.056346
394.529801	2497.891731
394.913047	2497.891731
395.296230	2359.260000
395.679351	2523.097500
396.062410	2457.562500
396.445408	2492.850577
396.828343	2477.727115
397.211217	2399.589231
397.594028	2414.712692
397.976778	2487.809423
398.359466	2480.247692
398.742092	2412.192115
399.124656	2475.206538
399.507158	2492.850577
399.889598	2407.150962
400.271977	2439.918462
400.654294	2465.124231
401.036549	2447.480192
401.418742	2475.206538
401.800874	2442.439038
402.182944	2525.618077
402.564952	2507.974038
402.946898	2543.262115
403.328783	2588.632500
403.710606	2389.506923
404.092367	2412.192115
404.474067	2477.727115
404.855705	2485.288846
405.237282	2452.521346
405.618797	2490.330000
406.000250	2409.671538
406.381642	2447.480192
406.762972	2477.727115
407.144240	2409.671538
407.525447	2515.535769
407.906593	2444.959615
408.287677	2482.768269
408.668700	2482.768269
409.049661	2560.906154
409.430560	2477.727115
409.811399	2412.192115
410.192176	2399.589231
410.572891	2515.535769
410.953545	2434.877308
411.334138	2427.315577
411.714669	2475.206538
412.095139	2500.412308
412.475547	2528.138654
412.855894	2376.904038
413.236180	2523.097500
413.616405	2457.562500
413.996568	2470.165385
414.376670	2452.521346
414.756711	2543.262115
415.136691	2500.412308
415.516609	2487.809423
415.896466	2525.618077
416.276262	2455.041923
416.655997	2485.288846
417.035670	2570.988462
417.415283	2502.932885
417.794834	2563.426731
418.174324	2507.974038
418.553753	2447.480192
418.933121	2475.206538
419.312428	2399.589231
419.691674	2530.659231
420.070859	2518.056346
420.449983	2452.521346
420.829045	2518.056346
421.208047	2525.618077
421.586988	2444.959615
421.965867	2558.385577
422.344686	2520.576923
422.723444	2437.397885
423.102141	2523.097500
423.480777	2487.809423
423.859352	2502.932885
424.237866	2470.165385
424.616319	2472.685962
424.994712	2545.782692
425.373044	2523.097500
425.751314	2490.330000
426.129524	2591.153077
426.507673	2500.412308
426.885762	2482.768269
427.263789	2520.576923
427.641756	2460.083077
428.019662	2490.330000
428.397508	2334.054231
428.775292	2475.206538
429.153016	2500.412308
429.530679	2485.288846
429.908282	2520.576923
430.285824	2427.315577
430.663305	2462.603654
431.040726	2525.618077
431.418086	2462.603654
431.795385	2510.494615
432.172624	2422.274423
432.549802	2515.535769
432.926920	2462.603654
433.303977	2480.247692
433.680974	2424.795000
434.057910	2495.371154
434.434786	2452.521346
434.811601	2475.206538
435.188355	2465.124231
435.565050	2417.233269
435.941683	2487.809423
436.318257	2414.712692
436.694770	2472.685962
437.071222	2472.685962
437.447614	2427.315577
437.823946	2407.150962
438.200218	2502.932885
438.576429	2520.576923
438.952580	2490.330000
439.328670	2442.439038
439.704700	2492.850577
440.080670	2586.111923
440.456580	2530.659231
440.832429	2510.494615
441.208218	2475.206538
441.583947	2515.535769
441.959616	2507.974038
442.335224	2429.836154
442.710773	2465.124231
443.086261	2477.727115
443.461689	2407.150962
443.837057	2492.850577
444.212365	2455.041923
444.587612	2437.397885
444.962800	2502.932885
445.337927	2543.262115
445.712995	2444.959615
446.088002	2442.439038
446.462949	2538.220962
446.837837	2500.412308
447.212664	2520.576923
447.587431	2467.644808
447.962139	2475.206538
448.336786	2422.274423
448.711374	2525.618077
449.085901	2455.041923
449.460369	2518.056346
449.834776	2472.685962
450.209124	2490.330000
450.583412	2523.097500
450.957640	2427.315577
451.331808	2467.644808
451.705917	2560.906154
452.079965	2540.741538
452.453954	2424.795000
452.827883	2477.727115
453.201752	2427.315577
453.575562	2500.412308
453.949311	2495.371154
454.323001	2477.727115
454.696632	2472.685962
455.070202	2492.850577
455.443713	2535.700385
455.817164	2528.138654
456.190556	2442.439038
456.563888	2465.124231
456.937160	2505.453462
457.310373	2447.480192
457.683526	2442.439038
458.056619	2500.412308
458.429653	2502.932885
458.802628	2543.262115
459.175542	2492.850577
459.548398	2450.000769
459.921194	2475.206538
460.293930	2470.165385
460.666607	2414.712692
461.039224	2439.918462
461.411782	2520.576923
461.784280	2492.850577
462.156719	2535.700385
462.529099	2507.974038
462.901419	2515.535769
463.273680	2500.412308
463.645882	2505.453462
464.018024	2492.850577
464.390106	2467.644808
464.762130	2568.467885
465.134094	2444.959615
465.505999	2543.262115
465.877845	2490.330000
466.249631	2442.439038
466.621358	2502.932885
466.993026	2568.467885
467.364634	2475.206538
467.736184	2515.535769
468.107674	2480.247692
468.479105	2505.453462
468.850477	2482.768269
469.221790	2462.603654
469.593043	2497.891731
469.964238	2419.753846
470.335373	2583.591346
470.706449	2560.906154
471.077467	2480.247692
471.448425	2523.097500
471.819324	2455.041923
472.190164	2530.659231
472.560945	2429.836154
472.931667	2535.700385
473.302330	2560.906154
473.672934	2442.439038
474.043479	2409.671538
474.413965	2490.330000
474.784393	2497.891731
475.154761	2429.836154
475.525070	2500.412308
475.895321	2530.659231
476.265513	2490.330000
476.635645	2518.056346
477.005719	2490.330000
477.375734	2495.371154
477.745691	2515.535769
478.115588	2465.124231
478.485427	2397.068654
478.855207	2570.988462
479.224928	2427.315577
479.594591	2507.974038
479.964194	2513.015192
480.333739	2457.562500
480.703226	2535.700385
481.072653	2467.644808
481.442022	2518.056346
481.811333	2515.535769
482.180584	2462.603654
482.549777	2518.056346
482.918912	2472.685962
483.287988	2558.385577
483.657005	2497.891731
484.025964	2450.000769
484.394864	2447.480192
484.763706	2550.823846
485.132489	2437.397885
485.501213	2502.932885
485.869879	2505.453462
486.238487	2553.344423
486.607036	2495.371154
486.975527	2533.179808
487.343959	2505.453462
487.712333	2497.891731
488.080648	2586.111923
488.448905	2497.891731
488.817104	2434.877308
489.185244	2462.603654
489.553326	2568.467885
489.921350	2467.644808
490.289315	2543.262115
490.657222	2518.056346
491.025070	2500.412308
491.392861	2452.521346
491.760593	2487.809423
492.128267	2495.371154
492.495883	2467.644808
492.863440	2560.906154
493.230939	2480.247692
493.598380	2563.426731
493.965763	2452.521346
494.333088	2482.768269
494.700354	2540.741538
495.067563	2520.576923
495.434713	2470.165385
495.801805	2414.712692
496.168839	2530.659231
496.535815	2434.877308
496.902733	2565.947308
497.269593	2490.330000
497.636395	2437.397885
498.003139	2505.453462
498.369825	2487.809423
498.736453	2417.233269
499.103023	2530.659231
499.469535	2477.727115
499.835989	2568.467885
500.202385	2492.850577
500.568723	2533.179808
500.935003	2591.153077
501.301226	2472.685962
501.667390	2513.015192
502.033497	2495.371154
502.399546	2495.371154
502.765537	2535.700385
503.131470	2525.618077
503.497345	2455.041923
503.863163	2573.509038
504.228923	2457.562500
504.594625	2523.097500
504.960269	2447.480192
505.325856	2477.727115
505.691385	2455.041923
506.056856	2518.056346
506.422270	2409.671538
506.787625	2558.385577
507.152924	2533.179808
507.518164	2568.467885
507.883347	2538.220962
508.248472	2525.618077
508.613540	2452.521346
508.978550	2530.659231
509.343503	2528.138654
509.708398	2588.632500
510.073236	2533.179808
510.438016	2510.494615
510.802738	2510.494615
511.167403	2548.303269
511.532010	2457.562500
511.896561	2520.576923
512.261053	2465.124231
512.625488	2470.165385
512.989866	2442.439038
513.354186	2507.974038
513.718449	2490.330000
514.082655	2487.809423
514.446803	2450.000769
514.810894	2485.288846
515.174927	2402.109808
515.538904	2520.576923
515.902822	2447.480192
516.266684	2450.000769
516.630488	2482.768269
516.994235	2550.823846
517.357925	2485.288846
517.721558	2583.591346
518.085133	2485.288846
518.448651	2429.836154
518.812112	2450.000769
519.175516	2482.768269
519.538863	2429.836154
519.902152	2437.397885
520.265385	2525.618077
520.628560	2490.330000
520.991678	2475.206538
521.354739	2505.453462
521.717743	2447.480192
522.080690	2523.097500
522.443580	2460.083077
522.806413	2472.685962
523.169189	2381.945192
523.531908	2497.891731
523.894569	2535.700385
524.257174	2475.206538
524.619722	2505.453462
524.982213	2379.424615
525.344647	2513.015192
525.707025	2477.727115
526.069345	2533.179808
526.431608	2472.685962
526.793815	2455.041923
527.155964	2439.918462
527.518057	2437.397885
527.880093	2460.083077
528.242072	2510.494615
528.603995	2558.385577
528.965860	2465.124231
529.327669	2538.220962
529.689421	2570.988462
530.051117	2450.000769
530.412755	2513.015192
530.774337	2432.356731
531.135862	2487.809423
531.497331	2450.000769
531.858743	2560.906154
532.220098	2460.083077
532.581396	2515.535769
532.942638	2492.850577
533.303824	2490.330000
533.664953	2545.782692
534.026025	2535.700385
534.387040	2487.809423
534.747999	2505.453462
535.108902	2545.782692
535.469748	2513.015192
535.830537	2412.192115
536.191270	2487.809423
536.551947	2538.220962
536.912567	2492.850577
537.273131	2500.412308
537.633638	2429.836154
537.994089	2513.015192
538.354483	2452.521346
538.714821	2586.111923
539.075103	2510.494615
539.435328	2475.206538
539.795497	2576.029615
540.155609	2560.906154
540.515665	2452.521346
540.875665	2495.371154
541.235609	2397.068654
541.595496	2477.727115
541.955328	2379.424615
542.315102	2429.836154
542.674821	2427.315577
543.034483	2467.644808
543.394090	2462.603654
543.753640	2490.330000
544.113134	2444.959615
544.472571	2482.768269
544.831953	2507.974038
545.191278	2510.494615
545.550548	2500.412308
545.909761	2538.220962
546.268918	2434.877308
546.628019	2482.768269
546.987064	2424.795000
547.346053	2460.083077
547.704986	2538.220962
548.063863	2558.385577
548.422684	2510.494615
548.781449	2487.809423
549.140158	2470.165385
549.498811	2513.015192
549.857408	2482.768269
550.215949	2530.659231
550.574434	2437.397885
550.932864	2540.741538
551.291237	2586.111923
551.649555	2560.906154
552.007817	2505.453462
552.366022	2518.056346
552.724173	2460.083077
553.082267	2513.015192
553.440305	2455.041923
553.798288	2487.809423
554.156215	2563.426731
554.514086	2485.288846
554.871902	2555.865000
555.229661	2523.097500
555.587365	2482.768269
555.945014	2505.453462
556.302606	2467.644808
556.660143	2507.974038
557.017625	2480.247692
557.375050	2444.959615
557.732421	2462.603654
558.089735	2528.138654
558.446994	2523.097500
558.804197	2434.877308
559.161345	2452.521346
559.518437	2490.330000
559.875474	2432.356731
560.232455	2495.371154
560.589381	2497.891731
560.946251	2540.741538
561.303065	2555.865000
561.659825	2540.741538
562.016528	2477.727115
562.373177	2467.644808
562.729770	2444.959615
563.086307	2447.480192
563.442789	2439.918462
563.799216	2497.891731
564.155587	2492.850577
564.511904	2523.097500
564.868164	2553.344423
565.224370	2424.795000
565.580520	2523.097500
565.936615	2530.659231
566.292654	2581.070769
566.648638	2520.576923
567.004567	2432.356731
567.360441	2455.041923
567.716260	2470.165385
568.072023	2570.988462
568.427732	2460.083077
568.783385	2465.124231
569.138982	2437.397885
569.494525	2470.165385
569.850013	2530.659231
570.205445	2505.453462
570.560823	2502.932885
570.916145	2538.220962
571.271412	2500.412308
571.626625	2424.795000
571.981782	2472.685962
572.336884	2465.124231
572.691931	2513.015192
573.046923	2490.330000
573.401860	2447.480192
573.756743	2565.947308
574.111570	2492.850577
574.466342	2515.535769
574.821059	2495.371154
575.175722	2502.932885
575.530330	2578.550192
575.884882	2565.947308
576.239380	2422.274423
576.593823	2492.850577
576.948211	2520.576923
577.302544	2477.727115
577.656823	2523.097500
578.011047	2485.288846
578.365216	2515.535769
578.719330	2550.823846
579.073389	2482.768269
579.427394	2581.070769
579.781344	2472.685962
580.135239	2513.015192
580.489080	2439.918462
580.842866	2535.700385
581.196597	2515.535769
581.550273	2550.823846
581.903895	2465.124231
582.257463	2485.288846
582.610975	2437.397885
582.964434	2477.727115
583.317837	2455.041923
583.671186	2427.315577
584.024481	2507.974038
584.377721	2472.685962
584.730906	2543.262115
585.084037	2553.344423
585.437113	2558.385577
585.790135	2513.015192
586.143103	2485.288846
586.496016	2535.700385
586.848874	2490.330000
587.201679	2432.356731
587.554428	2465.124231
587.907124	2417.233269
588.259765	2548.303269
588.612352	2570.988462
588.964884	2490.330000
589.317362	2477.727115
589.669786	2447.480192
590.022155	2588.632500
590.374470	2641.564615
590.726731	2485.288846
591.078937	2477.727115
591.431090	2477.727115
591.783188	2538.220962
592.135232	2520.576923
592.487222	2442.439038
592.839157	2412.192115
593.191038	2462.603654
593.542866	2538.220962
593.894639	2470.165385
594.246358	2495.371154
594.598022	2545.782692
594.949633	2510.494615
595.301190	2497.891731
595.652692	2550.823846
596.004141	2553.344423
596.355535	2472.685962
596.706876	2540.741538
597.058162	2528.138654
597.409395	2460.083077
597.760573	2490.330000
598.111698	2490.330000
598.462768	2505.453462
598.813785	2568.467885
599.164748	2540.741538
599.515657	2505.453462
599.866511	2560.906154
600.217312	2492.850577
600.568060	2462.603654
600.918753	2505.453462
601.269392	2472.685962
601.619978	2465.124231
601.970510	2530.659231
602.320988	2465.124231
602.671412	2467.644808
603.021783	2434.877308
603.372100	2563.426731
603.722363	2485.288846
604.072572	2533.179808
604.422728	2507.974038
604.772830	2482.768269
605.122878	2434.877308
605.472872	2538.220962
605.822813	2450.000769
606.172701	2502.932885
606.522534	2490.330000
606.872314	2477.727115
607.222041	2457.562500
607.571714	2450.000769
607.921333	2505.453462
608.270899	2450.000769
608.620411	2583.591346
608.969870	2518.056346
609.319276	2560.906154
609.668627	2462.603654
610.017926	2550.823846
610.367171	2525.618077
610.716362	2513.015192
611.065500	2490.330000
611.414585	2535.700385
611.763616	2520.576923
612.112594	2533.179808
612.461518	2510.494615
612.810389	2450.000769
613.159207	2487.809423
613.507971	2485.288846
613.856682	2419.753846
614.205340	2460.083077
614.553945	2540.741538
614.902496	2482.768269
615.250994	2497.891731
615.599439	2515.535769
615.947830	2439.918462
616.296169	2475.206538
616.644454	2525.618077
616.992686	2487.809423
617.340864	2487.809423
617.688990	2510.494615
618.037063	2492.850577
618.385082	2487.809423
618.733048	2497.891731
619.080961	2568.467885
619.428821	2495.371154
619.776628	2515.535769
620.124382	2523.097500
620.472083	2507.974038
620.819731	2492.850577
621.167326	2553.344423
621.514868	2477.727115
621.862357	2510.494615
622.209793	2603.755962
622.557176	2525.618077
622.904506	2500.412308
623.251783	2613.838269
623.599007	2515.535769
623.946179	2555.865000
624.293297	2447.480192
624.640363	2460.083077
624.987376	2455.041923
625.334336	2553.344423
625.681243	2482.768269
626.028097	2497.891731
626.374899	2470.165385
626.721647	2492.850577
627.068343	2434.877308
627.414987	2414.712692
627.761577	2523.097500
628.108115	2515.535769
628.454600	2500.412308
628.801032	2487.809423
629.147412	2538.220962
629.493739	2485.288846
629.840014	2457.562500
630.186236	2555.865000
630.532405	2528.138654
630.878521	2407.150962
631.224585	2417.233269
631.570597	2543.262115
631.916556	2523.097500
632.262462	2543.262115
632.608316	2467.644808
632.954117	2563.426731
633.299866	2505.453462
633.645562	2525.618077
633.991206	2525.618077
634.336797	2518.056346
634.682336	2495.371154
635.027823	2472.685962
635.373257	2507.974038
635.718639	2447.480192
636.063968	2523.097500
636.409245	2462.603654
636.754470	2545.782692
637.099642	2472.685962
637.444762	2497.891731
637.789829	2505.453462
638.134845	2455.041923
638.479808	2457.562500
638.824719	2434.877308
639.169577	2422.274423
639.514383	2543.262115
639.859137	2533.179808
640.203839	2533.179808
640.548489	2548.303269
640.893086	2540.741538
641.237632	2455.041923
641.582125	2641.564615
641.926566	2434.877308
642.270955	2497.891731
642.615292	2550.823846
642.959576	2548.303269
643.303809	2414.712692
643.647990	2518.056346
643.992118	2432.356731
644.336195	2596.194231
644.680219	2578.550192
645.024192	2523.097500
645.368112	2427.315577
645.711981	2500.412308
646.055797	2497.891731
646.399562	2397.068654
646.743274	2450.000769
647.086935	2492.850577
647.430544	2510.494615
647.774101	2538.220962
648.117606	2482.768269
648.461059	2555.865000
648.804460	2550.823846
649.147810	2510.494615
649.491108	2452.521346
649.834354	2505.453462
650.177548	2518.056346
650.520690	2485.288846
650.863781	2525.618077
651.206820	2591.153077
651.549807	2502.932885
651.892742	2467.644808
652.235626	2588.632500
652.578458	2467.644808
652.921238	2545.782692
653.263967	2470.165385
653.606644	2533.179808
653.949269	2568.467885
654.291843	2447.480192
654.634365	2553.344423
654.976836	2439.918462
655.319255	2520.576923
655.661622	2457.562500
656.003938	2492.850577
656.346203	2500.412308
656.688416	2555.865000
657.030577	2540.741538
657.372687	2452.521346
657.714746	2490.330000
658.056753	2470.165385
658.398708	2477.727115
658.740612	2490.330000
659.082465	2510.494615
659.424266	2565.947308
659.766016	2419.753846
660.107715	2502.932885
660.449362	2535.700385
660.790958	2480.247692
661.132503	2543.262115
661.473996	2525.618077
661.815438	2490.330000
662.156829	2558.385577
662.498168	2429.836154
662.839456	2480.247692
663.180693	2523.097500
663.521879	2354.218846
663.863013	2518.056346
664.204097	2495.371154
664.545129	2515.535769
664.886110	2576.029615
665.227040	2482.768269
665.567918	2487.809423
665.908746	2502.932885
666.249522	2477.727115
666.590248	2487.809423
666.930922	2485.288846
667.271545	2487.809423
667.612118	2495.371154
667.952639	2417.233269
668.293109	2538.220962
668.633528	2437.397885
668.973896	2467.644808
669.314213	2618.879423
669.654480	2462.603654
669.994695	2533.179808
670.334859	2558.385577
670.674973	2412.192115
671.015035	2502.932885
671.355047	2520.576923
671.695008	2530.659231
672.034918	2487.809423
672.374777	2515.535769
672.714585	2480.247692
673.054342	2515.535769
673.394049	2540.741538
673.733705	2492.850577
674.073310	2588.632500
674.412864	2409.671538
674.752368	2528.138654
675.091820	2424.795000
675.431223	2515.535769
675.770574	2538.220962
676.109875	2545.782692
676.449125	2467.644808
676.788324	2548.303269
677.127473	2533.179808
677.466571	2513.015192
677.805619	2578.550192
678.144616	2518.056346
678.483562	2467.644808
678.822458	2520.576923
679.161303	2505.453462
679.500098	2472.685962
679.838842	2553.344423
680.177535	2497.891731
680.516179	2485.288846
680.854771	2472.685962
681.193314	2515.535769
681.531805	2414.712692
681.870247	2518.056346
682.208638	2513.015192
682.546978	2515.535769
682.885268	2513.015192
683.223508	2417.233269
683.561697	2528.138654
683.899836	2586.111923
684.237925	2528.138654
684.575963	2611.317692
684.913951	2492.850577
685.251889	2477.727115
685.589776	2492.850577
685.927614	2432.356731
686.265401	2490.330000
686.603137	2455.041923
686.940824	2472.685962
687.278460	2455.041923
687.616046	2485.288846
687.953582	2490.330000
688.291068	2477.727115
688.628504	2465.124231
688.965889	2487.809423
689.303224	2502.932885
689.640510	2550.823846
689.977745	2497.891731
690.314930	2472.685962
690.652065	2452.521346
690.989150	2515.535769
691.326185	2510.494615
691.663170	2457.562500
692.000105	2419.753846
692.336990	2500.412308
692.673825	2507.974038
693.010610	2475.206538
693.347345	2538.220962
693.684030	2500.412308
694.020665	2460.083077
694.357251	2477.727115
694.693786	2513.015192
695.030272	2497.891731
695.366707	2465.124231
695.703093	2545.782692
696.039429	2477.727115
696.375716	2530.659231
696.711952	2543.262115
697.048139	2533.179808
697.384276	2457.562500
697.720363	2548.303269
698.056400	2444.959615
698.392388	2465.124231
698.728326	2565.947308
699.064214	2482.768269
699.400053	2513.015192
699.735842	2457.562500
700.071581	2518.056346
700.407270	2452.521346
700.742910	2480.247692
701.078501	2570.988462
701.414042	2513.015192
701.749533	2447.480192
702.084974	2545.782692
702.420366	2480.247692
702.755709	2586.111923
703.091002	2460.083077
703.426246	2528.138654
703.761440	2502.932885
704.096584	2470.165385
704.431679	2533.179808
704.766725	2540.741538
705.101721	2553.344423
705.436668	2530.659231
705.771565	2586.111923
706.106413	2545.782692
706.441212	2439.918462
706.775961	2439.918462
707.110661	2515.535769
707.445311	2381.945192
707.779913	2538.220962
708.114465	2490.330000
708.448967	2510.494615
708.783421	2467.644808
709.117825	2621.400000
709.452180	2452.521346
709.786485	2505.453462
710.120742	2505.453462
710.454949	2452.521346
710.789107	2490.330000
711.123216	2470.165385
711.457275	2437.397885
711.791286	2432.356731
712.125247	2535.700385
712.459159	2525.618077
712.793023	2576.029615
713.126837	2482.768269
713.460602	2520.576923
713.794318	2487.809423
714.127985	2502.932885
714.461602	2487.809423
714.795171	2424.795000
715.128691	2470.165385
715.462162	2523.097500
715.795584	2374.383462
716.128957	2507.974038
716.462281	2528.138654
716.795556	2495.371154
717.128782	2505.453462
717.461960	2482.768269
717.795088	2528.138654
718.128167	2573.509038
718.461198	2502.932885
718.794180	2392.027500
719.127113	2515.535769
719.459997	2442.439038
719.792833	2414.712692
720.125619	2480.247692
720.458357	2399.589231
720.791046	2412.192115
721.123686	2465.124231
721.456278	2487.809423
721.788821	2480.247692
722.121315	2505.453462
722.453761	2455.041923
722.786158	2472.685962
723.118506	2457.562500
723.450805	2530.659231
723.783056	2452.521346
724.115259	2427.315577
724.447412	2565.947308
724.779518	2553.344423
725.111574	2485.288846
725.443582	2530.659231
725.775542	2487.809423
726.107453	2472.685962
726.439315	2460.083077
726.771129	2548.303269
727.102895	2480.247692
727.434612	2502.932885
727.766281	2495.371154
728.097901	2450.000769
728.429473	2502.932885
728.760996	2490.330000
729.092471	2455.041923
729.423897	2497.891731
729.755276	2475.206538
730.086606	2465.124231
730.417887	2545.782692
730.749120	2533.179808
731.080305	2528.138654
731.411442	2507.974038
731.742530	2452.521346
732.073570	2417.233269
732.404562	2465.124231
732.735506	2482.768269
733.066401	2523.097500
733.397249	2490.330000
733.728048	2538.220962
734.058798	2538.220962
734.389501	2505.453462
734.720156	2555.865000
735.050762	2515.535769
735.381320	2457.562500
735.711831	2457.562500
736.042293	2543.262115
736.372707	2523.097500
736.703073	2482.768269
737.033391	2492.850577
737.363661	2457.562500
737.693883	2424.795000
738.024056	2500.412308
738.354182	2495.371154
738.684260	2505.453462
739.014290	2477.727115
739.344272	2437.397885
739.674207	2545.782692
740.004093	2548.303269
740.333931	2452.521346
740.663722	2533.179808
740.993464	2482.768269
741.323159	2523.097500
741.652806	2482.768269
741.982405	2515.535769
742.311956	2485.288846
742.641460	2565.947308
742.970915	2475.206538
743.300323	2480.247692
743.629683	2442.439038
743.958996	2523.097500
744.288260	2558.385577
744.617477	2442.439038
744.946647	2550.823846
745.275768	2505.453462
745.604842	2515.535769
745.933869	2578.550192
746.262847	2500.412308
746.591778	2495.371154
746.920662	2538.220962
747.249498	2507.974038
747.578286	2533.179808
747.907027	2520.576923
748.235720	2472.685962
748.564365	2487.809423
748.892963	2538.220962
749.221514	2450.000769
749.550017	2591.153077
749.878473	2470.165385
750.206881	2507.974038
750.535242	2482.768269
750.863555	2570.988462
751.191821	2510.494615
751.520039	2490.330000
751.848210	2568.467885
752.176334	2475.206538
752.504411	2555.865000
752.832440	2470.165385
753.160421	2530.659231
753.488356	2533.179808
753.816243	2417.233269
754.144082	2457.562500
754.471875	2480.247692
754.799620	2560.906154
755.127318	2510.494615
755.454969	2553.344423
755.782572	2472.685962
756.110129	2530.659231
756.437638	2545.782692
756.765100	2470.165385
757.092515	2439.918462
757.419882	2530.659231
757.747203	2505.453462
758.074477	2487.809423
758.401703	2540.741538
758.728882	2384.465769
759.056014	2450.000769
759.383099	2543.262115
759.710138	2523.097500
760.037129	2510.494615
760.364073	2513.015192
760.690970	2550.823846
761.017820	2419.753846
761.344623	2581.070769
761.671379	2495.371154
761.998088	2450.000769
762.324751	2500.412308
762.651366	2565.947308
762.977935	2495.371154
763.304456	2507.974038
763.630931	2510.494615
763.957359	2515.535769
764.283740	2507.974038
764.610074	2492.850577
764.936362	2513.015192
765.262602	2480.247692
765.588796	2467.644808
765.914943	2497.891731
766.241044	2510.494615
766.567097	2535.700385
766.893104	2520.576923
767.219064	2447.480192
767.544978	2528.138654
767.870845	2475.206538
768.196665	2548.303269
768.522438	2485.288846
768.848165	2523.097500
769.173846	2477.727115
769.499479	2417.233269
769.825066	2467.644808
770.150607	2472.685962
770.476101	2490.330000
770.801548	2492.850577
771.126949	2558.385577
771.452303	2497.891731
771.777611	2545.782692
772.102872	2500.412308
772.428087	2460.083077
772.753256	2492.850577
773.078378	2432.356731
773.403453	2447.480192
773.728482	2586.111923
774.053465	2530.659231
774.378401	2570.988462
774.703291	2475.206538
775.028135	2502.932885
775.352932	2528.138654
775.677683	2475.206538
776.002388	2601.235385
776.327046	2518.056346
776.651658	2525.618077
776.976224	2442.439038
777.300743	2553.344423
777.625216	2480.247692
777.949643	2502.932885
778.274024	2492.850577
778.598359	2490.330000
778.922647	2450.000769
779.246889	2540.741538
779.571086	2409.671538
779.895236	2550.823846
780.219339	2545.782692
780.543397	2460.083077
780.867409	2460.083077
781.191374	2495.371154
781.515294	2540.741538
781.839167	2477.727115
782.162995	2485.288846
782.486776	2581.070769
782.810511	2507.974038
783.134201	2525.618077
783.457844	2457.562500
783.781441	2497.891731
784.104993	2465.124231
784.428498	2583.591346
784.751958	2502.932885
785.075372	2548.303269
785.398739	2487.809423
785.722061	2548.303269
786.045337	2515.535769
786.368568	2475.206538
786.691752	2407.150962
787.014891	2518.056346
787.337983	2442.439038
787.661030	2518.056346
787.984031	2518.056346
788.306987	2528.138654
788.629897	2528.138654
788.952760	2460.083077
789.275579	2528.138654
789.598351	2548.303269
789.921078	2507.974038
790.243759	2518.056346
790.566395	2460.083077
790.888984	2467.644808
791.211529	2467.644808
791.534027	2452.521346
791.856480	2492.850577
792.178888	2455.041923
792.501249	2593.673654
792.823566	2432.356731
793.145836	2535.700385
793.468062	2515.535769
793.790241	2417.233269
794.112375	2475.206538
794.434464	2439.918462
794.756507	2507.974038
795.078505	2538.220962
795.400457	2462.603654
795.722364	2497.891731
796.044226	2510.494615
796.366042	2518.056346
796.687812	2528.138654
797.009538	2429.836154
797.331218	2477.727115
797.652852	2500.412308
797.974442	2538.220962
798.295986	2528.138654
798.617484	2565.947308
798.938938	2533.179808
799.260346	2495.371154
799.581709	2518.056346
799.903026	2397.068654
800.224299	2477.727115
800.545526	2520.576923
800.866708	2422.274423
801.187845	2538.220962
801.508936	2553.344423
801.829983	2437.397885
802.150984	2424.795000
802.471940	2465.124231
802.792851	2487.809423
803.113717	2480.247692
803.434538	2472.685962
803.755314	2558.385577
804.076045	2437.397885
804.396731	2487.809423
804.717372	2510.494615
805.037967	2540.741538
805.358518	2457.562500
805.679024	2513.015192
805.999485	2533.179808
806.319901	2414.712692
806.640272	2495.371154
806.960598	2412.192115
807.280879	2495.371154
807.601115	2611.317692
807.921306	2502.932885
808.241453	2487.809423
808.561554	2465.124231
808.881611	2492.850577
809.201623	2505.453462
809.521590	2429.836154
809.841513	2507.974038
810.161390	2563.426731
810.481223	2429.836154
810.801011	2437.397885
811.120755	2520.576923
811.440453	2482.768269
811.760107	2439.918462
812.079716	2530.659231
812.399281	2538.220962
812.718801	2565.947308
813.038276	2444.959615
813.357707	2515.535769
813.677093	2500.412308
813.996434	2477.727115
814.315731	2558.385577
814.634983	2432.356731
814.954191	2427.315577
815.273354	2545.782692
815.592473	2442.439038
815.911547	2477.727115
816.230577	2414.712692
816.549562	2452.521346
816.868502	2412.192115
817.187399	2480.247692
817.506250	2497.891731
817.825058	2457.562500
818.143821	2455.041923
818.462539	2434.877308
818.781213	2450.000769
819.099843	2497.891731
819.418429	2482.768269
819.736970	2442.439038
820.055466	2432.356731
820.373919	2565.947308
820.692327	2452.521346
821.010691	2505.453462
821.329011	2485.288846
821.647286	2505.453462
821.965517	2427.315577
822.283704	2485.288846
822.601847	2497.891731
822.919945	2487.809423
823.237999	2447.480192
823.556010	2437.397885
823.873976	2513.015192
824.191897	2613.838269
824.509775	2422.274423
824.827609	2482.768269
825.145398	2492.850577
825.463144	2495.371154
825.780845	2560.906154
826.098502	2545.782692
826.416116	2581.070769
826.733685	2495.371154
827.051210	2563.426731
827.368692	2470.165385
827.686129	2487.809423
828.003522	2399.589231
828.320872	2528.138654
828.638177	2540.741538
828.955439	2495.371154
829.272656	2538.220962
829.589830	2444.959615
829.906960	2518.056346
830.224046	2414.712692
830.541088	2518.056346
830.858086	2543.262115
831.175041	2462.603654
831.491952	2533.179808
831.808819	2437.397885
832.125642	2366.821731
832.442421	2429.836154
832.759157	2535.700385
833.075849	2550.823846
833.392497	2563.426731
833.709101	2462.603654
834.025662	2540.741538
834.342179	2528.138654
834.658653	2485.288846
834.975083	2515.535769
835.291469	2490.330000
835.607811	2429.836154
835.924110	2543.262115
836.240366	2518.056346
836.556578	2553.344423
836.872746	2444.959615
837.188871	2535.700385
837.504952	2434.877308
837.820990	2482.768269
838.136984	2450.000769
838.452935	2513.015192
838.768842	2502.932885
839.084706	2523.097500
839.400526	2555.865000
839.716303	2545.782692
840.032037	2480.247692
840.347727	2545.782692
840.663373	2480.247692
840.978977	2538.220962
841.294537	2513.015192
841.610054	2450.000769
841.925527	2492.850577
842.240957	2389.506923
842.556344	2502.932885
842.871687	2560.906154
843.186987	2480.247692
843.502244	2485.288846
843.817458	2500.412308
844.132629	2596.194231
844.447756	2470.165385
844.762840	2540.741538
845.077881	2412.192115
845.392879	2470.165385
845.707833	2477.727115
846.022745	2495.371154
846.337613	2399.589231
846.652438	2510.494615
846.967221	2495.371154
847.281960	2477.727115
847.596656	2492.850577
847.911309	2480.247692
848.225919	2560.906154
848.540485	2487.809423
848.855009	2482.768269
849.169490	2485.288846
849.483928	2495.371154
849.798323	2455.041923
850.112675	2497.891731
850.426984	2490.330000
850.741251	2497.891731
851.055474	2553.344423
851.369654	2533.179808
851.683792	2487.809423
851.997887	2450.000769
852.311938	2518.056346
852.625947	2470.165385
852.939914	2490.330000
853.253837	2558.385577
853.567718	2429.836154
853.881555	2437.397885
854.195350	2450.000769
854.509103	2515.535769
854.822812	2613.838269
855.136479	2470.165385
855.450103	2422.274423
855.763685	2414.712692
856.077224	2523.097500
856.390720	2515.535769
856.704173	2460.083077
857.017584	2525.618077
857.330953	2523.097500
857.644278	2535.700385
857.957561	2513.015192
858.270802	2444.959615
858.584000	2548.303269
858.897155	2475.206538
859.210268	2543.262115
859.523339	2429.836154
859.836367	2467.644808
860.149352	2467.644808
860.462295	2568.467885
860.775195	2480.247692
861.088054	2500.412308
861.400869	2523.097500
861.713642	2513.015192
862.026373	2467.644808
862.339062	2460.083077
862.651708	2530.659231
862.964312	2495.371154
863.276873	2520.576923
863.589392	2442.439038
863.901869	2550.823846
864.214303	2480.247692
864.526696	2472.685962
864.839045	2480.247692
865.151353	2540.741538
865.463619	2515.535769
865.775842	2480.247692
866.088023	2510.494615
866.400162	2429.836154
866.712258	2465.124231
867.024313	2462.603654
867.336325	2540.741538
867.648296	2560.906154
867.960224	2621.400000
868.272110	2543.262115
868.583954	2565.947308
868.895755	2500.412308
869.207515	2505.453462
869.519233	2485.288846
869.830909	2455.041923
870.142542	2447.480192
870.454134	2515.535769
870.765684	2452.521346
871.077191	2507.974038
871.388657	2568.467885
871.700081	2477.727115
872.011463	2447.480192
872.322803	2520.576923
872.634101	2518.056346
872.945357	2518.056346
873.256571	2502.932885
873.567744	2452.521346
873.878874	2505.453462
874.189963	2518.056346
874.501010	2472.685962
874.812015	2414.712692
875.122979	2565.947308
875.433900	2523.097500
875.744780	2457.562500
876.055618	2540.741538
876.366415	2497.891731
876.677169	2452.521346
876.987882	2515.535769
877.298554	2417.233269
877.609183	2379.424615
877.919771	2437.397885
878.230317	2495.371154
878.540822	2583.591346
878.851285	2437.397885
879.161707	2510.494615
879.472087	2447.480192
879.782425	2528.138654
880.092722	2515.535769
880.402977	2462.603654
880.713191	2384.465769
881.023363	2482.768269
881.333494	2528.138654
881.643583	2538.220962
881.953631	2505.453462
882.263637	2427.315577
882.573602	2555.865000
882.883526	2462.603654
883.193408	2502.932885
883.503248	2502.932885
883.813048	2492.850577
884.122806	2538.220962
884.432522	2525.618077
884.742197	2535.700385
885.051831	2444.959615
885.361424	2424.795000
885.670975	2538.220962
885.980485	2462.603654
886.289954	2492.850577
886.599382	2386.986346
886.908768	2472.685962
887.218113	2422.274423
887.527417	2525.618077
887.836680	2480.247692
888.145901	2492.850577
888.455082	2434.877308
888.764221	2550.823846
889.073319	2437.397885
889.382376	2414.712692
889.691392	2480.247692
890.000366	2533.179808
890.309300	2500.412308
890.618193	2487.809423
890.927044	2482.768269
891.235855	2510.494615
891.544625	2500.412308
891.853353	2444.959615
892.162041	2588.632500
892.470687	2465.124231
892.779293	2450.000769
893.087858	2510.494615
893.396381	2528.138654
893.704864	2497.891731
894.013306	2477.727115
894.321707	2485.288846
894.630068	2444.959615
894.938387	2457.562500
895.246665	2477.727115
895.554903	2447.480192
895.863100	2492.850577
896.171256	2507.974038
896.479371	2457.562500
896.787446	2402.109808
897.095480	2533.179808
897.403473	2379.424615
897.711425	2477.727115
898.019336	2487.809423
898.327207	2460.083077
898.635038	2550.823846
898.942827	2450.000769
899.250576	2553.344423
899.558284	2472.685962
899.865952	2540.741538
900.173579	2495.371154
900.481165	2450.000769
900.788711	2490.330000
901.096216	2505.453462
901.403681	2495.371154
901.711105	2507.974038
902.018489	2555.865000
902.325832	2545.782692
902.633135	2563.426731
902.940397	2528.138654
903.247619	2538.220962
903.554800	2568.467885
903.861941	2603.755962
904.169041	2500.412308
904.476101	2533.179808
904.783121	2563.426731
905.090100	2568.467885
905.397039	2450.000769
905.703938	2510.494615
906.010796	2495.371154
906.317614	2515.535769
906.624391	2538.220962
906.931129	2470.165385
907.237826	2495.371154
907.544483	2538.220962
907.851099	2477.727115
908.157675	2482.768269
908.464211	2520.576923
908.770707	2477.727115
909.077163	2457.562500
909.383578	2432.356731
909.689954	2495.371154
909.996289	2465.124231
910.302584	2482.768269
910.608839	2533.179808
910.915054	2550.823846
911.221229	2472.685962
911.527363	2447.480192
911.833458	2429.836154
912.139513	2586.111923
912.445527	2636.523462
912.751502	2444.959615
913.057436	2523.097500
913.363331	2490.330000
913.669186	2462.603654
913.975000	2477.727115
914.280775	2538.220962
914.586510	2460.083077
914.892205	2490.330000
915.197859	2480.247692
915.503475	2427.315577
915.809050	2412.192115
916.114585	2555.865000
916.420081	2555.865000
916.725536	2384.465769
917.030952	2417.233269
917.336328	2490.330000
917.641665	2472.685962
917.946961	2507.974038
918.252218	2573.509038
918.557435	2457.562500
918.862612	2460.083077
919.167750	2455.041923
919.472848	2422.274423
919.777906	2530.659231
920.082925	2543.262115
920.387904	2550.823846
920.692843	2422.274423
920.997743	2510.494615
921.302603	2505.453462
921.607423	2611.317692
921.912204	2560.906154
922.216946	2490.330000
922.521647	2485.288846
922.826310	2402.109808
923.130932	2455.041923
923.435516	2540.741538
923.740059	2434.877308
924.044564	2533.179808
924.349028	2439.918462
924.653454	2457.562500
924.957840	2485.288846
925.262186	2412.192115
925.566493	2480.247692
925.870761	2399.589231
926.174989	2472.685962
926.479178	2487.809423
926.783328	2530.659231
927.087438	2586.111923
927.391509	2505.453462
927.695541	2495.371154
927.999533	2462.603654
928.303486	2495.371154
928.607400	2457.562500
928.911275	2482.768269
929.215110	2563.426731
929.518906	2535.700385
929.822663	2452.521346
930.126381	2533.179808
930.430060	2510.494615
930.733699	2439.918462
931.037299	2447.480192
931.340861	2535.700385
931.644383	2490.330000
931.947866	2434.877308
932.251309	2389.506923
932.554714	2523.097500
932.858080	2568.467885
933.161407	2520.576923
933.464694	2477.727115
933.767943	2439.918462
934.071153	2505.453462
934.374323	2472.685962
934.677455	2480.247692
934.980548	2376.904038
935.283602	2545.782692
935.586617	2447.480192
935.889593	2540.741538
936.192530	2495.371154
936.495428	2528.138654
936.798287	2538.220962
937.101108	2492.850577
937.403890	2495.371154
937.706632	2523.097500
938.009336	2482.768269
938.312002	2528.138654
938.614628	2475.206538
938.917216	2533.179808
939.219765	2475.206538
939.522275	2535.700385
939.824747	2497.891731
940.127179	2472.685962
940.429573	2399.589231
940.731929	2502.932885
941.034246	2452.521346
941.336524	2558.385577
941.638763	2565.947308
941.940964	2530.659231
942.243126	2500.412308
942.545250	2480.247692
942.847335	2397.068654
943.149381	2528.138654
943.451389	2480.247692
943.753359	2439.918462
944.055290	2525.618077
944.357182	2502.932885
944.659036	2487.809423
944.960851	2576.029615
945.262628	2530.659231
945.564367	2447.480192
945.866067	2505.453462
946.167729	2477.727115
946.469352	2462.603654
946.770937	2500.412308
947.072484	2513.015192
947.373992	2502.932885
947.675462	2467.644808
947.976893	2480.247692
948.278286	2460.083077
948.579641	2404.630385
948.880958	2480.247692
949.182236	2492.850577
949.483476	2500.412308
949.784678	2429.836154
950.085841	2518.056346
950.386967	2550.823846
950.688054	2475.206538
950.989103	2505.453462
951.290114	2450.000769
951.591087	2497.891731
951.892021	2444.959615
952.192917	2568.467885
952.493776	2497.891731
952.794596	2450.000769
953.095378	2533.179808
953.396122	2412.192115
953.696828	2452.521346
953.997496	2568.467885
954.298126	2460.083077
954.598718	2475.206538
954.899272	2495.371154
955.199788	2444.959615
955.500266	2447.480192
955.800706	2475.206538
956.101108	2513.015192
956.401472	2467.644808
956.701798	2482.768269
957.002087	2447.480192
957.302337	2502.932885
957.602550	2465.124231
957.902724	2477.727115
958.202861	2444.959615
958.502960	2477.727115
958.803022	2560.906154
959.103045	2477.727115
959.403031	2392.027500
959.702979	2553.344423
960.002889	2472.685962
960.302762	2505.453462
960.602596	2432.356731
960.902393	2515.535769
961.202153	2540.741538
961.501875	2444.959615
961.801559	2462.603654
962.101205	2475.206538
962.400814	2528.138654
962.700385	2550.823846
962.999918	2487.809423
963.299414	2520.576923
963.598873	2502.932885
963.898293	2492.850577
964.197677	2480.247692
964.497022	2417.233269
964.796331	2480.247692
965.095601	2414.712692
965.394835	2510.494615
965.694030	2545.782692
965.993189	2543.262115
966.292309	2465.124231
966.591393	2513.015192
966.890439	2490.330000
967.189447	2457.562500
967.488419	2490.330000
967.787353	2513.015192
968.086249	2460.083077
968.385108	2540.741538
968.683930	2472.685962
968.982714	2444.959615
969.281462	2495.371154
969.580172	2505.453462
969.878844	2429.836154
970.177480	2485.288846
970.476078	2492.850577
970.774639	2397.068654
971.073162	2533.179808
971.371649	2495.371154
971.670098	2472.685962
971.968510	2520.576923
972.266885	2523.097500
972.565223	2520.576923
972.863524	2553.344423
973.161788	2480.247692
973.460014	2485.288846
973.758204	2515.535769
974.056356	2525.618077
974.354471	2515.535769
974.652550	2429.836154
974.950591	2467.644808
975.248595	2447.480192
975.546563	2523.097500
975.844493	2452.521346
976.142386	2399.589231
976.440243	2452.521346
976.738062	2427.315577
977.035845	2520.576923
977.333590	2490.330000
977.631299	2570.988462
977.928971	2490.330000
978.226606	2502.932885
978.524204	2434.877308
978.821765	2550.823846
979.119290	2545.782692
979.416777	2576.029615
979.714228	2485.288846
980.011642	2402.109808
980.309020	2560.906154
980.606360	2543.262115
980.903664	2518.056346
981.200931	2472.685962
981.498162	2455.041923
981.795356	2495.371154
982.092513	2505.453462
982.389633	2482.768269
982.686717	2470.165385
982.983764	2427.315577
983.280775	2482.768269
983.577749	2427.315577
983.874686	2444.959615
984.171587	2500.412308
984.468451	2568.467885
984.765279	2485.288846
985.062070	2462.603654
985.358824	2467.644808
985.655543	2480.247692
985.952224	2568.467885
986.248869	2442.439038
986.545478	2550.823846
986.842050	2492.850577
987.138586	2490.330000
987.435086	2482.768269
987.731549	2505.453462
988.027975	2470.165385
988.324366	2515.535769
988.620719	2419.753846
988.917037	2419.753846
989.213318	2553.344423
989.509563	2444.959615
989.805772	2457.562500
990.101944	2570.988462
990.398080	2535.700385
990.694180	2434.877308
990.990244	2457.562500
991.286271	2507.974038
991.582262	2434.877308
991.878217	2447.480192
992.174136	2513.015192
992.470019	2472.685962
992.765865	2502.932885
993.061676	2518.056346
993.357450	2452.521346
993.653188	2475.206538
993.948890	2414.712692
994.244556	2470.165385
994.540186	2548.303269
994.835780	2470.165385
995.131337	2482.768269
995.426859	2507.974038
995.722345	2490.330000
996.017795	2513.015192
996.313208	2550.823846
996.608586	2495.371154
996.903928	2538.220962
997.199234	2344.136538
997.494504	2460.083077
997.789738	2455.041923
998.084936	2548.303269
998.380099	2447.480192
998.675225	2563.426731
998.970316	2560.906154
999.265371	2502.932885
999.560390	2412.192115
999.855373	2437.397885
1000.150320	2429.836154
1000.445232	2404.630385
1000.740108	2384.465769
1001.034948	2515.535769
1001.329752	2563.426731
1001.624521	2545.782692
1001.919254	2487.809423
1002.213951	2447.480192
1002.508613	2518.056346
1002.803239	2490.330000
1003.097829	2502.932885
1003.392384	2462.603654
1003.686903	2492.850577
1003.981386	2482.768269
1004.275834	2455.041923
1004.570246	2485.288846
1004.864623	2409.671538
1005.158964	2540.741538
1005.453270	2490.330000
1005.747540	2543.262115
1006.041775	2417.233269
1006.335974	2520.576923
1006.630138	2485.288846
1006.924266	2540.741538
1007.218359	2515.535769
1007.512416	2462.603654
1007.806438	2490.330000
1008.100425	2487.809423
1008.394376	2535.700385
1008.688292	2533.179808
1008.982172	2495.371154
1009.276017	2460.083077
1009.569827	2523.097500
1009.863602	2462.603654
1010.157341	2525.618077
1010.451045	2487.809423
1010.744714	2490.330000
1011.038347	2520.576923
1011.331945	2485.288846
1011.625508	2442.439038
1011.919036	2563.426731
1012.212528	2515.535769
1012.505986	2409.671538
1012.799408	2437.397885
1013.092795	2470.165385
1013.386147	2520.576923
1013.679464	2412.192115
1013.972745	2399.589231
1014.265992	2457.562500
1014.559204	2475.206538
1014.852380	2460.083077
1015.145521	2525.618077
1015.438628	2465.124231
1015.731699	2482.768269
1016.024736	2457.562500
1016.317737	2460.083077
1016.610703	2462.603654
1016.903635	2573.509038
1017.196531	2525.618077
1017.489393	2492.850577
1017.782219	2444.959615
1018.075011	2434.877308
1018.367768	2495.371154
1018.660490	2457.562500
1018.953177	2457.562500
1019.245829	2457.562500
