Dividing Wavelength (nm)	Counts (n)	Blue Motor Position (mm): 38.500000	Red Motor Position (mm): 0.000000	
326.493990	2095.406008
326.888308	2095.406008
327.282561	2095.406008
327.676750	2074.883470
328.070874	2074.079406
328.464933	2083.680284
328.858929	2092.835019
329.252859	2104.502770
329.646726	2121.274689
330.040528	2136.962759
330.434265	2156.570327
330.827938	2175.058759
331.221547	2194.502489
331.615091	2214.498226
332.008571	2236.162585
332.401986	2256.813672
332.795338	2275.392844
333.188625	2293.460339
333.581847	2314.640747
333.975006	2333.232523
334.368100	2351.673063
334.761129	2367.688809
335.154095	2382.900491
335.546996	2429.778181
335.939833	2514.177178
336.332606	2525.562624
336.725315	2537.658873
337.117960	2545.452497
337.510540	2554.186296
337.903056	2564.192986
338.295508	2570.713719
338.687896	2576.470716
339.080220	2585.378435
339.472480	2592.070567
339.864676	2592.267172
340.256807	2595.196082
340.648875	2599.128182
341.040879	2599.332349
341.432818	2601.812597
341.824694	2600.408635
342.216506	2600.670775
342.608253	2603.057762
342.999937	2601.167329
343.391557	2599.591968
343.783113	2595.702718
344.174605	2595.485949
344.566033	2592.935125
344.957397	2592.733479
345.348697	2591.465628
345.739934	2587.190730
346.131106	2586.953796
346.522215	2586.235431
346.913260	2586.802561
347.304241	2585.106213
347.695159	2582.620924
348.086012	2580.594380
348.476802	2578.648495
348.867528	2578.850141
349.258191	2578.414081
349.648789	2578.658577
350.039324	2575.568350
350.429796	2576.422825
350.820203	2574.897876
351.210548	2573.624985
351.600828	2570.078533
351.991045	2572.399985
352.381198	2569.511403
352.771288	2571.316137
353.161314	2569.982751
353.551276	2574.194635
353.941175	2569.740776
354.331010	2572.004254
354.720782	2575.684296
355.110490	2572.089954
355.500135	2571.180025
355.889717	2571.232958
356.279235	2574.204718
356.668689	2573.698082
357.058080	2573.297310
357.447408	2569.617268
357.836672	2569.791187
358.225873	2569.017370
358.615010	2573.549368
359.004084	2576.664801
359.393095	2577.763772
359.782043	2578.436766
360.170927	2575.286045
360.559748	2578.920717
360.948505	2578.540110
361.337199	2581.259813
361.725830	2580.196129
362.114398	2579.376942
362.502903	2579.576067
362.891344	2582.744432
363.279722	2582.757035
363.668037	2582.678897
364.056289	2583.104875
364.444478	2583.525811
364.832603	2585.247365
365.220665	2587.893971
365.608665	2588.826584
365.996601	2589.287850
366.384474	2588.703076
366.772284	2587.614187
367.160031	2588.536718
367.547715	2589.512181
367.935336	2588.380442
368.322893	2589.960844
368.710388	2590.696852
369.097820	2592.259610
369.485189	2593.827409
369.872495	2591.475711
370.259738	2591.621904
370.646918	2591.304312
371.034035	2593.023345
371.421090	2594.518047
371.808081	2595.828747
372.195010	2592.521750
372.581875	2595.738006
372.968678	2595.732965
373.355418	2596.010229
373.742096	2598.064499
374.128710	2600.234716
374.515262	2598.934098
374.901751	2598.404777
375.288177	2600.375868
375.674540	2601.437031
376.060841	2602.276383
376.447079	2602.223451
376.833254	2601.893255
377.219367	2601.885693
377.605417	2603.516507
377.991404	2602.420056
378.377329	2602.024325
378.763191	2602.825869
379.148991	2606.929368
379.534727	2608.807198
379.920402	2609.374327
380.306013	2611.521859
380.691563	2610.599328
381.077049	2612.467075
381.462474	2613.797940
381.847835	2612.532610
382.233134	2616.280708
382.618371	2615.411109
383.003545	2616.605863
383.388657	2619.406224
383.773706	2618.854217
384.158693	2617.324227
384.543618	2621.062243
384.928480	2619.643158
385.313280	2620.802623
385.698017	2622.153652
386.082692	2623.817233
386.467305	2624.543159
386.851856	2626.443674
387.236344	2628.230763
387.620770	2628.727317
388.005133	2630.406021
388.389435	2629.657410
388.773674	2632.944242
389.157851	2632.876187
389.541965	2634.564973
389.926018	2636.974645
390.310008	2637.897176
390.693936	2639.732156
391.077802	2638.696199
391.461606	2641.776344
391.845348	2643.777682
392.229027	2645.138793
392.612645	2647.218269
392.996200	2650.444608
393.379694	2653.650782
393.763125	2657.973571
394.146494	2660.642862
394.529801	2662.631597
394.913047	2668.605365
395.296230	2671.362876
395.679351	2677.762621
396.062410	2683.088600
396.445408	2687.600432
396.828343	2696.654345
397.211217	2703.346476
397.594028	2711.848382
397.976778	2725.628376
398.359466	2742.697723
398.742092	2753.498395
399.124656	2775.901283
399.507158	2799.899696
399.889598	2824.571103
400.271977	2854.676874
400.654294	2883.787017
401.036549	2920.544590
401.418742	2958.161680
401.800874	3009.838548
402.182944	3054.079714
402.564952	3121.754684
402.946898	3166.406704
403.328783	3218.806978
403.710606	3295.112403
404.092367	3376.950494
404.474067	3486.935868
404.855705	3533.344731
405.237282	3604.866101
405.618797	3734.191862
406.000250	3855.958412
406.381642	3997.642562
406.762972	4084.231941
407.144240	4146.777537
407.525447	4289.701810
407.906593	4377.062485
408.287677	4534.439747
408.668700	4683.627654
409.049661	4795.601763
409.430560	4954.506494
409.811399	5071.849432
410.192176	5232.568978
410.572891	5377.303026
410.953545	5652.103884
411.334138	5631.583867
411.714669	5947.616322
412.095139	5870.108582
412.475547	6174.042268
412.855894	6263.164827
413.236180	6530.978645
413.616405	6548.327776
413.996568	6805.807229
414.376670	6939.692714
414.756711	7029.480705
415.136691	7305.562016
415.516609	7538.733025
415.896466	7730.548929
416.276262	8038.835652
416.655997	8416.511336
417.035670	8595.973892
417.415283	9097.062064
417.794834	9306.738776
418.174324	9326.701745
418.553753	9433.380122
418.933121	9890.774093
419.312428	9948.790212
419.691674	10049.648577
420.070859	10505.197486
420.449983	10427.173027
420.829045	10961.686569
421.208047	10943.838364
421.586988	11408.090825
421.965867	11740.822102
422.344686	11882.113041
422.723444	12469.155407
423.102141	11636.071966
423.480777	12672.371880
423.859352	12434.736929
424.237866	13441.979632
424.616319	13370.826266
424.994712	14030.788922
425.373044	13996.103263
425.751314	14690.015569
426.129524	14105.476137
426.507673	15122.097906
426.885762	15011.716802
427.263789	15287.513287
427.641756	15550.779985
428.019662	15717.236365
428.397508	15861.786410
428.775292	16219.592387
429.153016	16304.893751
429.530679	16466.273688
429.908282	16590.240703
430.285824	16430.274809
430.663305	17161.226993
431.040726	16879.403808
431.418086	16801.979247
431.795385	17456.646170
432.172624	17943.757743
432.549802	17596.107171
432.926920	17855.174588
433.303977	17795.472203
433.680974	18109.059698
434.057910	18452.689950
434.434786	18531.263894
434.811601	18505.170882
435.188355	19572.057997
435.565050	19282.673081
435.941683	19284.714748
436.318257	20191.444405
436.694770	20024.562048
437.071222	20639.217334
437.447614	19754.441902
437.823946	19814.696293
438.200218	20008.448000
438.576429	19793.326842
438.952580	20123.262800
439.328670	20105.903586
439.704700	20530.093997
440.080670	20133.503904
440.456580	20747.327399
440.832429	20929.408835
441.208218	19950.613363
441.583947	20404.382744
441.959616	20530.416631
442.335224	20785.919952
442.710773	20929.620563
443.086261	21498.350937
443.461689	20837.120431
443.837057	20994.333855
444.212365	21646.754945
444.587612	21665.961741
444.962800	21265.752099
445.337927	21702.555477
445.712995	20408.869371
446.088002	22322.166216
446.462949	22529.521477
446.837837	22727.590932
447.212664	22764.593001
447.587431	25742.188329
447.962139	28717.202586
448.336786	30991.473774
448.711374	29299.249168
449.085901	25574.312865
449.460369	25613.288546
449.834776	25632.502904
450.209124	28189.839921
450.583412	27655.107088
450.957640	28116.244116
451.331808	26780.653419
451.705917	25398.731997
452.079965	25460.670134
452.453954	25858.686874
452.827883	25769.632371
453.201752	25564.545629
453.575562	25733.421763
453.949311	26878.918110
454.323001	26958.462477
454.696632	26735.421666
455.070202	28346.723149
455.443713	28522.389717
455.817164	29113.580952
456.190556	29660.021864
456.563888	29066.516739
456.937160	29497.190074
457.310373	27790.431822
457.683526	28243.008970
458.056619	28253.451721
458.429653	28226.882319
458.802628	28850.588997
459.175542	28992.074020
459.548398	30363.537568
459.921194	32007.677128
460.293930	32771.840433
460.666607	34842.529664
461.039224	36638.115567
461.411782	36968.028839
461.784280	35670.763514
462.156719	35130.087162
462.529099	34560.908125
462.901419	33235.863522
463.273680	32184.099868
463.645882	32317.062822
464.018024	32332.135872
464.390106	33284.336736
464.762130	36208.642027
465.134094	40563.662067
465.505999	46070.668940
465.877845	50554.576161
466.249631	51534.642003
466.621358	49657.974182
466.993026	47437.771890
467.364634	45312.751624
467.736184	43354.555742
468.107674	42084.167328
468.479105	41279.493310
468.850477	40565.406306
469.221790	39103.990930
469.593043	37322.038827
469.964238	36432.381038
470.335373	36388.825468
470.706449	38275.953684
471.077467	41093.169744
471.448425	45738.421614
471.819324	48437.243654
472.190164	46380.924233
472.560945	42756.334618
472.931667	39628.238162
473.302330	38535.802480
473.672934	37700.546302
474.043479	38240.952953
474.413965	37453.789383
474.784393	37071.813594
475.154761	38004.507714
475.525070	38049.018582
475.895321	37561.521361
476.265513	38194.710449
476.635645	39192.211122
477.005719	39044.996827
477.375734	39556.822656
477.745691	40290.083689
478.115588	41671.115347
478.485427	43808.055421
478.855207	47302.479924
479.224928	49939.908272
479.594591	51457.310703
479.964194	50355.291787
480.333739	50489.618373
480.703226	50586.005234
481.072653	51253.383428
481.442022	51707.813200
481.811333	51903.115062
482.180584	50615.342229
482.549777	50113.197936
482.918912	49590.112689
483.287988	49267.942629
483.657005	48427.758723
484.025964	47758.384233
484.394864	47767.518804
484.763706	47330.763317
485.132489	46438.358099
485.501213	46279.468491
485.869879	46435.010773
486.238487	46031.098403
486.607036	46234.123313
486.975527	45667.530388
487.343959	45887.818728
487.712333	45961.873278
488.080648	45855.777155
488.448905	46322.071283
488.817104	46131.818136
489.185244	47159.328798
489.553326	48959.091298
489.921350	51719.327195
490.289315	54501.328274
490.657222	55006.033474
491.025070	55227.287196
491.392861	54300.254292
491.760593	53059.969128
492.128267	51371.752240
492.495883	49825.141364
492.863440	48411.455632
493.230939	47027.689148
493.598380	45934.668692
493.965763	45601.309791
494.333088	44762.804589
494.700354	44284.721723
495.067563	43981.012368
495.434713	43830.564173
495.801805	43914.945527
496.168839	43513.415102
496.535815	43169.379038
496.902733	43201.289541
497.269593	42764.597069
497.636395	42698.888149
498.003139	43085.779063
498.369825	42549.009604
498.736453	42842.364429
499.103023	42365.884649
499.469535	42242.915784
499.835989	42342.160979
500.202385	41981.151350
500.568723	42004.869978
500.935003	42188.932588
501.301226	41988.269459
501.667390	42626.391316
502.033497	42866.130948
502.399546	42282.990436
502.765537	41562.123080
503.131470	41953.848460
503.497345	42298.300420
503.863163	40939.248193
504.228923	41581.826430
504.594625	41996.337826
504.960269	41254.781574
505.325856	41967.237765
505.691385	41321.728097
506.056856	41451.575617
506.422270	41888.734397
506.787625	41445.851387
507.152924	41654.507266
507.518164	41744.302818
507.883347	40941.292381
508.248472	41188.291276
508.613540	41683.821575
508.978550	41979.918788
509.343503	41730.464851
509.708398	41934.160234
510.073236	42471.600166
510.438016	42466.604383
510.802738	41916.352358
511.167403	42552.692167
511.532010	42767.399950
511.896561	43081.690687
512.261053	43925.337865
512.625488	43470.865243
512.989866	43345.965616
513.354186	43195.635887
513.718449	43169.666383
514.082655	43857.793966
514.446803	43519.890464
514.810894	44046.754056
515.174927	43972.951563
515.538904	43849.173593
515.902822	44534.515937
516.266684	43965.954442
516.630488	44405.142286
516.994235	44248.251496
517.357925	44828.493344
517.721558	45008.757444
518.085133	45321.160269
518.448651	45426.195230
518.812112	45203.464450
519.175516	45303.922043
519.538863	45634.359595
519.902152	45592.986846
520.265385	46069.300267
520.628560	46079.949704
520.991678	45881.222379
521.354739	46112.487832
521.717743	46426.319823
522.080690	46338.669282
522.443580	46860.794188
522.806413	46902.928152
523.169189	46859.584311
523.531908	47042.187507
523.894569	46895.041267
524.257174	47041.920325
524.619722	47341.248917
524.982213	47312.572314
525.344647	47232.417967
525.707025	47284.417469
526.069345	47699.937096
526.431608	47600.084441
526.793815	47904.665915
527.155964	47440.007642
527.518057	47602.526880
527.880093	47396.361332
528.242072	47919.630580
528.603995	47613.110783
528.965860	47611.195144
529.327669	47702.850883
529.689421	47605.463352
530.051117	47555.823110
530.412755	47716.751864
530.774337	47773.822767
531.135862	47568.178978
531.497331	47773.187582
531.858743	47660.835386
532.220098	47997.972632
532.581396	47703.642344
532.942638	47364.788585
533.303824	47690.043831
533.664953	47644.234866
534.026025	47364.728091
534.387040	47833.245368
534.747999	47776.421482
535.108902	47949.683419
535.469748	47445.810010
535.830537	47555.124910
536.191270	47745.526771
536.551947	47403.534894
536.912567	47710.069815
537.273131	47817.380857
537.633638	47334.171137
537.994089	47653.230805
538.354483	47236.133298
538.714821	47822.905962
539.075103	48168.325823
539.435328	47922.534285
539.795497	47788.298440
540.155609	47771.970143
540.515665	48259.053989
540.875665	47692.047690
541.235609	48029.815080
541.595496	47990.894852
541.955328	48666.926185
542.315102	48021.529944
542.674821	47796.523083
543.034483	47833.497426
543.394090	47810.371132
543.753640	47771.743291
544.113134	48775.321075
544.472571	47747.691946
544.831953	49002.293986
545.191278	48202.275474
545.550548	47920.127134
545.909761	48381.909429
546.268918	48572.764993
546.628019	48890.783663
546.987064	48436.490002
547.346053	47696.778813
547.704986	48574.355477
548.063863	48132.034557
548.422684	48307.015527
548.781449	48131.903487
549.140158	48544.748781
549.498811	48371.353253
549.857408	47790.819017
550.215949	48648.523453
550.574434	48567.020598
550.932864	48309.281526
551.291237	49035.348832
551.649555	48628.827665
552.007817	48868.456393
552.366022	48510.269809
552.724173	48677.134522
553.082267	49061.550229
553.440305	49328.363379
553.798288	48628.598293
554.156215	48956.726997
554.514086	49155.159415
554.871902	48887.809382
555.229661	48890.753416
555.587365	48722.691429
555.945014	48802.109767
556.302606	48745.205222
556.660143	48945.384400
557.017625	49021.899033
557.375050	48814.740378
557.732421	49152.570782
558.089735	49108.856417
558.446994	49020.013642
558.804197	49488.936732
559.161345	49413.720196
559.518437	48641.551537
559.875474	48959.681113
560.232455	49136.623092
560.589381	49305.330347
560.946251	48996.574797
561.303065	49642.248302
561.659825	49426.703687
562.016528	49100.140262
562.373177	48816.245162
562.729770	49287.935845
563.086307	48793.822110
563.442789	49256.269837
563.799216	49264.393657
564.155587	49070.551209
564.511904	49082.287015
564.868164	49155.383746
565.224370	49388.211957
565.580520	49124.426020
565.936615	49327.561835
566.292654	49032.815652
566.648638	49288.994488
567.004567	49237.085727
567.360441	49275.844638
567.716260	49119.515937
568.072023	49405.177960
568.427732	49379.715092
568.783385	48913.299977
569.138982	49298.181991
569.494525	49243.737529
569.850013	48987.941821
570.205445	48966.143872
570.560823	48908.563813
570.916145	48770.489129
571.271412	48804.668153
571.626625	48546.331703
571.981782	48568.573274
572.336884	48245.029499
572.691931	48572.414633
573.046923	48174.009724
573.401860	47994.053135
573.756743	47941.214281
574.111570	48061.206345
574.466342	47903.524094
574.821059	48001.813991
575.175722	47505.535080
575.530330	47534.783855
575.884882	47219.615957
576.239380	47180.342848
576.593823	47137.341806
576.948211	47051.319557
577.302544	46571.527739
577.656823	46579.230622
578.011047	46793.157027
578.365216	46519.760131
578.719330	46304.618808
579.073389	46132.786038
579.427394	46200.375308
579.781344	46171.779363
580.135239	45807.946687
580.489080	45864.493310
580.842866	45338.769019
581.196597	45769.737261
581.550273	45724.376959
581.903895	45597.581857
582.257463	45989.337485
582.610975	45360.105703
582.964434	45643.519372
583.317837	45256.051246
583.671186	45096.586947
584.024481	45291.336803
584.377721	44804.341176
584.730906	45094.585609
585.084037	45122.037212
585.437113	44838.623543
585.790135	44846.477661
586.143103	44430.063230
586.496016	44532.101225
586.848874	44551.807095
587.201679	44567.003653
587.554428	44035.421542
587.907124	44240.140279
588.259765	43969.200945
588.612352	44202.389598
588.964884	43581.382459
589.317362	43868.375348
589.669786	43789.030107
590.022155	43550.409610
590.374470	43965.452847
590.726731	43477.564937
591.078937	42988.081501
591.431090	43093.146709
591.783188	42722.778177
592.135232	42407.343099
592.487222	42653.933660
592.839157	42723.115934
593.191038	42366.177036
593.542866	42122.669141
593.894639	41520.087419
594.246358	41793.166723
594.598022	41764.648915
594.949633	41372.086704
595.301190	41323.361431
595.652692	41153.240133
596.004141	41466.295787
596.355535	40469.697480
596.706876	40415.424418
597.058162	40239.455381
597.409395	40708.950642
597.760573	40784.210027
598.111698	40370.951358
598.462768	40382.205734
598.813785	40411.257904
599.164748	39847.225885
599.515657	40227.903577
599.866511	39725.676104
600.217312	40332.716727
600.568060	39300.079212
600.918753	40040.362572
601.269392	39977.632974
601.619978	39637.269389
601.970510	39833.597126
602.320988	40019.494715
602.671412	40324.983597
603.021783	40079.653325
603.372100	39724.249458
603.722363	39812.557870
604.072572	39872.361078
604.422728	39907.994474
604.772830	39703.326149
605.122878	39819.071041
605.472872	39749.054455
605.822813	40008.247901
606.172701	39834.499492
606.522534	40088.281259
606.872314	40328.030975
607.222041	40100.233835
607.571714	40471.229991
607.921333	39935.141088
608.270899	40192.660870
608.620411	40557.244678
608.969870	40340.139826
609.319276	40354.313030
609.668627	40394.188557
610.017926	40874.915508
610.367171	41016.052693
610.716362	41107.496703
611.065500	41036.222349
611.414585	41229.074210
611.763616	41522.033304
612.112594	41460.551392
612.461518	41675.082735
612.810389	41981.811741
613.159207	41843.232942
613.507971	41914.681216
613.856682	42375.568706
614.205340	42264.118877
614.553945	42965.857574
614.902496	42417.770725
615.250994	42886.867735
615.599439	42967.102739
615.947830	43151.699711
616.296169	43219.261255
616.644454	43326.169004
616.992686	43487.213705
617.340864	44023.715983
617.688990	43727.679264
618.037063	44333.941029
618.385082	44285.392197
618.733048	44586.444863
619.080961	44602.029590
619.428821	44613.876302
619.776628	44722.203136
620.124382	44556.770111
620.472083	44674.352504
620.819731	44784.816787
621.167326	44470.369775
621.514868	44451.420078
621.862357	44007.438097
622.209793	44045.216504
622.557176	43684.499261
622.904506	43426.495528
623.251783	43083.051798
623.599007	42855.763816
623.946179	42639.823470
624.293297	42579.869027
624.640363	41998.155162
624.987376	41971.918476
625.334336	41735.226221
625.681243	41380.074412
626.028097	41350.991995
626.374899	41203.891126
626.721647	41188.379496
627.068343	41066.517163
627.414987	40839.597185
627.761577	40603.817378
628.108115	40941.849429
628.454600	40392.872816
628.801032	40584.565212
629.147412	40553.594883
629.493739	40531.076049
629.840014	40191.599708
630.186236	40531.249968
630.532405	40117.653542
630.878521	40338.551863
631.224585	40204.154701
631.570597	39929.628586
631.916556	40080.076782
632.262462	40024.177947
632.608316	40039.306450
632.954117	39945.051996
633.299866	39914.323643
633.645562	39853.610507
633.991206	39350.533600
634.336797	38894.594002
634.682336	38912.059079
635.027823	38677.264818
635.373257	38481.652926
635.718639	38241.814990
636.063968	38104.219217
636.409245	37529.404170
636.754470	37583.011800
637.099642	37332.683223
637.444762	36855.767384
637.789829	36988.581624
638.134845	36637.848386
638.479808	36601.168951
638.824719	36505.288725
639.169577	36116.030990
639.514383	36168.332961
639.859137	35863.048246
640.203839	36121.372092
640.548489	35735.779276
640.893086	35813.211399
641.237632	35572.806333
641.582125	35683.605854
641.926566	35609.359740
642.270955	35568.198719
642.615292	35598.216269
642.959576	35570.936065
643.303809	35556.909055
643.647990	35717.006019
643.992118	35680.838260
644.336195	35670.377866
644.680219	35758.807266
645.024192	36064.023926
645.368112	36584.190344
645.711981	36588.026662
646.055797	37448.866696
646.399562	37382.699031
646.743274	38322.032351
647.086935	38774.475909
647.430544	38662.325359
647.774101	38758.989484
648.117606	39019.697796
648.461059	39308.397115
648.804460	38906.428111
649.147810	38285.247051
649.491108	38036.214051
649.834354	37660.741351
650.177548	36830.586821
650.520690	36373.951544
650.863781	36405.678046
651.206820	36259.920644
651.549807	35822.474519
651.892742	35339.040468
652.235626	35142.085108
652.578458	35021.977097
652.921238	34417.618368
653.263967	34742.074591
653.606644	34416.111063
653.949269	34363.882188
654.291843	33933.206333
654.634365	34340.715566
654.976836	33956.264571
655.319255	33945.879794
655.661622	33957.666012
656.003938	33733.468256
656.346203	33600.379274
656.688416	33822.638706
657.030577	33633.844974
657.372687	33456.356029
657.714746	33723.297728
658.056753	33831.962320
658.398708	33287.442087
658.740612	33341.780684
659.082465	33620.090185
659.424266	33450.919145
659.766016	33583.410750
660.107715	33438.162505
660.449362	33563.997267
660.790958	33541.402815
661.132503	33535.988616
661.473996	33574.056889
661.815438	33706.430027
662.156829	33897.787186
662.498168	33652.877850
662.839456	33676.475491
663.180693	33833.923329
663.521879	33988.001155
663.863013	33960.090807
664.204097	33943.964155
664.545129	34403.273765
664.886110	34355.203842
665.227040	34427.335192
665.567918	34549.981424
665.908746	34605.600474
666.249522	34775.051299
666.590248	34783.031446
666.930922	34863.820977
667.271545	34856.551633
667.612118	34917.534471
667.952639	34701.463056
668.293109	34751.365438
668.633528	34653.125952
668.973896	34590.585397
669.314213	34622.947085
669.654480	34348.683110
669.994695	34374.773601
670.334859	34261.022485
670.674973	34138.282992
671.015035	34308.139630
671.355047	34261.592136
671.695008	34190.433729
672.034918	34107.456336
672.374777	34189.501115
672.714585	34031.982702
673.054342	34258.305303
673.394049	34004.097559
673.733705	34286.160199
674.073310	33948.110504
674.412864	34014.023591
674.752368	33632.128461
675.091820	33925.538738
675.431223	33488.160669
675.770574	33208.079202
676.109875	33064.187027
676.449125	32777.090795
676.788324	32705.382902
677.127473	32161.737310
677.466571	32093.255755
677.805619	31753.265217
678.144616	31756.715886
678.483562	31665.458399
678.822458	31339.139469
679.161303	31275.968770
679.500098	31184.895285
679.838842	31083.535325
680.177535	31228.125700
680.516179	31504.456548
680.854771	31769.684255
681.193314	32644.901659
681.531805	33777.003661
681.870247	34512.001371
682.208638	35236.130353
682.546978	35436.748112
682.885268	35508.657651
683.223508	35010.291702
683.561697	34659.722302
683.899836	34465.552179
684.237925	33963.914522
684.575963	33801.992660
684.913951	33346.766386
685.251889	33505.600540
685.589776	33487.810308
685.927614	33514.084802
686.265401	33641.726818
686.603137	33736.906323
686.940824	34237.681943
687.278460	34626.584277
687.616046	34738.291205
687.953582	35334.090055
688.291068	35192.589908
688.628504	35487.817521
688.965889	35393.931072
689.303224	35007.410683
689.640510	34677.915826
689.977745	33915.300155
690.314930	33117.567805
690.652065	32599.982458
690.989150	31880.294732
691.326185	30960.473198
691.663170	30267.445614
692.000105	29518.070533
692.336990	28851.927423
692.673825	28380.967707
693.010610	27867.611888
693.347345	27296.358416
693.684030	26627.747661
694.020665	26346.942789
694.357251	25673.008575
694.693786	25621.147705
695.030272	25393.708487
695.366707	24845.278840
695.703093	24555.974582
696.039429	24558.900972
696.375716	24289.088336
696.711952	24268.056642
697.048139	24107.906746
697.384276	23918.994547
697.720363	24044.841912
698.056400	23834.484644
698.392388	23619.653352
698.728326	23582.341252
699.064214	23392.748497
699.400053	23318.572959
699.735842	22953.918575
700.071581	22679.820958
700.407270	22381.664435
700.742910	22194.768697
701.078501	21930.609715
701.414042	21653.066469
701.749533	21348.129594
702.084974	20994.094400
702.420366	21205.434693
702.755709	20757.427351
703.091002	20462.227464
703.426246	20490.513378
703.761440	20384.308869
704.096584	20104.345870
704.431679	20060.830630
704.766725	19966.228337
705.101721	19914.818650
705.436668	19990.796400
705.771565	19676.699748
706.106413	20016.501243
706.441212	20017.827067
706.775961	20147.896398
707.110661	20216.909794
707.445311	20573.112684
707.779913	20412.332643
708.114465	20646.930299
708.448967	20926.479924
708.783421	21627.170062
709.117825	21892.695197
709.452180	22119.337912
709.786485	22516.981607
710.120742	23313.178925
710.454949	23319.954235
710.789107	23803.380725
711.123216	24499.047353
711.457275	24617.789211
711.791286	25144.912422
712.125247	25207.248809
712.459159	24900.013168
712.793023	25559.035648
713.126837	24455.398522
713.460602	24708.971081
713.794318	24338.489123
714.127985	23950.567293
714.461602	23037.400083
714.795171	23002.091841
715.128691	21978.732569
715.462162	21451.692538
715.795584	21032.250894
716.128957	20771.807242
716.462281	20371.897548
716.795556	20139.742332
717.128782	19625.526995
717.461960	19079.247400
717.795088	19002.447942
718.128167	18600.211756
718.461198	18143.074884
718.794180	18001.496598
719.127113	17638.851114
719.459997	17437.668747
719.792833	17082.070795
720.125619	17060.809729
720.458357	16734.374853
720.791046	16563.605766
721.123686	16394.389355
721.456278	16166.325035
721.788821	16120.132942
722.121315	15863.787748
722.453761	15938.008656
722.786158	15867.271186
723.118506	15879.911879
723.450805	15740.904582
723.783056	15893.351595
724.115259	15796.841225
724.447412	15727.187602
724.779518	15954.619258
725.111574	15992.248951
725.443582	16186.504773
725.775542	16181.503949
726.107453	16645.456461
726.439315	16518.976431
726.771129	16927.657733
727.102895	17289.947815
727.434612	17488.355028
727.766281	17613.501672
728.097901	17874.608236
728.429473	17913.397394
728.760996	17895.110608
729.092471	17989.496132
729.423897	17852.520420
729.755276	17726.852016
730.086606	17854.589814
730.417887	18373.803454
730.749120	18874.810967
731.080305	19050.371671
731.411442	19379.982474
731.742530	19445.893040
732.073570	19540.689417
732.404562	19824.269444
732.735506	19642.177926
733.066401	19339.295321
733.397249	18808.267737
733.728048	18165.714706
734.058798	17339.111668
734.389501	16650.795043
734.720156	16204.748709
735.050762	15680.095664
735.381320	15337.955073
735.711831	15094.699235
736.042293	14743.640843
736.372707	14757.952679
736.703073	14554.496751
737.033391	14735.479215
737.363661	14703.785481
737.693883	14802.720646
738.024056	14979.715557
738.354182	15166.402087
738.684260	15435.574497
739.014290	15662.305432
739.344272	15837.299005
739.674207	16110.983248
740.004093	16227.138994
740.333931	16225.447687
740.663722	16258.837769
740.993464	16249.413332
741.323159	16074.913792
741.652806	15790.683456
741.982405	15579.315437
742.311956	15241.139713
742.641460	15124.295849
742.970915	14824.634541
743.300323	14490.373274
743.629683	14282.639927
743.958996	14007.231610
744.288260	13727.026635
744.617477	13437.432511
744.946647	13375.937996
745.275768	13096.249739
745.604842	12912.829877
745.933869	12739.976274
746.262847	12695.246116
746.591778	12618.048406
746.920662	12513.726768
747.249498	12519.612316
747.578286	12632.773617
747.907027	12780.068570
748.235720	12998.768948
748.564365	13020.811393
748.892963	12917.818099
749.221514	12976.245072
749.550017	12827.505828
749.878473	12789.742544
750.206881	12568.902197
750.535242	12472.144811
750.863555	12397.276115
751.191821	12290.731328
751.520039	12307.397383
751.848210	12211.900285
752.176334	12251.400246
752.504411	12161.261894
752.832440	11994.215700
753.160421	12057.749362
753.488356	11939.231835
753.816243	11850.331087
754.144082	11706.842204
754.471875	11647.772484
754.799620	11595.354567
755.127318	11568.286091
755.454969	11527.077179
755.782572	11481.363996
756.110129	11497.243630
756.437638	11405.509754
756.765100	11397.038095
757.092515	11406.966647
757.419882	11418.094994
757.747203	11424.509863
758.074477	11497.205822
758.401703	11447.089191
758.728882	11607.939807
759.056014	11655.805563
759.383099	11764.954105
759.710138	11862.210566
760.037129	11948.081581
760.364073	11959.204887
760.690970	11958.955349
761.017820	11952.510234
761.344623	12135.425981
761.671379	12483.353817
761.998088	13139.097027
762.324751	14757.745992
762.651366	17670.912853
762.977935	21254.659040
763.304456	23353.671993
763.630931	23724.965577
763.957359	22498.006704
764.283740	20607.062334
764.610074	18750.428058
764.936362	16646.310936
765.262602	15145.821576
765.588796	13708.018964
765.914943	12692.256711
766.241044	11863.790968
766.567097	11238.803837
766.893104	10696.078255
767.219064	10345.944915
767.544978	9966.346030
767.870845	9656.783896
768.196665	9469.920926
768.522438	9278.609137
768.848165	9119.091906
769.173846	8952.292728
769.499479	8831.347886
769.825066	8673.305192
770.150607	8492.937749
770.476101	8432.426259
770.801548	8319.653127
771.126949	8183.236983
771.452303	8084.057322
771.777611	7931.234743
772.102872	7912.554748
772.428087	7790.208464
772.753256	7669.339239
773.078378	7581.945796
773.403453	7438.920700
773.728482	7332.149061
774.053465	7263.634739
774.378401	7182.071391
774.703291	7089.006650
775.028135	6988.596947
775.352932	6951.420958
775.677683	6872.889864
776.002388	6783.540453
776.327046	6787.427183
776.651658	6700.797474
776.976224	6623.236802
777.300743	6605.640654
777.625216	6547.788373
777.949643	6500.169633
778.274024	6503.474110
778.598359	6433.570950
778.922647	6438.155879
779.246889	6399.202884
779.571086	6409.267547
779.895236	6415.264000
780.219339	6414.041520
780.543397	6411.672178
780.867409	6465.065559
781.191374	6453.133147
781.515294	6427.090547
781.839167	6473.539738
782.162995	6444.381704
782.486776	6399.530559
782.810511	6355.627150
783.134201	6280.967661
783.457844	6271.225632
783.781441	6220.942642
784.104993	6175.110992
784.428498	6152.181304
784.751958	6133.370238
785.075372	6110.173369
785.398739	6068.356998
785.722061	6090.918682
786.045337	6097.827583
786.368568	6203.951433
786.691752	6231.103088
787.014891	6484.874773
787.337983	6769.102588
787.661030	7204.136521
787.984031	7618.947865
788.306987	7868.795012
788.629897	7940.092051
788.952760	7855.519133
789.275579	7674.173706
789.598351	7372.934517
789.921078	7112.679908
790.243759	6840.220666
790.566395	6640.376725
790.888984	6447.393794
791.211529	6308.124357
791.534027	6146.625953
791.856480	6017.103587
792.178888	5956.579494
792.501249	5893.335698
792.823566	5788.635974
793.145836	5785.878463
793.468062	5765.045894
793.790241	5726.105502
794.112375	5766.996821
794.434464	5867.083889
794.756507	5901.265433
795.078505	6023.160533
795.400457	6237.974181
795.722364	6474.638710
796.044226	6657.872049
796.366042	6815.148488
796.687812	6755.244456
797.009538	6782.862418
797.331218	6694.122987
797.652852	6623.468695
797.974442	6506.007290
798.295986	6433.669252
798.617484	6304.063708
798.938938	6195.136976
799.260346	6133.334950
799.581709	5996.157593
799.903026	5941.839160
800.224299	5867.532552
800.545526	5754.822434
800.866708	5694.956212
801.187845	5645.772194
801.508936	5567.062139
801.829983	5538.942583
802.150984	5436.755874
802.471940	5409.563890
802.792851	5394.914297
803.113717	5370.522674
803.434538	5345.521071
803.755314	5309.191996
804.076045	5300.274195
804.396731	5268.467035
804.717372	5284.480260
805.037967	5284.984375
805.358518	5310.222912
805.679024	5366.673753
805.999485	5376.226739
806.319901	5393.472527
806.640272	5413.228809
806.960598	5459.418381
807.280879	5446.646617
807.601115	5482.038038
807.921306	5441.781904
808.241453	5439.959527
808.561554	5447.982523
808.881611	5414.289972
809.201623	5419.033697
809.521590	5367.576119
809.841513	5350.552143
810.161390	5366.769535
810.481223	5279.121513
810.801011	5267.741109
811.120755	5243.636832
811.440453	5190.124983
811.760107	5162.675901
812.079716	5137.530625
812.399281	5089.145631
812.718801	5079.993416
813.038276	5047.856060
813.357707	5010.881717
813.677093	5037.861973
813.996434	4978.283096
814.315731	4997.754553
814.634983	4993.456969
814.954191	4998.835880
815.273354	5061.472217
815.592473	5096.982104
815.911547	5178.225340
816.230577	5227.222835
816.549562	5311.883972
816.868502	5366.693917
817.187399	5422.847330
817.506250	5499.649309
817.825058	5530.821284
818.143821	5683.137227
818.462539	5856.676427
818.781213	6090.533034
819.099843	6452.273631
819.418429	7085.704694
819.736970	7701.191770
820.055466	8401.816373
820.373919	9335.304474
820.692327	10819.382358
821.010691	13643.101506
821.329011	20035.304747
821.647286	29520.248312
821.965517	39534.165190
822.283704	44505.839334
822.601847	45614.850330
822.919945	40992.016471
823.237999	36002.415985
823.556010	30948.150098
823.873976	26392.466928
824.191897	22310.248929
824.509775	19326.395008
824.827609	16648.261863
825.145398	15163.831098
825.463144	14469.631446
825.780845	14816.936699
826.098502	16137.724048
826.416116	18547.377943
826.733685	20696.547856
827.051210	21061.202240
827.368692	19557.156346
827.686129	17035.566151
828.003522	14634.734276
828.320872	12481.977582
828.638177	10891.972453
828.955439	9689.803454
829.272656	8649.352150
829.589830	7829.554670
829.906960	7114.162007
830.224046	6595.422235
830.541088	6193.186049
830.858086	5945.940138
831.175041	5749.340180
831.491952	5699.336975
831.808819	5744.236011
832.125642	5998.138766
832.442421	6568.593215
832.759157	7711.619397
833.075849	9478.319488
833.392497	11258.431570
833.709101	12281.453084
834.025662	11946.037393
834.342179	10887.954653
834.658653	9612.119273
834.975083	8548.486223
835.291469	7670.670104
835.607811	6955.688295
835.924110	6445.228618
836.240366	5963.742973
836.556578	5524.431621
836.872746	5176.100493
837.188871	4909.874638
837.504952	4697.750446
837.820990	4532.007390
838.136984	4419.786264
838.452935	4378.839492
838.768842	4420.862551
839.084706	4725.464189
839.400526	5478.262214
839.716303	6363.390527
840.032037	6873.003290
840.347727	6688.660896
840.663373	6087.054637
840.978977	5527.194174
841.294537	5104.347230
841.610054	4784.007109
841.925527	4549.656470
842.240957	4347.339842
842.556344	4164.552645
842.871687	4009.065816
843.186987	3861.148280
843.502244	3747.243409
843.817458	3663.141839
844.132629	3591.519646
844.447756	3545.763613
844.762840	3498.601098
845.077881	3464.243114
845.392879	3421.408430
845.707833	3400.774988
846.022745	3374.238354
846.337613	3363.530943
846.652438	3337.430369
846.967221	3328.520129
847.281960	3311.501194
847.596656	3300.619863
847.911309	3290.731640
848.225919	3276.054321
848.540485	3270.398146
848.855009	3258.831219
849.169490	3247.997779
849.483928	3242.150041
849.798323	3233.449009
850.112675	3222.902915
850.426984	3225.685632
850.741251	3216.271277
851.055474	3214.398489
851.369654	3217.708006
851.683792	3214.620299
851.997887	3218.365877
852.311938	3215.111812
852.625947	3215.915876
852.939914	3207.590410
853.253837	3218.131463
853.567718	3214.539641
853.881555	3208.099567
854.195350	3213.922100
854.509103	3213.397820
854.822812	3210.448745
855.136479	3202.995399
855.450103	3207.222406
855.763685	3202.735779
856.077224	3203.267621
856.390720	3212.210628
856.704173	3223.465004
857.017584	3226.030951
857.330953	3232.261817
857.644278	3239.478229
857.957561	3244.839496
858.270802	3240.451172
858.584000	3238.767426
858.897155	3233.239801
859.210268	3222.446691
859.523339	3212.722305
859.836367	3206.806511
860.149352	3204.056562
860.462295	3199.892568
860.775195	3189.921166
861.088054	3187.395548
861.400869	3188.224818
861.713642	3185.636185
862.026373	3191.516691
862.339062	3197.175387
862.651708	3205.064792
862.964312	3225.673029
863.276873	3235.077302
863.589392	3262.503699
863.901869	3285.977832
864.214303	3309.363745
864.526696	3325.248421
864.839045	3343.116790
865.151353	3356.674974
865.463619	3355.008872
865.775842	3357.191692
866.088023	3361.821992
866.400162	3356.256558
866.712258	3357.244624
867.024313	3357.862165
867.336325	3352.437884
867.648296	3355.696990
867.960224	3352.261443
868.272110	3357.602546
868.583954	3356.763194
868.895755	3361.252341
869.207515	3363.833412
869.519233	3378.828324
869.830909	3385.006258
870.142542	3396.031262
870.454134	3403.187180
870.765684	3416.412647
871.077191	3433.711366
871.388657	3447.214097
871.700081	3465.150522
872.011463	3487.692042
872.322803	3503.962366
872.634101	3519.869727
872.945357	3542.403684
873.256571	3567.254052
873.567744	3586.158379
873.878874	3588.472269
874.189963	3604.069599
874.501010	3608.432717
874.812015	3600.997015
875.122979	3618.260447
875.433900	3617.322792
875.744780	3618.507463
876.055618	3626.086838
876.366415	3624.322434
876.677169	3633.396511
876.987882	3650.465858
877.298554	3674.612985
877.609183	3707.461143
877.919771	3758.394441
878.230317	3828.965554
878.540822	3932.422634
878.851285	4088.557251
879.161707	4313.382630
879.472087	4699.184654
879.782425	5343.224826
880.092722	6556.408746
880.402977	8491.019590
880.713191	10822.991824
881.023363	13101.827776
881.333494	14315.286439
881.643583	14703.762796
881.953631	14259.836267
882.263637	13444.296042
882.573602	12449.862911
882.883526	11527.351922
883.193408	10602.970664
883.503248	9715.657011
883.813048	8904.255573
884.122806	8155.613980
884.432522	7406.730412
884.742197	6760.865343
885.051831	6211.268668
885.361424	5732.089351
885.670975	5350.194221
885.980485	5036.039596
886.289954	4770.738792
886.599382	4553.679310
886.908768	4381.927199
887.218113	4219.869226
887.527417	4091.599587
887.836680	3965.966472
888.145901	3870.219837
888.455082	3793.679998
888.764221	3730.559710
889.073319	3671.326153
889.382376	3636.133858
889.691392	3613.108387
890.000366	3605.488683
890.309300	3600.281172
890.618193	3605.536574
890.927044	3598.100873
891.235855	3608.576390
891.544625	3621.905201
891.853353	3650.619613
892.162041	3716.817525
892.470687	3806.918068
892.779293	3929.095472
893.087858	4105.185497
893.396381	4387.197725
893.704864	4809.414524
894.013306	5369.169124
894.321707	5922.566829
894.630068	6248.343834
894.938387	6261.778509
895.246665	6078.358647
895.554903	5771.092758
895.863100	5440.221667
896.171256	5179.911606
896.479371	4945.455102
896.787446	4724.302203
897.095480	4533.978481
897.403473	4388.541193
897.711425	4247.940891
898.019336	4129.236842
898.327207	4008.836444
898.635038	3907.000095
898.942827	3801.299702
899.250576	3717.606466
899.558284	3635.208806
899.865952	3583.617637
900.173579	3519.766383
900.481165	3471.860298
900.788711	3428.564348
901.096216	3402.204155
901.403681	3375.397819
901.711105	3363.525902
902.018489	3361.043133
902.325832	3394.828947
902.633135	3460.525263
902.940397	3640.628046
903.247619	4064.659661
903.554800	4824.762317
903.861941	5763.924238
904.169041	6422.266163
904.476101	6586.113745
904.783121	6307.186702
905.090100	5905.847842
905.397039	5509.141802
905.703938	5161.919728
906.010796	4848.594372
906.317614	4604.663020
906.624391	4369.480590
906.931129	4175.028163
907.237826	4003.472656
907.544483	3832.509485
907.851099	3663.474556
908.157675	3505.492356
908.464211	3372.559649
908.770707	3269.268928
909.077163	3192.257741
909.383578	3133.689616
909.689954	3090.708738
909.996289	3059.640107
910.302584	3042.079247
910.608839	3028.183307
910.915054	3015.945906
911.221229	3012.530524
911.527363	3017.244003
911.833458	3024.760363
912.139513	3037.738814
912.445527	3050.697100
912.751502	3086.080959
913.057436	3127.496558
913.363331	3188.474355
913.669186	3277.276801
913.975000	3398.657703
914.280775	3590.549224
914.586510	3859.121736
914.892205	4239.943101
915.197859	4732.110951
915.503475	5303.956758
915.809050	5775.788593
916.114585	6039.110744
916.420081	6088.259473
916.725536	6018.326067
917.030952	5783.607423
917.336328	5579.876752
917.641665	5379.861411
917.946961	5151.678624
918.252218	4961.846414
918.557435	4742.326849
918.862612	4547.380389
919.167750	4381.977610
919.472848	4187.933517
919.777906	4025.825132
920.082925	3868.473077
920.387904	3722.796333
920.692843	3612.538737
920.997743	3513.601052
921.302603	3420.044798
921.607423	3358.066332
921.912204	3292.707773
922.216946	3245.439393
922.521647	3197.344265
922.826310	3158.177020
923.130932	3119.163531
923.435516	3083.691452
923.740059	3053.696586
924.044564	3023.721886
924.349028	2999.675582
924.653454	2969.874801
924.957840	2943.398661
925.262186	2923.087852
925.566493	2899.974162
925.870761	2877.888867
926.174989	2869.946529
926.479178	2851.586646
926.783328	2834.764316
927.087438	2825.874241
927.391509	2810.082827
927.695541	2799.806435
927.999533	2790.364353
928.303486	2782.600977
928.607400	2777.116201
928.911275	2770.834923
929.215110	2763.777308
929.518906	2759.424272
929.822663	2759.290681
930.126381	2758.126175
930.430060	2765.125817
930.733699	2763.684047
931.037299	2771.182763
931.340861	2767.525406
931.644383	2770.897938
931.947866	2770.252670
932.251309	2766.307967
932.554714	2763.424427
932.858080	2764.888882
933.161407	2760.498037
933.464694	2756.833119
933.767943	2753.112747
934.071153	2751.164341
934.374323	2746.171078
934.677455	2743.965573
934.980548	2741.134966
935.283602	2742.433063
935.586617	2738.495922
935.889593	2740.729153
936.192530	2740.383834
936.495428	2747.287694
936.798287	2755.318252
937.101108	2768.475663
937.403890	2791.501134
937.706632	2815.761687
938.009336	2848.241841
938.312002	2877.939278
938.614628	2902.865263
938.917216	2920.075763
939.219765	2928.383584
939.522275	2940.963783
939.824747	2940.179884
940.127179	2935.083278
940.429573	2927.584561
940.731929	2926.412493
941.034246	2918.223138
941.336524	2914.001172
941.638763	2908.944895
941.940964	2905.169071
942.243126	2889.145763
942.545250	2877.483054
942.847335	2861.109386
943.149381	2848.599763
943.451389	2834.413956
943.753359	2823.552790
944.055290	2813.016778
944.357182	2806.228865
944.659036	2800.497073
944.960851	2796.441464
945.262628	2792.161525
945.564367	2793.779735
945.866067	2789.651030
946.167729	2790.860907
946.469352	2789.174641
946.770937	2788.811678
947.072484	2780.897067
947.373992	2782.217849
947.675462	2777.350615
947.976893	2771.397012
948.278286	2768.263935
948.579641	2764.541043
948.880958	2763.336207
949.182236	2762.602719
949.483476	2757.576689
949.784678	2759.235228
950.085841	2757.609456
950.386967	2764.538522
950.688054	2770.812238
950.989103	2777.630399
951.290114	2781.101233
951.591087	2795.642442
951.892021	2807.768937
952.192917	2819.676142
952.493776	2829.811382
952.794596	2830.209633
953.095378	2834.421517
953.396122	2833.483863
953.696828	2829.108141
953.997496	2826.529591
954.298126	2814.720688
954.598718	2809.578711
954.899272	2795.975158
955.199788	2784.723302
955.500266	2774.106632
955.800706	2759.739344
956.101108	2746.614700
956.401472	2734.984758
956.701798	2718.848024
957.002087	2706.242619
957.302337	2695.638552
957.602550	2687.426512
957.902724	2679.355625
958.202861	2669.081754
958.502960	2662.578665
958.803022	2653.602891
959.103045	2647.689617
959.403031	2642.338432
959.702979	2633.695374
960.002889	2630.869807
960.302762	2624.694394
960.602596	2621.654578
960.902393	2617.856069
961.202153	2613.903804
961.501875	2613.258537
961.801559	2611.879781
962.101205	2608.794595
962.400814	2608.958432
962.700385	2603.824017
962.999918	2603.299737
963.299414	2599.730600
963.598873	2600.511979
963.898293	2596.501741
964.197677	2598.956783
964.497022	2594.497882
964.796331	2597.641042
965.095601	2590.780032
965.394835	2596.363109
965.694030	2591.125351
965.993189	2592.645258
966.292309	2592.025197
966.591393	2590.530494
966.890439	2588.521595
967.189447	2589.824733
967.488419	2589.638210
967.787353	2591.221132
968.086249	2590.454877
968.385108	2593.610639
968.683930	2594.775146
968.982714	2594.056782
969.281462	2594.777667
969.580172	2598.452668
969.878844	2599.297061
970.177480	2602.596496
970.476078	2605.492639
970.774639	2609.349122
971.073162	2611.610079
971.371649	2610.279215
971.670098	2608.197218
971.968510	2611.978083
972.266885	2613.699637
972.565223	2617.664505
972.863524	2616.724330
973.161788	2618.733230
973.460014	2619.686008
973.758204	2622.022582
974.056356	2620.895885
974.354471	2620.842952
974.652550	2622.998046
974.950591	2620.094341
975.248595	2621.843622
975.546563	2619.870010
975.844493	2620.782459
976.142386	2616.124432
976.440243	2614.657457
976.738062	2615.340533
977.035845	2610.851386
977.333590	2609.195367
977.631299	2606.155551
977.928971	2607.171343
978.226606	2600.038111
978.524204	2601.487442
978.821765	2601.459716
979.119290	2601.865529
979.416777	2598.984509
979.714228	2600.285127
980.011642	2603.110694
980.309020	2606.271497
980.606360	2612.144442
980.903664	2620.147273
981.200931	2632.775364
981.498162	2648.692807
981.795356	2679.491736
982.092513	2715.485575
982.389633	2758.486617
982.686717	2797.293419
982.983764	2830.774243
983.280775	2845.018023
983.577749	2845.882581
983.874686	2833.952690
984.171587	2817.107675
984.468451	2804.015798
984.765279	2787.604322
985.062070	2770.108997
985.358824	2749.949423
985.655543	2730.407390
985.952224	2708.392671
986.248869	2681.787982
986.545478	2655.614311
986.842050	2641.214255
987.138586	2620.459825
987.435086	2605.699326
987.731549	2596.645414
988.027975	2592.887234
988.324366	2585.849783
988.620719	2582.205029
988.917037	2579.137487
989.213318	2576.029615
989.509563	2570.340673
989.805772	2569.874367
990.101944	2568.762792
990.398080	2567.633574
990.694180	2567.336146
990.990244	2566.713563
991.286271	2568.225909
991.582262	2568.331773
991.878217	2569.400498
992.174136	2572.208421
992.470019	2571.111970
992.765865	2574.391240
993.061676	2573.919892
993.357450	2578.751838
993.653188	2579.011458
993.948890	2586.447160
994.244556	2594.263469
994.540186	2604.711260
994.835780	2613.200563
995.131337	2630.169087
995.426859	2643.971766
995.722345	2662.601350
996.017795	2678.589370
996.313208	2693.531350
996.608586	2700.256249
996.903928	2701.675334
997.199234	2699.923533
997.494504	2697.735672
997.789738	2691.943386
998.084936	2682.128260
998.380099	2670.954542
998.675225	2659.410300
998.970316	2649.406130
999.265371	2636.992289
999.560390	2623.786986
999.855373	2613.261057
1000.150320	2603.173708
1000.445232	2596.209354
1000.740108	2587.180648
1001.034948	2582.925914
1001.329752	2576.432908
1001.624521	2573.103226
1001.919254	2564.213151
1002.213951	2563.943449
1002.508613	2560.638973
1002.803239	2559.953376
1003.097829	2554.839125
1003.392384	2556.648899
1003.686903	2556.691749
1003.981386	2554.967675
1004.275834	2555.575134
1004.570246	2554.226625
1004.864623	2552.610935
1005.158964	2553.346944
1005.453270	2552.714279
1005.747540	2551.453990
1006.041775	2552.923487
1006.335974	2548.293187
1006.630138	2549.979453
1006.924266	2549.591284
1007.218359	2552.933569
1007.512416	2549.117416
1007.806438	2551.393497
1008.100425	2545.326468
1008.394376	2547.194215
1008.688292	2544.247661
1008.982172	2543.909904
1009.276017	2549.003990
1009.569827	2547.663043
1009.863602	2547.090872
1010.157341	2546.538865
1010.451045	2545.623896
1010.744714	2544.688762
1011.038347	2545.903680
1011.331945	2543.279759
1011.625508	2544.456869
1011.919036	2542.707588
1012.212528	2543.925027
1012.505986	2542.057280
1012.799408	2545.525593
1013.092795	2542.558874
1013.386147	2543.599873
1013.679464	2544.661036
1013.972745	2542.500901
1014.265992	2544.993752
1014.559204	2542.889070
1014.852380	2544.661036
1015.145521	2542.674821
1015.438628	2539.335057
1015.731699	2542.304296
1016.024736	2542.140459
1016.317737	2542.798329
1016.610703	2544.023330
1016.903635	2541.122146
1017.196531	2540.865047
1017.489393	2542.606765
1017.782219	2543.937630
1018.075011	2544.991231
1018.367768	2549.119936
1018.660490	2544.461910
1018.953177	2544.461910
1019.245829	2544.461910
