Dividing Wavelength (nm)	Counts (n)	Blue Motor Position (mm): 49.200000	Red Motor Position (mm): 0.000000	
326.493990	2044.374407
326.888308	2044.374407
327.282561	2044.374407
327.676750	2019.776097
328.070874	2023.413290
328.464933	2029.389577
328.858929	2038.536751
329.252859	2046.559748
329.646726	2060.861501
330.040528	2079.002093
330.434265	2094.727973
330.827938	2116.961982
331.221547	2137.497122
331.615091	2157.369350
332.008571	2178.060766
332.401986	2195.944259
332.795338	2217.709441
333.188625	2238.957905
333.581847	2255.500451
333.975006	2277.225303
334.368100	2292.295833
334.761129	2307.812504
335.154095	2324.660041
335.546996	2374.456558
335.939833	2482.622076
336.332606	2492.187665
336.725315	2507.469923
337.117960	2518.994001
337.510540	2527.132944
337.903056	2535.118131
338.295508	2544.356046
338.687896	2549.256047
339.080220	2552.789896
339.472480	2559.794579
339.864676	2562.365568
340.256807	2565.251628
340.648875	2568.856053
341.040879	2572.999882
341.432818	2569.660117
341.824694	2570.933009
342.216506	2570.650704
342.608253	2567.726835
342.999937	2567.497463
343.391557	2568.437638
343.783113	2568.354459
344.174605	2565.962431
344.566033	2565.551577
344.957397	2561.753068
345.348697	2563.998902
345.739934	2559.086297
346.131106	2558.632593
346.522215	2553.881306
346.913260	2554.634958
347.304241	2550.705379
347.695159	2554.264434
348.086012	2551.189330
348.476802	2546.717826
348.867528	2542.551313
349.258191	2541.101981
349.648789	2542.090047
350.039324	2536.075951
350.429796	2542.158103
350.820203	2543.302445
351.210548	2541.520397
351.600828	2540.250026
351.991045	2539.057793
352.381198	2540.421425
352.771288	2538.278935
353.161314	2538.410005
353.551276	2541.112063
353.941175	2536.166691
354.331010	2538.904038
354.720782	2543.831766
355.110490	2541.936292
355.500135	2537.303472
355.889717	2538.309182
356.279235	2540.776827
356.668689	2538.667104
357.058080	2541.548123
357.447408	2541.903524
357.836672	2540.701209
358.225873	2541.996786
358.615010	2541.187681
359.004084	2543.486447
359.393095	2543.607434
359.782043	2544.603062
360.170927	2544.721529
360.559748	2545.964174
360.948505	2545.117260
361.337199	2550.153373
361.725830	2548.996428
362.114398	2547.078269
362.502903	2547.516849
362.891344	2547.673125
363.279722	2551.007848
363.668037	2550.594474
364.056289	2550.488609
364.444478	2552.076573
364.832603	2552.326110
365.220665	2555.267623
365.608665	2554.133364
365.996601	2552.802499
366.384474	2550.720502
366.772284	2552.578168
367.160031	2556.338868
367.547715	2556.195196
367.935336	2554.884496
368.322893	2553.745195
368.710388	2550.203784
369.097820	2555.928014
369.485189	2554.720658
369.872495	2556.265772
370.259738	2558.181410
370.646918	2557.831050
371.034035	2561.289282
371.421090	2559.456822
371.808081	2558.720814
372.195010	2560.631411
372.581875	2561.256514
372.968678	2562.473953
373.355418	2566.252297
373.742096	2566.259859
374.128710	2565.488563
374.515262	2570.844789
374.901751	2574.582804
375.288177	2573.546847
375.674540	2579.011458
376.060841	2579.281160
376.447079	2580.811150
376.833254	2587.445308
377.219367	2589.547469
377.605417	2595.276741
377.991404	2599.407966
378.377329	2604.943153
378.763191	2609.845675
379.148991	2613.273660
379.534727	2623.313118
379.920402	2631.240332
380.306013	2637.635036
380.691563	2646.164668
381.077049	2650.341264
381.462474	2660.032882
381.847835	2673.278514
382.233134	2683.232272
382.618371	2693.080167
383.003545	2705.486446
383.388657	2714.938610
383.773706	2733.840416
384.158693	2742.145717
384.543618	2759.507451
384.928480	2774.958587
385.313280	2788.363015
385.698017	2806.317085
386.082692	2826.567400
386.467305	2838.981241
386.851856	2860.819520
387.236344	2883.464383
387.620770	2896.619274
388.005133	2914.679207
388.389435	2943.413784
388.773674	2954.532049
389.157851	2984.559682
389.541965	3008.021212
389.926018	3018.799199
390.310008	3051.135680
390.693936	3073.155440
391.077802	3099.848350
391.461606	3125.475055
391.845348	3144.664207
392.229027	3173.791994
392.612645	3209.652242
392.996200	3238.285996
393.379694	3271.822272
393.763125	3309.280566
394.146494	3333.243691
394.529801	3364.821478
394.913047	3409.670103
395.296230	3413.040115
395.679351	3434.994340
396.062410	3483.807833
396.445408	3464.855615
396.828343	3505.124352
397.211217	3534.574772
397.594028	3514.258922
397.976778	3557.723751
398.359466	3589.732557
398.742092	3601.412911
399.124656	3617.877319
399.507158	3669.619722
399.889598	3680.145651
400.271977	3733.614650
400.654294	3728.109710
401.036549	3780.189870
401.418742	3785.082310
401.800874	3848.139583
402.182944	3873.844426
402.564952	3951.168164
402.946898	3947.132721
403.328783	3943.543419
403.710606	3991.827591
404.092367	4052.069379
404.474067	4118.720995
404.855705	4102.700208
405.237282	4077.559974
405.618797	4167.605064
406.000250	4239.272627
406.381642	4312.026560
406.762972	4317.604596
407.144240	4275.752937
407.525447	4343.773226
407.906593	4357.165051
408.287677	4433.175569
408.668700	4461.464004
409.049661	4497.089838
409.430560	4528.798696
409.811399	4521.725957
410.192176	4559.451432
410.572891	4631.393738
410.953545	4727.044591
411.334138	4632.407010
411.714669	4737.247887
412.095139	4661.769211
412.475547	4763.078759
412.855894	4764.669243
413.236180	4853.973283
413.616405	4796.186537
413.996568	4886.148448
414.376670	4897.226383
414.756711	4885.752717
415.136691	4946.455771
415.516609	5032.062125
415.896466	5069.180141
416.276262	5149.793232
416.655997	5255.072689
417.035670	5332.608156
417.415283	5463.675635
417.794834	5516.688409
418.174324	5474.163756
418.553753	5479.751875
418.933121	5628.385255
419.312428	5641.320856
419.691674	5580.204427
420.070859	5786.493483
420.449983	5679.003481
420.829045	5859.126428
421.208047	5797.450431
421.586988	5940.122647
421.965867	6007.807699
422.344686	6081.771508
422.723444	6239.058029
423.102141	5891.556171
423.480777	6249.306695
423.859352	6078.461991
424.237866	6420.927736
424.616319	6411.039513
424.994712	6559.493932
425.373044	6489.742007
425.751314	6774.917559
426.129524	6523.979003
426.507673	6772.906139
426.885762	6810.498023
427.263789	6840.089596
427.641756	6931.664676
428.019662	6994.996692
428.397508	7032.472630
428.775292	7033.921962
429.153016	7170.234762
429.530679	7117.592512
429.908282	7175.001172
430.285824	7116.054961
430.663305	7363.200048
431.040726	7271.698065
431.418086	7269.185050
431.795385	7403.834269
432.172624	7580.055363
432.549802	7456.385777
432.926920	7587.801096
433.303977	7549.400107
433.680974	7592.932991
434.057910	7780.867206
434.434786	7823.220460
434.811601	7787.960110
435.188355	8114.145449
435.565050	8011.885643
435.941683	8025.584979
436.318257	8329.969848
436.694770	8284.690204
437.071222	8490.812903
437.447614	8259.207171
437.823946	8240.864933
438.200218	8382.846511
438.576429	8271.215200
438.952580	8421.088704
439.328670	8444.378834
439.704700	8521.712655
440.080670	8415.049401
440.456580	8659.421855
440.832429	8648.863158
441.208218	8394.176504
441.583947	8512.961212
441.959616	8607.863454
442.335224	8654.738623
442.710773	8730.411383
443.086261	8904.764730
443.461689	8640.454513
443.837057	8793.773646
444.212365	8992.667330
444.587612	8989.766146
444.962800	8881.179692
445.337927	9018.558696
445.712995	8576.328516
446.088002	9210.346873
446.462949	9272.693343
446.837837	9285.029047
447.212664	9341.840330
447.587431	10245.590665
447.962139	11205.827129
448.336786	11948.840274
448.711374	11545.429499
449.085901	10404.591178
449.460369	10387.224403
449.834776	10305.494697
450.209124	11223.080478
450.583412	10995.548000
450.957640	11198.893022
451.331808	10792.482761
451.705917	10315.856788
452.079965	10232.110620
452.453954	10432.269633
452.827883	10388.567871
453.201752	10353.100833
453.575562	10365.872596
453.949311	10726.665456
454.323001	10799.689090
454.696632	10713.555936
455.070202	11296.197374
455.443713	11357.512928
455.817164	11504.835608
456.190556	11817.036786
456.563888	11647.835499
456.937160	11863.717871
457.310373	11365.210770
457.683526	11397.869885
458.056619	11440.916298
458.429653	11527.810667
458.802628	11692.853003
459.175542	11749.195458
459.548398	12295.820373
459.921194	12877.529198
460.293930	13204.092623
460.666607	14028.233057
461.039224	14743.865174
461.411782	14997.757847
461.784280	14599.413432
462.156719	14512.007386
462.529099	14407.060645
462.901419	13834.635105
463.273680	13479.442967
463.645882	13714.801837
464.018024	13680.844625
464.390106	14090.561883
464.762130	15254.891981
465.134094	16927.042712
465.505999	19207.106185
465.877845	21207.342770
466.249631	22072.061971
466.621358	21410.997823
466.993026	20568.689071
467.364634	19846.511015
467.736184	19151.272885
468.107674	18613.028889
468.479105	18462.162278
468.850477	18204.266930
469.221790	17778.344882
469.593043	17155.517886
469.964238	16820.281156
470.335373	16922.745128
470.706449	17781.021735
471.077467	18928.761396
471.448425	21253.756673
471.819324	22734.058732
472.190164	22225.292883
472.560945	20547.526307
472.931667	19156.518206
473.302330	18909.763807
473.672934	18459.102298
474.043479	18884.401762
474.413965	18703.651191
474.784393	18552.852636
475.154761	19167.651594
475.525070	19302.036153
475.895321	19153.922012
476.265513	19666.993006
476.635645	20257.072667
477.005719	20306.418001
477.375734	20683.284580
477.745691	21301.443468
478.115588	21951.313734
478.485427	23213.112021
478.855207	25085.701549
479.224928	26791.890151
479.594591	27960.885837
479.964194	27412.395695
480.333739	27765.258820
480.703226	28053.985866
481.072653	28560.400017
481.442022	29057.581294
481.811333	29354.795122
482.180584	28852.701240
482.549777	28651.569284
482.918912	28448.768706
483.287988	28395.032526
483.657005	28225.546413
484.025964	27884.439259
484.394864	28071.634945
484.763706	28007.657662
485.132489	27516.969391
485.501213	27604.370395
485.869879	27798.706876
486.238487	27748.630574
486.607036	28015.027829
486.975527	27743.470953
487.343959	28073.328773
487.712333	28393.507577
488.080648	28366.028248
488.448905	28785.711867
488.817104	28727.393279
489.185244	29629.923655
489.553326	30769.617634
489.921350	32704.979610
490.289315	35084.343732
490.657222	35765.219614
491.025070	36146.272872
491.392861	35754.144199
491.760593	34933.386380
492.128267	33928.263482
492.495883	32989.096520
492.863440	32156.184479
493.230939	31283.273402
493.598380	30773.804312
493.965763	30677.346875
494.333088	30221.566073
494.700354	30058.106660
495.067563	30034.075479
495.434713	29946.573651
495.801805	30239.492416
496.168839	30114.386101
496.535815	29982.638066
496.902733	30131.485695
497.269593	29958.042276
497.636395	30113.347623
498.003139	30417.238460
498.369825	30172.412302
498.736453	30578.383983
499.103023	30448.251638
499.469535	30553.357175
499.835989	30676.033654
500.202385	30547.212009
500.568723	30624.404677
500.935003	30958.623095
501.301226	30866.029701
501.667390	31546.293084
502.033497	31749.549886
502.399546	31545.000028
502.765537	31155.701963
503.131470	31632.842133
503.497345	32060.762998
503.863163	31066.055124
504.228923	31804.856385
504.594625	32214.984497
504.960269	31733.549264
505.325856	32398.913516
505.691385	32089.225353
506.056856	32397.277662
506.422270	32901.529157
506.787625	32434.718311
507.152924	32897.546646
507.518164	33090.098558
507.883347	32681.475230
508.248472	32831.192458
508.613540	33503.415200
508.978550	33739.724328
509.343503	33618.870226
509.708398	33981.992099
510.073236	34581.186166
510.438016	34678.477915
510.802738	34382.405908
511.167403	34959.781861
511.532010	35190.608734
511.896561	35691.021391
512.261053	36423.460716
512.625488	36226.006281
512.989866	36147.175238
513.354186	36215.651751
513.718449	36183.353079
514.082655	37063.319250
514.446803	36786.350696
514.810894	37385.159114
515.174927	37424.452388
515.538904	37420.500123
515.902822	38079.315917
516.266684	37759.782380
516.630488	38115.410578
516.994235	38161.272475
517.357925	38732.447809
517.721558	38988.959361
518.085133	39358.120536
518.448651	39567.252804
518.812112	39456.521339
519.175516	39610.452972
519.538863	40058.672042
519.902152	40121.149582
520.265385	40655.781592
520.628560	40686.164626
520.991678	40650.916878
521.354739	40884.944884
521.717743	41247.910482
522.080690	41155.148210
522.443580	41836.031654
522.806413	41869.081458
523.169189	41999.269257
523.531908	42243.203129
523.894569	42099.517642
524.257174	42305.647902
524.619722	42635.425063
524.982213	42757.305040
525.344647	42804.891012
525.707025	42928.931122
526.069345	43377.881161
526.431608	43279.772745
526.793815	43681.300649
527.155964	43245.177827
527.518057	43501.772558
527.880093	43360.963048
528.242072	43991.255993
528.603995	43730.658586
528.965860	43645.415195
529.327669	43882.546031
529.689421	43935.899083
530.051117	43886.122730
530.412755	44161.084904
530.774337	44228.679216
531.135862	44175.928582
531.497331	44326.318804
531.858743	44323.730172
532.220098	44725.563065
532.581396	44470.407584
532.942638	44223.101179
533.303824	44473.490249
533.664953	44532.867480
534.026025	44210.072317
534.387040	44788.242252
534.747999	44866.276793
535.108902	45178.452765
535.469748	44509.262277
535.830537	44761.501451
536.191270	45020.808322
536.551947	44744.270787
536.912567	45015.179874
537.273131	45188.104054
537.633638	44804.736907
537.994089	45007.504718
538.354483	44757.975164
538.714821	45396.099541
539.075103	45680.975145
539.435328	45537.231684
539.795497	45306.558567
540.155609	45421.378407
540.515665	46003.692170
540.875665	45315.373024
541.235609	45610.822448
541.595496	45723.300673
541.955328	46305.203582
542.315102	45728.067084
542.674821	45618.522811
543.034483	45515.534558
543.394090	45525.206012
543.753640	45508.396284
544.113134	46573.614777
544.472571	45678.792325
544.831953	46801.681618
545.191278	46066.507468
545.550548	45755.445590
545.909761	46399.463076
546.268918	46551.625264
546.628019	46962.587687
546.987064	46400.183961
547.346053	45693.431836
547.704986	46597.119157
548.063863	46234.032572
548.422684	46443.522761
548.781449	46029.240738
549.140158	46578.131651
549.498811	46337.658530
549.857408	45742.053765
550.215949	46579.341528
550.574434	46412.907834
550.932864	46350.866353
551.291237	47059.438335
551.649555	46818.312385
552.007817	47001.165117
552.366022	46673.505241
552.724173	46728.352994
553.082267	47145.538722
553.440305	47478.038106
553.798288	46748.010974
554.156215	47132.572874
554.514086	47332.106785
554.871902	46959.608365
555.229661	47124.592728
555.587365	46812.457085
555.945014	46941.369471
556.302606	46956.908828
556.660143	47053.688899
557.017625	47275.789535
557.375050	46982.706932
557.732421	47380.426244
558.089735	47434.238041
558.446994	47321.089343
558.804197	47802.128846
559.161345	47663.023247
559.518437	47009.777928
559.875474	47262.485930
560.232455	47488.564036
560.589381	47549.877069
560.946251	47353.151082
561.303065	48013.204478
561.659825	47691.732618
562.016528	47503.150614
562.373177	47089.216431
562.729770	47713.296153
563.086307	47230.247751
563.442789	47791.396229
563.799216	47628.589645
564.155587	47511.750823
564.511904	47474.347982
564.868164	47547.240546
565.224370	47870.053353
565.580520	47588.028522
565.936615	47774.500802
566.292654	47432.423226
566.648638	47792.976631
567.004567	47737.178620
567.360441	47846.554014
567.716260	47571.284329
568.072023	47913.641690
568.427732	47849.810600
568.783385	47384.325577
569.138982	47798.554668
569.494525	47952.143502
569.850013	47532.127167
570.205445	47662.390582
570.560823	47420.175742
570.916145	47309.051068
571.271412	47524.754479
571.626625	47194.092595
571.981782	47262.536341
572.336884	46867.778707
572.691931	47187.977676
573.046923	46853.116511
573.401860	46692.888477
573.756743	46702.771659
574.111570	46858.505504
574.466342	46769.425795
574.821059	46902.721465
575.175722	46414.634429
575.530330	46526.853034
575.884882	46152.658266
576.239380	46051.762093
576.593823	46142.354148
576.948211	46067.946717
577.302544	45630.324152
577.656823	45611.548374
578.011047	45879.412604
578.365216	45715.844806
578.719330	45423.851093
579.073389	45417.804229
579.427394	45468.513196
579.781344	45381.308796
580.135239	45162.731927
580.489080	45214.113887
580.842866	44704.294437
581.196597	45194.259303
581.550273	45185.001224
581.903895	45127.078366
582.257463	45582.281956
582.610975	44991.887223
582.964434	45338.204410
583.317837	44842.608575
583.671186	44797.633921
584.024481	45064.215178
584.377721	44610.471002
584.730906	44834.252863
585.084037	44935.779181
585.437113	44653.484648
585.790135	44779.460562
586.143103	44331.551522
586.496016	44485.097506
586.848874	44601.018839
587.201679	44629.392973
587.554428	44142.193180
587.907124	44417.571250
588.259765	44165.541284
588.612352	44345.313872
588.964884	43788.294098
589.317362	44114.013130
589.669786	44099.875214
590.022155	43953.966578
590.374470	44413.823152
590.726731	43974.002644
591.078937	43333.324922
591.431090	43662.298019
591.783188	43187.360833
592.135232	42979.594719
592.487222	43242.826128
592.839157	43393.327256
593.191038	43031.100187
593.542866	42839.836290
593.894639	42239.691966
594.246358	42549.004563
594.598022	42547.913153
594.949633	42114.686474
595.301190	42085.674633
595.652692	42038.645709
596.004141	42512.070549
596.355535	41413.691346
596.706876	41447.782149
597.058162	41171.746209
597.409395	41648.082315
597.760573	41868.194215
598.111698	41462.353604
598.462768	41387.646225
598.813785	41404.574420
599.164748	41006.025838
599.515657	41276.337548
599.866511	40791.804526
600.217312	41494.687565
600.568060	40420.450448
600.918753	41253.274269
601.269392	41173.820643
601.619978	40889.693651
601.970510	41081.491911
602.320988	41235.201733
602.671412	41482.747592
603.021783	41357.951308
603.372100	40931.547831
603.722363	41060.666904
604.072572	41067.757287
604.422728	41061.987687
604.772830	40858.740966
605.122878	41015.127641
605.472872	40864.379497
605.822813	41131.359005
606.172701	40883.268700
606.522534	41194.393592
606.872314	41413.378795
607.222041	41245.611715
607.571714	41563.489233
607.921333	41063.063973
608.270899	41289.293313
608.620411	41669.292970
608.969870	41411.543815
609.319276	41424.444127
609.668627	41455.641308
610.017926	41869.031047
610.367171	41975.911070
610.716362	42039.031357
611.065500	41930.265943
611.414585	42154.078050
611.763616	42329.459792
612.112594	42229.770975
612.461518	42337.432377
612.810389	42744.472783
613.159207	42534.816235
613.507971	42516.116075
613.856682	43006.206970
614.205340	42844.363246
614.553945	43514.975339
614.902496	42848.980943
615.250994	43286.989157
615.599439	43331.968852
615.947830	43446.478662
616.296169	43445.208291
616.644454	43497.792567
616.992686	43660.135364
617.340864	44099.325729
617.688990	43631.960356
618.037063	44304.881297
618.385082	44131.851253
618.733048	44477.898738
619.080961	44342.863871
619.428821	44349.124984
619.776628	44381.118667
620.124382	44199.095204
620.472083	44277.336433
620.819731	44390.727106
621.167326	43949.298470
621.514868	43933.870018
621.862357	43395.830189
622.209793	43480.173734
622.557176	43035.274263
622.904506	42802.504025
623.251783	42429.700616
623.599007	42116.264355
623.946179	42029.856458
624.293297	41768.122270
624.640363	41228.524724
624.987376	41088.113466
625.334336	40869.897040
625.681243	40473.057409
626.028097	40395.199308
626.374899	40211.734076
626.721647	40171.193117
627.068343	39965.360285
627.414987	39686.307213
627.761577	39423.481617
628.108115	39746.707798
628.454600	39009.789408
628.801032	39237.097556
629.147412	39128.793407
629.493739	39036.477277
629.840014	38619.044533
630.186236	39039.360817
630.532405	38492.448557
630.878521	38707.680620
631.224585	38500.519444
631.570597	38157.315170
631.916556	38323.358174
632.262462	38214.005465
632.608316	38135.471850
632.954117	37996.923298
633.299866	37965.887435
633.645562	37865.349183
633.991206	37349.712241
634.336797	36927.344207
634.682336	36807.566392
635.027823	36585.445592
635.373257	36454.531868
635.718639	36132.039174
636.063968	36035.150717
636.409245	35372.579264
636.754470	35314.099359
637.099642	35098.791678
637.444762	34541.524888
637.789829	34689.185326
638.134845	34297.936334
638.479808	34220.776434
638.824719	34183.295455
639.169577	33658.899508
639.514383	33758.621093
639.859137	33383.402971
640.203839	33537.410221
640.548489	33258.326903
640.893086	33250.414812
641.237632	32973.201762
641.582125	33073.409818
641.926566	32873.540671
642.270955	32895.971285
642.615292	32833.758406
642.959576	32718.265571
643.303809	32734.150247
643.647990	32824.679287
643.992118	32780.365025
644.336195	32622.261837
644.680219	32722.749677
645.024192	32919.576488
645.368112	33441.837506
645.711981	33479.036180
646.055797	34209.804362
646.399562	34012.337325
646.743274	34888.106736
647.086935	35277.538391
647.430544	35244.145788
647.774101	35280.482425
648.117606	35567.432463
648.461059	35691.603644
648.804460	35281.687261
649.147810	34771.588026
649.491108	34413.777009
649.834354	34261.219090
650.177548	33432.695373
650.520690	32953.954637
650.863781	32937.860753
651.206820	32762.640328
651.549807	32352.227390
651.892742	31767.284665
652.235626	31682.328620
652.578458	31561.217420
652.921238	30870.135721
653.263967	31174.986897
653.606644	30890.940563
653.949269	30791.662600
654.291843	30406.644475
654.634365	30775.016710
654.976836	30302.378290
655.319255	30388.410621
655.661622	30253.010270
656.003938	30130.391765
656.346203	29944.514340
656.688416	30179.056543
657.030577	29946.445102
657.372687	29777.241294
657.714746	29936.803895
658.056753	30142.772838
658.398708	29517.306798
658.740612	29573.077083
659.082465	29797.282401
659.424266	29683.140595
659.766016	29698.947133
660.107715	29562.074765
660.449362	29665.415898
660.790958	29632.023295
661.132503	29565.142307
661.473996	29636.285591
661.815438	29707.489368
662.156829	29835.728761
662.498168	29651.295627
662.839456	29613.648290
663.180693	29738.689070
663.521879	29840.795120
663.863013	29792.410126
664.204097	29770.055129
664.545129	30181.257007
664.886110	30119.822986
665.227040	30236.845810
665.567918	30227.938092
665.908746	30291.358327
666.249522	30399.758259
666.590248	30408.179506
666.930922	30502.302890
667.271545	30499.310965
667.612118	30550.095549
667.952639	30367.688958
668.293109	30407.390566
668.633528	30260.723236
668.973896	30223.217051
669.314213	30203.059997
669.654480	30017.422027
669.994695	29990.865229
670.334859	29915.880586
670.674973	29757.837892
671.015035	29934.868092
671.355047	29869.222187
671.695008	29808.751026
672.034918	29731.064324
672.374777	29820.259980
672.714585	29690.455310
673.054342	29815.939711
673.394049	29673.174234
673.733705	29902.695448
674.073310	29620.544588
674.412864	29669.451342
674.752368	29361.333498
675.091820	29594.706154
675.431223	29184.918320
675.770574	28986.629574
676.109875	28820.528596
676.449125	28616.097205
676.788324	28515.823614
677.127473	28035.842753
677.466571	27938.735007
677.805619	27656.395103
678.144616	27597.564838
678.483562	27547.768320
678.822458	27220.494092
679.161303	27166.180700
679.500098	27102.246267
679.838842	27030.951748
680.177535	27103.768695
680.516179	27352.143824
680.854771	27484.012847
681.193314	28268.721376
681.531805	29291.866398
681.870247	30055.029035
682.208638	30767.626378
682.546978	31033.441379
682.885268	31168.156134
683.223508	30726.941746
683.561697	30450.220209
683.899836	30279.304929
684.237925	29878.321469
684.575963	29726.040815
684.913951	29366.719971
685.251889	29525.879281
685.589776	29570.833770
685.927614	29586.108466
686.265401	29771.428843
686.603137	29893.540713
686.940824	30389.864994
687.278460	30730.934340
687.616046	30899.926420
687.953582	31556.612326
688.291068	31472.717443
688.628504	31795.003450
688.965889	31789.543880
689.303224	31519.791738
689.640510	31212.001569
689.977745	30581.960682
690.314930	29836.815129
690.652065	29380.058864
690.989150	28717.724346
691.326185	27864.897226
691.663170	27233.298622
692.000105	26495.046847
692.336990	25890.151236
692.673825	25470.651618
693.010610	24971.653005
693.347345	24500.872250
693.684030	23868.346074
694.020665	23659.196163
694.357251	23000.965143
694.693786	23000.322396
695.030272	22775.479373
695.366707	22280.637191
695.703093	22006.100994
696.039429	22072.939132
696.375716	21843.042352
696.711952	21852.615503
697.048139	21719.778579
697.384276	21544.459851
697.720363	21666.801093
698.056400	21563.775032
698.392388	21403.703274
698.728326	21401.633880
699.064214	21245.247205
699.400053	21240.737893
699.735842	20849.904797
700.071581	20650.640589
700.407270	20409.194525
700.742910	20232.360931
701.078501	19977.719647
701.414042	19795.968407
701.749533	19482.201950
702.084974	19158.343104
702.420366	19393.018898
702.755709	18990.523092
703.091002	18688.681485
703.426246	18754.145909
703.761440	18680.300567
704.096584	18445.917160
704.431679	18386.250063
704.766725	18325.189087
705.101721	18272.854348
705.436668	18398.719357
705.771565	18124.704919
706.106413	18437.589174
706.441212	18512.490637
706.775961	18619.864694
707.110661	18696.833031
707.445311	19071.352953
707.779913	18934.936809
708.114465	19244.819057
708.448967	19557.098373
708.783421	20176.779689
709.117825	20552.264992
709.452180	20787.512957
709.786485	21244.092781
710.120742	22021.433663
710.454949	22114.193414
710.789107	22640.530205
711.123216	23347.625129
711.457275	23570.718872
711.791286	24113.802376
712.125247	24273.198619
712.459159	23991.728315
712.793023	24723.716456
713.126837	23693.042470
713.460602	23936.608338
713.794318	23590.374331
714.127985	23321.645543
714.461602	22418.870671
714.795171	22399.000963
715.128691	21410.350035
715.462162	20884.247658
715.795584	20464.296857
716.128957	20192.503048
716.462281	19825.242387
716.795556	19545.687721
717.128782	19075.947965
717.461960	18469.139235
717.795088	18436.971632
718.128167	18091.287110
718.461198	17631.672511
718.794180	17503.934714
719.127113	17174.903643
719.459997	16989.900859
719.792833	16625.828728
720.125619	16669.275913
720.458357	16335.879203
720.791046	16201.814758
721.123686	16060.909467
721.456278	15835.650548
721.788821	15828.313149
722.121315	15571.804118
722.453761	15668.977399
722.786158	15555.483382
723.118506	15637.124868
723.450805	15520.684297
723.783056	15706.082812
724.115259	15593.523929
724.447412	15592.858497
724.779518	15801.922708
725.111574	15860.266502
725.443582	16134.467463
725.775542	16095.819457
726.107453	16601.265706
726.439315	16529.764501
726.771129	16941.788087
727.102895	17372.393366
727.434612	17647.859656
727.766281	17810.192372
728.097901	18126.817162
728.429473	18212.801603
728.760996	18211.304380
729.092471	18333.887598
729.423897	18221.525320
729.755276	18094.100074
730.086606	18220.038179
730.417887	18797.885480
730.749120	19354.741416
731.080305	19566.608510
731.411442	19970.601538
731.742530	20084.350133
732.073570	20230.445292
732.404562	20552.799354
732.735506	20398.129192
733.066401	20189.208654
733.397249	19682.857517
733.728048	19051.649603
734.058798	18196.415332
734.389501	17427.447807
734.720156	16927.365346
735.050762	16342.725090
735.381320	15972.648945
735.711831	15703.395877
736.042293	15328.815461
736.372707	15376.885383
736.703073	15163.833619
737.033391	15372.038314
737.363661	15367.171080
737.693883	15504.229971
738.024056	15705.432503
738.354182	15924.332006
738.684260	16291.822039
739.014290	16569.856797
739.344272	16807.592571
739.674207	17140.714538
740.004093	17315.267011
740.333931	17371.236421
740.663722	17447.176363
740.993464	17477.536712
741.323159	17319.539388
741.652806	17025.093154
741.982405	16848.340218
742.311956	16487.600290
742.641460	16370.302722
742.970915	16033.644386
743.300323	15689.192426
743.629683	15482.744573
743.958996	15156.569316
744.288260	14837.955790
744.617477	14543.577612
744.946647	14513.731460
745.275768	14198.251011
745.604842	13992.496317
745.933869	13829.031863
746.262847	13789.579793
746.591778	13708.525600
746.920662	13599.971914
747.249498	13615.652423
747.578286	13772.969191
747.907027	13946.084934
748.235720	14212.031005
748.564365	14286.957675
748.892963	14207.330129
749.221514	14309.118587
749.550017	14181.736191
749.878473	14149.041788
750.206881	13929.978448
750.535242	13847.419471
750.863555	13772.540693
751.191821	13668.589580
751.520039	13687.929966
751.848210	13615.833905
752.176334	13665.050690
752.504411	13588.483124
752.832440	13408.266916
753.160421	13525.546839
753.488356	13409.343202
753.816243	13322.980675
754.144082	13157.381292
754.471875	13114.503758
754.799620	13073.332654
755.127318	13047.658058
755.454969	13038.314279
755.782572	13007.298580
756.110129	13022.603523
756.437638	12935.479782
756.765100	12939.162344
757.092515	12960.879635
757.419882	12998.746262
757.747203	13020.193851
758.074477	13112.673819
758.401703	13093.167074
758.728882	13291.352476
759.056014	13335.336543
759.383099	13504.308458
759.710138	13634.718067
760.037129	13752.219801
760.364073	13819.415862
760.690970	13843.832690
761.017820	13861.685937
761.344623	14080.759359
761.671379	14455.047388
761.998088	15163.105172
762.324751	16945.458047
762.651366	20380.223014
762.977935	24858.685788
763.304456	27832.018821
763.630931	28864.789927
763.957359	27647.215162
764.283740	25352.199627
764.610074	23080.554880
764.936362	20442.297262
765.262602	18562.859326
765.588796	16636.624359
765.914943	15355.692373
766.241044	14258.833078
766.567097	13472.251761
766.893104	12756.183583
767.219064	12291.321143
767.544978	11807.894654
767.870845	11425.465161
768.196665	11211.342152
768.522438	10979.406225
768.848165	10775.945256
769.173846	10569.676364
769.499479	10432.776269
769.825066	10274.289954
770.150607	10040.012412
770.476101	9953.922107
770.801548	9835.676802
771.126949	9682.992855
771.452303	9567.036234
771.777611	9370.920226
772.102872	9361.896561
772.428087	9219.408347
772.753256	9064.458402
773.078378	8971.978434
773.403453	8788.576216
773.728482	8680.438425
774.053465	8610.686500
774.378401	8500.877566
774.703291	8386.760967
775.028135	8263.272862
775.352932	8222.739464
775.677683	8121.132488
776.002388	8009.145776
776.327046	8024.334773
776.651658	7928.366327
776.976224	7829.088363
777.300743	7826.083836
777.625216	7739.849858
777.949643	7690.519647
778.274024	7707.853655
778.598359	7624.989688
778.922647	7643.011813
779.246889	7589.048782
779.571086	7603.718540
779.895236	7611.723892
780.219339	7625.798793
780.543397	7628.289123
780.867409	7708.060342
781.191374	7718.518216
781.515294	7685.183586
781.839167	7772.778675
782.162995	7744.651557
782.486776	7694.245060
782.810511	7641.764128
783.134201	7555.512506
783.457844	7546.491361
783.781441	7496.263825
784.104993	7424.785304
784.428498	7401.454844
784.751958	7392.350521
785.075372	7360.606375
785.398739	7306.421533
785.722061	7354.783842
786.045337	7357.518668
786.368568	7511.757811
786.691752	7540.212604
787.014891	7885.249338
787.337983	8250.523784
787.661030	8847.446811
787.984031	9473.311102
788.306987	9880.371672
788.629897	10090.696172
788.952760	10030.650989
789.275579	9805.185383
789.598351	9404.506914
789.921078	9043.809835
790.243759	8634.135427
790.566395	8346.393927
790.888984	8090.555369
791.211529	7877.458235
791.534027	7655.544122
791.856480	7463.196376
792.178888	7388.365488
792.501249	7285.004191
792.823566	7133.066334
793.145836	7130.049204
793.468062	7106.272602
793.790241	7059.531023
794.112375	7129.066179
794.434464	7282.556710
794.756507	7325.696384
795.078505	7486.473904
795.400457	7801.067110
795.722364	8152.962333
796.044226	8446.473434
796.366042	8719.091472
796.687812	8668.846292
797.009538	8741.663238
797.331218	8637.674317
797.652852	8553.960916
797.974442	8391.552583
798.295986	8302.583780
798.617484	8109.941127
798.938938	7973.383831
799.260346	7868.051442
799.581709	7663.587283
799.903026	7589.996519
800.224299	7479.542318
800.545526	7309.973026
800.866708	7219.088583
801.187845	7146.813561
801.508936	7044.185751
801.829983	7002.114801
802.150984	6851.018818
802.471940	6807.758156
802.792851	6792.301978
803.113717	6756.111535
803.434538	6732.229068
803.755314	6670.114491
804.076045	6673.514750
804.396731	6623.181349
804.717372	6656.306771
805.037967	6663.192987
805.358518	6702.486261
805.679024	6787.429703
805.999485	6800.082999
806.319901	6833.994841
806.640272	6860.990220
806.960598	6944.670853
807.280879	6944.827129
807.601115	7024.401743
807.921306	6965.034594
808.241453	6983.220557
808.561554	6999.584142
808.881611	6962.929912
809.201623	6970.594987
809.521590	6912.261275
809.841513	6898.173771
810.161390	6935.500994
810.481223	6801.648278
810.801011	6782.680936
811.120755	6761.550940
811.440453	6682.934146
811.760107	6648.858466
812.079716	6622.127748
812.399281	6551.581841
812.718801	6543.268978
813.038276	6495.428428
813.357707	6434.387617
813.677093	6479.717672
813.996434	6384.991871
814.315731	6428.335712
814.634983	6417.098980
814.954191	6428.965856
815.273354	6532.271701
815.592473	6599.142607
815.911547	6722.718932
816.230577	6809.371325
816.549562	6952.381298
816.868502	7054.255456
817.187399	7153.198182
817.506250	7303.951367
817.825058	7335.776172
818.143821	7602.412881
818.462539	7876.681897
818.781213	8247.241993
819.099843	8801.113566
819.418429	9806.027256
819.736970	10783.010433
820.055466	11963.893160
820.373919	13502.193694
820.692327	15841.455437
821.010691	19989.667182
821.329011	29003.726648
821.647286	42082.597009
821.965517	55569.914258
822.283704	60965.367958
822.601847	62943.350369
822.919945	60238.915004
823.237999	56020.792537
823.556010	49813.894550
823.873976	43054.952407
824.191897	36502.561461
824.509775	31645.802940
824.827609	27099.531605
825.145398	24513.212995
825.463144	23140.710969
825.780845	23448.911992
826.098502	25239.555044
826.416116	29044.638132
826.733685	32772.432769
827.051210	33955.936896
827.368692	32181.912007
827.686129	28200.380973
828.003522	24026.512276
828.320872	20292.801845
828.638177	17434.371832
828.955439	15260.137302
829.272656	13447.177062
829.589830	11964.881226
829.906960	10689.877636
830.224046	9744.111804
830.541088	8988.203388
830.858086	8530.257411
831.175041	8152.818661
831.491952	8040.695837
831.808819	8089.466480
832.125642	8488.791400
832.442421	9370.305205
832.759157	11177.531133
833.075849	14124.181338
833.392497	17381.671610
833.709101	19581.613504
834.025662	19437.010527
834.342179	17705.759829
834.658653	15498.535987
834.975083	13555.995408
835.291469	11925.351018
835.607811	10597.574109
835.924110	9684.913535
836.240366	8809.154206
836.556578	8005.064962
836.872746	7361.516303
837.188871	6858.777153
837.504952	6436.043636
837.820990	6125.979907
838.136984	5905.018572
838.452935	5814.968441
838.768842	5843.420713
839.084706	6264.692296
839.400526	7484.419634
839.716303	9073.708919
840.032037	10182.672024
840.347727	10104.498852
840.663373	9124.065005
840.978977	8071.575425
841.294537	7258.275993
841.610054	6660.180898
841.925527	6222.886007
842.240957	5861.773034
842.556344	5531.307755
842.871687	5242.643724
843.186987	4962.821877
843.502244	4735.670005
843.817458	4575.447013
844.132629	4436.885858
844.447756	4347.065099
844.762840	4270.800003
845.077881	4192.226059
845.392879	4123.754587
845.707833	4081.270263
846.022745	4034.372409
846.337613	4008.707894
846.652438	3964.507057
846.967221	3951.326961
847.281960	3916.598452
847.596656	3899.740833
847.911309	3879.508162
848.225919	3854.761138
848.540485	3836.928057
848.855009	3826.520594
849.169490	3801.939928
849.483928	3791.449287
849.798323	3780.593162
850.112675	3765.981378
850.426984	3766.929115
850.741251	3758.467538
851.055474	3753.101230
851.369654	3755.450407
851.683792	3754.212804
851.997887	3760.042899
852.311938	3762.432406
852.625947	3766.465329
852.939914	3760.136160
853.253837	3767.155967
853.567718	3763.241511
853.881555	3751.115015
854.195350	3766.934156
854.509103	3760.794031
854.822812	3761.615739
855.136479	3754.679111
855.450103	3762.177827
855.763685	3748.218872
856.077224	3752.786158
856.390720	3771.259466
856.704173	3794.398362
857.017584	3802.890186
857.330953	3814.893173
857.644278	3837.472501
857.957561	3843.562215
858.270802	3842.795960
858.584000	3845.568594
858.897155	3833.016121
859.210268	3820.892146
859.523339	3798.451450
859.836367	3797.997746
860.149352	3784.873102
860.462295	3783.101136
860.775195	3769.021194
861.088054	3767.082870
861.400869	3767.629835
861.713642	3764.330400
862.026373	3777.795322
862.339062	3780.721712
862.651708	3802.620484
862.964312	3841.886031
863.276873	3849.941795
863.589392	3906.498500
863.901869	3955.632106
864.214303	4004.680012
864.526696	4034.851318
864.839045	4080.451075
865.151353	4108.616002
865.463619	4116.056745
865.775842	4119.172178
866.088023	4137.400990
866.400162	4127.482520
866.712258	4137.317811
867.024313	4140.758399
867.336325	4134.517450
867.648296	4143.284017
867.960224	4140.934839
868.272110	4153.225172
868.583954	4156.610307
868.895755	4172.351310
869.207515	4165.928880
869.519233	4206.220302
869.830909	4222.311665
870.142542	4250.010285
870.454134	4260.500926
870.765684	4293.961585
871.077191	4325.057942
871.388657	4349.648691
871.700081	4387.275863
872.011463	4432.951238
872.322803	4470.502792
872.634101	4499.335672
872.945357	4539.185993
873.256571	4590.996452
873.567744	4629.934324
873.878874	4642.892610
874.189963	4681.051624
874.501010	4694.375394
874.812015	4688.862892
875.122979	4732.267227
875.433900	4730.182709
875.744780	4743.514041
876.055618	4773.488742
876.366415	4770.973206
876.677169	4791.326864
876.987882	4836.402342
877.298554	4887.018047
877.609183	4966.383452
877.919771	5078.322273
878.230317	5221.410384
878.540822	5441.877686
878.851285	5767.037150
879.161707	6224.829372
879.472087	6983.883468
879.782425	8228.204075
880.092722	10417.952757
880.402977	13760.431841
880.713191	17567.135660
881.023363	21342.939726
881.333494	23597.111833
881.643583	24827.662528
881.953631	24807.213087
882.263637	23925.593417
882.573602	22436.451695
882.883526	20859.966940
883.193408	19159.225306
883.503248	17439.037420
883.813048	15879.125459
884.122806	14438.038535
884.432522	12955.152884
884.742197	11684.003257
885.051831	10582.695144
885.361424	9578.245240
885.670975	8751.087676
885.980485	8056.663692
886.289954	7481.397462
886.599382	7008.696028
886.908768	6623.322501
887.218113	6260.430001
887.527417	5974.808306
887.836680	5702.291091
888.145901	5481.712884
888.455082	5320.292617
888.764221	5169.559596
889.073319	5037.720820
889.382376	4961.180982
889.691392	4903.709307
890.000366	4882.894383
890.309300	4861.897977
890.618193	4867.082804
890.927044	4849.388354
891.235855	4871.236715
891.544625	4904.770470
891.853353	4964.261127
892.162041	5084.855609
892.470687	5269.717241
892.779293	5520.068503
893.087858	5895.468106
893.396381	6478.565769
893.704864	7283.554859
894.013306	8447.905122
894.321707	9643.230754
894.630068	10476.755296
894.938387	10693.769407
895.246665	10448.706316
895.554903	9837.511782
895.863100	9127.692115
896.171256	8564.708656
896.479371	8048.675984
896.787446	7548.585961
897.095480	7112.606811
897.403473	6794.383975
897.711425	6474.300952
898.019336	6211.167845
898.327207	5930.146203
898.635038	5698.520308
898.942827	5447.536381
899.250576	5250.515486
899.558284	5057.507349
899.865952	4929.981280
900.173579	4783.298827
900.481165	4674.732538
900.788711	4576.732507
901.096216	4507.235160
901.403681	4442.403401
901.711105	4417.573198
902.018489	4403.997370
902.325832	4474.593689
902.633135	4598.563224
902.940397	4943.554587
903.247619	5741.352471
903.554800	7191.231167
903.861941	9135.631932
904.169041	10681.083343
904.476101	11313.750672
904.783121	10947.878849
905.090100	10199.234735
905.397039	9351.105971
905.703938	8585.178261
906.010796	7892.438023
906.317614	7333.114442
906.624391	6790.933305
906.931129	6366.672318
907.237826	5962.051666
907.544483	5584.650725
907.851099	5207.123754
908.157675	4852.329867
908.464211	4524.269219
908.770707	4287.037560
909.077163	4084.239502
909.383578	3937.395732
909.689954	3822.558247
909.996289	3756.529214
910.302584	3691.064791
910.608839	3661.853825
910.915054	3626.429637
911.221229	3612.919344
911.527363	3624.415696
911.833458	3637.726862
912.139513	3664.124864
912.445527	3693.756767
912.751502	3779.045528
913.057436	3881.262484
913.363331	4016.299872
913.669186	4218.472827
913.975000	4478.722394
914.280775	4904.347013
914.586510	5486.199511
914.892205	6290.137520
915.197859	7340.454362
915.503475	8579.428825
915.809050	9653.179471
916.114585	10320.217386
916.420081	10581.374361
916.725536	10542.766685
917.030952	10097.814282
917.336328	9685.394965
917.641665	9261.912836
917.946961	8778.965256
918.252218	8354.520267
918.557435	7833.121287
918.862612	7397.633650
919.167750	7018.470825
919.472848	6589.443427
919.777906	6210.162135
920.082925	5848.877762
920.387904	5478.110979
920.692843	5207.428744
920.997743	4962.801713
921.302603	4729.466866
921.607423	4561.873706
921.912204	4397.388418
922.216946	4278.979276
922.521647	4155.965039
922.826310	4049.853792
923.130932	3956.431129
923.435516	3859.935883
923.740059	3787.260088
924.044564	3708.625650
924.349028	3651.617762
924.653454	3586.102926
924.957840	3513.744725
925.262186	3466.042806
925.566493	3406.589958
925.870761	3350.464272
926.174989	3312.471616
926.479178	3275.996347
926.783328	3235.120152
927.087438	3207.076213
927.391509	3169.970800
927.695541	3142.037766
927.999533	3116.257306
928.303486	3091.144798
928.607400	3079.890422
928.911275	3067.199317
929.215110	3048.496636
929.518906	3042.056562
929.822663	3039.205790
930.126381	3036.526416
930.430060	3043.405071
930.733699	3046.326419
931.037299	3055.904612
931.340861	3054.243552
931.644383	3061.659089
931.947866	3065.132444
932.251309	3053.807492
932.554714	3053.258006
932.858080	3049.804816
933.161407	3042.369114
933.464694	3032.811086
933.767943	3026.512164
934.071153	3023.185003
934.374323	3012.132273
934.677455	3003.814369
934.980548	2997.926301
935.283602	2994.783142
935.586617	2989.200064
935.889593	3001.094667
936.192530	3005.893845
936.495428	3021.733150
936.798287	3042.510266
937.101108	3072.973959
937.403890	3128.527474
937.706632	3193.465097
938.009336	3269.712549
938.312002	3345.624764
938.614628	3406.935278
938.917216	3463.834781
939.219765	3493.890140
939.522275	3529.682332
939.824747	3532.230636
940.127179	3527.486910
940.429573	3521.041795
940.731929	3519.373173
941.034246	3503.909433
941.336524	3493.355778
941.638763	3475.681493
941.940964	3464.263279
942.243126	3417.050353
942.545250	3391.726116
942.847335	3355.260930
943.149381	3319.355312
943.451389	3289.647792
943.753359	3255.625045
944.055290	3228.836353
944.357182	3201.190666
944.659036	3190.054757
944.960851	3178.956657
945.262628	3162.832526
945.564367	3170.817714
945.866067	3159.583502
946.167729	3159.840601
946.469352	3157.004952
946.770937	3149.569250
947.072484	3138.657673
947.373992	3140.101963
947.675462	3130.738020
947.976893	3117.010958
948.278286	3105.653238
948.579641	3099.596292
948.880958	3090.355857
949.182236	3097.431117
949.483476	3087.910897
949.784678	3089.392997
950.085841	3091.724530
950.386967	3102.530244
950.688054	3120.111268
950.989103	3142.060452
951.290114	3161.000067
951.591087	3187.367822
951.892021	3217.329920
952.192917	3246.790423
952.493776	3271.754217
952.794596	3280.961884
953.095378	3286.605456
953.396122	3275.693878
953.696828	3271.708846
953.997496	3258.501023
954.298126	3234.356417
954.598718	3216.664487
954.899272	3189.454859
955.199788	3163.699604
955.500266	3129.097124
955.800706	3092.369798
956.101108	3052.509395
956.401472	3021.783562
956.701798	2988.849704
957.002087	2950.920062
957.302337	2922.082142
957.602550	2890.199364
957.902724	2862.818337
958.202861	2841.398474
958.502960	2817.576502
958.803022	2796.827113
959.103045	2775.883639
959.403031	2757.906884
959.702979	2746.975142
960.002889	2732.801938
960.302762	2717.270143
960.602596	2707.775130
960.902393	2699.527802
961.202153	2688.684280
961.501875	2679.577436
961.801559	2675.748680
962.101205	2670.029491
962.400814	2663.667554
962.700385	2656.332676
962.999918	2650.868065
963.299414	2644.322127
963.598873	2642.542599
963.898293	2635.094294
964.197677	2634.698564
964.497022	2635.099336
964.796331	2630.126237
965.095601	2629.445682
965.394835	2626.509209
965.694030	2627.162039
965.993189	2621.856224
966.292309	2620.180041
966.591393	2621.828498
966.890439	2620.089300
967.189447	2622.156173
967.488419	2624.074332
967.787353	2625.687501
968.086249	2621.800772
968.385108	2625.412758
968.683930	2624.386884
968.982714	2635.253091
969.281462	2637.907258
969.580172	2641.468833
969.878844	2648.075266
970.177480	2655.581544
970.476078	2661.472132
970.774639	2672.779440
971.073162	2676.351097
971.371649	2684.275791
971.670098	2692.278623
971.968510	2698.207020
972.266885	2701.186342
972.565223	2702.822196
972.863524	2706.779502
973.161788	2709.660522
973.460014	2713.751418
973.758204	2715.593960
974.056356	2717.058415
974.354471	2722.880947
974.652550	2718.747201
974.950591	2715.067159
975.248595	2716.929865
975.546563	2712.667570
975.844493	2712.002137
976.142386	2703.195242
976.440243	2700.851105
976.738062	2695.963707
977.035845	2686.854342
977.333590	2681.291428
977.631299	2679.751356
977.928971	2672.353462
978.226606	2661.633449
978.524204	2659.831236
978.821765	2656.801503
979.119290	2660.683191
979.416777	2658.938952
979.714228	2661.215033
980.011642	2666.412463
980.309020	2675.569719
980.606360	2689.296781
980.903664	2710.094061
981.200931	2747.764083
981.498162	2798.208389
981.795356	2871.751262
982.092513	2960.241156
982.389633	3068.686457
982.686717	3168.125737
982.983764	3242.671800
983.280775	3293.126188
983.577749	3299.911581
983.874686	3289.453708
984.171587	3251.362749
984.468451	3212.240875
984.765279	3168.639935
985.062070	3120.935496
985.358824	3072.401788
985.655543	3016.639064
985.952224	2963.467494
986.248869	2899.941394
986.545478	2838.686334
986.842050	2784.330092
987.138586	2738.962228
987.435086	2698.605271
987.731549	2666.886331
988.027975	2644.496046
988.324366	2626.191617
988.620719	2610.115377
988.917037	2600.474170
989.213318	2591.395052
989.509563	2585.864907
989.805772	2581.305183
990.101944	2577.113463
990.398080	2571.885787
990.694180	2568.530899
990.990244	2570.181877
991.286271	2571.913513
991.582262	2573.430901
991.878217	2577.695717
992.174136	2581.216963
992.470019	2581.053125
992.765865	2582.641089
993.061676	2587.079825
993.357450	2597.847729
993.653188	2604.744028
993.948890	2620.510236
994.244556	2643.041673
994.540186	2664.884993
994.835780	2693.687626
995.131337	2733.114490
995.426859	2778.116870
995.722345	2823.129333
996.017795	2878.148486
996.313208	2913.960843
996.608586	2943.857406
996.903928	2957.040023
997.199234	2957.201340
997.494504	2952.664302
997.789738	2936.998916
998.084936	2915.657191
998.380099	2881.455483
998.675225	2853.708972
998.970316	2820.449960
999.265371	2783.740277
999.560390	2747.504463
999.855373	2717.587736
1000.150320	2690.274764
1000.445232	2662.054385
1000.740108	2641.216776
1001.034948	2619.867489
1001.329752	2603.670262
1001.624521	2594.361771
1001.919254	2582.923393
1002.213951	2573.251940
1002.508613	2565.831361
1002.803239	2560.447409
1003.097829	2552.046326
1003.392384	2549.334185
1003.686903	2543.068031
1003.981386	2541.331353
1004.275834	2538.465457
1004.570246	2535.932278
1004.864623	2531.806093
1005.158964	2529.121679
1005.453270	2529.867770
1005.747540	2526.921215
1006.041775	2525.998684
1006.335974	2524.824095
1006.630138	2524.103210
1006.924266	2521.496934
1007.218359	2519.112468
1007.512416	2519.883764
1007.806438	2514.908146
1008.100425	2516.874196
1008.394376	2512.125429
1008.688292	2518.479803
1008.982172	2516.677591
1009.276017	2517.408558
1009.569827	2516.188599
1009.863602	2513.335306
1010.157341	2515.155162
1010.451045	2512.654750
1010.744714	2515.369411
1011.038347	2511.928824
1011.331945	2511.470079
1011.625508	2510.542506
1011.919036	2507.157372
1012.212528	2507.661487
1012.505986	2509.504029
1012.799408	2506.101250
1013.092795	2508.291631
1013.386147	2507.011178
1013.679464	2506.199552
1013.972745	2506.260046
1014.265992	2504.102432
1014.559204	2506.945643
1014.852380	2504.092350
1015.145521	2506.852382
1015.438628	2504.379696
1015.731699	2507.449758
1016.024736	2506.872546
1016.317737	2508.644512
1016.610703	2510.368587
1016.903635	2511.049142
1017.196531	2511.757424
1017.489393	2513.478978
1017.782219	2515.913856
1018.075011	2514.061232
1018.367768	2516.496109
1018.660490	2516.859072
1018.953177	2516.859072
1019.245829	2516.859072
