Dividing Wavelength (nm)	Counts (n)	Blue Motor Position (mm): 0.000000	Red Motor Position (mm): 15.300000	
326.493990	1.001202
326.888308	1.001202
327.282561	1.001202
327.676750	1.000237
328.070874	1.000362
328.464933	1.001201
328.858929	0.999505
329.252859	0.999705
329.646726	0.999547
330.040528	1.001332
330.434265	0.999925
330.827938	1.000186
331.221547	1.000443
331.615091	1.000251
332.008571	1.000466
332.401986	0.999326
332.795338	1.000517
333.188625	0.998447
333.581847	0.999907
333.975006	0.999179
334.368100	0.999367
334.761129	1.001055
335.154095	1.001475
335.546996	0.997540
335.939833	0.993118
336.332606	0.993025
336.725315	0.994472
337.117960	0.995063
337.510540	0.993394
337.903056	0.994987
338.295508	0.993896
338.687896	0.994801
339.080220	0.994474
339.472480	0.993919
339.864676	0.994410
340.256807	0.994033
340.648875	0.996277
341.040879	0.995284
341.432818	0.993809
341.824694	0.994462
342.216506	0.994943
342.608253	0.994940
342.999937	0.993621
343.391557	0.994204
343.783113	0.993107
344.174605	0.993830
344.566033	0.994568
344.957397	0.993287
345.348697	0.993201
345.739934	0.993994
346.131106	0.994855
346.522215	0.992518
346.913260	0.993506
347.304241	0.993307
347.695159	0.993829
348.086012	0.991791
348.476802	0.994181
348.867528	0.994249
349.258191	0.993119
349.648789	0.994081
350.039324	0.994127
350.429796	0.994183
350.820203	0.994645
351.210548	0.993497
351.600828	0.994330
351.991045	0.994049
352.381198	0.993132
352.771288	0.993470
353.161314	0.993945
353.551276	0.994648
353.941175	0.992895
354.331010	0.993798
354.720782	0.994664
355.110490	0.993475
355.500135	0.993273
355.889717	0.993120
356.279235	0.993219
356.668689	0.992951
357.058080	0.993844
357.447408	0.995108
357.836672	0.995689
358.225873	0.994779
358.615010	0.994735
359.004084	0.994564
359.393095	0.994595
359.782043	0.993668
360.170927	0.994537
360.559748	0.994748
360.948505	0.994313
361.337199	0.994648
361.725830	0.993216
362.114398	0.993034
362.502903	0.994613
362.891344	0.995148
363.279722	0.992995
363.668037	0.994239
364.056289	0.993511
364.444478	0.994723
364.832603	0.994071
365.220665	0.994059
365.608665	0.994502
365.996601	0.992907
366.384474	0.993108
366.772284	0.993990
367.160031	0.993176
367.547715	0.993186
367.935336	0.993649
368.322893	0.994110
368.710388	0.992514
369.097820	0.993904
369.485189	0.994685
369.872495	0.992261
370.259738	0.992020
370.646918	0.994094
371.034035	0.995124
371.421090	0.995405
371.808081	0.993137
372.195010	0.994900
372.581875	0.994427
372.968678	0.995011
373.355418	0.994741
373.742096	0.993629
374.128710	0.994428
374.515262	0.992862
374.901751	0.994583
375.288177	0.992822
375.674540	0.994842
376.060841	0.993134
376.447079	0.993415
376.833254	0.993754
377.219367	0.995062
377.605417	0.993961
377.991404	0.994466
378.377329	0.993280
378.763191	0.993511
379.148991	0.994256
379.534727	0.994740
379.920402	0.993899
380.306013	0.994093
380.691563	0.994510
381.077049	0.994188
381.462474	0.994138
381.847835	0.993728
382.233134	0.994008
382.618371	0.994922
383.003545	0.995056
383.388657	0.993692
383.773706	0.994872
384.158693	0.994522
384.543618	0.994426
384.928480	0.994905
385.313280	0.993596
385.698017	0.994719
386.082692	0.994890
386.467305	0.994574
386.851856	0.993736
387.236344	0.993560
387.620770	0.993830
388.005133	0.993465
388.389435	0.994262
388.773674	0.993840
389.157851	0.994821
389.541965	0.994173
389.926018	0.993603
390.310008	0.995769
390.693936	0.993162
391.077802	0.993653
391.461606	0.994060
391.845348	0.994294
392.229027	0.994516
392.612645	0.993149
392.996200	0.994023
393.379694	0.992389
393.763125	0.993369
394.146494	0.992381
394.529801	0.990783
394.913047	0.989772
395.296230	0.989034
395.679351	0.987151
396.062410	0.985192
396.445408	0.983476
396.828343	0.980998
397.211217	0.978714
397.594028	0.976249
397.976778	0.972288
398.359466	0.968861
398.742092	0.964987
399.124656	0.962006
399.507158	0.957263
399.889598	0.952319
400.271977	0.946945
400.654294	0.943234
401.036549	0.937235
401.418742	0.931906
401.800874	0.923836
402.182944	0.917344
402.564952	0.908861
402.946898	0.904530
403.328783	0.897256
403.710606	0.891780
404.092367	0.879006
404.474067	0.873723
404.855705	0.865288
405.237282	0.860626
405.618797	0.848263
406.000250	0.837305
406.381642	0.826916
406.762972	0.819486
407.144240	0.810835
407.525447	0.802209
407.906593	0.790168
408.287677	0.779719
408.668700	0.774952
409.049661	0.762942
409.430560	0.751938
409.811399	0.746817
410.192176	0.728339
410.572891	0.723669
410.953545	0.707888
411.334138	0.707246
411.714669	0.694568
412.095139	0.694224
412.475547	0.675709
412.855894	0.668974
413.236180	0.660059
413.616405	0.656801
413.996568	0.642479
414.376670	0.639586
414.756711	0.636909
415.136691	0.627339
415.516609	0.614082
415.896466	0.605285
416.276262	0.595561
416.655997	0.592072
417.035670	0.570190
417.415283	0.557879
417.794834	0.556900
418.174324	0.556231
418.553753	0.560347
418.933121	0.539434
419.312428	0.529238
419.691674	0.529765
420.070859	0.516108
420.449983	0.519412
420.829045	0.507000
421.208047	0.512264
421.586988	0.503545
421.965867	0.498654
422.344686	0.485779
422.723444	0.495974
423.102141	0.509132
423.480777	0.481714
423.859352	0.499811
424.237866	0.475648
424.616319	0.475448
424.994712	0.465152
425.373044	0.474100
425.751314	0.461538
426.129524	0.476888
426.507673	0.459362
426.885762	0.452382
427.263789	0.456899
427.641756	0.466129
428.019662	0.456441
428.397508	0.454314
428.775292	0.458344
429.153016	0.450436
429.530679	0.456613
429.908282	0.449881
430.285824	0.459662
430.663305	0.437224
431.040726	0.458036
431.418086	0.458180
431.795385	0.449991
432.172624	0.448007
432.549802	0.448987
432.926920	0.447693
433.303977	0.447339
433.680974	0.444521
434.057910	0.442898
434.434786	0.442482
434.811601	0.444712
435.188355	0.426432
435.565050	0.435824
435.941683	0.437951
436.318257	0.421565
436.694770	0.422293
437.071222	0.420635
437.447614	0.425141
437.823946	0.431080
438.200218	0.420999
438.576429	0.430499
438.952580	0.423245
439.328670	0.420095
439.704700	0.426454
440.080670	0.428251
440.456580	0.408550
440.832429	0.416780
441.208218	0.427719
441.583947	0.416932
441.959616	0.416764
442.335224	0.421783
442.710773	0.412400
443.086261	0.410550
443.461689	0.424361
443.837057	0.414389
444.212365	0.403804
444.587612	0.410985
444.962800	0.400881
445.337927	0.402435
445.712995	0.428929
446.088002	0.391137
446.462949	0.401188
446.837837	0.406034
447.212664	0.394827
447.587431	0.386605
447.962139	0.357188
448.336786	0.316402
448.711374	0.326571
449.085901	0.370758
449.460369	0.375366
449.834776	0.378277
450.209124	0.357782
450.583412	0.350004
450.957640	0.343911
451.331808	0.354510
451.705917	0.378109
452.079965	0.382300
452.453954	0.370761
452.827883	0.377815
453.201752	0.372769
453.575562	0.384470
453.949311	0.372468
454.323001	0.378670
454.696632	0.374560
455.070202	0.367359
455.443713	0.358810
455.817164	0.353871
456.190556	0.349800
456.563888	0.346144
456.937160	0.344038
457.310373	0.361284
457.683526	0.360096
458.056619	0.365946
458.429653	0.366245
458.802628	0.369322
459.175542	0.364372
459.548398	0.346440
459.921194	0.339221
460.293930	0.338864
460.666607	0.316736
461.039224	0.304894
461.411782	0.300729
461.784280	0.300283
462.156719	0.304320
462.529099	0.309052
462.901419	0.324861
463.273680	0.329224
463.645882	0.328731
464.018024	0.334393
464.390106	0.327496
464.762130	0.312384
465.134094	0.295041
465.505999	0.264717
465.877845	0.234926
466.249631	0.222041
466.621358	0.229634
466.993026	0.243319
467.364634	0.249457
467.736184	0.258418
468.107674	0.267077
468.479105	0.266454
468.850477	0.273074
469.221790	0.279898
469.593043	0.290143
469.964238	0.294422
470.335373	0.294385
470.706449	0.292068
471.077467	0.292631
471.448425	0.255187
471.819324	0.230878
472.190164	0.229966
472.560945	0.258759
472.931667	0.281024
473.302330	0.284933
473.672934	0.296760
474.043479	0.284886
474.413965	0.287181
474.784393	0.290690
475.154761	0.285665
475.525070	0.282532
475.895321	0.288720
476.265513	0.282902
476.635645	0.277953
477.005719	0.278156
477.375734	0.274643
477.745691	0.268186
478.115588	0.264515
478.485427	0.257853
478.855207	0.244702
479.224928	0.227550
479.594591	0.215630
479.964194	0.219013
480.333739	0.220167
480.703226	0.221580
481.072653	0.220068
481.442022	0.215698
481.811333	0.212207
482.180584	0.215697
482.549777	0.220898
482.918912	0.224229
483.287988	0.224002
483.657005	0.223684
484.025964	0.229954
484.394864	0.227337
484.763706	0.227923
485.132489	0.232936
485.501213	0.233645
485.869879	0.231944
486.238487	0.235228
486.607036	0.233168
486.975527	0.237561
487.343959	0.233348
487.712333	0.232458
488.080648	0.234114
488.448905	0.233073
488.817104	0.234282
489.185244	0.229166
489.553326	0.225902
489.921350	0.215827
490.289315	0.198260
490.657222	0.193402
491.025070	0.194515
491.392861	0.196337
491.760593	0.202176
492.128267	0.207866
492.495883	0.213480
492.863440	0.219547
493.230939	0.226031
493.598380	0.227049
493.965763	0.229472
494.333088	0.231742
494.700354	0.233540
495.067563	0.232342
495.434713	0.235586
495.801805	0.233421
496.168839	0.234974
496.535815	0.236090
496.902733	0.236169
497.269593	0.237701
497.636395	0.235719
498.003139	0.235942
498.369825	0.238924
498.736453	0.235204
499.103023	0.236790
499.469535	0.236126
499.835989	0.236508
500.202385	0.237405
500.568723	0.240386
500.935003	0.235772
501.301226	0.240006
501.667390	0.234409
502.033497	0.232438
502.399546	0.235409
502.765537	0.237410
503.131470	0.235592
503.497345	0.231887
503.863163	0.240826
504.228923	0.233522
504.594625	0.232456
504.960269	0.237788
505.325856	0.232877
505.691385	0.237206
506.056856	0.234250
506.422270	0.233570
506.787625	0.235780
507.152924	0.233666
507.518164	0.233496
507.883347	0.235357
508.248472	0.237171
508.613540	0.232334
508.978550	0.234907
509.343503	0.235206
509.708398	0.232768
510.073236	0.230535
510.438016	0.230293
510.802738	0.231476
511.167403	0.230532
511.532010	0.232305
511.896561	0.227852
512.261053	0.226464
512.625488	0.228415
512.989866	0.228878
513.354186	0.229190
513.718449	0.231259
514.082655	0.227276
514.446803	0.229464
514.810894	0.227530
515.174927	0.230189
515.538904	0.229537
515.902822	0.226405
516.266684	0.228739
516.630488	0.230065
516.994235	0.228656
517.357925	0.227295
517.721558	0.225611
518.085133	0.225370
518.448651	0.225324
518.812112	0.227536
519.175516	0.227351
519.538863	0.224791
519.902152	0.226589
520.265385	0.223264
520.628560	0.224936
520.991678	0.225704
521.354739	0.224317
521.717743	0.225691
522.080690	0.226196
522.443580	0.223362
522.806413	0.224307
523.169189	0.223779
523.531908	0.222597
523.894569	0.226293
524.257174	0.226085
524.619722	0.223848
524.982213	0.224912
525.344647	0.223901
525.707025	0.224407
526.069345	0.222665
526.431608	0.224503
526.793815	0.222358
527.155964	0.226395
527.518057	0.225425
527.880093	0.226392
528.242072	0.225048
528.603995	0.226807
528.965860	0.228505
529.327669	0.227380
529.689421	0.228439
530.051117	0.229245
530.412755	0.226860
530.774337	0.229262
531.135862	0.229614
531.497331	0.228957
531.858743	0.231667
532.220098	0.228472
532.581396	0.230977
532.942638	0.231500
533.303824	0.232635
533.664953	0.232131
534.026025	0.233979
534.387040	0.232032
534.747999	0.231807
535.108902	0.230837
535.469748	0.235723
535.830537	0.233696
536.191270	0.233817
536.551947	0.233254
536.912567	0.233558
537.273131	0.235353
537.633638	0.235387
537.994089	0.235830
538.354483	0.237118
538.714821	0.233944
539.075103	0.233466
539.435328	0.234294
539.795497	0.238319
540.155609	0.234828
540.515665	0.232892
540.875665	0.238723
541.235609	0.237202
541.595496	0.237321
541.955328	0.233671
542.315102	0.236214
542.674821	0.237246
543.034483	0.237301
543.394090	0.237084
543.753640	0.238969
544.113134	0.233918
544.472571	0.237410
544.831953	0.234193
545.191278	0.238442
545.550548	0.237970
545.909761	0.234473
546.268918	0.235346
546.628019	0.233591
546.987064	0.236223
547.346053	0.237990
547.704986	0.235637
548.063863	0.236264
548.422684	0.236413
548.781449	0.238427
549.140158	0.235815
549.498811	0.238834
549.857408	0.241908
550.215949	0.236645
550.574434	0.239782
550.932864	0.237752
551.291237	0.236227
551.649555	0.237910
552.007817	0.237792
552.366022	0.238276
552.724173	0.238361
553.082267	0.238686
553.440305	0.235727
553.798288	0.240295
554.156215	0.236737
554.514086	0.237304
554.871902	0.240342
555.229661	0.239975
555.587365	0.240268
555.945014	0.242956
556.302606	0.239734
556.660143	0.242285
557.017625	0.238936
557.375050	0.241036
557.732421	0.237934
558.089735	0.240040
558.446994	0.240188
558.804197	0.239283
559.161345	0.239214
559.518437	0.242724
559.875474	0.240313
560.232455	0.239827
560.589381	0.240997
560.946251	0.241039
561.303065	0.238543
561.659825	0.240159
562.016528	0.241384
562.373177	0.244251
562.729770	0.241651
563.086307	0.243825
563.442789	0.241675
563.799216	0.244216
564.155587	0.243005
564.511904	0.244029
564.868164	0.244533
565.224370	0.244291
565.580520	0.245890
565.936615	0.246138
566.292654	0.248959
566.648638	0.245970
567.004567	0.246674
567.360441	0.247198
567.716260	0.249512
568.072023	0.246960
568.427732	0.248135
568.783385	0.250411
569.138982	0.248366
569.494525	0.247934
569.850013	0.251047
570.205445	0.249465
570.560823	0.251980
570.916145	0.253921
571.271412	0.252301
571.626625	0.253737
571.981782	0.254147
572.336884	0.254873
572.691931	0.254688
573.046923	0.255887
573.401860	0.256994
573.756743	0.258650
574.111570	0.257681
574.466342	0.258155
574.821059	0.257345
575.175722	0.260060
575.530330	0.259930
575.884882	0.259750
576.239380	0.262551
576.593823	0.262593
576.948211	0.262189
577.302544	0.265469
577.656823	0.265071
578.011047	0.265168
578.365216	0.265822
578.719330	0.267869
579.073389	0.267536
579.427394	0.269059
579.781344	0.269672
580.135239	0.271157
580.489080	0.270937
580.842866	0.273983
581.196597	0.273534
581.550273	0.272309
581.903895	0.273019
582.257463	0.271273
582.610975	0.274852
582.964434	0.274091
583.317837	0.276919
583.671186	0.277013
584.024481	0.277258
584.377721	0.279643
584.730906	0.280149
585.084037	0.279345
585.437113	0.281267
585.790135	0.280632
586.143103	0.283481
586.496016	0.284818
586.848874	0.282110
587.201679	0.282981
587.554428	0.286176
587.907124	0.284742
588.259765	0.285577
588.612352	0.286364
588.964884	0.289902
589.317362	0.289502
589.669786	0.289581
590.022155	0.287631
590.374470	0.287279
590.726731	0.289348
591.078937	0.294183
591.431090	0.290525
591.783188	0.294932
592.135232	0.294997
592.487222	0.295208
592.839157	0.293058
593.191038	0.295856
593.542866	0.297309
593.894639	0.300842
594.246358	0.299149
594.598022	0.298774
594.949633	0.302224
595.301190	0.302753
595.652692	0.302348
596.004141	0.298307
596.355535	0.306508
596.706876	0.306631
597.058162	0.309427
597.409395	0.306450
597.760573	0.304121
598.111698	0.307602
598.462768	0.308036
598.813785	0.309295
599.164748	0.310468
599.515657	0.310596
599.866511	0.314121
600.217312	0.309496
600.568060	0.314975
600.918753	0.310803
601.269392	0.311928
601.619978	0.315215
601.970510	0.313069
602.320988	0.312923
602.671412	0.311013
603.021783	0.313274
603.372100	0.314648
603.722363	0.314326
604.072572	0.315055
604.422728	0.314981
604.772830	0.316958
605.122878	0.316496
605.472872	0.317062
605.822813	0.315551
606.172701	0.318119
606.522534	0.315825
606.872314	0.315472
607.222041	0.316510
607.571714	0.314567
607.921333	0.316030
608.270899	0.316028
608.620411	0.312256
608.969870	0.316338
609.319276	0.316731
609.668627	0.316489
610.017926	0.314959
610.367171	0.313723
610.716362	0.313963
611.065500	0.314619
611.414585	0.312950
611.763616	0.313946
612.112594	0.314004
612.461518	0.313722
612.810389	0.311327
613.159207	0.313596
613.507971	0.315423
613.856682	0.311399
614.205340	0.312697
614.553945	0.309426
614.902496	0.313680
615.250994	0.311463
615.599439	0.312090
615.947830	0.311387
616.296169	0.312717
616.644454	0.311598
616.992686	0.311955
617.340864	0.309897
617.688990	0.313676
618.037063	0.310052
618.385082	0.311893
618.733048	0.308895
619.080961	0.311182
619.428821	0.310635
619.776628	0.310252
620.124382	0.312100
620.472083	0.312221
620.819731	0.312066
621.167326	0.315846
621.514868	0.315501
621.862357	0.320044
622.209793	0.319476
622.557176	0.321607
622.904506	0.322586
623.251783	0.325041
623.599007	0.327423
623.946179	0.326796
624.293297	0.328585
624.640363	0.332415
624.987376	0.333444
625.334336	0.335909
625.681243	0.337981
626.028097	0.338771
626.374899	0.339346
626.721647	0.339951
627.068343	0.343036
627.414987	0.344230
627.761577	0.346295
628.108115	0.344340
628.454600	0.349992
628.801032	0.346829
629.147412	0.349247
629.493739	0.349610
629.840014	0.353059
630.186236	0.350117
630.532405	0.355802
630.878521	0.353413
631.224585	0.355277
631.570597	0.358557
631.916556	0.357182
632.262462	0.357529
632.608316	0.359610
632.954117	0.360742
633.299866	0.361669
633.645562	0.361642
633.991206	0.365902
634.336797	0.368761
634.682336	0.371084
635.027823	0.373265
635.373257	0.373415
635.718639	0.376597
636.063968	0.375726
636.409245	0.382113
636.754470	0.382603
637.099642	0.384735
637.444762	0.388347
637.789829	0.387043
638.134845	0.390576
638.479808	0.391484
638.824719	0.390916
639.169577	0.395874
639.514383	0.394394
639.859137	0.398350
640.203839	0.398544
640.548489	0.399062
640.893086	0.400375
641.237632	0.402099
641.582125	0.400341
641.926566	0.401564
642.270955	0.402153
642.615292	0.402345
642.959576	0.401164
643.303809	0.402212
643.647990	0.401701
643.992118	0.402337
644.336195	0.405893
644.680219	0.404112
645.024192	0.404699
645.368112	0.398412
645.711981	0.397258
646.055797	0.392844
646.399562	0.395292
646.743274	0.387143
647.086935	0.384556
647.430544	0.385109
647.774101	0.383591
648.117606	0.383396
648.461059	0.383690
648.804460	0.385682
649.147810	0.391213
649.491108	0.393256
649.834354	0.394667
650.177548	0.400141
650.520690	0.405567
650.863781	0.406761
651.206820	0.406022
651.549807	0.410759
651.892742	0.414409
652.235626	0.414045
652.578458	0.414898
652.921238	0.421096
653.263967	0.418856
653.606644	0.422924
653.949269	0.422650
654.291843	0.426357
654.634365	0.423541
654.976836	0.426026
655.319255	0.426617
655.661622	0.428552
656.003938	0.427970
656.346203	0.431014
656.688416	0.428687
657.030577	0.432323
657.372687	0.434461
657.714746	0.435163
658.056753	0.432184
658.398708	0.435766
658.740612	0.437262
659.082465	0.432825
659.424266	0.433878
659.766016	0.433337
660.107715	0.435984
660.449362	0.434421
660.790958	0.435265
661.132503	0.435518
661.473996	0.433574
661.815438	0.435292
662.156829	0.434531
662.498168	0.435364
662.839456	0.436492
663.180693	0.434533
663.521879	0.434121
663.863013	0.435126
664.204097	0.434353
664.545129	0.430999
664.886110	0.431419
665.227040	0.428673
665.567918	0.431400
665.908746	0.429152
666.249522	0.428985
666.590248	0.430084
666.930922	0.428142
667.271545	0.427060
667.612118	0.426946
667.952639	0.428341
668.293109	0.427384
668.633528	0.430464
668.973896	0.430149
669.314213	0.430964
669.654480	0.432156
669.994695	0.432193
670.334859	0.433253
670.674973	0.433535
671.015035	0.433054
671.355047	0.433230
671.695008	0.434406
672.034918	0.435900
672.374777	0.436193
672.714585	0.436874
673.054342	0.436563
673.394049	0.436954
673.733705	0.434147
674.073310	0.435380
674.412864	0.438940
674.752368	0.439230
675.091820	0.439578
675.431223	0.443601
675.770574	0.443620
676.109875	0.446747
676.449125	0.446473
676.788324	0.449125
677.127473	0.454583
677.466571	0.454702
677.805619	0.455570
678.144616	0.457311
678.483562	0.458707
678.822458	0.461134
679.161303	0.462167
679.500098	0.462289
679.838842	0.464261
680.177535	0.464400
680.516179	0.462459
680.854771	0.461831
681.193314	0.454713
681.531805	0.446047
681.870247	0.434826
682.208638	0.426827
682.546978	0.425973
682.885268	0.428107
683.223508	0.434429
683.561697	0.438238
683.899836	0.440446
684.237925	0.443937
684.575963	0.446356
684.913951	0.449749
685.251889	0.445501
685.589776	0.447429
685.927614	0.449941
686.265401	0.443584
686.603137	0.445111
686.940824	0.439214
687.278460	0.437371
687.616046	0.436847
687.953582	0.432216
688.291068	0.433904
688.628504	0.428858
688.965889	0.430693
689.303224	0.435163
689.640510	0.439249
689.977745	0.445208
690.314930	0.452930
690.652065	0.457391
690.989150	0.465013
691.326185	0.472363
691.663170	0.476550
692.000105	0.483409
692.336990	0.489937
692.673825	0.493092
693.010610	0.499863
693.347345	0.504956
693.684030	0.506771
694.020665	0.511581
694.357251	0.520151
694.693786	0.519478
695.030272	0.523862
695.366707	0.527100
695.703093	0.531008
696.039429	0.528180
696.375716	0.530083
696.711952	0.533150
697.048139	0.535139
697.384276	0.536987
697.720363	0.534907
698.056400	0.534562
698.392388	0.539862
698.728326	0.542878
699.064214	0.545773
699.400053	0.546731
699.735842	0.549767
700.071581	0.553245
700.407270	0.555966
700.742910	0.558216
701.078501	0.565165
701.414042	0.565947
701.749533	0.568396
702.084974	0.577167
702.420366	0.569473
702.755709	0.576450
703.091002	0.584366
703.426246	0.577786
703.761440	0.584109
704.096584	0.588444
704.431679	0.585707
704.766725	0.587782
705.101721	0.589263
705.436668	0.585417
705.771565	0.592987
706.106413	0.589586
706.441212	0.584628
706.775961	0.583831
707.110661	0.586034
707.445311	0.582614
707.779913	0.579705
708.114465	0.578371
708.448967	0.574550
708.783421	0.566878
709.117825	0.561513
709.452180	0.562173
709.786485	0.555528
710.120742	0.545825
710.454949	0.547789
710.789107	0.539447
711.123216	0.530563
711.457275	0.532530
711.791286	0.523100
712.125247	0.522258
712.459159	0.532683
712.793023	0.525361
713.126837	0.529820
713.460602	0.530219
713.794318	0.539381
714.127985	0.538302
714.461602	0.548461
714.795171	0.551384
715.128691	0.559220
715.462162	0.566399
715.795584	0.571826
716.128957	0.575013
716.462281	0.581362
716.795556	0.585426
717.128782	0.590037
717.461960	0.600304
717.795088	0.598328
718.128167	0.603950
718.461198	0.613133
718.794180	0.614078
719.127113	0.616862
719.459997	0.620159
719.792833	0.626734
720.125619	0.628250
720.458357	0.633768
720.791046	0.632930
721.123686	0.637281
721.456278	0.643855
721.788821	0.640311
722.121315	0.645463
722.453761	0.649413
722.786158	0.647214
723.118506	0.643448
723.450805	0.650700
723.783056	0.647614
724.115259	0.644913
724.447412	0.643495
724.779518	0.645753
725.111574	0.644539
725.443582	0.640165
725.775542	0.642596
726.107453	0.633964
726.439315	0.634324
726.771129	0.632121
727.102895	0.626098
727.434612	0.618969
727.766281	0.616870
728.097901	0.616136
728.429473	0.616234
728.760996	0.614648
729.092471	0.614590
729.423897	0.618440
729.755276	0.617681
730.086606	0.617184
730.417887	0.611337
730.749120	0.602694
731.080305	0.593574
731.411442	0.589477
731.742530	0.594390
732.073570	0.593428
732.404562	0.585792
732.735506	0.587115
733.066401	0.592069
733.397249	0.600867
733.728048	0.613058
734.058798	0.625350
734.389501	0.635613
734.720156	0.645516
735.050762	0.653060
735.381320	0.655074
735.711831	0.664487
736.042293	0.668673
736.372707	0.663861
736.703073	0.669405
737.033391	0.670724
737.363661	0.668329
737.693883	0.663746
738.024056	0.662444
738.354182	0.663040
738.684260	0.652117
739.014290	0.648442
739.344272	0.649022
739.674207	0.642537
740.004093	0.642270
740.333931	0.642827
740.663722	0.642437
740.993464	0.642433
741.323159	0.646860
741.652806	0.651082
741.982405	0.656649
742.311956	0.661324
742.641460	0.663583
742.970915	0.667013
743.300323	0.674934
743.629683	0.681103
743.958996	0.682549
744.288260	0.687181
744.617477	0.692858
744.946647	0.695166
745.275768	0.699926
745.604842	0.699361
745.933869	0.709473
746.262847	0.710815
746.591778	0.704083
746.920662	0.710634
747.249498	0.716315
747.578286	0.708543
747.907027	0.703751
748.235720	0.704329
748.564365	0.699160
748.892963	0.699249
749.221514	0.702317
749.550017	0.707531
749.878473	0.707161
750.206881	0.712875
750.535242	0.714688
750.863555	0.715259
751.191821	0.715293
751.520039	0.717895
751.848210	0.723814
752.176334	0.716711
752.504411	0.714945
752.832440	0.723307
753.160421	0.726776
753.488356	0.725153
753.816243	0.723168
754.144082	0.730896
754.471875	0.735366
754.799620	0.730258
755.127318	0.731739
755.454969	0.732185
755.782572	0.731441
756.110129	0.736298
756.437638	0.737886
756.765100	0.734903
757.092515	0.732952
757.419882	0.731940
757.747203	0.737481
758.074477	0.736132
758.401703	0.733884
758.728882	0.729028
759.056014	0.727808
759.383099	0.726889
759.710138	0.727748
760.037129	0.724338
760.364073	0.718593
760.690970	0.721198
761.017820	0.726291
761.344623	0.722146
761.671379	0.712796
761.998088	0.701396
762.324751	0.679415
762.651366	0.636980
762.977935	0.570021
763.304456	0.517485
763.630931	0.507945
763.957359	0.546606
764.283740	0.591603
764.610074	0.618761
764.936362	0.650724
765.262602	0.676413
765.588796	0.698716
765.914943	0.715998
766.241044	0.733822
766.567097	0.741226
766.893104	0.750596
767.219064	0.757278
767.544978	0.763489
767.870845	0.777336
768.196665	0.781269
768.522438	0.778229
768.848165	0.779929
769.173846	0.789440
769.499479	0.792025
769.825066	0.796241
770.150607	0.801683
770.476101	0.797416
770.801548	0.798113
771.126949	0.809850
771.452303	0.813576
771.777611	0.811541
772.102872	0.811405
772.428087	0.817035
772.753256	0.820624
773.078378	0.822650
773.403453	0.831729
773.728482	0.836216
774.053465	0.828948
774.378401	0.831747
774.703291	0.841484
775.028135	0.841722
775.352932	0.842853
775.677683	0.845978
776.002388	0.846517
776.327046	0.845416
776.651658	0.848625
776.976224	0.852152
777.300743	0.852075
777.625216	0.854221
777.949643	0.855876
778.274024	0.856328
778.598359	0.857971
778.922647	0.855803
779.246889	0.857356
779.571086	0.860717
779.895236	0.863881
780.219339	0.860460
780.543397	0.857349
780.867409	0.855939
781.191374	0.857264
781.515294	0.859599
781.839167	0.857982
782.162995	0.861593
782.486776	0.858890
782.810511	0.859753
783.134201	0.863629
783.457844	0.860381
783.781441	0.864545
784.104993	0.869440
784.428498	0.869755
784.751958	0.865903
785.075372	0.868410
785.398739	0.872311
785.722061	0.868514
786.045337	0.863015
786.368568	0.868449
786.691752	0.872178
787.014891	0.856751
787.337983	0.847636
787.661030	0.841116
787.984031	0.822770
788.306987	0.810514
788.629897	0.812145
788.952760	0.816321
789.275579	0.820188
789.598351	0.835313
789.921078	0.848051
790.243759	0.851779
790.566395	0.855820
790.888984	0.862872
791.211529	0.868165
791.534027	0.871169
791.856480	0.874372
792.178888	0.878567
792.501249	0.881784
792.823566	0.881247
793.145836	0.882979
793.468062	0.884568
793.790241	0.884746
794.112375	0.882447
794.434464	0.877556
794.756507	0.877816
795.078505	0.876843
795.400457	0.871568
795.722364	0.860215
796.044226	0.852105
796.366042	0.851804
796.687812	0.854626
797.009538	0.851223
797.331218	0.854156
797.652852	0.858031
797.974442	0.863713
798.295986	0.862692
798.617484	0.865886
798.938938	0.870327
799.260346	0.875362
799.581709	0.877691
799.903026	0.879518
800.224299	0.879493
800.545526	0.884391
800.866708	0.888437
801.187845	0.891048
801.508936	0.891350
801.829983	0.889892
802.150984	0.892171
802.471940	0.897751
802.792851	0.896410
803.113717	0.898224
803.434538	0.895989
803.755314	0.897644
804.076045	0.899227
804.396731	0.899982
804.717372	0.899862
805.037967	0.901283
805.358518	0.899636
805.679024	0.895744
805.999485	0.896796
806.319901	0.896673
806.640272	0.898853
806.960598	0.895460
807.280879	0.891728
807.601115	0.891897
807.921306	0.895657
808.241453	0.895156
808.561554	0.894657
808.881611	0.893222
809.201623	0.895620
809.521590	0.895740
809.841513	0.896371
810.161390	0.895767
810.481223	0.897924
810.801011	0.900899
811.120755	0.902292
811.440453	0.900650
811.760107	0.900396
812.079716	0.899714
812.399281	0.902773
812.718801	0.906119
813.038276	0.906587
813.357707	0.905911
813.677093	0.903215
813.996434	0.906128
814.315731	0.908347
814.634983	0.908148
814.954191	0.908216
815.273354	0.904731
815.592473	0.900806
815.911547	0.900503
816.230577	0.898643
816.549562	0.894773
816.868502	0.896587
817.187399	0.891748
817.506250	0.887712
817.825058	0.889728
818.143821	0.885672
818.462539	0.880678
818.781213	0.871583
819.099843	0.861033
819.418429	0.846863
819.736970	0.827948
820.055466	0.808936
820.373919	0.782978
820.692327	0.749368
821.010691	0.715417
821.329011	0.637035
821.647286	0.520929
821.965517	0.407496
822.283704	0.364572
822.601847	0.365813
822.919945	0.401325
823.237999	0.435263
823.556010	0.482458
823.873976	0.538548
824.191897	0.589171
824.509775	0.632189
824.827609	0.677668
825.145398	0.700130
825.463144	0.703388
825.780845	0.685520
826.098502	0.666783
826.416116	0.620337
826.733685	0.577471
827.051210	0.568188
827.368692	0.582634
827.686129	0.620196
828.003522	0.673572
828.320872	0.720705
828.638177	0.765923
828.955439	0.799148
829.272656	0.821194
829.589830	0.838022
829.906960	0.854181
830.224046	0.865977
830.541088	0.876044
830.858086	0.881176
831.175041	0.886570
831.491952	0.885909
831.808819	0.883063
832.125642	0.876079
832.442421	0.860894
832.759157	0.839661
833.075849	0.792051
833.392497	0.729261
833.709101	0.688120
834.025662	0.697482
834.342179	0.729063
834.658653	0.767812
834.975083	0.804499
835.291469	0.831508
835.607811	0.853384
835.924110	0.869620
836.240366	0.886635
836.556578	0.900316
836.872746	0.907963
837.188871	0.913522
837.504952	0.920076
837.820990	0.922921
838.136984	0.927001
838.452935	0.929091
838.768842	0.930675
839.084706	0.924311
839.400526	0.898501
839.716303	0.857513
840.032037	0.836206
840.347727	0.839230
840.663373	0.857117
840.978977	0.879608
841.294537	0.901834
841.610054	0.918002
841.925527	0.926272
842.240957	0.931992
842.556344	0.939492
842.871687	0.945115
843.186987	0.950137
843.502244	0.950446
843.817458	0.950745
844.132629	0.955202
844.447756	0.961639
844.762840	0.960327
845.077881	0.959222
845.392879	0.959994
845.707833	0.963199
846.022745	0.963872
846.337613	0.963990
846.652438	0.965982
846.967221	0.964876
847.281960	0.966225
847.596656	0.967165
847.911309	0.967013
848.225919	0.967747
848.540485	0.968413
848.855009	0.969241
849.169490	0.969132
849.483928	0.968910
849.798323	0.968995
850.112675	0.969519
850.426984	0.970110
850.741251	0.969078
851.055474	0.970711
851.369654	0.967102
851.683792	0.970461
851.997887	0.969294
852.311938	0.970611
852.625947	0.970414
852.939914	0.968832
853.253837	0.969532
853.567718	0.969499
853.881555	0.970814
854.195350	0.968400
854.509103	0.969588
854.822812	0.970079
855.136479	0.970847
855.450103	0.968484
855.763685	0.968696
856.077224	0.969274
856.390720	0.971160
856.704173	0.969706
857.017584	0.969796
857.330953	0.966141
857.644278	0.967937
857.957561	0.968288
858.270802	0.969057
858.584000	0.968189
858.897155	0.966768
859.210268	0.967100
859.523339	0.968531
859.836367	0.970120
860.149352	0.971357
860.462295	0.969301
860.775195	0.969105
861.088054	0.969985
861.400869	0.969487
861.713642	0.971090
862.026373	0.970413
862.339062	0.970472
862.651708	0.968004
862.964312	0.967918
863.276873	0.970258
863.589392	0.968298
863.901869	0.966124
864.214303	0.965394
864.526696	0.963193
864.839045	0.964058
865.151353	0.962438
865.463619	0.962454
865.775842	0.961862
866.088023	0.962521
866.400162	0.962519
866.712258	0.962005
867.024313	0.961984
867.336325	0.963296
867.648296	0.961961
867.960224	0.961835
868.272110	0.962706
868.583954	0.962419
868.895755	0.964023
869.207515	0.961850
869.519233	0.958363
869.830909	0.960300
870.142542	0.962371
870.454134	0.961806
870.765684	0.960211
871.077191	0.957593
871.388657	0.959235
871.700081	0.957645
872.011463	0.958587
872.322803	0.958066
872.634101	0.957526
872.945357	0.954609
873.256571	0.952960
873.567744	0.952786
873.878874	0.954145
874.189963	0.950853
874.501010	0.951095
874.812015	0.950405
875.122979	0.950746
875.433900	0.952389
875.744780	0.954436
876.055618	0.950335
876.366415	0.950482
876.677169	0.950211
876.987882	0.950595
877.298554	0.950377
877.609183	0.947238
877.919771	0.944830
878.230317	0.942618
878.540822	0.941008
878.851285	0.933298
879.161707	0.926120
879.472087	0.914387
879.782425	0.897856
880.092722	0.863529
880.402977	0.811786
880.713191	0.749429
881.023363	0.690993
881.333494	0.655908
881.643583	0.628211
881.953631	0.628360
882.263637	0.656424
882.573602	0.696128
882.883526	0.722113
883.193408	0.746153
883.503248	0.769053
883.813048	0.796440
884.122806	0.825488
884.432522	0.848719
884.742197	0.869203
885.051831	0.879571
885.361424	0.890104
885.670975	0.902016
885.980485	0.912575
886.289954	0.919328
886.599382	0.924694
886.908768	0.927228
887.218113	0.934443
887.527417	0.938588
887.836680	0.942485
888.145901	0.942025
888.455082	0.946030
888.764221	0.948819
889.073319	0.951860
889.382376	0.952840
889.691392	0.954022
890.000366	0.952240
890.309300	0.954008
890.618193	0.953443
890.927044	0.951697
891.235855	0.950832
891.544625	0.950354
891.853353	0.952540
892.162041	0.948859
892.470687	0.942091
892.779293	0.937611
893.087858	0.932972
893.396381	0.925521
893.704864	0.913023
894.013306	0.888974
894.321707	0.861469
894.630068	0.845896
894.938387	0.841352
895.246665	0.842576
895.554903	0.855790
895.863100	0.869124
896.171256	0.885832
896.479371	0.905136
896.787446	0.918392
897.095480	0.924484
897.403473	0.928376
897.711425	0.932585
898.019336	0.940094
898.327207	0.943169
898.635038	0.945848
898.942827	0.945411
899.250576	0.948304
899.558284	0.952217
899.865952	0.952828
900.173579	0.954612
900.481165	0.955369
900.788711	0.960241
901.096216	0.962124
901.403681	0.961499
901.711105	0.963251
902.018489	0.963684
902.325832	0.962281
902.633135	0.961254
902.940397	0.955354
903.247619	0.943167
903.554800	0.916483
903.861941	0.877286
904.169041	0.841691
904.476101	0.823969
904.783121	0.824852
905.090100	0.840842
905.397039	0.862930
905.703938	0.884612
906.010796	0.905110
906.317614	0.922436
906.624391	0.933848
906.931129	0.943342
907.237826	0.951708
907.544483	0.959043
907.851099	0.963249
908.157675	0.967365
908.464211	0.968988
908.770707	0.972790
909.077163	0.974241
909.383578	0.974842
909.689954	0.975156
909.996289	0.976413
910.302584	0.977721
910.608839	0.979292
910.915054	0.978416
911.221229	0.977494
911.527363	0.976343
911.833458	0.976077
912.139513	0.977049
912.445527	0.975586
912.751502	0.973384
913.057436	0.972856
913.363331	0.969627
913.669186	0.966764
913.975000	0.960747
914.280775	0.954565
914.586510	0.947594
914.892205	0.933455
915.197859	0.912335
915.503475	0.885465
915.809050	0.865967
916.114585	0.860017
916.420081	0.857361
916.725536	0.854189
917.030952	0.862896
917.336328	0.875927
917.641665	0.890931
917.946961	0.906123
918.252218	0.918211
918.557435	0.926913
918.862612	0.935869
919.167750	0.941810
919.472848	0.946465
919.777906	0.952820
920.082925	0.957809
920.387904	0.962071
920.692843	0.963083
920.997743	0.962756
921.302603	0.967343
921.607423	0.969048
921.912204	0.971573
922.216946	0.972866
922.521647	0.973844
922.826310	0.974010
923.130932	0.977191
923.435516	0.978084
923.740059	0.979084
924.044564	0.979332
924.349028	0.979778
924.653454	0.982709
924.957840	0.985700
925.262186	0.983500
925.566493	0.983993
925.870761	0.986035
926.174989	0.986396
926.479178	0.988435
926.783328	0.988235
927.087438	0.988548
927.391509	0.988555
927.695541	0.989972
927.999533	0.989993
928.303486	0.989691
928.607400	0.991468
928.911275	0.989550
929.215110	0.990386
929.518906	0.990073
929.822663	0.990453
930.126381	0.991094
930.430060	0.990546
930.733699	0.989741
931.037299	0.989909
931.340861	0.990881
931.644383	0.990826
931.947866	0.989546
932.251309	0.990634
932.554714	0.990857
932.858080	0.989989
933.161407	0.989922
933.464694	0.991344
933.767943	0.990740
934.071153	0.991239
934.374323	0.991201
934.677455	0.991552
934.980548	0.991892
935.283602	0.990902
935.586617	0.990725
935.889593	0.991438
936.192530	0.990395
936.495428	0.990716
936.798287	0.991330
937.101108	0.991586
937.403890	0.989102
937.706632	0.988479
938.009336	0.987065
938.312002	0.986008
938.614628	0.984895
938.917216	0.983490
939.219765	0.981355
939.522275	0.982981
939.824747	0.983637
940.127179	0.983123
940.429573	0.984156
940.731929	0.983996
941.034246	0.984560
941.336524	0.985316
941.638763	0.986301
941.940964	0.986175
942.243126	0.986729
942.545250	0.987430
942.847335	0.988889
943.149381	0.987837
943.451389	0.987493
943.753359	0.989239
944.055290	0.989874
944.357182	0.990648
944.659036	0.987324
944.960851	0.989063
945.262628	0.989439
945.564367	0.990805
945.866067	0.990423
946.167729	0.990368
946.469352	0.989307
946.770937	0.989123
947.072484	0.990650
947.373992	0.990093
947.675462	0.990987
947.976893	0.990184
948.278286	0.990166
948.579641	0.991496
948.880958	0.990024
949.182236	0.991404
949.483476	0.990780
949.784678	0.990425
950.085841	0.990639
950.386967	0.991609
950.688054	0.991363
950.989103	0.990007
951.290114	0.990593
951.591087	0.990048
951.892021	0.989927
952.192917	0.988610
952.493776	0.988822
952.794596	0.987040
953.095378	0.987620
953.396122	0.987909
953.696828	0.987366
953.997496	0.989749
954.298126	0.990711
954.598718	0.991511
954.899272	0.992403
955.199788	0.991455
955.500266	0.992314
955.800706	0.993206
956.101108	0.993349
956.401472	0.993067
956.701798	0.993304
957.002087	0.991992
957.302337	0.993833
957.602550	0.995268
957.902724	0.994649
958.202861	0.996761
958.502960	0.995366
958.803022	0.992503
959.103045	0.994903
959.403031	0.996041
959.702979	0.995753
960.002889	0.996402
960.302762	0.993603
960.602596	0.996316
960.902393	0.994316
961.202153	0.995965
961.501875	0.996845
961.801559	0.996045
962.101205	0.995565
962.400814	0.995998
962.700385	0.996766
962.999918	0.996811
963.299414	0.995302
963.598873	0.995257
963.898293	0.996557
964.197677	0.995872
964.497022	0.997323
964.796331	0.996701
965.095601	0.996263
965.394835	0.997346
965.694030	0.997245
965.993189	0.997608
966.292309	0.996593
966.591393	0.997071
966.890439	0.996829
967.189447	0.996900
967.488419	0.997741
967.787353	0.995598
968.086249	0.996456
968.385108	0.997570
968.683930	0.997893
968.982714	0.997080
969.281462	0.998483
969.580172	0.996071
969.878844	0.997170
970.177480	0.996977
970.476078	0.996420
970.774639	0.996797
971.073162	0.997815
971.371649	0.996025
971.670098	0.996062
971.968510	0.997131
972.266885	0.996516
972.565223	0.995547
972.863524	0.995583
973.161788	0.996019
973.460014	0.997572
973.758204	0.996397
974.056356	0.996779
974.354471	0.995714
974.652550	0.996201
974.950591	0.995955
975.248595	0.996546
975.546563	0.996843
975.844493	0.997996
976.142386	0.996660
976.440243	0.997723
976.738062	0.996933
977.035845	0.997685
977.333590	0.997226
977.631299	0.998201
977.928971	0.996440
978.226606	0.996614
978.524204	0.996467
978.821765	0.998491
979.119290	0.996626
979.416777	0.998017
979.714228	0.997174
980.011642	0.995955
980.309020	0.997693
980.606360	0.996352
980.903664	0.998394
981.200931	0.996477
981.498162	0.995080
981.795356	0.994692
982.092513	0.993432
982.389633	0.994155
982.686717	0.991386
982.983764	0.991149
983.280775	0.989889
983.577749	0.989809
983.874686	0.991760
984.171587	0.991033
984.468451	0.994629
984.765279	0.996764
985.062070	0.993580
985.358824	0.996175
985.655543	0.995554
985.952224	0.997231
986.248869	0.998076
986.545478	0.996369
986.842050	0.998745
987.138586	0.995696
987.435086	0.998078
987.731549	0.998866
988.027975	0.998037
988.324366	0.997738
988.620719	0.997994
988.917037	0.996447
989.213318	0.997878
989.509563	0.999566
989.805772	0.998678
990.101944	0.998280
990.398080	0.996955
990.694180	0.997823
990.990244	0.998463
991.286271	0.997633
991.582262	0.998894
991.878217	0.998391
992.174136	0.998810
992.470019	0.998672
992.765865	0.998592
993.061676	0.998260
993.357450	0.998405
993.653188	0.997201
993.948890	0.997177
994.244556	0.998330
994.540186	0.997300
994.835780	0.997155
995.131337	0.997701
995.426859	0.996341
995.722345	0.996953
996.017795	0.995391
996.313208	0.996162
996.608586	0.996969
996.903928	0.997494
997.199234	0.996243
997.494504	0.997428
997.789738	0.995810
998.084936	0.996630
998.380099	0.998111
998.675225	0.997567
998.970316	0.997965
999.265371	0.998447
999.560390	0.998071
999.855373	0.997042
1000.150320	0.997662
1000.445232	0.999655
1000.740108	0.998197
1001.034948	0.998892
1001.329752	0.999333
1001.624521	0.999170
1001.919254	0.998417
1002.213951	0.998683
1002.508613	0.998303
1002.803239	0.999075
1003.097829	0.999425
1003.392384	0.999346
1003.686903	0.997585
1003.981386	0.998657
1004.275834	0.998876
1004.570246	0.997980
1004.864623	0.999276
1005.158964	0.999882
1005.453270	0.998323
1005.747540	0.998291
1006.041775	0.998298
1006.335974	0.999365
1006.630138	0.999029
1006.924266	0.999183
1007.218359	1.000276
1007.512416	1.000703
1007.806438	0.999839
1008.100425	1.000166
1008.394376	0.998949
1008.688292	0.998832
1008.982172	1.000930
1009.276017	0.999095
1009.569827	0.998028
1009.863602	0.998705
1010.157341	0.999636
1010.451045	0.998748
1010.744714	0.999347
1011.038347	0.999928
1011.331945	0.998028
1011.625508	0.998629
1011.919036	0.998773
1012.212528	0.999549
1012.505986	0.997841
1012.799408	0.999518
1013.092795	0.999911
1013.386147	0.999598
1013.679464	0.998898
1013.972745	0.999003
1014.265992	0.997358
1014.559204	0.999099
1014.852380	0.999145
1015.145521	0.999975
1015.438628	0.999421
1015.731699	0.999837
1016.024736	0.998978
1016.317737	0.998586
1016.610703	0.999176
1016.903635	1.000752
1017.196531	0.999716
1017.489393	1.000528
1017.782219	0.998858
1018.075011	0.999192
1018.367768	0.999822
1018.660490	0.999556
1018.953177	0.999556
1019.245829	0.999556
