Dividing Wavelength (nm)	Counts (n)	Blue Motor Position (mm): 0.000000	Red Motor Position (mm): 31.100000	
326.493990	1.000015
326.888308	1.000015
327.282561	1.000015
327.676750	0.998778
328.070874	1.000213
328.464933	0.999439
328.858929	0.999401
329.252859	0.999507
329.646726	1.000486
330.040528	0.999472
330.434265	0.998841
330.827938	0.999807
331.221547	0.999452
331.615091	0.999171
332.008571	0.999625
332.401986	0.999695
332.795338	1.000493
333.188625	0.997214
333.581847	0.999651
333.975006	1.000264
334.368100	0.999447
334.761129	0.998985
335.154095	1.000637
335.546996	0.999028
335.939833	0.993152
336.332606	0.994542
336.725315	0.995507
337.117960	0.996903
337.510540	0.995744
337.903056	0.994854
338.295508	0.994648
338.687896	0.995725
339.080220	0.996317
339.472480	0.994972
339.864676	0.994703
340.256807	0.995063
340.648875	0.994989
341.040879	0.994912
341.432818	0.994893
341.824694	0.994320
342.216506	0.995806
342.608253	0.996068
342.999937	0.994701
343.391557	0.995628
343.783113	0.995480
344.174605	0.995682
344.566033	0.995730
344.957397	0.994148
345.348697	0.995070
345.739934	0.995760
346.131106	0.995412
346.522215	0.994956
346.913260	0.995476
347.304241	0.995614
347.695159	0.994711
348.086012	0.995284
348.476802	0.995383
348.867528	0.996306
349.258191	0.993879
349.648789	0.995245
350.039324	0.995695
350.429796	0.995945
350.820203	0.995344
351.210548	0.995703
351.600828	0.995661
351.991045	0.995081
352.381198	0.993609
352.771288	0.993789
353.161314	0.994095
353.551276	0.995654
353.941175	0.994769
354.331010	0.994842
354.720782	0.994200
355.110490	0.994620
355.500135	0.996504
355.889717	0.994163
356.279235	0.994512
356.668689	0.995213
357.058080	0.995656
357.447408	0.995360
357.836672	0.995076
358.225873	0.995490
358.615010	0.995403
359.004084	0.996593
359.393095	0.995596
359.782043	0.996261
360.170927	0.996319
360.559748	0.996836
360.948505	0.995009
361.337199	0.995861
361.725830	0.995096
362.114398	0.995107
362.502903	0.995523
362.891344	0.995599
363.279722	0.994714
363.668037	0.996863
364.056289	0.994836
364.444478	0.996190
364.832603	0.995967
365.220665	0.995095
365.608665	0.994943
365.996601	0.994583
366.384474	0.996345
366.772284	0.995258
367.160031	0.995299
367.547715	0.993534
367.935336	0.995323
368.322893	0.995145
368.710388	0.995199
369.097820	0.995431
369.485189	0.994933
369.872495	0.994640
370.259738	0.993871
370.646918	0.996158
371.034035	0.995237
371.421090	0.996082
371.808081	0.994945
372.195010	0.995464
372.581875	0.995892
372.968678	0.996128
373.355418	0.996360
373.742096	0.995475
374.128710	0.996749
374.515262	0.995627
374.901751	0.995529
375.288177	0.995540
375.674540	0.996719
376.060841	0.994765
376.447079	0.997369
376.833254	0.996039
377.219367	0.995979
377.605417	0.995742
377.991404	0.996701
378.377329	0.996796
378.763191	0.995816
379.148991	0.997086
379.534727	0.996267
379.920402	0.996227
380.306013	0.996246
380.691563	0.996323
381.077049	0.996401
381.462474	0.996605
381.847835	0.996238
382.233134	0.996024
382.618371	0.997430
383.003545	0.996804
383.388657	0.995611
383.773706	0.997018
384.158693	0.997071
384.543618	0.996470
384.928480	0.997231
385.313280	0.996863
385.698017	0.997857
386.082692	0.998417
386.467305	0.996892
386.851856	0.996252
387.236344	0.996788
387.620770	0.995391
388.005133	0.997638
388.389435	0.998078
388.773674	0.996301
389.157851	0.997019
389.541965	0.996824
389.926018	0.996174
390.310008	0.997434
390.693936	0.996142
391.077802	0.997439
391.461606	0.997296
391.845348	0.997033
392.229027	0.998288
392.612645	0.997280
392.996200	0.997887
393.379694	0.996774
393.763125	0.997602
394.146494	0.996966
394.529801	0.996998
394.913047	0.997183
395.296230	0.997702
395.679351	0.997539
396.062410	0.996813
396.445408	0.997670
396.828343	0.996605
397.211217	0.997030
397.594028	0.997750
397.976778	0.996243
398.359466	0.996913
398.742092	0.997138
399.124656	0.996896
399.507158	0.996606
399.889598	0.997311
400.271977	0.998613
400.654294	0.998524
401.036549	0.998127
401.418742	0.997839
401.800874	0.996782
402.182944	0.997569
402.564952	0.996671
402.946898	0.997449
403.328783	0.997403
403.710606	0.997402
404.092367	0.997549
404.474067	0.998274
404.855705	0.997880
405.237282	0.997366
405.618797	0.998235
406.000250	0.997453
406.381642	0.997848
406.762972	0.997361
407.144240	0.997800
407.525447	0.998011
407.906593	0.998044
408.287677	0.997889
408.668700	0.998260
409.049661	0.996887
409.430560	0.998403
409.811399	0.997361
410.192176	0.997112
410.572891	0.996886
410.953545	0.997176
411.334138	0.996687
411.714669	0.997904
412.095139	0.997035
412.475547	0.997410
412.855894	0.997033
413.236180	0.998378
413.616405	0.997020
413.996568	0.997910
414.376670	0.997711
414.756711	0.997522
415.136691	0.997317
415.516609	0.997309
415.896466	0.996945
416.276262	0.996273
416.655997	0.997336
417.035670	0.997433
417.415283	0.998073
417.794834	0.998307
418.174324	0.997814
418.553753	0.998391
418.933121	0.997875
419.312428	0.997154
419.691674	0.998038
420.070859	0.998071
420.449983	0.997616
420.829045	0.998311
421.208047	0.998057
421.586988	0.998394
421.965867	0.997792
422.344686	0.997510
422.723444	0.997272
423.102141	0.997713
423.480777	0.998364
423.859352	0.998045
424.237866	0.997238
424.616319	0.997979
424.994712	0.997830
425.373044	0.997519
425.751314	0.997768
426.129524	0.997293
426.507673	0.998421
426.885762	0.998135
427.263789	0.997885
427.641756	0.998426
428.019662	0.998525
428.397508	0.996989
428.775292	0.996596
429.153016	0.997411
429.530679	0.998326
429.908282	0.998577
430.285824	0.998091
430.663305	0.997184
431.040726	0.998002
431.418086	0.998699
431.795385	0.998603
432.172624	0.997439
432.549802	0.998117
432.926920	0.998039
433.303977	0.997330
433.680974	0.998978
434.057910	0.997549
434.434786	0.997880
434.811601	0.997689
435.188355	0.997472
435.565050	0.997273
435.941683	0.998450
436.318257	0.999036
436.694770	0.997636
437.071222	0.998146
437.447614	0.998133
437.823946	0.998038
438.200218	0.998600
438.576429	0.997540
438.952580	0.998406
439.328670	0.997550
439.704700	0.998462
440.080670	0.998436
440.456580	0.998019
440.832429	0.997273
441.208218	0.998653
441.583947	0.997964
441.959616	0.998299
442.335224	0.998290
442.710773	0.999246
443.086261	0.997591
443.461689	0.998213
443.837057	0.997421
444.212365	0.998050
444.587612	0.998216
444.962800	0.998012
445.337927	0.998055
445.712995	0.997755
446.088002	0.998433
446.462949	0.998190
446.837837	0.997760
447.212664	0.998347
447.587431	0.998065
447.962139	0.998009
448.336786	0.999181
448.711374	0.998802
449.085901	0.997452
449.460369	0.999059
449.834776	0.997828
450.209124	0.997950
450.583412	0.997825
450.957640	0.998266
451.331808	0.998038
451.705917	0.998413
452.079965	0.998310
452.453954	0.997877
452.827883	0.997769
453.201752	0.998042
453.575562	0.999016
453.949311	0.998283
454.323001	0.997953
454.696632	0.997604
455.070202	0.998063
455.443713	0.997191
455.817164	0.998492
456.190556	0.998075
456.563888	0.997999
456.937160	0.997408
457.310373	0.997497
457.683526	0.997912
458.056619	0.998422
458.429653	0.998095
458.802628	0.997077
459.175542	0.997551
459.548398	0.998250
459.921194	0.997972
460.293930	0.998096
460.666607	0.997545
461.039224	0.996980
461.411782	0.997882
461.784280	0.997596
462.156719	0.999335
462.529099	0.997841
462.901419	0.997334
463.273680	0.997308
463.645882	0.997637
464.018024	0.997551
464.390106	0.997680
464.762130	0.998495
465.134094	0.997367
465.505999	0.997865
465.877845	0.997920
466.249631	0.998109
466.621358	0.997925
466.993026	0.996555
467.364634	0.996996
467.736184	0.997639
468.107674	0.996865
468.479105	0.996573
468.850477	0.996435
469.221790	0.996516
469.593043	0.996558
469.964238	0.996962
470.335373	0.995161
470.706449	0.995512
471.077467	0.995431
471.448425	0.995169
471.819324	0.994497
472.190164	0.993131
472.560945	0.993811
472.931667	0.993053
473.302330	0.992216
473.672934	0.992265
474.043479	0.991869
474.413965	0.991173
474.784393	0.990538
475.154761	0.989010
475.525070	0.987734
475.895321	0.988484
476.265513	0.987375
476.635645	0.986670
477.005719	0.984592
477.375734	0.983828
477.745691	0.983753
478.115588	0.982406
478.485427	0.981053
478.855207	0.978429
479.224928	0.976032
479.594591	0.975266
479.964194	0.973569
480.333739	0.973415
480.703226	0.970964
481.072653	0.969876
481.442022	0.966933
481.811333	0.964038
482.180584	0.963929
482.549777	0.961058
482.918912	0.959766
483.287988	0.957015
483.657005	0.954263
484.025964	0.953354
484.394864	0.950484
484.763706	0.948701
485.132489	0.947169
485.501213	0.943929
485.869879	0.941882
486.238487	0.938401
486.607036	0.936201
486.975527	0.932261
487.343959	0.928754
487.712333	0.925684
488.080648	0.922818
488.448905	0.918902
488.817104	0.915500
489.185244	0.911554
489.553326	0.907051
489.921350	0.900441
490.289315	0.890868
490.657222	0.886864
491.025070	0.882428
491.392861	0.879760
491.760593	0.878294
492.128267	0.874994
492.495883	0.871858
492.863440	0.868459
493.230939	0.863859
493.598380	0.859482
493.965763	0.853788
494.333088	0.850819
494.700354	0.844561
495.067563	0.840169
495.434713	0.834747
495.801805	0.829538
496.168839	0.824386
496.535815	0.818132
496.902733	0.813491
497.269593	0.807391
497.636395	0.801358
498.003139	0.794996
498.369825	0.791012
498.736453	0.782793
499.103023	0.776999
499.469535	0.770760
499.835989	0.765414
500.202385	0.758776
500.568723	0.753832
500.935003	0.746747
501.301226	0.738962
501.667390	0.732334
502.033497	0.725311
502.399546	0.720581
502.765537	0.713614
503.131470	0.705909
503.497345	0.697405
503.863163	0.695589
504.228923	0.684460
504.594625	0.678385
504.960269	0.674092
505.325856	0.664782
505.691385	0.659628
506.056856	0.651862
506.422270	0.644337
506.787625	0.640140
507.152924	0.630895
507.518164	0.625322
507.883347	0.619286
508.248472	0.613988
508.613540	0.604799
508.978550	0.598690
509.343503	0.592684
509.708398	0.584733
510.073236	0.576795
510.438016	0.570192
510.802738	0.564350
511.167403	0.557063
511.532010	0.551335
511.896561	0.543311
512.261053	0.536712
512.625488	0.530506
512.989866	0.524125
513.354186	0.518206
513.718449	0.512977
514.082655	0.504964
514.446803	0.500100
514.810894	0.492563
515.174927	0.487479
515.538904	0.482059
515.902822	0.473122
516.266684	0.469932
516.630488	0.464507
516.994235	0.458697
517.357925	0.451259
517.721558	0.445018
518.085133	0.438262
518.448651	0.434170
518.812112	0.430361
519.175516	0.423733
519.538863	0.417100
519.902152	0.413978
520.265385	0.405607
520.628560	0.402977
520.991678	0.397686
521.354739	0.392380
521.717743	0.388946
522.080690	0.384871
522.443580	0.377003
522.806413	0.373485
523.169189	0.368819
523.531908	0.363663
523.894569	0.362722
524.257174	0.358189
524.619722	0.352115
524.982213	0.349715
525.344647	0.344160
525.707025	0.341343
526.069345	0.335864
526.431608	0.333473
526.793815	0.328555
527.155964	0.328547
527.518057	0.324244
527.880093	0.321652
528.242072	0.317441
528.603995	0.315894
528.965860	0.314828
529.327669	0.310645
529.689421	0.308908
530.051117	0.306900
530.412755	0.301529
530.774337	0.301200
531.135862	0.298905
531.497331	0.295964
531.858743	0.295801
532.220098	0.290469
532.581396	0.290632
532.942638	0.289067
533.303824	0.287575
533.664953	0.285316
534.026025	0.284815
534.387040	0.280882
534.747999	0.279052
535.108902	0.275996
535.469748	0.278973
535.830537	0.275254
536.191270	0.274225
536.551947	0.271874
536.912567	0.270523
537.273131	0.270987
537.633638	0.270004
537.994089	0.268686
538.354483	0.268513
538.714821	0.264280
539.075103	0.262819
539.435328	0.262507
539.795497	0.265113
540.155609	0.260544
540.515665	0.257759
540.875665	0.262259
541.235609	0.259882
541.595496	0.259034
541.955328	0.254677
542.315102	0.256634
542.674821	0.256869
543.034483	0.255970
543.394090	0.255121
543.753640	0.256380
544.113134	0.250936
544.472571	0.253469
544.831953	0.249663
545.191278	0.253253
545.550548	0.252315
545.909761	0.248705
546.268918	0.248970
546.628019	0.246933
546.987064	0.249137
547.346053	0.250485
547.704986	0.247823
548.063863	0.247917
548.422684	0.248042
548.781449	0.249449
549.140158	0.246792
549.498811	0.249380
549.857408	0.252306
550.215949	0.246838
550.574434	0.249423
550.932864	0.247271
551.291237	0.245909
551.649555	0.246986
552.007817	0.246688
552.366022	0.247225
552.724173	0.247233
553.082267	0.247509
553.440305	0.244137
553.798288	0.248751
554.156215	0.244798
554.514086	0.245415
554.871902	0.248454
555.229661	0.247360
555.587365	0.248058
555.945014	0.250057
556.302606	0.247039
556.660143	0.249613
557.017625	0.245689
557.375050	0.248284
557.732421	0.245133
558.089735	0.247010
558.446994	0.247036
558.804197	0.245746
559.161345	0.245956
559.518437	0.249391
559.875474	0.246989
560.232455	0.246368
560.589381	0.247366
560.946251	0.247458
561.303065	0.244943
561.659825	0.246584
562.016528	0.247858
562.373177	0.250580
562.729770	0.247662
563.086307	0.249839
563.442789	0.247635
563.799216	0.250413
564.155587	0.248964
564.511904	0.249922
564.868164	0.250183
565.224370	0.250218
565.580520	0.251563
565.936615	0.251784
566.292654	0.254540
566.648638	0.251514
567.004567	0.252129
567.360441	0.253058
567.716260	0.254960
568.072023	0.252611
568.427732	0.253411
568.783385	0.255994
569.138982	0.254021
569.494525	0.253395
569.850013	0.256335
570.205445	0.254810
570.560823	0.257215
570.916145	0.259131
571.271412	0.257361
571.626625	0.258874
571.981782	0.259325
572.336884	0.260100
572.691931	0.260047
573.046923	0.261073
573.401860	0.262290
573.756743	0.263999
574.111570	0.262708
574.466342	0.263424
574.821059	0.262066
575.175722	0.265258
575.530330	0.265033
575.884882	0.265243
576.239380	0.267204
576.593823	0.267841
576.948211	0.267314
577.302544	0.270282
577.656823	0.269854
578.011047	0.270066
578.365216	0.270716
578.719330	0.272621
579.073389	0.272660
579.427394	0.273731
579.781344	0.274314
580.135239	0.276153
580.489080	0.275901
580.842866	0.278380
581.196597	0.278527
581.550273	0.277043
581.903895	0.278025
582.257463	0.276248
582.610975	0.279481
582.964434	0.278713
583.317837	0.281629
583.671186	0.281860
584.024481	0.282081
584.377721	0.284254
584.730906	0.284998
585.084037	0.284184
585.437113	0.285678
585.790135	0.285422
586.143103	0.287828
586.496016	0.289555
586.848874	0.286647
587.201679	0.287571
587.554428	0.290693
587.907124	0.289702
588.259765	0.290595
588.612352	0.290938
588.964884	0.294808
589.317362	0.294134
589.669786	0.294241
590.022155	0.292704
590.374470	0.291917
590.726731	0.294307
591.078937	0.298591
591.431090	0.294459
591.783188	0.299316
592.135232	0.299720
592.487222	0.299611
592.839157	0.297799
593.191038	0.300141
593.542866	0.301995
593.894639	0.305844
594.246358	0.303683
594.598022	0.303028
594.949633	0.306528
595.301190	0.307208
595.652692	0.306592
596.004141	0.303081
596.355535	0.310844
596.706876	0.311144
597.058162	0.313744
597.409395	0.310975
597.760573	0.308677
598.111698	0.311868
598.462768	0.312320
598.813785	0.313749
599.164748	0.315010
599.515657	0.315336
599.866511	0.318468
600.217312	0.313957
600.568060	0.319273
600.918753	0.315687
601.269392	0.316576
601.619978	0.319949
601.970510	0.317635
602.320988	0.317760
602.671412	0.315392
603.021783	0.317608
603.372100	0.319208
603.722363	0.319009
604.072572	0.319979
604.422728	0.319467
604.772830	0.321725
605.122878	0.321046
605.472872	0.321273
605.822813	0.320204
606.172701	0.322629
606.522534	0.320247
606.872314	0.319620
607.222041	0.320794
607.571714	0.319107
607.921333	0.320558
608.270899	0.320088
608.620411	0.316846
608.969870	0.320789
609.319276	0.321264
609.668627	0.320927
610.017926	0.319546
610.367171	0.317933
610.716362	0.318673
611.065500	0.318754
611.414585	0.317477
611.763616	0.318232
612.112594	0.318703
612.461518	0.318222
612.810389	0.316014
613.159207	0.317842
613.507971	0.319849
613.856682	0.315488
614.205340	0.316940
614.553945	0.314140
614.902496	0.318138
615.250994	0.315781
615.599439	0.316670
615.947830	0.315841
616.296169	0.317188
616.644454	0.316492
616.992686	0.316419
617.340864	0.314409
617.688990	0.318005
618.037063	0.314909
618.385082	0.316763
618.733048	0.313196
619.080961	0.315399
619.428821	0.315235
619.776628	0.314893
620.124382	0.316668
620.472083	0.316890
620.819731	0.316200
621.167326	0.319976
621.514868	0.320018
621.862357	0.324046
622.209793	0.323711
622.557176	0.325745
622.904506	0.327177
623.251783	0.329109
623.599007	0.331680
623.946179	0.331410
624.293297	0.333258
624.640363	0.337055
624.987376	0.337512
625.334336	0.340752
625.681243	0.342377
626.028097	0.343193
626.374899	0.344183
626.721647	0.344303
627.068343	0.347643
627.414987	0.348054
627.761577	0.351046
628.108115	0.349034
628.454600	0.353915
628.801032	0.351578
629.147412	0.353927
629.493739	0.353793
629.840014	0.356852
630.186236	0.354290
630.532405	0.359968
630.878521	0.357756
631.224585	0.359672
631.570597	0.363303
631.916556	0.362047
632.262462	0.361926
632.608316	0.363893
632.954117	0.364497
633.299866	0.365447
633.645562	0.365650
633.991206	0.370438
634.336797	0.373414
634.682336	0.375342
635.027823	0.377208
635.373257	0.377591
635.718639	0.381258
636.063968	0.380034
636.409245	0.386310
636.754470	0.386459
637.099642	0.389073
637.444762	0.392375
637.789829	0.391465
638.134845	0.394882
638.479808	0.395758
638.824719	0.395677
639.169577	0.400027
639.514383	0.398574
639.859137	0.402720
640.203839	0.402680
640.548489	0.402812
640.893086	0.404840
641.237632	0.406096
641.582125	0.404426
641.926566	0.405954
642.270955	0.406511
642.615292	0.406381
642.959576	0.405576
643.303809	0.406334
643.647990	0.405494
643.992118	0.406300
644.336195	0.410029
644.680219	0.408617
645.024192	0.408931
645.368112	0.402366
645.711981	0.401863
646.055797	0.396412
646.399562	0.399180
646.743274	0.391526
647.086935	0.388598
647.430544	0.389099
647.774101	0.387640
648.117606	0.387585
648.461059	0.388117
648.804460	0.390451
649.147810	0.395821
649.491108	0.397582
649.834354	0.398542
650.177548	0.403910
650.520690	0.409067
650.863781	0.410883
651.206820	0.410455
651.549807	0.414380
651.892742	0.418721
652.235626	0.417850
652.578458	0.419197
652.921238	0.425029
653.263967	0.422925
653.606644	0.426970
653.949269	0.426717
654.291843	0.430767
654.634365	0.427095
654.976836	0.430378
655.319255	0.430433
655.661622	0.432990
656.003938	0.432963
656.346203	0.435118
656.688416	0.433227
657.030577	0.436414
657.372687	0.438349
657.714746	0.439312
658.056753	0.436215
658.398708	0.439858
658.740612	0.440686
659.082465	0.437024
659.424266	0.437326
659.766016	0.437634
660.107715	0.440345
660.449362	0.439209
660.790958	0.439566
661.132503	0.439693
661.473996	0.437601
661.815438	0.438855
662.156829	0.438482
662.498168	0.439590
662.839456	0.441092
663.180693	0.439172
663.521879	0.438661
663.863013	0.439325
664.204097	0.437775
664.545129	0.434779
664.886110	0.435530
665.227040	0.432564
665.567918	0.435367
665.908746	0.433017
666.249522	0.432769
666.590248	0.433793
666.930922	0.432104
667.271545	0.431377
667.612118	0.431285
667.952639	0.433173
668.293109	0.431454
668.633528	0.434320
668.973896	0.433984
669.314213	0.434309
669.654480	0.436059
669.994695	0.436752
670.334859	0.437556
670.674973	0.437529
671.015035	0.437798
671.355047	0.437069
671.695008	0.439071
672.034918	0.440428
672.374777	0.439604
672.714585	0.440702
673.054342	0.440928
673.394049	0.441187
673.733705	0.439036
674.073310	0.440164
674.412864	0.442687
674.752368	0.443658
675.091820	0.443604
675.431223	0.448239
675.770574	0.447287
676.109875	0.450891
676.449125	0.450471
676.788324	0.452777
677.127473	0.458539
677.466571	0.457784
677.805619	0.459906
678.144616	0.461139
678.483562	0.462673
678.822458	0.465555
679.161303	0.466384
679.500098	0.466708
679.838842	0.468696
680.177535	0.467791
680.516179	0.466311
680.854771	0.464804
681.193314	0.459052
681.531805	0.450091
681.870247	0.438973
682.208638	0.431224
682.546978	0.430685
682.885268	0.432026
683.223508	0.438063
683.561697	0.441827
683.899836	0.444750
684.237925	0.448386
684.575963	0.450904
684.913951	0.453490
685.251889	0.448902
685.589776	0.450938
685.927614	0.453537
686.265401	0.448086
686.603137	0.449419
686.940824	0.443287
687.278460	0.441748
687.616046	0.441188
687.953582	0.435993
688.291068	0.437524
688.628504	0.433040
688.965889	0.435036
689.303224	0.439677
689.640510	0.442841
689.977745	0.449162
690.314930	0.457024
690.652065	0.461065
690.989150	0.469040
691.326185	0.475396
691.663170	0.480139
692.000105	0.487168
692.336990	0.493913
692.673825	0.496240
693.010610	0.503313
693.347345	0.508860
693.684030	0.509769
694.020665	0.515284
694.357251	0.524477
694.693786	0.523556
695.030272	0.528348
695.366707	0.531170
695.703093	0.534386
696.039429	0.532368
696.375716	0.533698
696.711952	0.536665
697.048139	0.538889
697.384276	0.540816
697.720363	0.539342
698.056400	0.538432
698.392388	0.543547
698.728326	0.546549
699.064214	0.549486
699.400053	0.550187
699.735842	0.553143
700.071581	0.556569
700.407270	0.559541
700.742910	0.561654
701.078501	0.568357
701.414042	0.568389
701.749533	0.571366
702.084974	0.580569
702.420366	0.572864
702.755709	0.580604
703.091002	0.587985
703.426246	0.581456
703.761440	0.587535
704.096584	0.592894
704.431679	0.589474
704.766725	0.591072
705.101721	0.593218
705.436668	0.589439
705.771565	0.595670
706.106413	0.592835
706.441212	0.588295
706.775961	0.587271
707.110661	0.589661
707.445311	0.586251
707.779913	0.583355
708.114465	0.582082
708.448967	0.578401
708.783421	0.570643
709.117825	0.565085
709.452180	0.565380
709.786485	0.558941
710.120742	0.548838
710.454949	0.551174
710.789107	0.542840
711.123216	0.534822
711.457275	0.536241
711.791286	0.526184
712.125247	0.526528
712.459159	0.536401
712.793023	0.529419
713.126837	0.532732
713.460602	0.533916
713.794318	0.543103
714.127985	0.541412
714.461602	0.551541
714.795171	0.555476
715.128691	0.562861
715.462162	0.569849
715.795584	0.576059
716.128957	0.579063
716.462281	0.585097
716.795556	0.588630
717.128782	0.593872
717.461960	0.603840
717.795088	0.601857
718.128167	0.607962
718.461198	0.616773
718.794180	0.617618
719.127113	0.619758
719.459997	0.623443
719.792833	0.629893
720.125619	0.631221
720.458357	0.636915
720.791046	0.636836
721.123686	0.640025
721.456278	0.646822
721.788821	0.644108
722.121315	0.647956
722.453761	0.652446
722.786158	0.650508
723.118506	0.647140
723.450805	0.655345
723.783056	0.649979
724.115259	0.647524
724.447412	0.647233
724.779518	0.649157
725.111574	0.647350
725.443582	0.643549
725.775542	0.645851
726.107453	0.636863
726.439315	0.637636
726.771129	0.635400
727.102895	0.629046
727.434612	0.622658
727.766281	0.620842
728.097901	0.619699
728.429473	0.619398
728.760996	0.617951
729.092471	0.617608
729.423897	0.621870
729.755276	0.620907
730.086606	0.620432
730.417887	0.615980
730.749120	0.606309
731.080305	0.597234
731.411442	0.593630
731.742530	0.597988
732.073570	0.597741
732.404562	0.590245
732.735506	0.591379
733.066401	0.596111
733.397249	0.604674
733.728048	0.616541
734.058798	0.628485
734.389501	0.638729
734.720156	0.649285
735.050762	0.657174
735.381320	0.657937
735.711831	0.666985
736.042293	0.671604
736.372707	0.667906
736.703073	0.672438
737.033391	0.674426
737.363661	0.671176
737.693883	0.666383
738.024056	0.665486
738.354182	0.666108
738.684260	0.655510
739.014290	0.651662
739.344272	0.652447
739.674207	0.646327
740.004093	0.646047
740.333931	0.646486
740.663722	0.645372
740.993464	0.646585
741.323159	0.649626
741.652806	0.655172
741.982405	0.659917
742.311956	0.664016
742.641460	0.666437
742.970915	0.669837
743.300323	0.678345
743.629683	0.683963
743.958996	0.686847
744.288260	0.690847
744.617477	0.696376
744.946647	0.698347
745.275768	0.702617
745.604842	0.702924
745.933869	0.713164
746.262847	0.713378
746.591778	0.706724
746.920662	0.713007
747.249498	0.719326
747.578286	0.710390
747.907027	0.706918
748.235720	0.708073
748.564365	0.702446
748.892963	0.702255
749.221514	0.704854
749.550017	0.710642
749.878473	0.710378
750.206881	0.716241
750.535242	0.717860
750.863555	0.717570
751.191821	0.718654
751.520039	0.721836
751.848210	0.727340
752.176334	0.718802
752.504411	0.718691
752.832440	0.726330
753.160421	0.730009
753.488356	0.728114
753.816243	0.726015
754.144082	0.734289
754.471875	0.737563
754.799620	0.732684
755.127318	0.734667
755.454969	0.735130
755.782572	0.733176
756.110129	0.739064
756.437638	0.740727
756.765100	0.738368
757.092515	0.737180
757.419882	0.735085
757.747203	0.740301
758.074477	0.739532
758.401703	0.736903
758.728882	0.731674
759.056014	0.730619
759.383099	0.729678
759.710138	0.730980
760.037129	0.727430
760.364073	0.721694
760.690970	0.723058
761.017820	0.729677
761.344623	0.725850
761.671379	0.715723
761.998088	0.704714
762.324751	0.682948
762.651366	0.640507
762.977935	0.574428
763.304456	0.522866
763.630931	0.513523
763.957359	0.552332
764.283740	0.596660
764.610074	0.623688
764.936362	0.654014
765.262602	0.681230
765.588796	0.700597
765.914943	0.719174
766.241044	0.736812
766.567097	0.743848
766.893104	0.753246
767.219064	0.759514
767.544978	0.766003
767.870845	0.779086
768.196665	0.783294
768.522438	0.780619
768.848165	0.783171
769.173846	0.791350
769.499479	0.796333
769.825066	0.799454
770.150607	0.804145
770.476101	0.799596
770.801548	0.800088
771.126949	0.812143
771.452303	0.815944
771.777611	0.815278
772.102872	0.813989
772.428087	0.818993
772.753256	0.822995
773.078378	0.824222
773.403453	0.833427
773.728482	0.838279
774.053465	0.831537
774.378401	0.835458
774.703291	0.843122
775.028135	0.842861
775.352932	0.844526
775.677683	0.847022
776.002388	0.847786
776.327046	0.846797
776.651658	0.850369
776.976224	0.854135
777.300743	0.853480
777.625216	0.855641
777.949643	0.857710
778.274024	0.858522
778.598359	0.859342
778.922647	0.858469
779.246889	0.859569
779.571086	0.862666
779.895236	0.865290
780.219339	0.862783
780.543397	0.859367
780.867409	0.857439
781.191374	0.859551
781.515294	0.860734
781.839167	0.860565
782.162995	0.863953
782.486776	0.860751
782.810511	0.861677
783.134201	0.864724
783.457844	0.863304
783.781441	0.865482
784.104993	0.870308
784.428498	0.871908
784.751958	0.867911
785.075372	0.870828
785.398739	0.873866
785.722061	0.870265
786.045337	0.865218
786.368568	0.870258
786.691752	0.873050
787.014891	0.858523
787.337983	0.850151
787.661030	0.841930
787.984031	0.825265
788.306987	0.812428
788.629897	0.814985
788.952760	0.818337
789.275579	0.822440
789.598351	0.837593
789.921078	0.850721
790.243759	0.852677
790.566395	0.857891
790.888984	0.864928
791.211529	0.869579
791.534027	0.873793
791.856480	0.875186
792.178888	0.880505
792.501249	0.882731
792.823566	0.883833
793.145836	0.884735
793.468062	0.885809
793.790241	0.886034
794.112375	0.883952
794.434464	0.878815
794.756507	0.878817
795.078505	0.878373
795.400457	0.873613
795.722364	0.861401
796.044226	0.854868
796.366042	0.853557
796.687812	0.857004
797.009538	0.853284
797.331218	0.856422
797.652852	0.860634
797.974442	0.865719
798.295986	0.865842
798.617484	0.867355
798.938938	0.871552
799.260346	0.876558
799.581709	0.878635
799.903026	0.881237
800.224299	0.882423
800.545526	0.885993
800.866708	0.890042
801.187845	0.893410
801.508936	0.893667
801.829983	0.891416
802.150984	0.893664
802.471940	0.899135
802.792851	0.897781
803.113717	0.898771
803.434538	0.897507
803.755314	0.899212
804.076045	0.901495
804.396731	0.901461
804.717372	0.900977
805.037967	0.902857
805.358518	0.900440
805.679024	0.898275
805.999485	0.897568
806.319901	0.897493
806.640272	0.899051
806.960598	0.897746
807.280879	0.894965
807.601115	0.893256
807.921306	0.897106
808.241453	0.896924
808.561554	0.895570
808.881611	0.894764
809.201623	0.897313
809.521590	0.898240
809.841513	0.898033
810.161390	0.896986
810.481223	0.899643
810.801011	0.902583
811.120755	0.904549
811.440453	0.902823
811.760107	0.902105
812.079716	0.901025
812.399281	0.904401
812.718801	0.908114
813.038276	0.908281
813.357707	0.907978
813.677093	0.904590
813.996434	0.908553
814.315731	0.910059
814.634983	0.910756
814.954191	0.909209
815.273354	0.905394
815.592473	0.902307
815.911547	0.902470
816.230577	0.900801
816.549562	0.898180
816.868502	0.897905
817.187399	0.893650
817.506250	0.888680
817.825058	0.891190
818.143821	0.887530
818.462539	0.882878
818.781213	0.874860
819.099843	0.864680
819.418429	0.847970
819.736970	0.831525
820.055466	0.812358
820.373919	0.787364
820.692327	0.754838
821.010691	0.720861
821.329011	0.644794
821.647286	0.532021
821.965517	0.419231
822.283704	0.377075
822.601847	0.378508
822.919945	0.414535
823.237999	0.446928
823.556010	0.492852
823.873976	0.548335
824.191897	0.597712
824.509775	0.639878
824.827609	0.683715
825.145398	0.706149
825.463144	0.709140
825.780845	0.692068
826.098502	0.674643
826.416116	0.628643
826.733685	0.585548
827.051210	0.577242
827.368692	0.592513
827.686129	0.628569
828.003522	0.680898
828.320872	0.727727
828.638177	0.770157
828.955439	0.802725
829.272656	0.824812
829.589830	0.839967
829.906960	0.855999
830.224046	0.868482
830.541088	0.879758
830.858086	0.883956
831.175041	0.889488
831.491952	0.888275
831.808819	0.885662
832.125642	0.879378
832.442421	0.863276
832.759157	0.842646
833.075849	0.798608
833.392497	0.734795
833.709101	0.694158
834.025662	0.704239
834.342179	0.735755
834.658653	0.774077
834.975083	0.809922
835.291469	0.834628
835.607811	0.857440
835.924110	0.873264
836.240366	0.888923
836.556578	0.903458
836.872746	0.910022
837.188871	0.915589
837.504952	0.921906
837.820990	0.925463
838.136984	0.928030
838.452935	0.931384
838.768842	0.932784
839.084706	0.926488
839.400526	0.900460
839.716303	0.861615
840.032037	0.839430
840.347727	0.842582
840.663373	0.860708
840.978977	0.882441
841.294537	0.903960
841.610054	0.920069
841.925527	0.926896
842.240957	0.934304
842.556344	0.941051
842.871687	0.946686
843.186987	0.950748
843.502244	0.950526
843.817458	0.952210
844.132629	0.956002
844.447756	0.960937
844.762840	0.960918
845.077881	0.960874
845.392879	0.960296
845.707833	0.963686
846.022745	0.965129
846.337613	0.965903
846.652438	0.966086
846.967221	0.964938
847.281960	0.966210
847.596656	0.967432
847.911309	0.966707
848.225919	0.967832
848.540485	0.969071
848.855009	0.968524
849.169490	0.969419
849.483928	0.969336
849.798323	0.969001
850.112675	0.970148
850.426984	0.971396
850.741251	0.970369
851.055474	0.971182
851.369654	0.968251
851.683792	0.969943
851.997887	0.971349
852.311938	0.971655
852.625947	0.971331
852.939914	0.969281
853.253837	0.969716
853.567718	0.970908
853.881555	0.972000
854.195350	0.968566
854.509103	0.969600
854.822812	0.971309
855.136479	0.970655
855.450103	0.970433
855.763685	0.968007
856.077224	0.968401
856.390720	0.971147
856.704173	0.971416
857.017584	0.969839
857.330953	0.967999
857.644278	0.968134
857.957561	0.968079
858.270802	0.968674
858.584000	0.968788
858.897155	0.967297
859.210268	0.968669
859.523339	0.969723
859.836367	0.971225
860.149352	0.971507
860.462295	0.970261
860.775195	0.970644
861.088054	0.969849
861.400869	0.970547
861.713642	0.969901
862.026373	0.971184
862.339062	0.971629
862.651708	0.968238
862.964312	0.968658
863.276873	0.970252
863.589392	0.968252
863.901869	0.967727
864.214303	0.966114
864.526696	0.964285
864.839045	0.963946
865.151353	0.962137
865.463619	0.962876
865.775842	0.964266
866.088023	0.962439
866.400162	0.962012
866.712258	0.962858
867.024313	0.964496
867.336325	0.964038
867.648296	0.964515
867.960224	0.963618
868.272110	0.961285
868.583954	0.964924
868.895755	0.964074
869.207515	0.962633
869.519233	0.959490
869.830909	0.962326
870.142542	0.963102
870.454134	0.962830
870.765684	0.961158
871.077191	0.959007
871.388657	0.959935
871.700081	0.959110
872.011463	0.959687
872.322803	0.958521
872.634101	0.957697
872.945357	0.955052
873.256571	0.954242
873.567744	0.954521
873.878874	0.954267
874.189963	0.952127
874.501010	0.952847
874.812015	0.951036
875.122979	0.952656
875.433900	0.953967
875.744780	0.954336
876.055618	0.952662
876.366415	0.951602
876.677169	0.951639
876.987882	0.952392
877.298554	0.952827
877.609183	0.949670
877.919771	0.946587
878.230317	0.944097
878.540822	0.942251
878.851285	0.937591
879.161707	0.928541
879.472087	0.917597
879.782425	0.901752
880.092722	0.868593
880.402977	0.818289
880.713191	0.759880
881.023363	0.702649
881.333494	0.670391
881.643583	0.642871
881.953631	0.640903
882.263637	0.670233
882.573602	0.709246
882.883526	0.732581
883.193408	0.756094
883.503248	0.778315
883.813048	0.805334
884.122806	0.833812
884.432522	0.856002
884.742197	0.875024
885.051831	0.884739
885.361424	0.894621
885.670975	0.906216
885.980485	0.916135
886.289954	0.921669
886.599382	0.927176
886.908768	0.930808
887.218113	0.936410
887.527417	0.941279
887.836680	0.944120
888.145901	0.945106
888.455082	0.947375
888.764221	0.952592
889.073319	0.954814
889.382376	0.953605
889.691392	0.954467
890.000366	0.954144
890.309300	0.954994
890.618193	0.954111
890.927044	0.952298
891.235855	0.952585
891.544625	0.952270
891.853353	0.953846
892.162041	0.951199
892.470687	0.945123
892.779293	0.939725
893.087858	0.936161
893.396381	0.928917
893.704864	0.915440
894.013306	0.893202
894.321707	0.867149
894.630068	0.853042
894.938387	0.849649
895.246665	0.850153
895.554903	0.862446
895.863100	0.874446
896.171256	0.891591
896.479371	0.909952
896.787446	0.922788
897.095480	0.928523
897.403473	0.931215
897.711425	0.934820
898.019336	0.941553
898.327207	0.944511
898.635038	0.945769
898.942827	0.947224
899.250576	0.950196
899.558284	0.954150
899.865952	0.955612
900.173579	0.956600
900.481165	0.957043
900.788711	0.961317
901.096216	0.963260
901.403681	0.963300
901.711105	0.964133
902.018489	0.964709
902.325832	0.962888
902.633135	0.962799
902.940397	0.957560
903.247619	0.946846
903.554800	0.921851
903.861941	0.882920
904.169041	0.850610
904.476101	0.833591
904.783121	0.833980
905.090100	0.850592
905.397039	0.870265
905.703938	0.889438
906.010796	0.909399
906.317614	0.926698
906.624391	0.937399
906.931129	0.945973
907.237826	0.953594
907.544483	0.960685
907.851099	0.963340
908.157675	0.970109
908.464211	0.971217
908.770707	0.973224
909.077163	0.975096
909.383578	0.975746
909.689954	0.975368
909.996289	0.975231
910.302584	0.978170
910.608839	0.980824
910.915054	0.978534
911.221229	0.977872
911.527363	0.977682
911.833458	0.978298
912.139513	0.977466
912.445527	0.976971
912.751502	0.975182
913.057436	0.974633
913.363331	0.970462
913.669186	0.968051
913.975000	0.963712
914.280775	0.957289
914.586510	0.950151
914.892205	0.938388
915.197859	0.917088
915.503475	0.890887
915.809050	0.873233
916.114585	0.868084
916.420081	0.866778
916.725536	0.861796
917.030952	0.870245
917.336328	0.881026
917.641665	0.896540
917.946961	0.911695
918.252218	0.923289
918.557435	0.930769
918.862612	0.940143
919.167750	0.945416
919.472848	0.949337
919.777906	0.954342
920.082925	0.960238
920.387904	0.963746
920.692843	0.964220
920.997743	0.965664
921.302603	0.967962
921.607423	0.969966
921.912204	0.973174
922.216946	0.973559
922.521647	0.973986
922.826310	0.976044
923.130932	0.977610
923.435516	0.978991
923.740059	0.979960
924.044564	0.979266
924.349028	0.980300
924.653454	0.983665
924.957840	0.984919
925.262186	0.985090
925.566493	0.984674
925.870761	0.984834
926.174989	0.986079
926.479178	0.989587
926.783328	0.989114
927.087438	0.988022
927.391509	0.988666
927.695541	0.989926
927.999533	0.989455
928.303486	0.989523
928.607400	0.991331
928.911275	0.988497
929.215110	0.989494
929.518906	0.991684
929.822663	0.989770
930.126381	0.990935
930.430060	0.990887
930.733699	0.990177
931.037299	0.989114
931.340861	0.991263
931.644383	0.989377
931.947866	0.988582
932.251309	0.990102
932.554714	0.990282
932.858080	0.991196
933.161407	0.989790
933.464694	0.991306
933.767943	0.989456
934.071153	0.991487
934.374323	0.991483
934.677455	0.991694
934.980548	0.992570
935.283602	0.989771
935.586617	0.991742
935.889593	0.990523
936.192530	0.990898
936.495428	0.991249
936.798287	0.991934
937.101108	0.990486
937.403890	0.989493
937.706632	0.988444
938.009336	0.988555
938.312002	0.986768
938.614628	0.985374
938.917216	0.984064
939.219765	0.982616
939.522275	0.982893
939.824747	0.984752
940.127179	0.984524
940.429573	0.985230
940.731929	0.983783
941.034246	0.985078
941.336524	0.985974
941.638763	0.985708
941.940964	0.986751
942.243126	0.987069
942.545250	0.987685
942.847335	0.988874
943.149381	0.989911
943.451389	0.988967
943.753359	0.989435
944.055290	0.991644
944.357182	0.989906
944.659036	0.989029
944.960851	0.988407
945.262628	0.989871
945.564367	0.990601
945.866067	0.989763
946.167729	0.991012
946.469352	0.989838
946.770937	0.988972
947.072484	0.990288
947.373992	0.989933
947.675462	0.989873
947.976893	0.990950
948.278286	0.990946
948.579641	0.992148
948.880958	0.989874
949.182236	0.991602
949.483476	0.992437
949.784678	0.990368
950.085841	0.992753
950.386967	0.991208
950.688054	0.991064
950.989103	0.991968
951.290114	0.988556
951.591087	0.990575
951.892021	0.989721
952.192917	0.989891
952.493776	0.988143
952.794596	0.988186
953.095378	0.988279
953.396122	0.989090
953.696828	0.987535
953.997496	0.990200
954.298126	0.990996
954.598718	0.991480
954.899272	0.991635
955.199788	0.990198
955.500266	0.992393
955.800706	0.992130
956.101108	0.994450
956.401472	0.993507
956.701798	0.994210
957.002087	0.992667
957.302337	0.994202
957.602550	0.995075
957.902724	0.995730
958.202861	0.996027
958.502960	0.995040
958.803022	0.993984
959.103045	0.995906
959.403031	0.995226
959.702979	0.994356
960.002889	0.996014
960.302762	0.995780
960.602596	0.996166
960.902393	0.993884
961.202153	0.996095
961.501875	0.996794
961.801559	0.995117
962.101205	0.993898
962.400814	0.996065
962.700385	0.996443
962.999918	0.996652
963.299414	0.996895
963.598873	0.995425
963.898293	0.995746
964.197677	0.995663
964.497022	0.996641
964.796331	0.996957
965.095601	0.996996
965.394835	0.995408
965.694030	0.996735
965.993189	0.996563
966.292309	0.996450
966.591393	0.996839
966.890439	0.996244
967.189447	0.996765
967.488419	0.997100
967.787353	0.995868
968.086249	0.995696
968.385108	0.997212
968.683930	0.997111
968.982714	0.997332
969.281462	0.997110
969.580172	0.996493
969.878844	0.997555
970.177480	0.996106
970.476078	0.996472
970.774639	0.997155
971.073162	0.997173
971.371649	0.996108
971.670098	0.997244
971.968510	0.997062
972.266885	0.995946
972.565223	0.996987
972.863524	0.996521
973.161788	0.995749
973.460014	0.996309
973.758204	0.994684
974.056356	0.995601
974.354471	0.994651
974.652550	0.995622
974.950591	0.995911
975.248595	0.996156
975.546563	0.996554
975.844493	0.998183
976.142386	0.996135
976.440243	0.997323
976.738062	0.996836
977.035845	0.998083
977.333590	0.996067
977.631299	0.997738
977.928971	0.996050
978.226606	0.996304
978.524204	0.995793
978.821765	0.997338
979.119290	0.996358
979.416777	0.996654
979.714228	0.997468
980.011642	0.994747
980.309020	0.996301
980.606360	0.996600
980.903664	0.997433
981.200931	0.996817
981.498162	0.994408
981.795356	0.994547
982.092513	0.994096
982.389633	0.994216
982.686717	0.991423
982.983764	0.991011
983.280775	0.990414
983.577749	0.990598
983.874686	0.991877
984.171587	0.992394
984.468451	0.993974
984.765279	0.994930
985.062070	0.993583
985.358824	0.995672
985.655543	0.994531
985.952224	0.995659
986.248869	0.994900
986.545478	0.997176
986.842050	0.998372
987.138586	0.995485
987.435086	0.997120
987.731549	0.998282
988.027975	0.996439
988.324366	0.997482
988.620719	0.997477
988.917037	0.995842
989.213318	0.998199
989.509563	0.998620
989.805772	0.996798
990.101944	0.998225
990.398080	0.996883
990.694180	0.997913
990.990244	0.997190
991.286271	0.997951
991.582262	0.997969
991.878217	0.998170
992.174136	0.997369
992.470019	0.998031
992.765865	0.996936
993.061676	0.999136
993.357450	0.996542
993.653188	0.997027
993.948890	0.997170
994.244556	0.998921
994.540186	0.997252
994.835780	0.995796
995.131337	0.996413
995.426859	0.996044
995.722345	0.997457
996.017795	0.995850
996.313208	0.995269
996.608586	0.995459
996.903928	0.996441
997.199234	0.996167
997.494504	0.996341
997.789738	0.995642
998.084936	0.996036
998.380099	0.997696
998.675225	0.996898
998.970316	0.997801
999.265371	0.998257
999.560390	0.997858
999.855373	0.998697
1000.150320	0.997247
1000.445232	0.998435
1000.740108	0.997094
1001.034948	0.997534
1001.329752	0.997594
1001.624521	0.997913
1001.919254	0.997887
1002.213951	0.997564
1002.508613	0.996659
1002.803239	0.998716
1003.097829	0.999208
1003.392384	0.998680
1003.686903	0.998120
1003.981386	0.998079
1004.275834	0.998478
1004.570246	0.997812
1004.864623	0.997601
1005.158964	0.999407
1005.453270	0.998808
1005.747540	0.996859
1006.041775	0.997690
1006.335974	0.998825
1006.630138	0.998810
1006.924266	0.998336
1007.218359	0.998609
1007.512416	0.999343
1007.806438	0.998323
1008.100425	0.998489
1008.394376	0.999025
1008.688292	0.998890
1008.982172	1.000944
1009.276017	0.999397
1009.569827	0.998362
1009.863602	0.998542
1010.157341	0.999368
1010.451045	0.998610
1010.744714	0.997523
1011.038347	0.998666
1011.331945	0.998910
1011.625508	0.997521
1011.919036	0.998201
1012.212528	0.998461
1012.505986	0.997844
1012.799408	0.998389
1013.092795	0.998537
1013.386147	0.998848
1013.679464	0.998568
1013.972745	0.999392
1014.265992	0.997671
1014.559204	0.997775
1014.852380	0.998557
1015.145521	0.997779
1015.438628	0.998849
1015.731699	0.999265
1016.024736	0.998270
1016.317737	0.998950
1016.610703	0.998219
1016.903635	0.999969
1017.196531	0.997979
1017.489393	0.999581
1017.782219	0.999050
1018.075011	0.998216
1018.367768	0.998390
1018.660490	0.999578
1018.953177	0.999578
1019.245829	0.999578
