Dividing Wavelength (nm)	Counts (n)	Blue Motor Position (mm): 0.000000	Red Motor Position (mm): 32.100000	
326.493990	1.001650
326.888308	1.001650
327.282561	1.001650
327.676750	0.999824
328.070874	0.999035
328.464933	1.000765
328.858929	0.999097
329.252859	0.999550
329.646726	0.998824
330.040528	0.999717
330.434265	0.998809
330.827938	1.001215
331.221547	1.000152
331.615091	0.999433
332.008571	0.999799
332.401986	0.999879
332.795338	1.001328
333.188625	0.999262
333.581847	0.999777
333.975006	0.999677
334.368100	0.999018
334.761129	1.000456
335.154095	1.000266
335.546996	0.998726
335.939833	0.994376
336.332606	0.994961
336.725315	0.996108
337.117960	0.997307
337.510540	0.995193
337.903056	0.996613
338.295508	0.994438
338.687896	0.995593
339.080220	0.996406
339.472480	0.994709
339.864676	0.995687
340.256807	0.995801
340.648875	0.997189
341.040879	0.996097
341.432818	0.996018
341.824694	0.996056
342.216506	0.995538
342.608253	0.996517
342.999937	0.995825
343.391557	0.993833
343.783113	0.995675
344.174605	0.996117
344.566033	0.997345
344.957397	0.994384
345.348697	0.995723
345.739934	0.996652
346.131106	0.994584
346.522215	0.995730
346.913260	0.995826
347.304241	0.995339
347.695159	0.995130
348.086012	0.994623
348.476802	0.994904
348.867528	0.996959
349.258191	0.993748
349.648789	0.996300
350.039324	0.995575
350.429796	0.996809
350.820203	0.996672
351.210548	0.995187
351.600828	0.995064
351.991045	0.995021
352.381198	0.994299
352.771288	0.995055
353.161314	0.995527
353.551276	0.996009
353.941175	0.996411
354.331010	0.995606
354.720782	0.997213
355.110490	0.995264
355.500135	0.996786
355.889717	0.996092
356.279235	0.995346
356.668689	0.996008
357.058080	0.995151
357.447408	0.997011
357.836672	0.995652
358.225873	0.997027
358.615010	0.996579
359.004084	0.996742
359.393095	0.996487
359.782043	0.995943
360.170927	0.996161
360.559748	0.997596
360.948505	0.995536
361.337199	0.995766
361.725830	0.996131
362.114398	0.995654
362.502903	0.996825
362.891344	0.996093
363.279722	0.995612
363.668037	0.996778
364.056289	0.995728
364.444478	0.996474
364.832603	0.996347
365.220665	0.994349
365.608665	0.995671
365.996601	0.996425
366.384474	0.995528
366.772284	0.995354
367.160031	0.994386
367.547715	0.994272
367.935336	0.995704
368.322893	0.995716
368.710388	0.994733
369.097820	0.996351
369.485189	0.996034
369.872495	0.994555
370.259738	0.993187
370.646918	0.996371
371.034035	0.996376
371.421090	0.995775
371.808081	0.994726
372.195010	0.996694
372.581875	0.995930
372.968678	0.995675
373.355418	0.995838
373.742096	0.996454
374.128710	0.995935
374.515262	0.995497
374.901751	0.995806
375.288177	0.995623
375.674540	0.996367
376.060841	0.995433
376.447079	0.996774
376.833254	0.996749
377.219367	0.996553
377.605417	0.996071
377.991404	0.995797
378.377329	0.995576
378.763191	0.996103
379.148991	0.997486
379.534727	0.997255
379.920402	0.996657
380.306013	0.997076
380.691563	0.997496
381.077049	0.996475
381.462474	0.996545
381.847835	0.997611
382.233134	0.996573
382.618371	0.997609
383.003545	0.996525
383.388657	0.996471
383.773706	0.997241
384.158693	0.997159
384.543618	0.997098
384.928480	0.997553
385.313280	0.996627
385.698017	0.997158
386.082692	0.998147
386.467305	0.998880
386.851856	0.996919
387.236344	0.997503
387.620770	0.995918
388.005133	0.997685
388.389435	0.998228
388.773674	0.997561
389.157851	0.997979
389.541965	0.997693
389.926018	0.996392
390.310008	0.998546
390.693936	0.997759
391.077802	0.997894
391.461606	0.997683
391.845348	0.997935
392.229027	0.999581
392.612645	0.998311
392.996200	0.999271
393.379694	0.997717
393.763125	0.998753
394.146494	0.997546
394.529801	0.997458
394.913047	0.998721
395.296230	0.997928
395.679351	0.998269
396.062410	0.996680
396.445408	0.998386
396.828343	0.997811
397.211217	0.998513
397.594028	0.998743
397.976778	0.997340
398.359466	0.998432
398.742092	0.997404
399.124656	0.998374
399.507158	0.998093
399.889598	0.997636
400.271977	0.997936
400.654294	0.998524
401.036549	0.999096
401.418742	0.998582
401.800874	0.998384
402.182944	0.997818
402.564952	0.997532
402.946898	0.998163
403.328783	0.998831
403.710606	0.997865
404.092367	0.999643
404.474067	0.998966
404.855705	0.999225
405.237282	0.998918
405.618797	0.997459
406.000250	0.998197
406.381642	0.998836
406.762972	0.998600
407.144240	0.999696
407.525447	0.998822
407.906593	0.999266
408.287677	0.998409
408.668700	0.999148
409.049661	0.997921
409.430560	0.998531
409.811399	0.998024
410.192176	0.998120
410.572891	0.998688
410.953545	0.998452
411.334138	0.997999
411.714669	0.998728
412.095139	0.997914
412.475547	0.999066
412.855894	0.998617
413.236180	0.998813
413.616405	0.997929
413.996568	0.999363
414.376670	0.998305
414.756711	0.997777
415.136691	0.997742
415.516609	0.998987
415.896466	0.998878
416.276262	0.997178
416.655997	0.999635
417.035670	0.998116
417.415283	0.999301
417.794834	0.998375
418.174324	0.997963
418.553753	0.999608
418.933121	0.998252
419.312428	0.997955
419.691674	0.998711
420.070859	0.998642
420.449983	0.999804
420.829045	0.998011
421.208047	0.999920
421.586988	0.999620
421.965867	0.998558
422.344686	0.999932
422.723444	0.998446
423.102141	0.999418
423.480777	0.999326
423.859352	0.998895
424.237866	0.998181
424.616319	0.999475
424.994712	0.999027
425.373044	0.999358
425.751314	1.000016
426.129524	0.998412
426.507673	0.998833
426.885762	0.999812
427.263789	0.999077
427.641756	0.999035
428.019662	1.000710
428.397508	0.999029
428.775292	0.998913
429.153016	0.999181
429.530679	0.999646
429.908282	0.999285
430.285824	0.998642
430.663305	0.998508
431.040726	0.998605
431.418086	0.999326
431.795385	0.999462
432.172624	0.999112
432.549802	0.999570
432.926920	0.998974
433.303977	0.998601
433.680974	0.999036
434.057910	0.999608
434.434786	0.999405
434.811601	0.998850
435.188355	0.998809
435.565050	0.998613
435.941683	0.999286
436.318257	0.999222
436.694770	0.998388
437.071222	0.999544
437.447614	0.999424
437.823946	0.999641
438.200218	0.999375
438.576429	0.999220
438.952580	0.999720
439.328670	0.998962
439.704700	0.999956
440.080670	0.999635
440.456580	0.998715
440.832429	0.998713
441.208218	0.998927
441.583947	0.999594
441.959616	0.999573
442.335224	0.999055
442.710773	0.999686
443.086261	0.998765
443.461689	0.998539
443.837057	1.000013
444.212365	0.999713
444.587612	0.999210
444.962800	0.998597
445.337927	0.999344
445.712995	0.999288
446.088002	1.000405
446.462949	0.999866
446.837837	1.000052
447.212664	0.999723
447.587431	0.999334
447.962139	0.999411
448.336786	1.000202
448.711374	0.999944
449.085901	0.998584
449.460369	1.000446
449.834776	0.999334
450.209124	0.999868
450.583412	0.999710
450.957640	0.999925
451.331808	0.999348
451.705917	0.999798
452.079965	0.999712
452.453954	1.000112
452.827883	0.999316
453.201752	0.999978
453.575562	0.999971
453.949311	0.999654
454.323001	0.999379
454.696632	0.999009
455.070202	0.999639
455.443713	0.999079
455.817164	0.999723
456.190556	0.999171
456.563888	0.999574
456.937160	0.999397
457.310373	0.999325
457.683526	0.999321
458.056619	0.999019
458.429653	0.999180
458.802628	0.998982
459.175542	0.999120
459.548398	0.999376
459.921194	0.999118
460.293930	0.999638
460.666607	0.999501
461.039224	0.998545
461.411782	0.999555
461.784280	0.999001
462.156719	1.000073
462.529099	1.000452
462.901419	0.999553
463.273680	0.999113
463.645882	0.999819
464.018024	0.999197
464.390106	0.999275
464.762130	1.000182
465.134094	0.999254
465.505999	1.000115
465.877845	0.999776
466.249631	1.000817
466.621358	0.999827
466.993026	0.999269
467.364634	1.000153
467.736184	1.000257
468.107674	0.999630
468.479105	0.998662
468.850477	0.999759
469.221790	0.999184
469.593043	0.999378
469.964238	1.000086
470.335373	0.998720
470.706449	0.999007
471.077467	0.999834
471.448425	0.999827
471.819324	0.999707
472.190164	0.998920
472.560945	0.999362
472.931667	0.999178
473.302330	0.998156
473.672934	0.999141
474.043479	0.998992
474.413965	0.997921
474.784393	0.998987
475.154761	0.999003
475.525070	0.998190
475.895321	0.998555
476.265513	0.997781
476.635645	0.997826
477.005719	0.998170
477.375734	0.997090
477.745691	0.997088
478.115588	0.997119
478.485427	0.997843
478.855207	0.996152
479.224928	0.996244
479.594591	0.995602
479.964194	0.995408
480.333739	0.995330
480.703226	0.994771
481.072653	0.994282
481.442022	0.993998
481.811333	0.992403
482.180584	0.992876
482.549777	0.991011
482.918912	0.990676
483.287988	0.989842
483.657005	0.989171
484.025964	0.989270
484.394864	0.988182
484.763706	0.987382
485.132489	0.986335
485.501213	0.985205
485.869879	0.984194
486.238487	0.983146
486.607036	0.982972
486.975527	0.980381
487.343959	0.979740
487.712333	0.978228
488.080648	0.977166
488.448905	0.976168
488.817104	0.974538
489.185244	0.972890
489.553326	0.971173
489.921350	0.968651
490.289315	0.963516
490.657222	0.962967
491.025070	0.960017
491.392861	0.958437
491.760593	0.957933
492.128267	0.956514
492.495883	0.955656
492.863440	0.953194
493.230939	0.951988
493.598380	0.948579
493.965763	0.946280
494.333088	0.944141
494.700354	0.941043
495.067563	0.939443
495.434713	0.935843
495.801805	0.934072
496.168839	0.930723
496.535815	0.926516
496.902733	0.924098
497.269593	0.921041
497.636395	0.918067
498.003139	0.914050
498.369825	0.911078
498.736453	0.906409
499.103023	0.903391
499.469535	0.899234
499.835989	0.896056
500.202385	0.892035
500.568723	0.888214
500.935003	0.884257
501.301226	0.878317
501.667390	0.874133
502.033497	0.869105
502.399546	0.866010
502.765537	0.861494
503.131470	0.855995
503.497345	0.849949
503.863163	0.848442
504.228923	0.840897
504.594625	0.836473
504.960269	0.833110
505.325856	0.826190
505.691385	0.821803
506.056856	0.815718
506.422270	0.809767
506.787625	0.806834
507.152924	0.799087
507.518164	0.794789
507.883347	0.788627
508.248472	0.784772
508.613540	0.777000
508.978550	0.772210
509.343503	0.766176
509.708398	0.759907
510.073236	0.753753
510.438016	0.747998
510.802738	0.741715
511.167403	0.735642
511.532010	0.729169
511.896561	0.722731
512.261053	0.716617
512.625488	0.710338
512.989866	0.704268
513.354186	0.697604
513.718449	0.691406
514.082655	0.685738
514.446803	0.678870
514.810894	0.671969
515.174927	0.666177
515.538904	0.660368
515.902822	0.651976
516.266684	0.647889
516.630488	0.641616
516.994235	0.635591
517.357925	0.627385
517.721558	0.620822
518.085133	0.613571
518.448651	0.608789
518.812112	0.604041
519.175516	0.596142
519.538863	0.589283
519.902152	0.584221
520.265385	0.575152
520.628560	0.571578
520.991678	0.564034
521.354739	0.558396
521.717743	0.553419
522.080690	0.548158
522.443580	0.539109
522.806413	0.533947
523.169189	0.528244
523.531908	0.521283
523.894569	0.517741
524.257174	0.511613
524.619722	0.504087
524.982213	0.500289
525.344647	0.492816
525.707025	0.487980
526.069345	0.480919
526.431608	0.476180
526.793815	0.469820
527.155964	0.467118
527.518057	0.461574
527.880093	0.457232
528.242072	0.451072
528.603995	0.446636
528.965860	0.443455
529.327669	0.437486
529.689421	0.433370
530.051117	0.429390
530.412755	0.421769
530.774337	0.419881
531.135862	0.414648
531.497331	0.410444
531.858743	0.407707
532.220098	0.400836
532.581396	0.398705
532.942638	0.395403
533.303824	0.391518
533.664953	0.386430
534.026025	0.383700
534.387040	0.378089
534.747999	0.374502
535.108902	0.369458
535.469748	0.369919
535.830537	0.364507
536.191270	0.361247
536.551947	0.356829
536.912567	0.353559
537.273131	0.352296
537.633638	0.348355
537.994089	0.345582
538.354483	0.343260
538.714821	0.337527
539.075103	0.334181
539.435328	0.331860
539.795497	0.332289
540.155609	0.325994
540.515665	0.321804
540.875665	0.324036
541.235609	0.319898
541.595496	0.317583
541.955328	0.311206
542.315102	0.311829
542.674821	0.310357
543.034483	0.307762
543.394090	0.305226
543.753640	0.304797
544.113134	0.297933
544.472571	0.298925
544.831953	0.293903
545.191278	0.295704
545.550548	0.293160
545.909761	0.288427
546.268918	0.287096
546.628019	0.283725
546.987064	0.284231
547.346053	0.284420
547.704986	0.280705
548.063863	0.279388
548.422684	0.278504
548.781449	0.278271
549.140158	0.274689
549.498811	0.276169
549.857408	0.277848
550.215949	0.271317
550.574434	0.273175
550.932864	0.269609
551.291237	0.267372
551.649555	0.267592
552.007817	0.266442
552.366022	0.266235
552.724173	0.265323
553.082267	0.265012
553.440305	0.260727
553.798288	0.264602
554.156215	0.260166
554.514086	0.259848
554.871902	0.262182
555.229661	0.260816
555.587365	0.260731
555.945014	0.262356
556.302606	0.258787
556.660143	0.260836
557.017625	0.256535
557.375050	0.258427
557.732421	0.254935
558.089735	0.256344
558.446994	0.256063
558.804197	0.254497
559.161345	0.254062
559.518437	0.257262
559.875474	0.254360
560.232455	0.253426
560.589381	0.254342
560.946251	0.253975
561.303065	0.251420
561.659825	0.252388
562.016528	0.253360
562.373177	0.256323
562.729770	0.253189
563.086307	0.254842
563.442789	0.252280
563.799216	0.254962
564.155587	0.253510
564.511904	0.254390
564.868164	0.254471
565.224370	0.254369
565.580520	0.255677
565.936615	0.255272
566.292654	0.258202
566.648638	0.254960
567.004567	0.255563
567.360441	0.256162
567.716260	0.257897
568.072023	0.255871
568.427732	0.256286
568.783385	0.258644
569.138982	0.256741
569.494525	0.256234
569.850013	0.258940
570.205445	0.257242
570.560823	0.259752
570.916145	0.261523
571.271412	0.259896
571.626625	0.260940
571.981782	0.261386
572.336884	0.262107
572.691931	0.262072
573.046923	0.262868
573.401860	0.263973
573.756743	0.265907
574.111570	0.264575
574.466342	0.265129
574.821059	0.263926
575.175722	0.266767
575.530330	0.266551
575.884882	0.266719
576.239380	0.268757
576.593823	0.269145
576.948211	0.268460
577.302544	0.271969
577.656823	0.271198
578.011047	0.271399
578.365216	0.271853
578.719330	0.273910
579.073389	0.273725
579.427394	0.275073
579.781344	0.276061
580.135239	0.277469
580.489080	0.276725
580.842866	0.279692
581.196597	0.279476
581.550273	0.278391
581.903895	0.279266
582.257463	0.277195
582.610975	0.280220
582.964434	0.279771
583.317837	0.282642
583.671186	0.282782
584.024481	0.282883
584.377721	0.285600
584.730906	0.286030
585.084037	0.284977
585.437113	0.287123
585.790135	0.286080
586.143103	0.289285
586.496016	0.290003
586.848874	0.287908
587.201679	0.288505
587.554428	0.291389
587.907124	0.290407
588.259765	0.291436
588.612352	0.291638
588.964884	0.295378
589.317362	0.294969
589.669786	0.294805
590.022155	0.293301
590.374470	0.292682
590.726731	0.294807
591.078937	0.299470
591.431090	0.295403
591.783188	0.300165
592.135232	0.300407
592.487222	0.300433
592.839157	0.298660
593.191038	0.300815
593.542866	0.302648
593.894639	0.306310
594.246358	0.303959
594.598022	0.303779
594.949633	0.307323
595.301190	0.308447
595.652692	0.307146
596.004141	0.303591
596.355535	0.311313
596.706876	0.311883
597.058162	0.314366
597.409395	0.311489
597.760573	0.309257
598.111698	0.312365
598.462768	0.312995
598.813785	0.314248
599.164748	0.315388
599.515657	0.315540
599.866511	0.319297
600.217312	0.314404
600.568060	0.320109
600.918753	0.315945
601.269392	0.317173
601.619978	0.320417
601.970510	0.318071
602.320988	0.318233
602.671412	0.315619
603.021783	0.318116
603.372100	0.319690
603.722363	0.319536
604.072572	0.320123
604.422728	0.319866
604.772830	0.321978
605.122878	0.321391
605.472872	0.322080
605.822813	0.320606
606.172701	0.322977
606.522534	0.320536
606.872314	0.320345
607.222041	0.321309
607.571714	0.319511
607.921333	0.320630
608.270899	0.320688
608.620411	0.317782
608.969870	0.320834
609.319276	0.321672
609.668627	0.321519
610.017926	0.319820
610.367171	0.318394
610.716362	0.319157
611.065500	0.319172
611.414585	0.318031
611.763616	0.318570
612.112594	0.319191
612.461518	0.318556
612.810389	0.316190
613.159207	0.318540
613.507971	0.320145
613.856682	0.315862
614.205340	0.317467
614.553945	0.314356
614.902496	0.318271
615.250994	0.316218
615.599439	0.317187
615.947830	0.316526
616.296169	0.317450
616.644454	0.316740
616.992686	0.317020
617.340864	0.314792
617.688990	0.318876
618.037063	0.315380
618.385082	0.316950
618.733048	0.313894
619.080961	0.316024
619.428821	0.315556
619.776628	0.315057
620.124382	0.317028
620.472083	0.317572
620.819731	0.316946
621.167326	0.320745
621.514868	0.320307
621.862357	0.324739
622.209793	0.324072
622.557176	0.326122
622.904506	0.327486
623.251783	0.329802
623.599007	0.332083
623.946179	0.331712
624.293297	0.333561
624.640363	0.337284
624.987376	0.337910
625.334336	0.340604
625.681243	0.343071
626.028097	0.343064
626.374899	0.344200
626.721647	0.344366
627.068343	0.347878
627.414987	0.348855
627.761577	0.351088
628.108115	0.349310
628.454600	0.354671
628.801032	0.351816
629.147412	0.353432
629.493739	0.354276
629.840014	0.357414
630.186236	0.354917
630.532405	0.360356
630.878521	0.357852
631.224585	0.360133
631.570597	0.363646
631.916556	0.361956
632.262462	0.362117
632.608316	0.364050
632.954117	0.364767
633.299866	0.365590
633.645562	0.366325
633.991206	0.370641
634.336797	0.373677
634.682336	0.375784
635.027823	0.377277
635.373257	0.377936
635.718639	0.381348
636.063968	0.380702
636.409245	0.386522
636.754470	0.386641
637.099642	0.389327
637.444762	0.392965
637.789829	0.391386
638.134845	0.395121
638.479808	0.396096
638.824719	0.395855
639.169577	0.399867
639.514383	0.398910
639.859137	0.402573
640.203839	0.402709
640.548489	0.403293
640.893086	0.405042
641.237632	0.406040
641.582125	0.404789
641.926566	0.406684
642.270955	0.406497
642.615292	0.406919
642.959576	0.405384
643.303809	0.406640
643.647990	0.406283
643.992118	0.406681
644.336195	0.410218
644.680219	0.408601
645.024192	0.409244
645.368112	0.402840
645.711981	0.402063
646.055797	0.396966
646.399562	0.399992
646.743274	0.391760
647.086935	0.389076
647.430544	0.389050
647.774101	0.387991
648.117606	0.387712
648.461059	0.388252
648.804460	0.390392
649.147810	0.395528
649.491108	0.397516
649.834354	0.399116
650.177548	0.404471
650.520690	0.409487
650.863781	0.410889
651.206820	0.410137
651.549807	0.415256
651.892742	0.418183
652.235626	0.418141
652.578458	0.419043
652.921238	0.425294
653.263967	0.422748
653.606644	0.427224
653.949269	0.426894
654.291843	0.430933
654.634365	0.427864
654.976836	0.430499
655.319255	0.430835
655.661622	0.432781
656.003938	0.432003
656.346203	0.435181
656.688416	0.433292
657.030577	0.436596
657.372687	0.438678
657.714746	0.439332
658.056753	0.436513
658.398708	0.440302
658.740612	0.441589
659.082465	0.437244
659.424266	0.438002
659.766016	0.437401
660.107715	0.440473
660.449362	0.439054
660.790958	0.439711
661.132503	0.440231
661.473996	0.437576
661.815438	0.438844
662.156829	0.438860
662.498168	0.439851
662.839456	0.441037
663.180693	0.438914
663.521879	0.438821
663.863013	0.439975
664.204097	0.438899
664.545129	0.435009
664.886110	0.435747
665.227040	0.433073
665.567918	0.435558
665.908746	0.433610
666.249522	0.433072
666.590248	0.433824
666.930922	0.432606
667.271545	0.431404
667.612118	0.431232
667.952639	0.433275
668.293109	0.431733
668.633528	0.434706
668.973896	0.434417
669.314213	0.435129
669.654480	0.436508
669.994695	0.437167
670.334859	0.437475
670.674973	0.437764
671.015035	0.438032
671.355047	0.438038
671.695008	0.438949
672.034918	0.441250
672.374777	0.440140
672.714585	0.441617
673.054342	0.441032
673.394049	0.441270
673.733705	0.439063
674.073310	0.439672
674.412864	0.443332
674.752368	0.443596
675.091820	0.443492
675.431223	0.448121
675.770574	0.447683
676.109875	0.450777
676.449125	0.451111
676.788324	0.453575
677.127473	0.458432
677.466571	0.458371
677.805619	0.460229
678.144616	0.461712
678.483562	0.462611
678.822458	0.465647
679.161303	0.466776
679.500098	0.466785
679.838842	0.468775
680.177535	0.467939
680.516179	0.466912
680.854771	0.466128
681.193314	0.459263
681.531805	0.450611
681.870247	0.439242
682.208638	0.431461
682.546978	0.430754
682.885268	0.432087
683.223508	0.438598
683.561697	0.442357
683.899836	0.445191
684.237925	0.448543
684.575963	0.451156
684.913951	0.454310
685.251889	0.449320
685.589776	0.451281
685.927614	0.454361
686.265401	0.448566
686.603137	0.449868
686.940824	0.443581
687.278460	0.442210
687.616046	0.441257
687.953582	0.436366
688.291068	0.437412
688.628504	0.433816
688.965889	0.435946
689.303224	0.439968
689.640510	0.444097
689.977745	0.449518
690.314930	0.457267
690.652065	0.461552
690.989150	0.469587
691.326185	0.476013
691.663170	0.480256
692.000105	0.487475
692.336990	0.494827
692.673825	0.497055
693.010610	0.504158
693.347345	0.508834
693.684030	0.510655
694.020665	0.515504
694.357251	0.524447
694.693786	0.523610
695.030272	0.528135
695.366707	0.531616
695.703093	0.534765
696.039429	0.532897
696.375716	0.535159
696.711952	0.536988
697.048139	0.539061
697.384276	0.541214
697.720363	0.539498
698.056400	0.538236
698.392388	0.544112
698.728326	0.547240
699.064214	0.549513
699.400053	0.550948
699.735842	0.553886
700.071581	0.556553
700.407270	0.559855
700.742910	0.562415
701.078501	0.569153
701.414042	0.568918
701.749533	0.571890
702.084974	0.580498
702.420366	0.572878
702.755709	0.580639
703.091002	0.587953
703.426246	0.581191
703.761440	0.587878
704.096584	0.592274
704.431679	0.589520
704.766725	0.591946
705.101721	0.592522
705.436668	0.589256
705.771565	0.596595
706.106413	0.593190
706.441212	0.588127
706.775961	0.586904
707.110661	0.590168
707.445311	0.586333
707.779913	0.583109
708.114465	0.581658
708.448967	0.578369
708.783421	0.571077
709.117825	0.565995
709.452180	0.565979
709.786485	0.559660
710.120742	0.549130
710.454949	0.551570
710.789107	0.543857
711.123216	0.535015
711.457275	0.536431
711.791286	0.526822
712.125247	0.526722
712.459159	0.536908
712.793023	0.529722
713.126837	0.533269
713.460602	0.533882
713.794318	0.543578
714.127985	0.541957
714.461602	0.552052
714.795171	0.555757
715.128691	0.563286
715.462162	0.570680
715.795584	0.576529
716.128957	0.578927
716.462281	0.585528
716.795556	0.588928
717.128782	0.593933
717.461960	0.603311
717.795088	0.601788
718.128167	0.608214
718.461198	0.616718
718.794180	0.617150
719.127113	0.620650
719.459997	0.623935
719.792833	0.630236
720.125619	0.631380
720.458357	0.637366
720.791046	0.636745
721.123686	0.639811
721.456278	0.647371
721.788821	0.644336
722.121315	0.648615
722.453761	0.652351
722.786158	0.651027
723.118506	0.646606
723.450805	0.655161
723.783056	0.650865
724.115259	0.647425
724.447412	0.647218
724.779518	0.648932
725.111574	0.648634
725.443582	0.643403
725.775542	0.645356
726.107453	0.638404
726.439315	0.638267
726.771129	0.636320
727.102895	0.629819
727.434612	0.622727
727.766281	0.620519
728.097901	0.619894
728.429473	0.619278
728.760996	0.618043
729.092471	0.618005
729.423897	0.621700
729.755276	0.620959
730.086606	0.621264
730.417887	0.616099
730.749120	0.606204
731.080305	0.597576
731.411442	0.593536
731.742530	0.598247
732.073570	0.597284
732.404562	0.590110
732.735506	0.591353
733.066401	0.596120
733.397249	0.605231
733.728048	0.616045
734.058798	0.629479
734.389501	0.639477
734.720156	0.649092
735.050762	0.658019
735.381320	0.658374
735.711831	0.667772
736.042293	0.673056
736.372707	0.668195
736.703073	0.674079
737.033391	0.674794
737.363661	0.670866
737.693883	0.667075
738.024056	0.665809
738.354182	0.666478
738.684260	0.656332
739.014290	0.651506
739.344272	0.652341
739.674207	0.646079
740.004093	0.646320
740.333931	0.646442
740.663722	0.645930
740.993464	0.646918
741.323159	0.649597
741.652806	0.655866
741.982405	0.660050
742.311956	0.663726
742.641460	0.667278
742.970915	0.670279
743.300323	0.677849
743.629683	0.684637
743.958996	0.686362
744.288260	0.690229
744.617477	0.696822
744.946647	0.697659
745.275768	0.702768
745.604842	0.703303
745.933869	0.713279
746.262847	0.713325
746.591778	0.707323
746.920662	0.712653
747.249498	0.719922
747.578286	0.711240
747.907027	0.707432
748.235720	0.708960
748.564365	0.702775
748.892963	0.702415
749.221514	0.705359
749.550017	0.710755
749.878473	0.710580
750.206881	0.716393
750.535242	0.718468
750.863555	0.717984
751.191821	0.719587
751.520039	0.722478
751.848210	0.727503
752.176334	0.720019
752.504411	0.718335
752.832440	0.725852
753.160421	0.730944
753.488356	0.728347
753.816243	0.725564
754.144082	0.734802
754.471875	0.738457
754.799620	0.733277
755.127318	0.734552
755.454969	0.734849
755.782572	0.734042
756.110129	0.739303
756.437638	0.742212
756.765100	0.737981
757.092515	0.736320
757.419882	0.735907
757.747203	0.741048
758.074477	0.739585
758.401703	0.737512
758.728882	0.732834
759.056014	0.731969
759.383099	0.730528
759.710138	0.730872
760.037129	0.728507
760.364073	0.721881
760.690970	0.724246
761.017820	0.730469
761.344623	0.724945
761.671379	0.716970
761.998088	0.705576
762.324751	0.682230
762.651366	0.641368
762.977935	0.574226
763.304456	0.523592
763.630931	0.513413
763.957359	0.552702
764.283740	0.596891
764.610074	0.623477
764.936362	0.654143
765.262602	0.680079
765.588796	0.702916
765.914943	0.720260
766.241044	0.737472
766.567097	0.742662
766.893104	0.754917
767.219064	0.760678
767.544978	0.766633
767.870845	0.779878
768.196665	0.783242
768.522438	0.781965
768.848165	0.782817
769.173846	0.791333
769.499479	0.796110
769.825066	0.799415
770.150607	0.805420
770.476101	0.799533
770.801548	0.800757
771.126949	0.812279
771.452303	0.817080
771.777611	0.815636
772.102872	0.815019
772.428087	0.820064
772.753256	0.823426
773.078378	0.825473
773.403453	0.834155
773.728482	0.837391
774.053465	0.831478
774.378401	0.835379
774.703291	0.843769
775.028135	0.843025
775.352932	0.844670
775.677683	0.847906
776.002388	0.848734
776.327046	0.848185
776.651658	0.850730
776.976224	0.853923
777.300743	0.855234
777.625216	0.856012
777.949643	0.858222
778.274024	0.857778
778.598359	0.859924
778.922647	0.858719
779.246889	0.859504
779.571086	0.863607
779.895236	0.866145
780.219339	0.863155
780.543397	0.859756
780.867409	0.858035
781.191374	0.860779
781.515294	0.860750
781.839167	0.860776
782.162995	0.864827
782.486776	0.861551
782.810511	0.861742
783.134201	0.865696
783.457844	0.863572
783.781441	0.866588
784.104993	0.872769
784.428498	0.871850
784.751958	0.868167
785.075372	0.871753
785.398739	0.874165
785.722061	0.870522
786.045337	0.866307
786.368568	0.870862
786.691752	0.873290
787.014891	0.859113
787.337983	0.850120
787.661030	0.843184
787.984031	0.825269
788.306987	0.813343
788.629897	0.814951
788.952760	0.819150
789.275579	0.822768
789.598351	0.837883
789.921078	0.851398
790.243759	0.853070
790.566395	0.858942
790.888984	0.865638
791.211529	0.870087
791.534027	0.872783
791.856480	0.875958
792.178888	0.880628
792.501249	0.883576
792.823566	0.883991
793.145836	0.883798
793.468062	0.886717
793.790241	0.887066
794.112375	0.884441
794.434464	0.880473
794.756507	0.879241
795.078505	0.879147
795.400457	0.873561
795.722364	0.861662
796.044226	0.854620
796.366042	0.854556
796.687812	0.857779
797.009538	0.854554
797.331218	0.856763
797.652852	0.861107
797.974442	0.866402
798.295986	0.865658
798.617484	0.869181
798.938938	0.873325
799.260346	0.877517
799.581709	0.879110
799.903026	0.881336
800.224299	0.881481
800.545526	0.885687
800.866708	0.890351
801.187845	0.894198
801.508936	0.893961
801.829983	0.891937
802.150984	0.894166
802.471940	0.898486
802.792851	0.898033
803.113717	0.899075
803.434538	0.896255
803.755314	0.900173
804.076045	0.901374
804.396731	0.900449
804.717372	0.902196
805.037967	0.903698
805.358518	0.901878
805.679024	0.898740
805.999485	0.897780
806.319901	0.898454
806.640272	0.899332
806.960598	0.897825
807.280879	0.895586
807.601115	0.893148
807.921306	0.897298
808.241453	0.896846
808.561554	0.895282
808.881611	0.894999
809.201623	0.897561
809.521590	0.897892
809.841513	0.898854
810.161390	0.897920
810.481223	0.900064
810.801011	0.902018
811.120755	0.903948
811.440453	0.903538
811.760107	0.901775
812.079716	0.902600
812.399281	0.904801
812.718801	0.907040
813.038276	0.908447
813.357707	0.907996
813.677093	0.905658
813.996434	0.908420
814.315731	0.909168
814.634983	0.910898
814.954191	0.910283
815.273354	0.906800
815.592473	0.903356
815.911547	0.902773
816.230577	0.900300
816.549562	0.897623
816.868502	0.899207
817.187399	0.895519
817.506250	0.889299
817.825058	0.891751
818.143821	0.887702
818.462539	0.882851
818.781213	0.875381
819.099843	0.863535
819.418429	0.848853
819.736970	0.832697
820.055466	0.812287
820.373919	0.787959
820.692327	0.755165
821.010691	0.720733
821.329011	0.646526
821.647286	0.532722
821.965517	0.419992
822.283704	0.378174
822.601847	0.379751
822.919945	0.414856
823.237999	0.447773
823.556010	0.493601
823.873976	0.548889
824.191897	0.598549
824.509775	0.640280
824.827609	0.685083
825.145398	0.706946
825.463144	0.709621
825.780845	0.693379
826.098502	0.674698
826.416116	0.629397
826.733685	0.586362
827.051210	0.578860
827.368692	0.592372
827.686129	0.629003
828.003522	0.681402
828.320872	0.728436
828.638177	0.771095
828.955439	0.804101
829.272656	0.825097
829.589830	0.842064
829.906960	0.857921
830.224046	0.868908
830.541088	0.880030
830.858086	0.883995
831.175041	0.890571
831.491952	0.888216
831.808819	0.886552
832.125642	0.878236
832.442421	0.864351
832.759157	0.843567
833.075849	0.798529
833.392497	0.734708
833.709101	0.694379
834.025662	0.704293
834.342179	0.736009
834.658653	0.774101
834.975083	0.810244
835.291469	0.835717
835.607811	0.856520
835.924110	0.872231
836.240366	0.888519
836.556578	0.903353
836.872746	0.910074
837.188871	0.915762
837.504952	0.921545
837.820990	0.924867
838.136984	0.927806
838.452935	0.930768
838.768842	0.932268
839.084706	0.926996
839.400526	0.901168
839.716303	0.862337
840.032037	0.839466
840.347727	0.843379
840.663373	0.862044
840.978977	0.881769
841.294537	0.905295
841.610054	0.920586
841.925527	0.927064
842.240957	0.934769
842.556344	0.941013
842.871687	0.947354
843.186987	0.951136
843.502244	0.951210
843.817458	0.951838
844.132629	0.956440
844.447756	0.960958
844.762840	0.961643
845.077881	0.961040
845.392879	0.960401
845.707833	0.963550
846.022745	0.966046
846.337613	0.966432
846.652438	0.966749
846.967221	0.965468
847.281960	0.966335
847.596656	0.967907
847.911309	0.967410
848.225919	0.968438
848.540485	0.969474
848.855009	0.969327
849.169490	0.969876
849.483928	0.969156
849.798323	0.970391
850.112675	0.970440
850.426984	0.969448
850.741251	0.971015
851.055474	0.971667
851.369654	0.970092
851.683792	0.971000
851.997887	0.970312
852.311938	0.971595
852.625947	0.971321
852.939914	0.968221
853.253837	0.969804
853.567718	0.970347
853.881555	0.972219
854.195350	0.969342
854.509103	0.969903
854.822812	0.969778
855.136479	0.971498
855.450103	0.969651
855.763685	0.969381
856.077224	0.969829
856.390720	0.971448
856.704173	0.971174
857.017584	0.969860
857.330953	0.967653
857.644278	0.968389
857.957561	0.968982
858.270802	0.969056
858.584000	0.968719
858.897155	0.967381
859.210268	0.968094
859.523339	0.968945
859.836367	0.971382
860.149352	0.972177
860.462295	0.968819
860.775195	0.970899
861.088054	0.970284
861.400869	0.969518
861.713642	0.972266
862.026373	0.970564
862.339062	0.970944
862.651708	0.968190
862.964312	0.968442
863.276873	0.970639
863.589392	0.969696
863.901869	0.967506
864.214303	0.965676
864.526696	0.965401
864.839045	0.964495
865.151353	0.963043
865.463619	0.963203
865.775842	0.963811
866.088023	0.962446
866.400162	0.964362
866.712258	0.964010
867.024313	0.963760
867.336325	0.964433
867.648296	0.963679
867.960224	0.962966
868.272110	0.962935
868.583954	0.964602
868.895755	0.965233
869.207515	0.963756
869.519233	0.960660
869.830909	0.962095
870.142542	0.963298
870.454134	0.962830
870.765684	0.961744
871.077191	0.958899
871.388657	0.960314
871.700081	0.959401
872.011463	0.959484
872.322803	0.961088
872.634101	0.957616
872.945357	0.956071
873.256571	0.953803
873.567744	0.954504
873.878874	0.954868
874.189963	0.953139
874.501010	0.953071
874.812015	0.950183
875.122979	0.953664
875.433900	0.954955
875.744780	0.954674
876.055618	0.952382
876.366415	0.951292
876.677169	0.950864
876.987882	0.952989
877.298554	0.952624
877.609183	0.949054
877.919771	0.947446
878.230317	0.944351
878.540822	0.942914
878.851285	0.937394
879.161707	0.930940
879.472087	0.918472
879.782425	0.902135
880.092722	0.871029
880.402977	0.818898
880.713191	0.760901
881.023363	0.704315
881.333494	0.670277
881.643583	0.643023
881.953631	0.642480
882.263637	0.670806
882.573602	0.709901
882.883526	0.734746
883.193408	0.757184
883.503248	0.779194
883.813048	0.804873
884.122806	0.834158
884.432522	0.857259
884.742197	0.875177
885.051831	0.885739
885.361424	0.894978
885.670975	0.906296
885.980485	0.916987
886.289954	0.922192
886.599382	0.927504
886.908768	0.931633
887.218113	0.937377
887.527417	0.940506
887.836680	0.944765
888.145901	0.945103
888.455082	0.947514
888.764221	0.952035
889.073319	0.955138
889.382376	0.954189
889.691392	0.954329
890.000366	0.954700
890.309300	0.955676
890.618193	0.955448
890.927044	0.954619
891.235855	0.953176
891.544625	0.953024
891.853353	0.954036
892.162041	0.951343
892.470687	0.944857
892.779293	0.939646
893.087858	0.937506
893.396381	0.929600
893.704864	0.916430
894.013306	0.894199
894.321707	0.867049
894.630068	0.854813
894.938387	0.849742
895.246665	0.850695
895.554903	0.862767
895.863100	0.874770
896.171256	0.891652
896.479371	0.909844
896.787446	0.923757
897.095480	0.927890
897.403473	0.930616
897.711425	0.935072
898.019336	0.942225
898.327207	0.945612
898.635038	0.948611
898.942827	0.947904
899.250576	0.949553
899.558284	0.953419
899.865952	0.955381
900.173579	0.956785
900.481165	0.957247
900.788711	0.960882
901.096216	0.963067
901.403681	0.962658
901.711105	0.964338
902.018489	0.964308
902.325832	0.964527
902.633135	0.962503
902.940397	0.957495
903.247619	0.946596
903.554800	0.922388
903.861941	0.884367
904.169041	0.851160
904.476101	0.834117
904.783121	0.835316
905.090100	0.850292
905.397039	0.870640
905.703938	0.891326
906.010796	0.909889
906.317614	0.926849
906.624391	0.937478
906.931129	0.947395
907.237826	0.954572
907.544483	0.961900
907.851099	0.964789
908.157675	0.969608
908.464211	0.971519
908.770707	0.974585
909.077163	0.975824
909.383578	0.976513
909.689954	0.975312
909.996289	0.976577
910.302584	0.979183
910.608839	0.980131
910.915054	0.978448
911.221229	0.979921
911.527363	0.977733
911.833458	0.977342
912.139513	0.978612
912.445527	0.976142
912.751502	0.974014
913.057436	0.973782
913.363331	0.971250
913.669186	0.968005
913.975000	0.963310
914.280775	0.957389
914.586510	0.952032
914.892205	0.939045
915.197859	0.918612
915.503475	0.892532
915.809050	0.873315
916.114585	0.869395
916.420081	0.867856
916.725536	0.864058
917.030952	0.871201
917.336328	0.882146
917.641665	0.896853
917.946961	0.911766
918.252218	0.923188
918.557435	0.932671
918.862612	0.939948
919.167750	0.945147
919.472848	0.948600
919.777906	0.955239
920.082925	0.961045
920.387904	0.963451
920.692843	0.963669
920.997743	0.965493
921.302603	0.969787
921.607423	0.970691
921.912204	0.973796
922.216946	0.972765
922.521647	0.974116
922.826310	0.975589
923.130932	0.977406
923.435516	0.979512
923.740059	0.981059
924.044564	0.979750
924.349028	0.981975
924.653454	0.984002
924.957840	0.986056
925.262186	0.984810
925.566493	0.985013
925.870761	0.986624
926.174989	0.986435
926.479178	0.989078
926.783328	0.989699
927.087438	0.988291
927.391509	0.988670
927.695541	0.990442
927.999533	0.989704
928.303486	0.990298
928.607400	0.991705
928.911275	0.990842
929.215110	0.991156
929.518906	0.991024
929.822663	0.989155
930.126381	0.991535
930.430060	0.991503
930.733699	0.991397
931.037299	0.990082
931.340861	0.990945
931.644383	0.991218
931.947866	0.988894
932.251309	0.991494
932.554714	0.990105
932.858080	0.991293
933.161407	0.989880
933.464694	0.991601
933.767943	0.990439
934.071153	0.990952
934.374323	0.991423
934.677455	0.992190
934.980548	0.991350
935.283602	0.990827
935.586617	0.990996
935.889593	0.991143
936.192530	0.992393
936.495428	0.991127
936.798287	0.992127
937.101108	0.990201
937.403890	0.989573
937.706632	0.989600
938.009336	0.987707
938.312002	0.986854
938.614628	0.985128
938.917216	0.985118
939.219765	0.981987
939.522275	0.983999
939.824747	0.985808
940.127179	0.983963
940.429573	0.985590
940.731929	0.985173
941.034246	0.985872
941.336524	0.986283
941.638763	0.987672
941.940964	0.987937
942.243126	0.986775
942.545250	0.988169
942.847335	0.988212
943.149381	0.988338
943.451389	0.988496
943.753359	0.988530
944.055290	0.991627
944.357182	0.990511
944.659036	0.988739
944.960851	0.989411
945.262628	0.990475
945.564367	0.991416
945.866067	0.990432
946.167729	0.990395
946.469352	0.989769
946.770937	0.988984
947.072484	0.991903
947.373992	0.990141
947.675462	0.991074
947.976893	0.989657
948.278286	0.990264
948.579641	0.991526
948.880958	0.991911
949.182236	0.991268
949.483476	0.990640
949.784678	0.990642
950.085841	0.991980
950.386967	0.990715
950.688054	0.991074
950.989103	0.992495
951.290114	0.990199
951.591087	0.989497
951.892021	0.989986
952.192917	0.989685
952.493776	0.988612
952.794596	0.989412
953.095378	0.988466
953.396122	0.987571
953.696828	0.988765
953.997496	0.989636
954.298126	0.991996
954.598718	0.991612
954.899272	0.991040
955.199788	0.991022
955.500266	0.992362
955.800706	0.992786
956.101108	0.993347
956.401472	0.994106
956.701798	0.994460
957.002087	0.992839
957.302337	0.993275
957.602550	0.995704
957.902724	0.995336
958.202861	0.995118
958.502960	0.995381
958.803022	0.994345
959.103045	0.996779
959.403031	0.995815
959.702979	0.995054
960.002889	0.995878
960.302762	0.995170
960.602596	0.995828
960.902393	0.995373
961.202153	0.996916
961.501875	0.997842
961.801559	0.995616
962.101205	0.996275
962.400814	0.996576
962.700385	0.996569
962.999918	0.995780
963.299414	0.997334
963.598873	0.995497
963.898293	0.995491
964.197677	0.996096
964.497022	0.995998
964.796331	0.998755
965.095601	0.996786
965.394835	0.995307
965.694030	0.996663
965.993189	0.997683
966.292309	0.995436
966.591393	0.996360
966.890439	0.997581
967.189447	0.996198
967.488419	0.996150
967.787353	0.996318
968.086249	0.996173
968.385108	0.996542
968.683930	0.997673
968.982714	0.995854
969.281462	0.997595
969.580172	0.996389
969.878844	0.997219
970.177480	0.996258
970.476078	0.996863
970.774639	0.996244
971.073162	0.996139
971.371649	0.997229
971.670098	0.997522
971.968510	0.997314
972.266885	0.994711
972.565223	0.996245
972.863524	0.996543
973.161788	0.996315
973.460014	0.998649
973.758204	0.995768
974.056356	0.996320
974.354471	0.994505
974.652550	0.995795
974.950591	0.997574
975.248595	0.996279
975.546563	0.996965
975.844493	0.998320
976.142386	0.996547
976.440243	0.998001
976.738062	0.996955
977.035845	0.998444
977.333590	0.996282
977.631299	0.998205
977.928971	0.996895
978.226606	0.997915
978.524204	0.995459
978.821765	0.997822
979.119290	0.996725
979.416777	0.996585
979.714228	0.995736
980.011642	0.996496
980.309020	0.997578
980.606360	0.997323
980.903664	0.997256
981.200931	0.996354
981.498162	0.995351
981.795356	0.995425
982.092513	0.993217
982.389633	0.994627
982.686717	0.991650
982.983764	0.991957
983.280775	0.991186
983.577749	0.990858
983.874686	0.992445
984.171587	0.992305
984.468451	0.993701
984.765279	0.994248
985.062070	0.993700
985.358824	0.995451
985.655543	0.994554
985.952224	0.994734
986.248869	0.996112
986.545478	0.997545
986.842050	0.997854
987.138586	0.995906
987.435086	0.997495
987.731549	0.998172
988.027975	0.997455
988.324366	0.998371
988.620719	0.997175
988.917037	0.995524
989.213318	0.998183
989.509563	0.997762
989.805772	0.998474
990.101944	0.998186
990.398080	0.997315
990.694180	0.997657
990.990244	0.997504
991.286271	0.998303
991.582262	0.997983
991.878217	0.997466
992.174136	0.997848
992.470019	0.998775
992.765865	0.997409
993.061676	0.998048
993.357450	0.997630
993.653188	0.996624
993.948890	0.996843
994.244556	0.997822
994.540186	0.997493
994.835780	0.996265
995.131337	0.996228
995.426859	0.996303
995.722345	0.997562
996.017795	0.997645
996.313208	0.996687
996.608586	0.996344
996.903928	0.997049
997.199234	0.996533
997.494504	0.996599
997.789738	0.997119
998.084936	0.996166
998.380099	0.997493
998.675225	0.997588
998.970316	0.998782
999.265371	0.998287
999.560390	0.996318
999.855373	0.998707
1000.150320	0.997717
1000.445232	0.997926
1000.740108	0.996843
1001.034948	0.998327
1001.329752	0.997524
1001.624521	0.998655
1001.919254	0.998637
1002.213951	0.997861
1002.508613	0.998380
1002.803239	0.997452
1003.097829	0.997926
1003.392384	0.998410
1003.686903	0.997643
1003.981386	0.998436
1004.275834	0.998171
1004.570246	0.998305
1004.864623	0.998500
1005.158964	0.998538
1005.453270	0.999075
1005.747540	0.997611
1006.041775	0.997224
1006.335974	0.999439
1006.630138	0.998571
1006.924266	0.999680
1007.218359	1.000675
1007.512416	0.998123
1007.806438	0.998101
1008.100425	0.998891
1008.394376	0.999516
1008.688292	0.998089
1008.982172	1.000539
1009.276017	0.999054
1009.569827	0.997938
1009.863602	0.998403
1010.157341	0.999526
1010.451045	0.999644
1010.744714	0.998328
1011.038347	0.998194
1011.331945	0.998469
1011.625508	0.996837
1011.919036	0.998303
1012.212528	0.998401
1012.505986	0.999255
1012.799408	0.998542
1013.092795	0.999825
1013.386147	0.998653
1013.679464	0.999337
1013.972745	0.998048
1014.265992	0.997621
1014.559204	0.999462
1014.852380	0.998663
1015.145521	0.998368
1015.438628	0.999769
1015.731699	0.998755
1016.024736	0.997971
1016.317737	0.998006
1016.610703	0.998230
1016.903635	0.999952
1017.196531	0.999307
1017.489393	0.999659
1017.782219	0.997834
1018.075011	0.998382
1018.367768	0.998091
1018.660490	0.998640
1018.953177	0.998640
1019.245829	0.998640
