Dividing Wavelength (nm)	Counts (n)	Blue Motor Position (mm): 0.000000	Red Motor Position (mm): 33.100000	
326.493990	1.000893
326.888308	1.000893
327.282561	1.000893
327.676750	0.999794
328.070874	0.998833
328.464933	0.999859
328.858929	0.999325
329.252859	0.999763
329.646726	0.999795
330.040528	0.999922
330.434265	0.998543
330.827938	1.000274
331.221547	0.999970
331.615091	1.000240
332.008571	1.000515
332.401986	0.999830
332.795338	1.000505
333.188625	0.997981
333.581847	1.000351
333.975006	0.999512
334.368100	0.999704
334.761129	1.000267
335.154095	0.999088
335.546996	0.998279
335.939833	0.995319
336.332606	0.996277
336.725315	0.996868
337.117960	0.998674
337.510540	0.994979
337.903056	0.995984
338.295508	0.995858
338.687896	0.996616
339.080220	0.996063
339.472480	0.996402
339.864676	0.995457
340.256807	0.996131
340.648875	0.997012
341.040879	0.996740
341.432818	0.995953
341.824694	0.995303
342.216506	0.996956
342.608253	0.997119
342.999937	0.995247
343.391557	0.996822
343.783113	0.995633
344.174605	0.996303
344.566033	0.996111
344.957397	0.996036
345.348697	0.994783
345.739934	0.996383
346.131106	0.995214
346.522215	0.996042
346.913260	0.995535
347.304241	0.996122
347.695159	0.995289
348.086012	0.994913
348.476802	0.995479
348.867528	0.996556
349.258191	0.994490
349.648789	0.996455
350.039324	0.995582
350.429796	0.997345
350.820203	0.997149
351.210548	0.997148
351.600828	0.995654
351.991045	0.995745
352.381198	0.995527
352.771288	0.995680
353.161314	0.995961
353.551276	0.997676
353.941175	0.996207
354.331010	0.995438
354.720782	0.995853
355.110490	0.996053
355.500135	0.995314
355.889717	0.996472
356.279235	0.996299
356.668689	0.995958
357.058080	0.996405
357.447408	0.997119
357.836672	0.996004
358.225873	0.997079
358.615010	0.997752
359.004084	0.997994
359.393095	0.997502
359.782043	0.997674
360.170927	0.997509
360.559748	0.996419
360.948505	0.995758
361.337199	0.996208
361.725830	0.994789
362.114398	0.996217
362.502903	0.997137
362.891344	0.997213
363.279722	0.995482
363.668037	0.996070
364.056289	0.995825
364.444478	0.998015
364.832603	0.996350
365.220665	0.996774
365.608665	0.996425
365.996601	0.996593
366.384474	0.996202
366.772284	0.997376
367.160031	0.995333
367.547715	0.995658
367.935336	0.996667
368.322893	0.995931
368.710388	0.995971
369.097820	0.996735
369.485189	0.996281
369.872495	0.995158
370.259738	0.995055
370.646918	0.996763
371.034035	0.997771
371.421090	0.995855
371.808081	0.996394
372.195010	0.996984
372.581875	0.995844
372.968678	0.996323
373.355418	0.997605
373.742096	0.995421
374.128710	0.997436
374.515262	0.996510
374.901751	0.996368
375.288177	0.996738
375.674540	0.997260
376.060841	0.996746
376.447079	0.997029
376.833254	0.997205
377.219367	0.997521
377.605417	0.996918
377.991404	0.996822
378.377329	0.996392
378.763191	0.996671
379.148991	0.996645
379.534727	0.997066
379.920402	0.996174
380.306013	0.995972
380.691563	0.997643
381.077049	0.996851
381.462474	0.997304
381.847835	0.997486
382.233134	0.996604
382.618371	0.997133
383.003545	0.996957
383.388657	0.997235
383.773706	0.998065
384.158693	0.997467
384.543618	0.996636
384.928480	0.998057
385.313280	0.997063
385.698017	0.997814
386.082692	0.998566
386.467305	0.997247
386.851856	0.997511
387.236344	0.997336
387.620770	0.997941
388.005133	0.997415
388.389435	0.998438
388.773674	0.997563
389.157851	0.998159
389.541965	0.998310
389.926018	0.997489
390.310008	0.999014
390.693936	0.997870
391.077802	0.998564
391.461606	0.997585
391.845348	0.997846
392.229027	0.997958
392.612645	0.998558
392.996200	0.999173
393.379694	0.997610
393.763125	0.998843
394.146494	0.998442
394.529801	0.997596
394.913047	0.998888
395.296230	0.997953
395.679351	0.998159
396.062410	0.997568
396.445408	0.997671
396.828343	0.997425
397.211217	0.997091
397.594028	0.998563
397.976778	0.998717
398.359466	0.998784
398.742092	0.998004
399.124656	0.997842
399.507158	0.998125
399.889598	0.998221
400.271977	0.998411
400.654294	0.998653
401.036549	0.998687
401.418742	0.999395
401.800874	0.997940
402.182944	0.998415
402.564952	0.997083
402.946898	0.999074
403.328783	0.998365
403.710606	0.997969
404.092367	0.998773
404.474067	0.998148
404.855705	0.998463
405.237282	0.999181
405.618797	0.999187
406.000250	0.998513
406.381642	0.998891
406.762972	0.998518
407.144240	0.999020
407.525447	0.998940
407.906593	0.998409
408.287677	0.998012
408.668700	0.999221
409.049661	0.997836
409.430560	0.998633
409.811399	0.997897
410.192176	0.998059
410.572891	0.997901
410.953545	0.998554
411.334138	0.998280
411.714669	0.999031
412.095139	0.998264
412.475547	0.999542
412.855894	0.998995
413.236180	1.000029
413.616405	0.997766
413.996568	0.999274
414.376670	0.998607
414.756711	0.998407
415.136691	0.998891
415.516609	0.998398
415.896466	0.998655
416.276262	0.997381
416.655997	0.999193
417.035670	0.998715
417.415283	0.998387
417.794834	0.999169
418.174324	0.998951
418.553753	1.000031
418.933121	0.999528
419.312428	0.998238
419.691674	0.998574
420.070859	0.999531
420.449983	0.999257
420.829045	0.998755
421.208047	0.998964
421.586988	1.000232
421.965867	0.998928
422.344686	0.999961
422.723444	0.999339
423.102141	0.999172
423.480777	0.998411
423.859352	0.998207
424.237866	0.998483
424.616319	0.999559
424.994712	0.999051
425.373044	0.999574
425.751314	0.999550
426.129524	0.999111
426.507673	0.998863
426.885762	0.999408
427.263789	0.998878
427.641756	0.999081
428.019662	1.000141
428.397508	0.998898
428.775292	0.997732
429.153016	0.998610
429.530679	0.998995
429.908282	0.999699
430.285824	0.998606
430.663305	0.998838
431.040726	0.999271
431.418086	1.000117
431.795385	0.999090
432.172624	0.998702
432.549802	0.999137
432.926920	0.999182
433.303977	0.998465
433.680974	0.998863
434.057910	0.999612
434.434786	0.999811
434.811601	0.999317
435.188355	0.998768
435.565050	0.998499
435.941683	0.999256
436.318257	0.999962
436.694770	0.997901
437.071222	0.999299
437.447614	0.999622
437.823946	0.998930
438.200218	0.999434
438.576429	0.999055
438.952580	0.999948
439.328670	0.998238
439.704700	1.000176
440.080670	0.999775
440.456580	0.998980
440.832429	0.999241
441.208218	0.999161
441.583947	0.999198
441.959616	0.999443
442.335224	0.999353
442.710773	1.000488
443.086261	0.998798
443.461689	0.998804
443.837057	0.998821
444.212365	0.999361
444.587612	0.999167
444.962800	0.998800
445.337927	0.999207
445.712995	0.999318
446.088002	0.999545
446.462949	0.999576
446.837837	1.000321
447.212664	0.999738
447.587431	0.999504
447.962139	0.998825
448.336786	0.999515
448.711374	0.999103
449.085901	0.998609
449.460369	0.999577
449.834776	0.998196
450.209124	0.999348
450.583412	0.999393
450.957640	0.999705
451.331808	0.999075
451.705917	0.998739
452.079965	0.998877
452.453954	0.999406
452.827883	0.999083
453.201752	1.000000
453.575562	1.000166
453.949311	0.999844
454.323001	0.999686
454.696632	0.999054
455.070202	0.998877
455.443713	0.999476
455.817164	1.000052
456.190556	0.998915
456.563888	0.999295
456.937160	0.999987
457.310373	0.998971
457.683526	0.998700
458.056619	0.999091
458.429653	0.999787
458.802628	0.998850
459.175542	0.998915
459.548398	0.999673
459.921194	0.999774
460.293930	0.999149
460.666607	0.999279
461.039224	0.998729
461.411782	0.999558
461.784280	0.998980
462.156719	1.000030
462.529099	0.999368
462.901419	0.998976
463.273680	0.999353
463.645882	0.999254
464.018024	0.998508
464.390106	0.999131
464.762130	1.000037
465.134094	0.999205
465.505999	1.000333
465.877845	1.000293
466.249631	1.001011
466.621358	0.999593
466.993026	0.999743
467.364634	0.999650
467.736184	0.999426
468.107674	0.998714
468.479105	0.998060
468.850477	0.999985
469.221790	0.999090
469.593043	0.999804
469.964238	0.999829
470.335373	0.999337
470.706449	0.998577
471.077467	0.999790
471.448425	0.999558
471.819324	1.000479
472.190164	0.999092
472.560945	0.999824
472.931667	0.998468
473.302330	0.998597
473.672934	0.999427
474.043479	0.999020
474.413965	0.999292
474.784393	0.999195
475.154761	0.998943
475.525070	0.999253
475.895321	0.999619
476.265513	0.998575
476.635645	0.998926
477.005719	0.999160
477.375734	0.998344
477.745691	0.999313
478.115588	0.999024
478.485427	0.998943
478.855207	0.998532
479.224928	0.999012
479.594591	0.999185
479.964194	0.998961
480.333739	0.998874
480.703226	0.998664
481.072653	0.999401
481.442022	0.999455
481.811333	0.998121
482.180584	0.998873
482.549777	0.998679
482.918912	0.998035
483.287988	0.998527
483.657005	0.997506
484.025964	0.998733
484.394864	0.998263
484.763706	0.997667
485.132489	0.997290
485.501213	0.997591
485.869879	0.997248
486.238487	0.997759
486.607036	0.997086
486.975527	0.995730
487.343959	0.995631
487.712333	0.995136
488.080648	0.995331
488.448905	0.995961
488.817104	0.994844
489.185244	0.994142
489.553326	0.993662
489.921350	0.992834
490.289315	0.991838
490.657222	0.992094
491.025070	0.991206
491.392861	0.990453
491.760593	0.990133
492.128267	0.989231
492.495883	0.988914
492.863440	0.988281
493.230939	0.987984
493.598380	0.986285
493.965763	0.985330
494.333088	0.984813
494.700354	0.983465
495.067563	0.982717
495.434713	0.981670
495.801805	0.981384
496.168839	0.980206
496.535815	0.977952
496.902733	0.976708
497.269593	0.975575
497.636395	0.974994
498.003139	0.972705
498.369825	0.972527
498.736453	0.970031
499.103023	0.968364
499.469535	0.966740
499.835989	0.965013
500.202385	0.963863
500.568723	0.961741
500.935003	0.960172
501.301226	0.957375
501.667390	0.955778
502.033497	0.953290
502.399546	0.951923
502.765537	0.949360
503.131470	0.946476
503.497345	0.944525
503.863163	0.943088
504.228923	0.940357
504.594625	0.937625
504.960269	0.935281
505.325856	0.932492
505.691385	0.929497
506.056856	0.926419
506.422270	0.923226
506.787625	0.920765
507.152924	0.916636
507.518164	0.913877
507.883347	0.911198
508.248472	0.907622
508.613540	0.903990
508.978550	0.900940
509.343503	0.897014
509.708398	0.893656
510.073236	0.889714
510.438016	0.885693
510.802738	0.881525
511.167403	0.877769
511.532010	0.873469
511.896561	0.869116
512.261053	0.865315
512.625488	0.861237
512.989866	0.856022
513.354186	0.851899
513.718449	0.847390
514.082655	0.842656
514.446803	0.838484
514.810894	0.833566
515.174927	0.828406
515.538904	0.824149
515.902822	0.817744
516.266684	0.814416
516.630488	0.808915
516.994235	0.804279
517.357925	0.797355
517.721558	0.792704
518.085133	0.786501
518.448651	0.783300
518.812112	0.777931
519.175516	0.771215
519.538863	0.765775
519.902152	0.761721
520.265385	0.753261
520.628560	0.750163
520.991678	0.743758
521.354739	0.739110
521.717743	0.733939
522.080690	0.728633
522.443580	0.720441
522.806413	0.716023
523.169189	0.710435
523.531908	0.703837
523.894569	0.699521
524.257174	0.693739
524.619722	0.686555
524.982213	0.682662
525.344647	0.674708
525.707025	0.669359
526.069345	0.663103
526.431608	0.657067
526.793815	0.650801
527.155964	0.646573
527.518057	0.641419
527.880093	0.635637
528.242072	0.629164
528.603995	0.623477
528.965860	0.619374
529.327669	0.612348
529.689421	0.607777
530.051117	0.602780
530.412755	0.594590
530.774337	0.591601
531.135862	0.584868
531.497331	0.579959
531.858743	0.575420
532.220098	0.567955
532.581396	0.564234
532.942638	0.559219
533.303824	0.554511
533.664953	0.548195
534.026025	0.544060
534.387040	0.537214
534.747999	0.532204
535.108902	0.525863
535.469748	0.524151
535.830537	0.517550
536.191270	0.512179
536.551947	0.506269
536.912567	0.501236
537.273131	0.498540
537.633638	0.493051
537.994089	0.488347
538.354483	0.483952
538.714821	0.477334
539.075103	0.471813
539.435328	0.467657
539.795497	0.467254
540.155609	0.458686
540.515665	0.453112
540.875665	0.452779
541.235609	0.446572
541.595496	0.442556
541.955328	0.434615
542.315102	0.433144
542.674821	0.429640
543.034483	0.425125
543.394090	0.420652
543.753640	0.418056
544.113134	0.409491
544.472571	0.408672
544.831953	0.401896
545.191278	0.401333
545.550548	0.397104
545.909761	0.390327
546.268918	0.387233
546.628019	0.382124
546.987064	0.380693
547.346053	0.379564
547.704986	0.373197
548.063863	0.370623
548.422684	0.367506
548.781449	0.365376
549.140158	0.359875
549.498811	0.359296
549.857408	0.359352
550.215949	0.351038
550.574434	0.351091
550.932864	0.345744
551.291237	0.342478
551.649555	0.340012
552.007817	0.337688
552.366022	0.335465
552.724173	0.333292
553.082267	0.331275
553.440305	0.325297
553.798288	0.327474
554.156215	0.321690
554.514086	0.319726
554.871902	0.320364
555.229661	0.317899
555.587365	0.315751
555.945014	0.316237
556.302606	0.310993
556.660143	0.311646
557.017625	0.305725
557.375050	0.306117
557.732421	0.301256
558.089735	0.301389
558.446994	0.299739
558.804197	0.296971
559.161345	0.295076
559.518437	0.296940
559.875474	0.292477
560.232455	0.290714
560.589381	0.290451
560.946251	0.288474
561.303065	0.284956
561.659825	0.284550
562.016528	0.284586
562.373177	0.286354
562.729770	0.282252
563.086307	0.283076
563.442789	0.279900
563.799216	0.281097
564.155587	0.278772
564.511904	0.278745
564.868164	0.277814
565.224370	0.276704
565.580520	0.277085
565.936615	0.276323
566.292654	0.277730
566.648638	0.274046
567.004567	0.274237
567.360441	0.274133
567.716260	0.275004
568.072023	0.272147
568.427732	0.271950
568.783385	0.273930
569.138982	0.270972
569.494525	0.270010
569.850013	0.272430
570.205445	0.270139
570.560823	0.271918
570.916145	0.273646
571.271412	0.270718
571.626625	0.271587
571.981782	0.271965
572.336884	0.272131
572.691931	0.271471
573.046923	0.271999
573.401860	0.272975
573.756743	0.274079
574.111570	0.272565
574.466342	0.272642
574.821059	0.271505
575.175722	0.273694
575.530330	0.273457
575.884882	0.273285
576.239380	0.275158
576.593823	0.275102
576.948211	0.274399
577.302544	0.277412
577.656823	0.276901
578.011047	0.276654
578.365216	0.276974
578.719330	0.278824
579.073389	0.278437
579.427394	0.279561
579.781344	0.280201
580.135239	0.281377
580.489080	0.280813
580.842866	0.283466
581.196597	0.283110
581.550273	0.281665
581.903895	0.282667
582.257463	0.280418
582.610975	0.284011
582.964434	0.282865
583.317837	0.285726
583.671186	0.285896
584.024481	0.285959
584.377721	0.288212
584.730906	0.288603
585.084037	0.287771
585.437113	0.289571
585.790135	0.288952
586.143103	0.291459
586.496016	0.292684
586.848874	0.290189
587.201679	0.290668
587.554428	0.293851
587.907124	0.292462
588.259765	0.293453
588.612352	0.293706
588.964884	0.297284
589.317362	0.296983
589.669786	0.296495
590.022155	0.294936
590.374470	0.294610
590.726731	0.296668
591.078937	0.301094
591.431090	0.297361
591.783188	0.301474
592.135232	0.301998
592.487222	0.302050
592.839157	0.300288
593.191038	0.302181
593.542866	0.303892
593.894639	0.307603
594.246358	0.305479
594.598022	0.304860
594.949633	0.308783
595.301190	0.309179
595.652692	0.308452
596.004141	0.304627
596.355535	0.312434
596.706876	0.313165
597.058162	0.315102
597.409395	0.312584
597.760573	0.310267
598.111698	0.313235
598.462768	0.313841
598.813785	0.315514
599.164748	0.316458
599.515657	0.316753
599.866511	0.319984
600.217312	0.315167
600.568060	0.320747
600.918753	0.317087
601.269392	0.317671
601.619978	0.321082
601.970510	0.318804
602.320988	0.318822
602.671412	0.316538
603.021783	0.319081
603.372100	0.320434
603.722363	0.319879
604.072572	0.321162
604.422728	0.320786
604.772830	0.322348
605.122878	0.322304
605.472872	0.322441
605.822813	0.320962
606.172701	0.323772
606.522534	0.321365
606.872314	0.321199
607.222041	0.321984
607.571714	0.320342
607.921333	0.322035
608.270899	0.321384
608.620411	0.318026
608.969870	0.321504
609.319276	0.321954
609.668627	0.321784
610.017926	0.320738
610.367171	0.318881
610.716362	0.319754
611.065500	0.320057
611.414585	0.318835
611.763616	0.319109
612.112594	0.319853
612.461518	0.319279
612.810389	0.316613
613.159207	0.319078
613.507971	0.320841
613.856682	0.316208
614.205340	0.318205
614.553945	0.315126
614.902496	0.318797
615.250994	0.316908
615.599439	0.317582
615.947830	0.316904
616.296169	0.317676
616.644454	0.317459
616.992686	0.317737
617.340864	0.315005
617.688990	0.318986
618.037063	0.315732
618.385082	0.317685
618.733048	0.314336
619.080961	0.316378
619.428821	0.316101
619.776628	0.315761
620.124382	0.317670
620.472083	0.318011
620.819731	0.317326
621.167326	0.320887
621.514868	0.320733
621.862357	0.325203
622.209793	0.324691
622.557176	0.326886
622.904506	0.328188
623.251783	0.330164
623.599007	0.332710
623.946179	0.332195
624.293297	0.334141
624.640363	0.337872
624.987376	0.338404
625.334336	0.340969
625.681243	0.343266
626.028097	0.343889
626.374899	0.344665
626.721647	0.344887
627.068343	0.348333
627.414987	0.349329
627.761577	0.351723
628.108115	0.349596
628.454600	0.355192
628.801032	0.352487
629.147412	0.354163
629.493739	0.354353
629.840014	0.357806
630.186236	0.354997
630.532405	0.360598
630.878521	0.358494
631.224585	0.360212
631.570597	0.363930
631.916556	0.362224
632.262462	0.363017
632.608316	0.364236
632.954117	0.365434
633.299866	0.366072
633.645562	0.366699
633.991206	0.371020
634.336797	0.373995
634.682336	0.376539
635.027823	0.377628
635.373257	0.378177
635.718639	0.381970
636.063968	0.380852
636.409245	0.386559
636.754470	0.387317
637.099642	0.389805
637.444762	0.393001
637.789829	0.392102
638.134845	0.395291
638.479808	0.396593
638.824719	0.396688
639.169577	0.400520
639.514383	0.399161
639.859137	0.403385
640.203839	0.403113
640.548489	0.403834
640.893086	0.404700
641.237632	0.406929
641.582125	0.405522
641.926566	0.406553
642.270955	0.406721
642.615292	0.407359
642.959576	0.406316
643.303809	0.406805
643.647990	0.406620
643.992118	0.406880
644.336195	0.410754
644.680219	0.408243
645.024192	0.409404
645.368112	0.403320
645.711981	0.402187
646.055797	0.397612
646.399562	0.399798
646.743274	0.392104
647.086935	0.389710
647.430544	0.389926
647.774101	0.388240
648.117606	0.388043
648.461059	0.388615
648.804460	0.390845
649.147810	0.395861
649.491108	0.398053
649.834354	0.399796
650.177548	0.404496
650.520690	0.410084
650.863781	0.411414
651.206820	0.410537
651.549807	0.414879
651.892742	0.419454
652.235626	0.418430
652.578458	0.419315
652.921238	0.426151
653.263967	0.423450
653.606644	0.427401
653.949269	0.427307
654.291843	0.430859
654.634365	0.427980
654.976836	0.431055
655.319255	0.431332
655.661622	0.432934
656.003938	0.433179
656.346203	0.436075
656.688416	0.433609
657.030577	0.436928
657.372687	0.439053
657.714746	0.439591
658.056753	0.436912
658.398708	0.440453
658.740612	0.441400
659.082465	0.437962
659.424266	0.439151
659.766016	0.437733
660.107715	0.440921
660.449362	0.439768
660.790958	0.439748
661.132503	0.440229
661.473996	0.438180
661.815438	0.438960
662.156829	0.439680
662.498168	0.440376
662.839456	0.441309
663.180693	0.439644
663.521879	0.439240
663.863013	0.440104
664.204097	0.438539
664.545129	0.435575
664.886110	0.435882
665.227040	0.433556
665.567918	0.435948
665.908746	0.433859
666.249522	0.433225
666.590248	0.434376
666.930922	0.432483
667.271545	0.431019
667.612118	0.431797
667.952639	0.433837
668.293109	0.431865
668.633528	0.434807
668.973896	0.435014
669.314213	0.435097
669.654480	0.436654
669.994695	0.437217
670.334859	0.438319
670.674973	0.438049
671.015035	0.438403
671.355047	0.438335
671.695008	0.439485
672.034918	0.440839
672.374777	0.440680
672.714585	0.441856
673.054342	0.441682
673.394049	0.442116
673.733705	0.439394
674.073310	0.440354
674.412864	0.443492
674.752368	0.443675
675.091820	0.444135
675.431223	0.448756
675.770574	0.448511
676.109875	0.451895
676.449125	0.451707
676.788324	0.454091
677.127473	0.459335
677.466571	0.459155
677.805619	0.460627
678.144616	0.461935
678.483562	0.463137
678.822458	0.466051
679.161303	0.466764
679.500098	0.467327
679.838842	0.469346
680.177535	0.468028
680.516179	0.467153
680.854771	0.466357
681.193314	0.459805
681.531805	0.451152
681.870247	0.439530
682.208638	0.431782
682.546978	0.430870
682.885268	0.432693
683.223508	0.438964
683.561697	0.442537
683.899836	0.445227
684.237925	0.448972
684.575963	0.451130
684.913951	0.454346
685.251889	0.449674
685.589776	0.452215
685.927614	0.454286
686.265401	0.448667
686.603137	0.449615
686.940824	0.444236
687.278460	0.442710
687.616046	0.442004
687.953582	0.436627
688.291068	0.437898
688.628504	0.434194
688.965889	0.436126
689.303224	0.440281
689.640510	0.443909
689.977745	0.449871
690.314930	0.457979
690.652065	0.462085
690.989150	0.469760
691.326185	0.476106
691.663170	0.481080
692.000105	0.487837
692.336990	0.494692
692.673825	0.497315
693.010610	0.504136
693.347345	0.509352
693.684030	0.511224
694.020665	0.515470
694.357251	0.524515
694.693786	0.524105
695.030272	0.528269
695.366707	0.531155
695.703093	0.535090
696.039429	0.532803
696.375716	0.534560
696.711952	0.537678
697.048139	0.539269
697.384276	0.541505
697.720363	0.538995
698.056400	0.538107
698.392388	0.544519
698.728326	0.547398
699.064214	0.550200
699.400053	0.550290
699.735842	0.553949
700.071581	0.557249
700.407270	0.560195
700.742910	0.562348
701.078501	0.569062
701.414042	0.568941
701.749533	0.572502
702.084974	0.581308
702.420366	0.573664
702.755709	0.581754
703.091002	0.588760
703.426246	0.582011
703.761440	0.588579
704.096584	0.593160
704.431679	0.589910
704.766725	0.591797
705.101721	0.593156
705.436668	0.590067
705.771565	0.597284
706.106413	0.593886
706.441212	0.588430
706.775961	0.587277
707.110661	0.590170
707.445311	0.586771
707.779913	0.584092
708.114465	0.582285
708.448967	0.579598
708.783421	0.571181
709.117825	0.565753
709.452180	0.566300
709.786485	0.560342
710.120742	0.549663
710.454949	0.551894
710.789107	0.543747
711.123216	0.535158
711.457275	0.536505
711.791286	0.527848
712.125247	0.526588
712.459159	0.537097
712.793023	0.529765
713.126837	0.533860
713.460602	0.534383
713.794318	0.543858
714.127985	0.542316
714.461602	0.552697
714.795171	0.555574
715.128691	0.563430
715.462162	0.571016
715.795584	0.576847
716.128957	0.579569
716.462281	0.585950
716.795556	0.590078
717.128782	0.594904
717.461960	0.604478
717.795088	0.602130
718.128167	0.608650
718.461198	0.617214
718.794180	0.617657
719.127113	0.620842
719.459997	0.623703
719.792833	0.630984
720.125619	0.631486
720.458357	0.637550
720.791046	0.637412
721.123686	0.640533
721.456278	0.647193
721.788821	0.644964
722.121315	0.649007
722.453761	0.653014
722.786158	0.650889
723.118506	0.647762
723.450805	0.654916
723.783056	0.651592
724.115259	0.648436
724.447412	0.648059
724.779518	0.649814
725.111574	0.648668
725.443582	0.643937
725.775542	0.645578
726.107453	0.638583
726.439315	0.638743
726.771129	0.637058
727.102895	0.629289
727.434612	0.622792
727.766281	0.621069
728.097901	0.620963
728.429473	0.620107
728.760996	0.618732
729.092471	0.618115
729.423897	0.622151
729.755276	0.621754
730.086606	0.622123
730.417887	0.616267
730.749120	0.607361
731.080305	0.598214
731.411442	0.593820
731.742530	0.598825
732.073570	0.597988
732.404562	0.590359
732.735506	0.591683
733.066401	0.596540
733.397249	0.605004
733.728048	0.616621
734.058798	0.628833
734.389501	0.639949
734.720156	0.649445
735.050762	0.657702
735.381320	0.658475
735.711831	0.668007
736.042293	0.672708
736.372707	0.668672
736.703073	0.672636
737.033391	0.674855
737.363661	0.672285
737.693883	0.667584
738.024056	0.666284
738.354182	0.666670
738.684260	0.656044
739.014290	0.652268
739.344272	0.653430
739.674207	0.646616
740.004093	0.646238
740.333931	0.646428
740.663722	0.646412
740.993464	0.647248
741.323159	0.650668
741.652806	0.656221
741.982405	0.660459
742.311956	0.664750
742.641460	0.667568
742.970915	0.670805
743.300323	0.678263
743.629683	0.684982
743.958996	0.687297
744.288260	0.690830
744.617477	0.696587
744.946647	0.698648
745.275768	0.703786
745.604842	0.704006
745.933869	0.713893
746.262847	0.714096
746.591778	0.707874
746.920662	0.714105
747.249498	0.720202
747.578286	0.711244
747.907027	0.707396
748.235720	0.708702
748.564365	0.703482
748.892963	0.702817
749.221514	0.705587
749.550017	0.711065
749.878473	0.710688
750.206881	0.717771
750.535242	0.718717
750.863555	0.718613
751.191821	0.718955
751.520039	0.722599
751.848210	0.728023
752.176334	0.720653
752.504411	0.719542
752.832440	0.726667
753.160421	0.731026
753.488356	0.728075
753.816243	0.726965
754.144082	0.734480
754.471875	0.738154
754.799620	0.734669
755.127318	0.735932
755.454969	0.735592
755.782572	0.734283
756.110129	0.739207
756.437638	0.742698
756.765100	0.738264
757.092515	0.736688
757.419882	0.736159
757.747203	0.741269
758.074477	0.740435
758.401703	0.737284
758.728882	0.732572
759.056014	0.731059
759.383099	0.730800
759.710138	0.731244
760.037129	0.728567
760.364073	0.722440
760.690970	0.724331
761.017820	0.730118
761.344623	0.726183
761.671379	0.716257
761.998088	0.704994
762.324751	0.682827
762.651366	0.641426
762.977935	0.575132
763.304456	0.523794
763.630931	0.514567
763.957359	0.552776
764.283740	0.597894
764.610074	0.623870
764.936362	0.654848
765.262602	0.681799
765.588796	0.702562
765.914943	0.720063
766.241044	0.738139
766.567097	0.744997
766.893104	0.753505
767.219064	0.760584
767.544978	0.766568
767.870845	0.780057
768.196665	0.783487
768.522438	0.782086
768.848165	0.783044
769.173846	0.792438
769.499479	0.797499
769.825066	0.799758
770.150607	0.804187
770.476101	0.800161
770.801548	0.800642
771.126949	0.812779
771.452303	0.816326
771.777611	0.815949
772.102872	0.814625
772.428087	0.819974
772.753256	0.823972
773.078378	0.824837
773.403453	0.834804
773.728482	0.838472
774.053465	0.831984
774.378401	0.835620
774.703291	0.844123
775.028135	0.843438
775.352932	0.845157
775.677683	0.847947
776.002388	0.848894
776.327046	0.847304
776.651658	0.850816
776.976224	0.855254
777.300743	0.854825
777.625216	0.857801
777.949643	0.858740
778.274024	0.858540
778.598359	0.860662
778.922647	0.858798
779.246889	0.859099
779.571086	0.863259
779.895236	0.865591
780.219339	0.864046
780.543397	0.859319
780.867409	0.857836
781.191374	0.860745
781.515294	0.862778
781.839167	0.860652
782.162995	0.865038
782.486776	0.861317
782.810511	0.862672
783.134201	0.865583
783.457844	0.862674
783.781441	0.866769
784.104993	0.872121
784.428498	0.871544
784.751958	0.867714
785.075372	0.870496
785.398739	0.873325
785.722061	0.871821
786.045337	0.865960
786.368568	0.870844
786.691752	0.874937
787.014891	0.860146
787.337983	0.851538
787.661030	0.842432
787.984031	0.826050
788.306987	0.813323
788.629897	0.815642
788.952760	0.819353
789.275579	0.824151
789.598351	0.839577
789.921078	0.852287
790.243759	0.853613
790.566395	0.858336
790.888984	0.864786
791.211529	0.870323
791.534027	0.873415
791.856480	0.876414
792.178888	0.881154
792.501249	0.883268
792.823566	0.884102
793.145836	0.884981
793.468062	0.886369
793.790241	0.887068
794.112375	0.884049
794.434464	0.879948
794.756507	0.879681
795.078505	0.879320
795.400457	0.874549
795.722364	0.862362
796.044226	0.855149
796.366042	0.854490
796.687812	0.857728
797.009538	0.854330
797.331218	0.856696
797.652852	0.861737
797.974442	0.866687
798.295986	0.867308
798.617484	0.868284
798.938938	0.873086
799.260346	0.877448
799.581709	0.880223
799.903026	0.882051
800.224299	0.882101
800.545526	0.886939
800.866708	0.891179
801.187845	0.895096
801.508936	0.893450
801.829983	0.891567
802.150984	0.895257
802.471940	0.898979
802.792851	0.899628
803.113717	0.899593
803.434538	0.897213
803.755314	0.899324
804.076045	0.902789
804.396731	0.901848
804.717372	0.901963
805.037967	0.903413
805.358518	0.901448
805.679024	0.898159
805.999485	0.899699
806.319901	0.897953
806.640272	0.900612
806.960598	0.897905
807.280879	0.894443
807.601115	0.894561
807.921306	0.898013
808.241453	0.897426
808.561554	0.896439
808.881611	0.895438
809.201623	0.898260
809.521590	0.898019
809.841513	0.898847
810.161390	0.898137
810.481223	0.899888
810.801011	0.902669
811.120755	0.904982
811.440453	0.904484
811.760107	0.901598
812.079716	0.902299
812.399281	0.905827
812.718801	0.908259
813.038276	0.908938
813.357707	0.909156
813.677093	0.904893
813.996434	0.909141
814.315731	0.910180
814.634983	0.911406
814.954191	0.909343
815.273354	0.906897
815.592473	0.903215
815.911547	0.902726
816.230577	0.901033
816.549562	0.898058
816.868502	0.900003
817.187399	0.895991
817.506250	0.889454
817.825058	0.892509
818.143821	0.888861
818.462539	0.883145
818.781213	0.876142
819.099843	0.864367
819.418429	0.848865
819.736970	0.832467
820.055466	0.812668
820.373919	0.788191
820.692327	0.756427
821.010691	0.721237
821.329011	0.646506
821.647286	0.533131
821.965517	0.420540
822.283704	0.378351
822.601847	0.379940
822.919945	0.415608
823.237999	0.448356
823.556010	0.493870
823.873976	0.549520
824.191897	0.598560
824.509775	0.640589
824.827609	0.685875
825.145398	0.707797
825.463144	0.710302
825.780845	0.693084
826.098502	0.674879
826.416116	0.630336
826.733685	0.586764
827.051210	0.578392
827.368692	0.592586
827.686129	0.630347
828.003522	0.681590
828.320872	0.729022
828.638177	0.771912
828.955439	0.803300
829.272656	0.825545
829.589830	0.842661
829.906960	0.857581
830.224046	0.868540
830.541088	0.880036
830.858086	0.883845
831.175041	0.890448
831.491952	0.889452
831.808819	0.886408
832.125642	0.878694
832.442421	0.864993
832.759157	0.843294
833.075849	0.799174
833.392497	0.736140
833.709101	0.695220
834.025662	0.705512
834.342179	0.736058
834.658653	0.774736
834.975083	0.810379
835.291469	0.836280
835.607811	0.857679
835.924110	0.872856
836.240366	0.890304
836.556578	0.905060
836.872746	0.910836
837.188871	0.917778
837.504952	0.922385
837.820990	0.925573
838.136984	0.929648
838.452935	0.931692
838.768842	0.933221
839.084706	0.926193
839.400526	0.902252
839.716303	0.862049
840.032037	0.839902
840.347727	0.843878
840.663373	0.863002
840.978977	0.882247
841.294537	0.903935
841.610054	0.921189
841.925527	0.928559
842.240957	0.934184
842.556344	0.941985
842.871687	0.949354
843.186987	0.951348
843.502244	0.951935
843.817458	0.953792
844.132629	0.957286
844.447756	0.960316
844.762840	0.961996
845.077881	0.960707
845.392879	0.961031
845.707833	0.963702
846.022745	0.965688
846.337613	0.966372
846.652438	0.967549
846.967221	0.965884
847.281960	0.966475
847.596656	0.967675
847.911309	0.967321
848.225919	0.968116
848.540485	0.969265
848.855009	0.969938
849.169490	0.969776
849.483928	0.969950
849.798323	0.970825
850.112675	0.971144
850.426984	0.970632
850.741251	0.971448
851.055474	0.971532
851.369654	0.969091
851.683792	0.970252
851.997887	0.972461
852.311938	0.972650
852.625947	0.970486
852.939914	0.969849
853.253837	0.969726
853.567718	0.972370
853.881555	0.971500
854.195350	0.969369
854.509103	0.971277
854.822812	0.972032
855.136479	0.971678
855.450103	0.970622
855.763685	0.970246
856.077224	0.970535
856.390720	0.971235
856.704173	0.970871
857.017584	0.969781
857.330953	0.968031
857.644278	0.968373
857.957561	0.969334
858.270802	0.970577
858.584000	0.968979
858.897155	0.968808
859.210268	0.968227
859.523339	0.968718
859.836367	0.970338
860.149352	0.971257
860.462295	0.969540
860.775195	0.970865
861.088054	0.970346
861.400869	0.970334
861.713642	0.971714
862.026373	0.970446
862.339062	0.971108
862.651708	0.969323
862.964312	0.969726
863.276873	0.970450
863.589392	0.969228
863.901869	0.967395
864.214303	0.965820
864.526696	0.965824
864.839045	0.965472
865.151353	0.964006
865.463619	0.963620
865.775842	0.964669
866.088023	0.964428
866.400162	0.962633
866.712258	0.963259
867.024313	0.963315
867.336325	0.965066
867.648296	0.964945
867.960224	0.963336
868.272110	0.963622
868.583954	0.966013
868.895755	0.965088
869.207515	0.963359
869.519233	0.961409
869.830909	0.962558
870.142542	0.964619
870.454134	0.963048
870.765684	0.962228
871.077191	0.959613
871.388657	0.960615
871.700081	0.959913
872.011463	0.961360
872.322803	0.959840
872.634101	0.958773
872.945357	0.955497
873.256571	0.955115
873.567744	0.954096
873.878874	0.954953
874.189963	0.953771
874.501010	0.952956
874.812015	0.951166
875.122979	0.952250
875.433900	0.955285
875.744780	0.955642
876.055618	0.953195
876.366415	0.951476
876.677169	0.951432
876.987882	0.953108
877.298554	0.951913
877.609183	0.950237
877.919771	0.947364
878.230317	0.944550
878.540822	0.943239
878.851285	0.936650
879.161707	0.930685
879.472087	0.918208
879.782425	0.903794
880.092722	0.870064
880.402977	0.818616
880.713191	0.760893
881.023363	0.704064
881.333494	0.671147
881.643583	0.643396
881.953631	0.642764
882.263637	0.672270
882.573602	0.710343
882.883526	0.735747
883.193408	0.757647
883.503248	0.779545
883.813048	0.805435
884.122806	0.834208
884.432522	0.857581
884.742197	0.876080
885.051831	0.885774
885.361424	0.895933
885.670975	0.907072
885.980485	0.917044
886.289954	0.922439
886.599382	0.926636
886.908768	0.931549
887.218113	0.937276
887.527417	0.942506
887.836680	0.944949
888.145901	0.946761
888.455082	0.948996
888.764221	0.953760
889.073319	0.954400
889.382376	0.954296
889.691392	0.955026
890.000366	0.955037
890.309300	0.955771
890.618193	0.955480
890.927044	0.954222
891.235855	0.953856
891.544625	0.952600
891.853353	0.953200
892.162041	0.951365
892.470687	0.945453
892.779293	0.940890
893.087858	0.937670
893.396381	0.929658
893.704864	0.917711
894.013306	0.894459
894.321707	0.868763
894.630068	0.854606
894.938387	0.850474
895.246665	0.851064
895.554903	0.864092
895.863100	0.875654
896.171256	0.891698
896.479371	0.911000
896.787446	0.923711
897.095480	0.929236
897.403473	0.931916
897.711425	0.935506
898.019336	0.942446
898.327207	0.945169
898.635038	0.947979
898.942827	0.947965
899.250576	0.950868
899.558284	0.953728
899.865952	0.956875
900.173579	0.957548
900.481165	0.958790
900.788711	0.961522
901.096216	0.964465
901.403681	0.963555
901.711105	0.966145
902.018489	0.965477
902.325832	0.964832
902.633135	0.963552
902.940397	0.957993
903.247619	0.946018
903.554800	0.922868
903.861941	0.884872
904.169041	0.850916
904.476101	0.834817
904.783121	0.834513
905.090100	0.851255
905.397039	0.870792
905.703938	0.892850
906.010796	0.910479
906.317614	0.926970
906.624391	0.938488
906.931129	0.946962
907.237826	0.954248
907.544483	0.961993
907.851099	0.964866
908.157675	0.970002
908.464211	0.971486
908.770707	0.973835
909.077163	0.975502
909.383578	0.976731
909.689954	0.976343
909.996289	0.976875
910.302584	0.979245
910.608839	0.980432
910.915054	0.978978
911.221229	0.979615
911.527363	0.978695
911.833458	0.978717
912.139513	0.978057
912.445527	0.976402
912.751502	0.975206
913.057436	0.974674
913.363331	0.972130
913.669186	0.968472
913.975000	0.962536
914.280775	0.958511
914.586510	0.951725
914.892205	0.938843
915.197859	0.919033
915.503475	0.892724
915.809050	0.874827
916.114585	0.869127
916.420081	0.867991
916.725536	0.864101
917.030952	0.871640
917.336328	0.883077
917.641665	0.898803
917.946961	0.912274
918.252218	0.924322
918.557435	0.931873
918.862612	0.939954
919.167750	0.945482
919.472848	0.949768
919.777906	0.955349
920.082925	0.960008
920.387904	0.964999
920.692843	0.965509
920.997743	0.965132
921.302603	0.969132
921.607423	0.970927
921.912204	0.973264
922.216946	0.973723
922.521647	0.976728
922.826310	0.977063
923.130932	0.977839
923.435516	0.980396
923.740059	0.981061
924.044564	0.980229
924.349028	0.982702
924.653454	0.983867
924.957840	0.985196
925.262186	0.985570
925.566493	0.984699
925.870761	0.985907
926.174989	0.988047
926.479178	0.989358
926.783328	0.989018
927.087438	0.989462
927.391509	0.988024
927.695541	0.991602
927.999533	0.989690
928.303486	0.990559
928.607400	0.992055
928.911275	0.990659
929.215110	0.990848
929.518906	0.991103
929.822663	0.990435
930.126381	0.992065
930.430060	0.990723
930.733699	0.990551
931.037299	0.990096
931.340861	0.992106
931.644383	0.991241
931.947866	0.989861
932.251309	0.990914
932.554714	0.990945
932.858080	0.989889
933.161407	0.991140
933.464694	0.991692
933.767943	0.991442
934.071153	0.991722
934.374323	0.991869
934.677455	0.992105
934.980548	0.992296
935.283602	0.991769
935.586617	0.991311
935.889593	0.991750
936.192530	0.990977
936.495428	0.992127
936.798287	0.991468
937.101108	0.991411
937.403890	0.989334
937.706632	0.991186
938.009336	0.988350
938.312002	0.987305
938.614628	0.985657
938.917216	0.985255
939.219765	0.983319
939.522275	0.983442
939.824747	0.984347
940.127179	0.984639
940.429573	0.985658
940.731929	0.984555
941.034246	0.984543
941.336524	0.986795
941.638763	0.988111
941.940964	0.987830
942.243126	0.988043
942.545250	0.988169
942.847335	0.988730
943.149381	0.989667
943.451389	0.989385
943.753359	0.988985
944.055290	0.991997
944.357182	0.991395
944.659036	0.990546
944.960851	0.990910
945.262628	0.992051
945.564367	0.991555
945.866067	0.990232
946.167729	0.991163
946.469352	0.989943
946.770937	0.990361
947.072484	0.991174
947.373992	0.991082
947.675462	0.991005
947.976893	0.991135
948.278286	0.992190
948.579641	0.991921
948.880958	0.991268
949.182236	0.991771
949.483476	0.992767
949.784678	0.991125
950.085841	0.991920
950.386967	0.992141
950.688054	0.992314
950.989103	0.992417
951.290114	0.990085
951.591087	0.989862
951.892021	0.990419
952.192917	0.989697
952.493776	0.988964
952.794596	0.988716
953.095378	0.989746
953.396122	0.988402
953.696828	0.988275
953.997496	0.990048
954.298126	0.992027
954.598718	0.991918
954.899272	0.991211
955.199788	0.991664
955.500266	0.992432
955.800706	0.993198
956.101108	0.993741
956.401472	0.994094
956.701798	0.995792
957.002087	0.993746
957.302337	0.993343
957.602550	0.995053
957.902724	0.995267
958.202861	0.995020
958.502960	0.996078
958.803022	0.993759
959.103045	0.996944
959.403031	0.995513
959.702979	0.995157
960.002889	0.996211
960.302762	0.995137
960.602596	0.996851
960.902393	0.994332
961.202153	0.996447
961.501875	0.997461
961.801559	0.996478
962.101205	0.995370
962.400814	0.997004
962.700385	0.997727
962.999918	0.996181
963.299414	0.996782
963.598873	0.995149
963.898293	0.996468
964.197677	0.996261
964.497022	0.997161
964.796331	0.996575
965.095601	0.996967
965.394835	0.995396
965.694030	0.996852
965.993189	0.997528
966.292309	0.996464
966.591393	0.998276
966.890439	0.997494
967.189447	0.997323
967.488419	0.998065
967.787353	0.996289
968.086249	0.997407
968.385108	0.998857
968.683930	0.997254
968.982714	0.997879
969.281462	0.997012
969.580172	0.997343
969.878844	0.995756
970.177480	0.996293
970.476078	0.996925
970.774639	0.997260
971.073162	0.997682
971.371649	0.996431
971.670098	0.996135
971.968510	0.997676
972.266885	0.996244
972.565223	0.995714
972.863524	0.997634
973.161788	0.996411
973.460014	0.997072
973.758204	0.995881
974.056356	0.996484
974.354471	0.994221
974.652550	0.996353
974.950591	0.996458
975.248595	0.996852
975.546563	0.997632
975.844493	0.997629
976.142386	0.997199
976.440243	0.997035
976.738062	0.997855
977.035845	0.998050
977.333590	0.997536
977.631299	0.997477
977.928971	0.996429
978.226606	0.996975
978.524204	0.996545
978.821765	0.997317
979.119290	0.996474
979.416777	0.996121
979.714228	0.999334
980.011642	0.995861
980.309020	0.996882
980.606360	0.996562
980.903664	0.998089
981.200931	0.996484
981.498162	0.995208
981.795356	0.994360
982.092513	0.993162
982.389633	0.994699
982.686717	0.992335
982.983764	0.993001
983.280775	0.991552
983.577749	0.990083
983.874686	0.992089
984.171587	0.992065
984.468451	0.995046
984.765279	0.995183
985.062070	0.994458
985.358824	0.995712
985.655543	0.994252
985.952224	0.995881
986.248869	0.996516
986.545478	0.996419
986.842050	0.998858
987.138586	0.996074
987.435086	0.998609
987.731549	0.998879
988.027975	0.997401
988.324366	0.997564
988.620719	0.997785
988.917037	0.997187
989.213318	0.999132
989.509563	0.999219
989.805772	0.997859
990.101944	0.998975
990.398080	0.997512
990.694180	0.998073
990.990244	0.997789
991.286271	0.997991
991.582262	0.998280
991.878217	0.996922
992.174136	0.998863
992.470019	0.998230
992.765865	0.998548
993.061676	0.998760
993.357450	0.997077
993.653188	0.996869
993.948890	0.996498
994.244556	0.998551
994.540186	0.997498
994.835780	0.997216
995.131337	0.997386
995.426859	0.996570
995.722345	0.998090
996.017795	0.996047
996.313208	0.996117
996.608586	0.996408
996.903928	0.996202
997.199234	0.996549
997.494504	0.997042
997.789738	0.996864
998.084936	0.997434
998.380099	0.998154
998.675225	0.997293
998.970316	0.997663
999.265371	0.997778
999.560390	0.997549
999.855373	0.999276
1000.150320	0.997704
1000.445232	0.998830
1000.740108	0.997755
1001.034948	0.998228
1001.329752	0.998319
1001.624521	0.998575
1001.919254	0.997405
1002.213951	0.998512
1002.508613	0.998256
1002.803239	0.998787
1003.097829	0.998175
1003.392384	0.999743
1003.686903	0.998562
1003.981386	0.999349
1004.275834	0.997678
1004.570246	0.998402
1004.864623	0.998725
1005.158964	0.999556
1005.453270	0.998377
1005.747540	0.997255
1006.041775	0.998615
1006.335974	0.998801
1006.630138	0.999274
1006.924266	0.999171
1007.218359	1.000392
1007.512416	0.998003
1007.806438	0.998615
1008.100425	0.999264
1008.394376	0.999462
1008.688292	0.998275
1008.982172	1.000872
1009.276017	0.998735
1009.569827	0.998791
1009.863602	0.998393
1010.157341	0.999887
1010.451045	0.999328
1010.744714	0.998835
1011.038347	0.999037
1011.331945	0.998695
1011.625508	0.997390
1011.919036	0.999073
1012.212528	0.998821
1012.505986	0.998202
1012.799408	0.998048
1013.092795	0.999045
1013.386147	0.999247
1013.679464	0.998236
1013.972745	0.998027
1014.265992	0.998409
1014.559204	0.999184
1014.852380	0.999141
1015.145521	0.999153
1015.438628	0.999985
1015.731699	0.999238
1016.024736	0.999073
1016.317737	0.999193
1016.610703	0.998850
1016.903635	0.999260
1017.196531	0.998235
1017.489393	1.000121
1017.782219	0.999969
1018.075011	0.998037
1018.367768	0.999695
1018.660490	0.998843
1018.953177	0.998843
1019.245829	0.998843
