Dividing Wavelength (nm)	Counts (n)	Blue Motor Position (mm): 0.000000	Red Motor Position (mm): 10.500000	
326.493990	1.002048
326.888308	1.002048
327.282561	1.002048
327.676750	1.000102
328.070874	1.000458
328.464933	1.000072
328.858929	0.999493
329.252859	1.000761
329.646726	1.000190
330.040528	1.000408
330.434265	1.000292
330.827938	1.001958
331.221547	1.000963
331.615091	1.000623
332.008571	1.000576
332.401986	0.999647
332.795338	1.000683
333.188625	0.998669
333.581847	1.000234
333.975006	0.998647
334.368100	0.999989
334.761129	0.999323
335.154095	1.001445
335.546996	0.998991
335.939833	0.992872
336.332606	0.993246
336.725315	0.994690
337.117960	0.995872
337.510540	0.993428
337.903056	0.994778
338.295508	0.993656
338.687896	0.995596
339.080220	0.993813
339.472480	0.994446
339.864676	0.994078
340.256807	0.993767
340.648875	0.994575
341.040879	0.994747
341.432818	0.994407
341.824694	0.993909
342.216506	0.994663
342.608253	0.994513
342.999937	0.993322
343.391557	0.993647
343.783113	0.994849
344.174605	0.993683
344.566033	0.994876
344.957397	0.994013
345.348697	0.993290
345.739934	0.993876
346.131106	0.994029
346.522215	0.993958
346.913260	0.994233
347.304241	0.993445
347.695159	0.993731
348.086012	0.992101
348.476802	0.993561
348.867528	0.993747
349.258191	0.993025
349.648789	0.994890
350.039324	0.993904
350.429796	0.995445
350.820203	0.993810
351.210548	0.993464
351.600828	0.994051
351.991045	0.994154
352.381198	0.992409
352.771288	0.993715
353.161314	0.992880
353.551276	0.995073
353.941175	0.993715
354.331010	0.994452
354.720782	0.994268
355.110490	0.992896
355.500135	0.995047
355.889717	0.994047
356.279235	0.993339
356.668689	0.994228
357.058080	0.992484
357.447408	0.995406
357.836672	0.994387
358.225873	0.994773
358.615010	0.993708
359.004084	0.995485
359.393095	0.993595
359.782043	0.992785
360.170927	0.994318
360.559748	0.994290
360.948505	0.992216
361.337199	0.992204
361.725830	0.994598
362.114398	0.993774
362.502903	0.993537
362.891344	0.995147
363.279722	0.992475
363.668037	0.993521
364.056289	0.992724
364.444478	0.994972
364.832603	0.994025
365.220665	0.991819
365.608665	0.992971
365.996601	0.992691
366.384474	0.993168
366.772284	0.992809
367.160031	0.992052
367.547715	0.991088
367.935336	0.993368
368.322893	0.992646
368.710388	0.991946
369.097820	0.992578
369.485189	0.993112
369.872495	0.993006
370.259738	0.991150
370.646918	0.992124
371.034035	0.992243
371.421090	0.993214
371.808081	0.991078
372.195010	0.992570
372.581875	0.992184
372.968678	0.993558
373.355418	0.993445
373.742096	0.992344
374.128710	0.993329
374.515262	0.991591
374.901751	0.991889
375.288177	0.992312
375.674540	0.993585
376.060841	0.992144
376.447079	0.993312
376.833254	0.992463
377.219367	0.993122
377.605417	0.992044
377.991404	0.992289
378.377329	0.991107
378.763191	0.991829
379.148991	0.992262
379.534727	0.992306
379.920402	0.991336
380.306013	0.990743
380.691563	0.990745
381.077049	0.988503
381.462474	0.987860
381.847835	0.986028
382.233134	0.983473
382.618371	0.983202
383.003545	0.980409
383.388657	0.977108
383.773706	0.974859
384.158693	0.971321
384.543618	0.966980
384.928480	0.963339
385.313280	0.957978
385.698017	0.954512
386.082692	0.948287
386.467305	0.943739
386.851856	0.937625
387.236344	0.931233
387.620770	0.923439
388.005133	0.917588
388.389435	0.911700
388.773674	0.903090
389.157851	0.894887
389.541965	0.888062
389.926018	0.883448
390.310008	0.873250
390.693936	0.863522
391.077802	0.854235
391.461606	0.847378
391.845348	0.835499
392.229027	0.828169
392.612645	0.819541
392.996200	0.805962
393.379694	0.793119
393.763125	0.780692
394.146494	0.775802
394.529801	0.761831
394.913047	0.749338
395.296230	0.744563
395.679351	0.732080
396.062410	0.721591
396.445408	0.717038
396.828343	0.705981
397.211217	0.695216
397.594028	0.699467
397.976778	0.683871
398.359466	0.675343
398.742092	0.665579
399.124656	0.670855
399.507158	0.656053
399.889598	0.648615
400.271977	0.636395
400.654294	0.636432
401.036549	0.631072
401.418742	0.631235
401.800874	0.613516
402.182944	0.607831
402.564952	0.596826
402.946898	0.595995
403.328783	0.593376
403.710606	0.601858
404.092367	0.575634
404.474067	0.579260
404.855705	0.575168
405.237282	0.583087
405.618797	0.567873
406.000250	0.562560
406.381642	0.552615
406.762972	0.555462
407.144240	0.553611
407.525447	0.553889
407.906593	0.546011
408.287677	0.540120
408.668700	0.548267
409.049661	0.541767
409.430560	0.536792
409.811399	0.544673
410.192176	0.526330
410.572891	0.532931
410.953545	0.521108
411.334138	0.534258
411.714669	0.526423
412.095139	0.537898
412.475547	0.522828
412.855894	0.524659
413.236180	0.523907
413.616405	0.529033
413.996568	0.519368
414.376670	0.525818
414.756711	0.530336
415.136691	0.526882
415.516609	0.518625
415.896466	0.514496
416.276262	0.510967
416.655997	0.512505
417.035670	0.493566
417.415283	0.486202
417.794834	0.490701
418.174324	0.495609
418.553753	0.504608
418.933121	0.487132
419.312428	0.481143
419.691674	0.486303
420.070859	0.474965
420.449983	0.483300
420.829045	0.472986
421.208047	0.481274
421.586988	0.475234
421.965867	0.473628
422.344686	0.462298
422.723444	0.474950
423.102141	0.491891
423.480777	0.464786
423.859352	0.484990
424.237866	0.461837
424.616319	0.463340
424.994712	0.453996
425.373044	0.464512
425.751314	0.452727
426.129524	0.468394
426.507673	0.452962
426.885762	0.446722
427.263789	0.451479
427.641756	0.461188
428.019662	0.451691
428.397508	0.450514
428.775292	0.455259
429.153016	0.447042
429.530679	0.453141
429.908282	0.446477
430.285824	0.456468
430.663305	0.434973
431.040726	0.456106
431.418086	0.456150
431.795385	0.447604
432.172624	0.446161
432.549802	0.447313
432.926920	0.446499
433.303977	0.445036
433.680974	0.442782
434.057910	0.441199
434.434786	0.440669
434.811601	0.443259
435.188355	0.425563
435.565050	0.434559
435.941683	0.436559
436.318257	0.420595
436.694770	0.420813
437.071222	0.419330
437.447614	0.423269
437.823946	0.429961
438.200218	0.420043
438.576429	0.429472
438.952580	0.422161
439.328670	0.419032
439.704700	0.425288
440.080670	0.426541
440.456580	0.407958
440.832429	0.415639
441.208218	0.426520
441.583947	0.416547
441.959616	0.415406
442.335224	0.420329
442.710773	0.411741
443.086261	0.409570
443.461689	0.423254
443.837057	0.413342
444.212365	0.403291
444.587612	0.409996
444.962800	0.400416
445.337927	0.401669
445.712995	0.428108
446.088002	0.390362
446.462949	0.400766
446.837837	0.405320
447.212664	0.394819
447.587431	0.385694
447.962139	0.356531
448.336786	0.315550
448.711374	0.325709
449.085901	0.369582
449.460369	0.374193
449.834776	0.377734
450.209124	0.356524
450.583412	0.350016
450.957640	0.342358
451.331808	0.353764
451.705917	0.377317
452.079965	0.381926
452.453954	0.370083
452.827883	0.376565
453.201752	0.372077
453.575562	0.383527
453.949311	0.371986
454.323001	0.377719
454.696632	0.372991
455.070202	0.366331
455.443713	0.358216
455.817164	0.353111
456.190556	0.348417
456.563888	0.345425
456.937160	0.343308
457.310373	0.360293
457.683526	0.359183
458.056619	0.364679
458.429653	0.365537
458.802628	0.368698
459.175542	0.362848
459.548398	0.345652
459.921194	0.338427
460.293930	0.338232
460.666607	0.315785
461.039224	0.304044
461.411782	0.299708
461.784280	0.299171
462.156719	0.303290
462.529099	0.307746
462.901419	0.323674
463.273680	0.328160
463.645882	0.327349
464.018024	0.333583
464.390106	0.326596
464.762130	0.311068
465.134094	0.293956
465.505999	0.263408
465.877845	0.233858
466.249631	0.220777
466.621358	0.228332
466.993026	0.241993
467.364634	0.248337
467.736184	0.257143
468.107674	0.265956
468.479105	0.264648
468.850477	0.271870
469.221790	0.278145
469.593043	0.288357
469.964238	0.293592
470.335373	0.292736
470.706449	0.291152
471.077467	0.291578
471.448425	0.253542
471.819324	0.229465
472.190164	0.228617
472.560945	0.257386
472.931667	0.279823
473.302330	0.283864
473.672934	0.295673
474.043479	0.283580
474.413965	0.285625
474.784393	0.289146
475.154761	0.284080
475.525070	0.281121
475.895321	0.286866
476.265513	0.281121
476.635645	0.276404
477.005719	0.276489
477.375734	0.272923
477.745691	0.266517
478.115588	0.262633
478.485427	0.256239
478.855207	0.243203
479.224928	0.225893
479.594591	0.213940
479.964194	0.217310
480.333739	0.218334
480.703226	0.220006
481.072653	0.218531
481.442022	0.214298
481.811333	0.210635
482.180584	0.214046
482.549777	0.219263
482.918912	0.222861
483.287988	0.222328
483.657005	0.222001
484.025964	0.228744
484.394864	0.225843
484.763706	0.226652
485.132489	0.231529
485.501213	0.232200
485.869879	0.230631
486.238487	0.233771
486.607036	0.231686
486.975527	0.235859
487.343959	0.232027
487.712333	0.231095
488.080648	0.232694
488.448905	0.231838
488.817104	0.233115
489.185244	0.227526
489.553326	0.224615
489.921350	0.214351
490.289315	0.196811
490.657222	0.192075
491.025070	0.193168
491.392861	0.195135
491.760593	0.200832
492.128267	0.206817
492.495883	0.212261
492.863440	0.218243
493.230939	0.224698
493.598380	0.225895
493.965763	0.228126
494.333088	0.230533
494.700354	0.232004
495.067563	0.230924
495.434713	0.234025
495.801805	0.232125
496.168839	0.233572
496.535815	0.234813
496.902733	0.234715
497.269593	0.236520
497.636395	0.234221
498.003139	0.234521
498.369825	0.237815
498.736453	0.233487
499.103023	0.235259
499.469535	0.234892
499.835989	0.235194
500.202385	0.236139
500.568723	0.239313
500.935003	0.234430
501.301226	0.238510
501.667390	0.232867
502.033497	0.230981
502.399546	0.234229
502.765537	0.235862
503.131470	0.234250
503.497345	0.230686
503.863163	0.239180
504.228923	0.232346
504.594625	0.231143
504.960269	0.236381
505.325856	0.231818
505.691385	0.235831
506.056856	0.232838
506.422270	0.231961
506.787625	0.234675
507.152924	0.232062
507.518164	0.232195
507.883347	0.234203
508.248472	0.236043
508.613540	0.231143
508.978550	0.233624
509.343503	0.233965
509.708398	0.231370
510.073236	0.229162
510.438016	0.229029
510.802738	0.230023
511.167403	0.229042
511.532010	0.231240
511.896561	0.226546
512.261053	0.225344
512.625488	0.227361
512.989866	0.227728
513.354186	0.228083
513.718449	0.229945
514.082655	0.226285
514.446803	0.228226
514.810894	0.226109
515.174927	0.228729
515.538904	0.228163
515.902822	0.224931
516.266684	0.227462
516.630488	0.228722
516.994235	0.227297
517.357925	0.226134
517.721558	0.224551
518.085133	0.224167
518.448651	0.224157
518.812112	0.226478
519.175516	0.225834
519.538863	0.223856
519.902152	0.225163
520.265385	0.222056
520.628560	0.223656
520.991678	0.224336
521.354739	0.223296
521.717743	0.224459
522.080690	0.224603
522.443580	0.222140
522.806413	0.223074
523.169189	0.222073
523.531908	0.221240
523.894569	0.224769
524.257174	0.224828
524.619722	0.222435
524.982213	0.223594
525.344647	0.222392
525.707025	0.223368
526.069345	0.221365
526.431608	0.223467
526.793815	0.221148
527.155964	0.225232
527.518057	0.224230
527.880093	0.225397
528.242072	0.223730
528.603995	0.225771
528.965860	0.227420
529.327669	0.226143
529.689421	0.227216
530.051117	0.227853
530.412755	0.225762
530.774337	0.228122
531.135862	0.228407
531.497331	0.227629
531.858743	0.230783
532.220098	0.227407
532.581396	0.229835
532.942638	0.230078
533.303824	0.231338
533.664953	0.230993
534.026025	0.232800
534.387040	0.230758
534.747999	0.230608
535.108902	0.229553
535.469748	0.234820
535.830537	0.232359
536.191270	0.232624
536.551947	0.232309
536.912567	0.232621
537.273131	0.234272
537.633638	0.234237
537.994089	0.234696
538.354483	0.235739
538.714821	0.232879
539.075103	0.232462
539.435328	0.233160
539.795497	0.237223
540.155609	0.233352
540.515665	0.231762
540.875665	0.237463
541.235609	0.236035
541.595496	0.235956
541.955328	0.232453
542.315102	0.235131
542.674821	0.235918
543.034483	0.235941
543.394090	0.235730
543.753640	0.237802
544.113134	0.232909
544.472571	0.236065
544.831953	0.232982
545.191278	0.237306
545.550548	0.236495
545.909761	0.233586
546.268918	0.234030
546.628019	0.232413
546.987064	0.235107
547.346053	0.237095
547.704986	0.234631
548.063863	0.235046
548.422684	0.235254
548.781449	0.237277
549.140158	0.234672
549.498811	0.237443
549.857408	0.240864
550.215949	0.235524
550.574434	0.238485
550.932864	0.236413
551.291237	0.235225
551.649555	0.236736
552.007817	0.236534
552.366022	0.237084
552.724173	0.237479
553.082267	0.237602
553.440305	0.234500
553.798288	0.239248
554.156215	0.235533
554.514086	0.236072
554.871902	0.239523
555.229661	0.238743
555.587365	0.239108
555.945014	0.241584
556.302606	0.238725
556.660143	0.241120
557.017625	0.237528
557.375050	0.239828
557.732421	0.237056
558.089735	0.238889
558.446994	0.239012
558.804197	0.238205
559.161345	0.238205
559.518437	0.241547
559.875474	0.239337
560.232455	0.239044
560.589381	0.239753
560.946251	0.239981
561.303065	0.237333
561.659825	0.238909
562.016528	0.240416
562.373177	0.243448
562.729770	0.240682
563.086307	0.242700
563.442789	0.240480
563.799216	0.243393
564.155587	0.242202
564.511904	0.243249
564.868164	0.243176
565.224370	0.243185
565.580520	0.244712
565.936615	0.244698
566.292654	0.247658
566.648638	0.244869
567.004567	0.245598
567.360441	0.246013
567.716260	0.248373
568.072023	0.245838
568.427732	0.246769
568.783385	0.249267
569.138982	0.247423
569.494525	0.246640
569.850013	0.249585
570.205445	0.248266
570.560823	0.250753
570.916145	0.252708
571.271412	0.251252
571.626625	0.252790
571.981782	0.253089
572.336884	0.253749
572.691931	0.253868
573.046923	0.254526
573.401860	0.255958
573.756743	0.257503
574.111570	0.256611
574.466342	0.257018
574.821059	0.256162
575.175722	0.259120
575.530330	0.258960
575.884882	0.258960
576.239380	0.261261
576.593823	0.261446
576.948211	0.260862
577.302544	0.264515
577.656823	0.264454
578.011047	0.263996
578.365216	0.264600
578.719330	0.266505
579.073389	0.266383
579.427394	0.267770
579.781344	0.268669
580.135239	0.270052
580.489080	0.269775
580.842866	0.272701
581.196597	0.272187
581.550273	0.271180
581.903895	0.272449
582.257463	0.270317
582.610975	0.274064
582.964434	0.272990
583.317837	0.275635
583.671186	0.275811
584.024481	0.275972
584.377721	0.278566
584.730906	0.279083
585.084037	0.278266
585.437113	0.280201
585.790135	0.279298
586.143103	0.282540
586.496016	0.283587
586.848874	0.281214
587.201679	0.281722
587.554428	0.285108
587.907124	0.283716
588.259765	0.284507
588.612352	0.285387
588.964884	0.288726
589.317362	0.288645
589.669786	0.288606
590.022155	0.287275
590.374470	0.286363
590.726731	0.288109
591.078937	0.293087
591.431090	0.289436
591.783188	0.293615
592.135232	0.294101
592.487222	0.294387
592.839157	0.292455
593.191038	0.294828
593.542866	0.296195
593.894639	0.300048
594.246358	0.297423
594.598022	0.297445
594.949633	0.301259
595.301190	0.302013
595.652692	0.301112
596.004141	0.297114
596.355535	0.305281
596.706876	0.306022
597.058162	0.308348
597.409395	0.305369
597.760573	0.303186
598.111698	0.306442
598.462768	0.306996
598.813785	0.308143
599.164748	0.309247
599.515657	0.309553
599.866511	0.313022
600.217312	0.308097
600.568060	0.314045
600.918753	0.310243
601.269392	0.310952
601.619978	0.313954
601.970510	0.312103
602.320988	0.312291
602.671412	0.309609
603.021783	0.311798
603.372100	0.313561
603.722363	0.313477
604.072572	0.314465
604.422728	0.313945
604.772830	0.316214
605.122878	0.315490
605.472872	0.316083
605.822813	0.314176
606.172701	0.316813
606.522534	0.314719
606.872314	0.314316
607.222041	0.315358
607.571714	0.313516
607.921333	0.315006
608.270899	0.314751
608.620411	0.311343
608.969870	0.315498
609.319276	0.315462
609.668627	0.315546
610.017926	0.314055
610.367171	0.312183
610.716362	0.313233
611.065500	0.313479
611.414585	0.312269
611.763616	0.312706
612.112594	0.313141
612.461518	0.312879
612.810389	0.310458
613.159207	0.312664
613.507971	0.314349
613.856682	0.310027
614.205340	0.311672
614.553945	0.308362
614.902496	0.312283
615.250994	0.310548
615.599439	0.311312
615.947830	0.310670
616.296169	0.311791
616.644454	0.310874
616.992686	0.311363
617.340864	0.309216
617.688990	0.312513
618.037063	0.309309
618.385082	0.311109
618.733048	0.308088
619.080961	0.310332
619.428821	0.309903
619.776628	0.309424
620.124382	0.311703
620.472083	0.311745
620.819731	0.310891
621.167326	0.315151
621.514868	0.314340
621.862357	0.318793
622.209793	0.318494
622.557176	0.320389
622.904506	0.321731
623.251783	0.324048
623.599007	0.326290
623.946179	0.325957
624.293297	0.327696
624.640363	0.331690
624.987376	0.332385
625.334336	0.334665
625.681243	0.336999
626.028097	0.337538
626.374899	0.338587
626.721647	0.338647
627.068343	0.342399
627.414987	0.343120
627.761577	0.345375
628.108115	0.343845
628.454600	0.348929
628.801032	0.345988
629.147412	0.348142
629.493739	0.348584
629.840014	0.351569
630.186236	0.349242
630.532405	0.354852
630.878521	0.351783
631.224585	0.354101
631.570597	0.358158
631.916556	0.356548
632.262462	0.356472
632.608316	0.358862
632.954117	0.359376
633.299866	0.360267
633.645562	0.360798
633.991206	0.365130
634.336797	0.367570
634.682336	0.370085
635.027823	0.371868
635.373257	0.372717
635.718639	0.376217
636.063968	0.375252
636.409245	0.381259
636.754470	0.381224
637.099642	0.384262
637.444762	0.387173
637.789829	0.386169
638.134845	0.389215
638.479808	0.390897
638.824719	0.390901
639.169577	0.394473
639.514383	0.393354
639.859137	0.397736
640.203839	0.397787
640.548489	0.397898
640.893086	0.399638
641.237632	0.401119
641.582125	0.399401
641.926566	0.401271
642.270955	0.401320
642.615292	0.401342
642.959576	0.400036
643.303809	0.401617
643.647990	0.400573
643.992118	0.401538
644.336195	0.404766
644.680219	0.402967
645.024192	0.404188
645.368112	0.397400
645.711981	0.396815
646.055797	0.391736
646.399562	0.394142
646.743274	0.386201
647.086935	0.383536
647.430544	0.383746
647.774101	0.382695
648.117606	0.382466
648.461059	0.382535
648.804460	0.385305
649.147810	0.390199
649.491108	0.392271
649.834354	0.393658
650.177548	0.399204
650.520690	0.404570
650.863781	0.406095
651.206820	0.405019
651.549807	0.409807
651.892742	0.413532
652.235626	0.412611
652.578458	0.413951
652.921238	0.420365
653.263967	0.417946
653.606644	0.422619
653.949269	0.421457
654.291843	0.425663
654.634365	0.422289
654.976836	0.425818
655.319255	0.426033
655.661622	0.427409
656.003938	0.427551
656.346203	0.430202
656.688416	0.428299
657.030577	0.431448
657.372687	0.432825
657.714746	0.434530
658.056753	0.431217
658.398708	0.434770
658.740612	0.435903
659.082465	0.432697
659.424266	0.433053
659.766016	0.432362
660.107715	0.435226
660.449362	0.433716
660.790958	0.434665
661.132503	0.434907
661.473996	0.432564
661.815438	0.433455
662.156829	0.433785
662.498168	0.434478
662.839456	0.436059
663.180693	0.433439
663.521879	0.433589
663.863013	0.434488
664.204097	0.433249
664.545129	0.429774
664.886110	0.429955
665.227040	0.428049
665.567918	0.430606
665.908746	0.428314
666.249522	0.427780
666.590248	0.429089
666.930922	0.427575
667.271545	0.426208
667.612118	0.425966
667.952639	0.427683
668.293109	0.426417
668.633528	0.429560
668.973896	0.429077
669.314213	0.430067
669.654480	0.431443
669.994695	0.431148
670.334859	0.432289
670.674973	0.432270
671.015035	0.432583
671.355047	0.432093
671.695008	0.433692
672.034918	0.435569
672.374777	0.435328
672.714585	0.435679
673.054342	0.436370
673.394049	0.436316
673.733705	0.433693
674.073310	0.434909
674.412864	0.438020
674.752368	0.438692
675.091820	0.438408
675.431223	0.443131
675.770574	0.442659
676.109875	0.445769
676.449125	0.445865
676.788324	0.448058
677.127473	0.453471
677.466571	0.453494
677.805619	0.455184
678.144616	0.455591
678.483562	0.458257
678.822458	0.460188
679.161303	0.461345
679.500098	0.461603
679.838842	0.463443
680.177535	0.462609
680.516179	0.461162
680.854771	0.460409
681.193314	0.454024
681.531805	0.445539
681.870247	0.433768
682.208638	0.426492
682.546978	0.425160
682.885268	0.427319
683.223508	0.433532
683.561697	0.436755
683.899836	0.439292
684.237925	0.443110
684.575963	0.445796
684.913951	0.448392
685.251889	0.444654
685.589776	0.446082
685.927614	0.448673
686.265401	0.442556
686.603137	0.444701
686.940824	0.438401
687.278460	0.436501
687.616046	0.435638
687.953582	0.430762
688.291068	0.432291
688.628504	0.427958
688.965889	0.429956
689.303224	0.434489
689.640510	0.437846
689.977745	0.444012
690.314930	0.451993
690.652065	0.456036
690.989150	0.463966
691.326185	0.471123
691.663170	0.475256
692.000105	0.481935
692.336990	0.489452
692.673825	0.492039
693.010610	0.499278
693.347345	0.503962
693.684030	0.505767
694.020665	0.510629
694.357251	0.519446
694.693786	0.519317
695.030272	0.524081
695.366707	0.526709
695.703093	0.529998
696.039429	0.528058
696.375716	0.529351
696.711952	0.532522
697.048139	0.534336
697.384276	0.536217
697.720363	0.534977
698.056400	0.534143
698.392388	0.539169
698.728326	0.541958
699.064214	0.545152
699.400053	0.545558
699.735842	0.549883
700.071581	0.551988
700.407270	0.555012
700.742910	0.557912
701.078501	0.564586
701.414042	0.563851
701.749533	0.567056
702.084974	0.576449
702.420366	0.568657
702.755709	0.576407
703.091002	0.583964
703.426246	0.577424
703.761440	0.582995
704.096584	0.587726
704.431679	0.585114
704.766725	0.587061
705.101721	0.589580
705.436668	0.585053
705.771565	0.591679
706.106413	0.588255
706.441212	0.583469
706.775961	0.581889
707.110661	0.585472
707.445311	0.582065
707.779913	0.578252
708.114465	0.577926
708.448967	0.573483
708.783421	0.566685
709.117825	0.560713
709.452180	0.561286
709.786485	0.555315
710.120742	0.544363
710.454949	0.546772
710.789107	0.538572
711.123216	0.529374
711.457275	0.531182
711.791286	0.522179
712.125247	0.520723
712.459159	0.531852
712.793023	0.524331
713.126837	0.528690
713.460602	0.529174
713.794318	0.538233
714.127985	0.537022
714.461602	0.547984
714.795171	0.550531
715.128691	0.558057
715.462162	0.565941
715.795584	0.571891
716.128957	0.574418
716.462281	0.581529
716.795556	0.585124
717.128782	0.589447
717.461960	0.599614
717.795088	0.597408
718.128167	0.603918
718.461198	0.612561
718.794180	0.613267
719.127113	0.616017
719.459997	0.620168
719.792833	0.626026
720.125619	0.627465
720.458357	0.632486
720.791046	0.632168
721.123686	0.636351
721.456278	0.643073
721.788821	0.640257
722.121315	0.644170
722.453761	0.648844
722.786158	0.646448
723.118506	0.643464
723.450805	0.650629
723.783056	0.647135
724.115259	0.643768
724.447412	0.644096
724.779518	0.645211
725.111574	0.643815
725.443582	0.638827
725.775542	0.640876
726.107453	0.633859
726.439315	0.633802
726.771129	0.631440
727.102895	0.624840
727.434612	0.617481
727.766281	0.616075
728.097901	0.615153
728.429473	0.615364
728.760996	0.613492
729.092471	0.614546
729.423897	0.617112
729.755276	0.616601
730.086606	0.616560
730.417887	0.611144
730.749120	0.601978
731.080305	0.592755
731.411442	0.588902
731.742530	0.593635
732.073570	0.592740
732.404562	0.585067
732.735506	0.586548
733.066401	0.590945
733.397249	0.600496
733.728048	0.611198
734.058798	0.624588
734.389501	0.635250
734.720156	0.644690
735.050762	0.652874
735.381320	0.653347
735.711831	0.662818
736.042293	0.667692
736.372707	0.663317
736.703073	0.668296
737.033391	0.670569
737.363661	0.667209
737.693883	0.662395
738.024056	0.661681
738.354182	0.662014
738.684260	0.650836
739.014290	0.647534
739.344272	0.648248
739.674207	0.641249
740.004093	0.641315
740.333931	0.641318
740.663722	0.641339
740.993464	0.642280
741.323159	0.645488
741.652806	0.650993
741.982405	0.655287
742.311956	0.660515
742.641460	0.662061
742.970915	0.665189
743.300323	0.674029
743.629683	0.679811
743.958996	0.681884
744.288260	0.685593
744.617477	0.693126
744.946647	0.694186
745.275768	0.699751
745.604842	0.699230
745.933869	0.708163
746.262847	0.709788
746.591778	0.703235
746.920662	0.709874
747.249498	0.716202
747.578286	0.707092
747.907027	0.703175
748.235720	0.703849
748.564365	0.698115
748.892963	0.698892
749.221514	0.701314
749.550017	0.706005
749.878473	0.705748
750.206881	0.713645
750.535242	0.714224
750.863555	0.714908
751.191821	0.714576
751.520039	0.718019
751.848210	0.723463
752.176334	0.715651
752.504411	0.715452
752.832440	0.723024
753.160421	0.726737
753.488356	0.725587
753.816243	0.722579
754.144082	0.730404
754.471875	0.734517
754.799620	0.729927
755.127318	0.731687
755.454969	0.731747
755.782572	0.729795
756.110129	0.735253
756.437638	0.737050
756.765100	0.734424
757.092515	0.733333
757.419882	0.731594
757.747203	0.736274
758.074477	0.735441
758.401703	0.733445
758.728882	0.727663
759.056014	0.726862
759.383099	0.726983
759.710138	0.727873
760.037129	0.723678
760.364073	0.717109
760.690970	0.719531
761.017820	0.725272
761.344623	0.721325
761.671379	0.712137
761.998088	0.700741
762.324751	0.677889
762.651366	0.635431
762.977935	0.568136
763.304456	0.516281
763.630931	0.506627
763.957359	0.545612
764.283740	0.590295
764.610074	0.617329
764.936362	0.649460
765.262602	0.676118
765.588796	0.697097
765.914943	0.715098
766.241044	0.733540
766.567097	0.739782
766.893104	0.749588
767.219064	0.756699
767.544978	0.762951
767.870845	0.776661
768.196665	0.780296
768.522438	0.778220
768.848165	0.779787
769.173846	0.788188
769.499479	0.792957
769.825066	0.796787
770.150607	0.801793
770.476101	0.796427
770.801548	0.797872
771.126949	0.809175
771.452303	0.812456
771.777611	0.811599
772.102872	0.810866
772.428087	0.816811
772.753256	0.820073
773.078378	0.821526
773.403453	0.831353
773.728482	0.835375
774.053465	0.829147
774.378401	0.831651
774.703291	0.840797
775.028135	0.840370
775.352932	0.842290
775.677683	0.844125
776.002388	0.845640
776.327046	0.843857
776.651658	0.848076
776.976224	0.851534
777.300743	0.852815
777.625216	0.853442
777.949643	0.855300
778.274024	0.855392
778.598359	0.856626
778.922647	0.855787
779.246889	0.855901
779.571086	0.860028
779.895236	0.863125
780.219339	0.859718
780.543397	0.857075
780.867409	0.855627
781.191374	0.857803
781.515294	0.858636
781.839167	0.857093
782.162995	0.861227
782.486776	0.859122
782.810511	0.859497
783.134201	0.863523
783.457844	0.860164
783.781441	0.863019
784.104993	0.869772
784.428498	0.871281
784.751958	0.865393
785.075372	0.867169
785.398739	0.871532
785.722061	0.867586
786.045337	0.863168
786.368568	0.868208
786.691752	0.871234
787.014891	0.856370
787.337983	0.847500
787.661030	0.840382
787.984031	0.822654
788.306987	0.809149
788.629897	0.811539
788.952760	0.815839
789.275579	0.820237
789.598351	0.835007
789.921078	0.847781
790.243759	0.850671
790.566395	0.855018
790.888984	0.861961
791.211529	0.868115
791.534027	0.871519
791.856480	0.872788
792.178888	0.878322
792.501249	0.880241
792.823566	0.882267
793.145836	0.881705
793.468062	0.884587
793.790241	0.883974
794.112375	0.882063
794.434464	0.877950
794.756507	0.876696
795.078505	0.875731
795.400457	0.870370
795.722364	0.859229
796.044226	0.851355
796.366042	0.850118
796.687812	0.853773
797.009538	0.850363
797.331218	0.852829
797.652852	0.857928
797.974442	0.863338
798.295986	0.862055
798.617484	0.866500
798.938938	0.870007
799.260346	0.875080
799.581709	0.877182
799.903026	0.879128
800.224299	0.879048
800.545526	0.883874
800.866708	0.887914
801.187845	0.891823
801.508936	0.892548
801.829983	0.888644
802.150984	0.891771
802.471940	0.896741
802.792851	0.897339
803.113717	0.896474
803.434538	0.895441
803.755314	0.897484
804.076045	0.898698
804.396731	0.899930
804.717372	0.898295
805.037967	0.902291
805.358518	0.897808
805.679024	0.895780
805.999485	0.895217
806.319901	0.896413
806.640272	0.897100
806.960598	0.896137
807.280879	0.892578
807.601115	0.891842
807.921306	0.894794
808.241453	0.895343
808.561554	0.892982
808.881611	0.893439
809.201623	0.895578
809.521590	0.896000
809.841513	0.896813
810.161390	0.896061
810.481223	0.896739
810.801011	0.900700
811.120755	0.902200
811.440453	0.901154
811.760107	0.899996
812.079716	0.899511
812.399281	0.903098
812.718801	0.905100
813.038276	0.906659
813.357707	0.905870
813.677093	0.903216
813.996434	0.906202
814.315731	0.907638
814.634983	0.908970
814.954191	0.907171
815.273354	0.903383
815.592473	0.900939
815.911547	0.900663
816.230577	0.897378
816.549562	0.895508
816.868502	0.896241
817.187399	0.892187
817.506250	0.886662
817.825058	0.888883
818.143821	0.885387
818.462539	0.880719
818.781213	0.871350
819.099843	0.860943
819.418429	0.844459
819.736970	0.828359
820.055466	0.808093
820.373919	0.782058
820.692327	0.748400
821.010691	0.713872
821.329011	0.635659
821.647286	0.518340
821.965517	0.404133
822.283704	0.360864
822.601847	0.362053
822.919945	0.397661
823.237999	0.431510
823.556010	0.479324
823.873976	0.535850
824.191897	0.586436
824.509775	0.629887
824.827609	0.675482
825.145398	0.698350
825.463144	0.701694
825.780845	0.684860
826.098502	0.665581
826.416116	0.619552
826.733685	0.574786
827.051210	0.565494
827.368692	0.579897
827.686129	0.618708
828.003522	0.671749
828.320872	0.719592
828.638177	0.763904
828.955439	0.796821
829.272656	0.819995
829.589830	0.837340
829.906960	0.852390
830.224046	0.866260
830.541088	0.875255
830.858086	0.878869
831.175041	0.886400
831.491952	0.884812
831.808819	0.882300
832.125642	0.876607
832.442421	0.860038
832.759157	0.837763
833.075849	0.791424
833.392497	0.727023
833.709101	0.686857
834.025662	0.695321
834.342179	0.726960
834.658653	0.767450
834.975083	0.803186
835.291469	0.829721
835.607811	0.852913
835.924110	0.869450
836.240366	0.885958
836.556578	0.900340
836.872746	0.906673
837.188871	0.913892
837.504952	0.919468
837.820990	0.922741
838.136984	0.926031
838.452935	0.929298
838.768842	0.931004
839.084706	0.923458
839.400526	0.898125
839.716303	0.856819
840.032037	0.834861
840.347727	0.837365
840.663373	0.856761
840.978977	0.877484
841.294537	0.901005
841.610054	0.917293
841.925527	0.925522
842.240957	0.932571
842.556344	0.940640
842.871687	0.945446
843.186987	0.950159
843.502244	0.949289
843.817458	0.951245
844.132629	0.955413
844.447756	0.959820
844.762840	0.960504
845.077881	0.960314
845.392879	0.959576
845.707833	0.962468
846.022745	0.964778
846.337613	0.965221
846.652438	0.964780
846.967221	0.963947
847.281960	0.965662
847.596656	0.967399
847.911309	0.965267
848.225919	0.967365
848.540485	0.968491
848.855009	0.968516
849.169490	0.967810
849.483928	0.968176
849.798323	0.969796
850.112675	0.969689
850.426984	0.969245
850.741251	0.969938
851.055474	0.970367
851.369654	0.967683
851.683792	0.968781
851.997887	0.969510
852.311938	0.970874
852.625947	0.970053
852.939914	0.967179
853.253837	0.968140
853.567718	0.969726
853.881555	0.971019
854.195350	0.967258
854.509103	0.970302
854.822812	0.969304
855.136479	0.969035
855.450103	0.969308
855.763685	0.967649
856.077224	0.968044
856.390720	0.970590
856.704173	0.970488
857.017584	0.967565
857.330953	0.966752
857.644278	0.968590
857.957561	0.968760
858.270802	0.968732
858.584000	0.967787
858.897155	0.966290
859.210268	0.967748
859.523339	0.968686
859.836367	0.970354
860.149352	0.970527
860.462295	0.968458
860.775195	0.970156
861.088054	0.968433
861.400869	0.969802
861.713642	0.969617
862.026373	0.969910
862.339062	0.970606
862.651708	0.967476
862.964312	0.966825
863.276873	0.969814
863.589392	0.967749
863.901869	0.965673
864.214303	0.964984
864.526696	0.963854
864.839045	0.962750
865.151353	0.961732
865.463619	0.962079
865.775842	0.962135
866.088023	0.962814
866.400162	0.962469
866.712258	0.962037
867.024313	0.961262
867.336325	0.962880
867.648296	0.963729
867.960224	0.962285
868.272110	0.961916
868.583954	0.962781
868.895755	0.963602
869.207515	0.960880
869.519233	0.959081
869.830909	0.960620
870.142542	0.961300
870.454134	0.961921
870.765684	0.959808
871.077191	0.956549
871.388657	0.957781
871.700081	0.956384
872.011463	0.958069
872.322803	0.957192
872.634101	0.955799
872.945357	0.954320
873.256571	0.953437
873.567744	0.951441
873.878874	0.952640
874.189963	0.952256
874.501010	0.950522
874.812015	0.948740
875.122979	0.950084
875.433900	0.952854
875.744780	0.952440
876.055618	0.950012
876.366415	0.949693
876.677169	0.949375
876.987882	0.950066
877.298554	0.950089
877.609183	0.947046
877.919771	0.944158
878.230317	0.941343
878.540822	0.940161
878.851285	0.934074
879.161707	0.925944
879.472087	0.913618
879.782425	0.896169
880.092722	0.861883
880.402977	0.809471
880.713191	0.746779
881.023363	0.686932
881.333494	0.651548
881.643583	0.624256
881.953631	0.624516
882.263637	0.652832
882.573602	0.692310
882.883526	0.718450
883.193408	0.743194
883.503248	0.765825
883.813048	0.794204
884.122806	0.823692
884.432522	0.848106
884.742197	0.867840
885.051831	0.878282
885.361424	0.889288
885.670975	0.900948
885.980485	0.911860
886.289954	0.916882
886.599382	0.924569
886.908768	0.926544
887.218113	0.932795
887.527417	0.937407
887.836680	0.941956
888.145901	0.941903
888.455082	0.945029
888.764221	0.949902
889.073319	0.951487
889.382376	0.952281
889.691392	0.952779
890.000366	0.951574
890.309300	0.953226
890.618193	0.953009
890.927044	0.951145
891.235855	0.951193
891.544625	0.950080
891.853353	0.950195
892.162041	0.948507
892.470687	0.940876
892.779293	0.938036
893.087858	0.931912
893.396381	0.925474
893.704864	0.910748
894.013306	0.887599
894.321707	0.859484
894.630068	0.844672
894.938387	0.839731
895.246665	0.840339
895.554903	0.853541
895.863100	0.867328
896.171256	0.885263
896.479371	0.904080
896.787446	0.917816
897.095480	0.923832
897.403473	0.926849
897.711425	0.931632
898.019336	0.939245
898.327207	0.942031
898.635038	0.944229
898.942827	0.944507
899.250576	0.947027
899.558284	0.950816
899.865952	0.953811
900.173579	0.955408
900.481165	0.953917
900.788711	0.958656
901.096216	0.960249
901.403681	0.960123
901.711105	0.961055
902.018489	0.961650
902.325832	0.961616
902.633135	0.959763
902.940397	0.955125
903.247619	0.942093
903.554800	0.915746
903.861941	0.875610
904.169041	0.839383
904.476101	0.821551
904.783121	0.822693
905.090100	0.838407
905.397039	0.860183
905.703938	0.883395
906.010796	0.903210
906.317614	0.921134
906.624391	0.932905
906.931129	0.941555
907.237826	0.951318
907.544483	0.958935
907.851099	0.961741
908.157675	0.966418
908.464211	0.968451
908.770707	0.972048
909.077163	0.974386
909.383578	0.972964
909.689954	0.973864
909.996289	0.975720
910.302584	0.978324
910.608839	0.979935
910.915054	0.977903
911.221229	0.976877
911.527363	0.977474
911.833458	0.976686
912.139513	0.976954
912.445527	0.975380
912.751502	0.973986
913.057436	0.971181
913.363331	0.970043
913.669186	0.964905
913.975000	0.960503
914.280775	0.954235
914.586510	0.947208
914.892205	0.933811
915.197859	0.912004
915.503475	0.882713
915.809050	0.863954
916.114585	0.856981
916.420081	0.854879
916.725536	0.851529
917.030952	0.859457
917.336328	0.873188
917.641665	0.889650
917.946961	0.904551
918.252218	0.917499
918.557435	0.925792
918.862612	0.934805
919.167750	0.939486
919.472848	0.945467
919.777906	0.951058
920.082925	0.957146
920.387904	0.960567
920.692843	0.962141
920.997743	0.962464
921.302603	0.967396
921.607423	0.967900
921.912204	0.971678
922.216946	0.970064
922.521647	0.973587
922.826310	0.975152
923.130932	0.976041
923.435516	0.977551
923.740059	0.978783
924.044564	0.978072
924.349028	0.979424
924.653454	0.982950
924.957840	0.985143
925.262186	0.982888
925.566493	0.983115
925.870761	0.985489
926.174989	0.986988
926.479178	0.988613
926.783328	0.988058
927.087438	0.988898
927.391509	0.988143
927.695541	0.989220
927.999533	0.989542
928.303486	0.989891
928.607400	0.991566
928.911275	0.989947
929.215110	0.990174
929.518906	0.990427
929.822663	0.989280
930.126381	0.990977
930.430060	0.990318
930.733699	0.989549
931.037299	0.988839
931.340861	0.990423
931.644383	0.990256
931.947866	0.989165
932.251309	0.991092
932.554714	0.989868
932.858080	0.989910
933.161407	0.990029
933.464694	0.991532
933.767943	0.990870
934.071153	0.990659
934.374323	0.991257
934.677455	0.990113
934.980548	0.990325
935.283602	0.990257
935.586617	0.990147
935.889593	0.991659
936.192530	0.989390
936.495428	0.991316
936.798287	0.989842
937.101108	0.990119
937.403890	0.988260
937.706632	0.987817
938.009336	0.987448
938.312002	0.986225
938.614628	0.984287
938.917216	0.982351
939.219765	0.981268
939.522275	0.983140
939.824747	0.983106
940.127179	0.982730
940.429573	0.984604
940.731929	0.983095
941.034246	0.984268
941.336524	0.984244
941.638763	0.987637
941.940964	0.984994
942.243126	0.986025
942.545250	0.986156
942.847335	0.988318
943.149381	0.987694
943.451389	0.987904
943.753359	0.987673
944.055290	0.989548
944.357182	0.990225
944.659036	0.988914
944.960851	0.989127
945.262628	0.990242
945.564367	0.990411
945.866067	0.990656
946.167729	0.989269
946.469352	0.989526
946.770937	0.989240
947.072484	0.990611
947.373992	0.990047
947.675462	0.989409
947.976893	0.989681
948.278286	0.989949
948.579641	0.991104
948.880958	0.990760
949.182236	0.990878
949.483476	0.991704
949.784678	0.990422
950.085841	0.991807
950.386967	0.991221
950.688054	0.990825
950.989103	0.990705
951.290114	0.989292
951.591087	0.989659
951.892021	0.988985
952.192917	0.987663
952.493776	0.987641
952.794596	0.988003
953.095378	0.987020
953.396122	0.987279
953.696828	0.986805
953.997496	0.990567
954.298126	0.990176
954.598718	0.990742
954.899272	0.990077
955.199788	0.989349
955.500266	0.991978
955.800706	0.992016
956.101108	0.993446
956.401472	0.994367
956.701798	0.994319
957.002087	0.993249
957.302337	0.994286
957.602550	0.994946
957.902724	0.994291
958.202861	0.995379
958.502960	0.995021
958.803022	0.993743
959.103045	0.997326
959.403031	0.996311
959.702979	0.995265
960.002889	0.996137
960.302762	0.995275
960.602596	0.996361
960.902393	0.995203
961.202153	0.997687
961.501875	0.997103
961.801559	0.995723
962.101205	0.996593
962.400814	0.995559
962.700385	0.996129
962.999918	0.996217
963.299414	0.996075
963.598873	0.995913
963.898293	0.996516
964.197677	0.995901
964.497022	0.995718
964.796331	0.997773
965.095601	0.996570
965.394835	0.995621
965.694030	0.997313
965.993189	0.997884
966.292309	0.997048
966.591393	0.997753
966.890439	0.997862
967.189447	0.996572
967.488419	0.997306
967.787353	0.996576
968.086249	0.996325
968.385108	0.997607
968.683930	0.997304
968.982714	0.998437
969.281462	0.997799
969.580172	0.996702
969.878844	0.997727
970.177480	0.996320
970.476078	0.996955
970.774639	0.996865
971.073162	0.997458
971.371649	0.997090
971.670098	0.996886
971.968510	0.997730
972.266885	0.996245
972.565223	0.997367
972.863524	0.996457
973.161788	0.996495
973.460014	0.997589
973.758204	0.995810
974.056356	0.997244
974.354471	0.994448
974.652550	0.995221
974.950591	0.996551
975.248595	0.996759
975.546563	0.996674
975.844493	0.997940
976.142386	0.996398
976.440243	0.998232
976.738062	0.996558
977.035845	0.997387
977.333590	0.996402
977.631299	0.998387
977.928971	0.997247
978.226606	0.996291
978.524204	0.996372
978.821765	0.997993
979.119290	0.996476
979.416777	0.997840
979.714228	0.996729
980.011642	0.995085
980.309020	0.998284
980.606360	0.997491
980.903664	0.998638
981.200931	0.996919
981.498162	0.994766
981.795356	0.994764
982.092513	0.993018
982.389633	0.995047
982.686717	0.990713
982.983764	0.992733
983.280775	0.990063
983.577749	0.989750
983.874686	0.991130
984.171587	0.991453
984.468451	0.995071
984.765279	0.993942
985.062070	0.993150
985.358824	0.995430
985.655543	0.996324
985.952224	0.996144
986.248869	0.997322
986.545478	0.996390
986.842050	0.999152
987.138586	0.996121
987.435086	0.998144
987.731549	0.998730
988.027975	0.998090
988.324366	0.997780
988.620719	0.998299
988.917037	0.996758
989.213318	0.997274
989.509563	0.999191
989.805772	0.998444
990.101944	0.999725
990.398080	0.998311
990.694180	0.997683
990.990244	0.998356
991.286271	0.998405
991.582262	0.999132
991.878217	0.998908
992.174136	0.999849
992.470019	0.998678
992.765865	0.998759
993.061676	0.999010
993.357450	0.998601
993.653188	0.997226
993.948890	0.997326
994.244556	0.998431
994.540186	0.997372
994.835780	0.997161
995.131337	0.997284
995.426859	0.996798
995.722345	0.997945
996.017795	0.996806
996.313208	0.995979
996.608586	0.995962
996.903928	0.998814
997.199234	0.995990
997.494504	0.997286
997.789738	0.995633
998.084936	0.996679
998.380099	0.997561
998.675225	0.998625
998.970316	0.998474
999.265371	0.998710
999.560390	0.999022
999.855373	0.999461
1000.150320	0.997980
1000.445232	0.998742
1000.740108	0.997885
1001.034948	0.999111
1001.329752	0.998686
1001.624521	0.999026
1001.919254	0.998727
1002.213951	0.998113
1002.508613	0.997981
1002.803239	1.000244
1003.097829	0.999567
1003.392384	0.998568
1003.686903	0.998510
1003.981386	0.998458
1004.275834	0.999372
1004.570246	0.998727
1004.864623	0.999461
1005.158964	1.000867
1005.453270	1.000100
1005.747540	0.997674
1006.041775	0.998581
1006.335974	0.999934
1006.630138	1.000002
1006.924266	1.000250
1007.218359	1.000835
1007.512416	0.999636
1007.806438	0.999907
1008.100425	1.000325
1008.394376	0.997208
1008.688292	0.999009
1008.982172	1.000293
1009.276017	0.999891
1009.569827	0.998215
1009.863602	0.998206
1010.157341	0.999903
1010.451045	1.000152
1010.744714	1.000570
1011.038347	0.999504
1011.331945	0.999917
1011.625508	0.998580
1011.919036	0.999444
1012.212528	0.998868
1012.505986	0.998826
1012.799408	0.998162
1013.092795	0.999991
1013.386147	0.998460
1013.679464	0.999594
1013.972745	0.999144
1014.265992	0.997579
1014.559204	0.998909
1014.852380	0.999474
1015.145521	0.999938
1015.438628	0.998671
1015.731699	0.998973
1016.024736	0.999480
1016.317737	0.998820
1016.610703	0.999819
1016.903635	1.000381
1017.196531	0.999230
1017.489393	0.998962
1017.782219	0.998859
1018.075011	0.998545
1018.367768	0.999013
1018.660490	0.999682
1018.953177	0.999682
1019.245829	0.999682
