Dividing Wavelength (nm)	Counts (n)	Blue Motor Position (mm): 0.000000	Red Motor Position (mm): 35.500000	
326.493990	1.000660
326.888308	1.000660
327.282561	1.000660
327.676750	0.999414
328.070874	0.998780
328.464933	0.999180
328.858929	0.998786
329.252859	0.999862
329.646726	1.000066
330.040528	0.999877
330.434265	0.999770
330.827938	1.001115
331.221547	1.000106
331.615091	0.998999
332.008571	0.999391
332.401986	0.999085
332.795338	1.000040
333.188625	0.998122
333.581847	1.000277
333.975006	1.000028
334.368100	0.999159
334.761129	1.000205
335.154095	1.000172
335.546996	0.998087
335.939833	0.995376
336.332606	0.996346
336.725315	0.997875
337.117960	0.997390
337.510540	0.996531
337.903056	0.996776
338.295508	0.995744
338.687896	0.996391
339.080220	0.995696
339.472480	0.997582
339.864676	0.996348
340.256807	0.996597
340.648875	0.995995
341.040879	0.997277
341.432818	0.996878
341.824694	0.996726
342.216506	0.997710
342.608253	0.997554
342.999937	0.995878
343.391557	0.996410
343.783113	0.996877
344.174605	0.997220
344.566033	0.996208
344.957397	0.995999
345.348697	0.996533
345.739934	0.997385
346.131106	0.995664
346.522215	0.995786
346.913260	0.996274
347.304241	0.995703
347.695159	0.996117
348.086012	0.995618
348.476802	0.996094
348.867528	0.996594
349.258191	0.995322
349.648789	0.997450
350.039324	0.996514
350.429796	0.998476
350.820203	0.995693
351.210548	0.997357
351.600828	0.996384
351.991045	0.996489
352.381198	0.996805
352.771288	0.997108
353.161314	0.997121
353.551276	0.996646
353.941175	0.996740
354.331010	0.995752
354.720782	0.997415
355.110490	0.996413
355.500135	0.996879
355.889717	0.996609
356.279235	0.995931
356.668689	0.996358
357.058080	0.996430
357.447408	0.997356
357.836672	0.998140
358.225873	0.998295
358.615010	0.996825
359.004084	0.997931
359.393095	0.997147
359.782043	0.996540
360.170927	0.997787
360.559748	0.997300
360.948505	0.995881
361.337199	0.997480
361.725830	0.997335
362.114398	0.996275
362.502903	0.997539
362.891344	0.996716
363.279722	0.996440
363.668037	0.996823
364.056289	0.996295
364.444478	0.997164
364.832603	0.996322
365.220665	0.996370
365.608665	0.996600
365.996601	0.995712
366.384474	0.996286
366.772284	0.996338
367.160031	0.995845
367.547715	0.995559
367.935336	0.996625
368.322893	0.996122
368.710388	0.996408
369.097820	0.996993
369.485189	0.996659
369.872495	0.996452
370.259738	0.995388
370.646918	0.997031
371.034035	0.997365
371.421090	0.996371
371.808081	0.995571
372.195010	0.996899
372.581875	0.996297
372.968678	0.996633
373.355418	0.997188
373.742096	0.996360
374.128710	0.998747
374.515262	0.996322
374.901751	0.996489
375.288177	0.997647
375.674540	0.997228
376.060841	0.996618
376.447079	0.998366
376.833254	0.997371
377.219367	0.998421
377.605417	0.997528
377.991404	0.997553
378.377329	0.997069
378.763191	0.997118
379.148991	0.996696
379.534727	0.998500
379.920402	0.997792
380.306013	0.997541
380.691563	0.997571
381.077049	0.996340
381.462474	0.997021
381.847835	0.996752
382.233134	0.997180
382.618371	0.998092
383.003545	0.997472
383.388657	0.997356
383.773706	0.997626
384.158693	0.997783
384.543618	0.997453
384.928480	0.998579
385.313280	0.997818
385.698017	0.998184
386.082692	0.998407
386.467305	0.997337
386.851856	0.997735
387.236344	0.997605
387.620770	0.997256
388.005133	0.998980
388.389435	0.999145
388.773674	0.998133
389.157851	0.998608
389.541965	0.997781
389.926018	0.997165
390.310008	0.999934
390.693936	0.998274
391.077802	0.998147
391.461606	0.997884
391.845348	0.998025
392.229027	0.999490
392.612645	0.998723
392.996200	0.999696
393.379694	0.997759
393.763125	0.999481
394.146494	0.999134
394.529801	0.998080
394.913047	0.999448
395.296230	0.997728
395.679351	0.998125
396.062410	0.998322
396.445408	0.998371
396.828343	0.998677
397.211217	0.998635
397.594028	0.998267
397.976778	0.997806
398.359466	0.998619
398.742092	0.997939
399.124656	0.997759
399.507158	0.997911
399.889598	0.998660
400.271977	0.999665
400.654294	0.998521
401.036549	0.999328
401.418742	0.999390
401.800874	0.998477
402.182944	0.998647
402.564952	0.998895
402.946898	0.998527
403.328783	0.998464
403.710606	0.998412
404.092367	0.999580
404.474067	0.999048
404.855705	0.998018
405.237282	0.999307
405.618797	0.998482
406.000250	0.998313
406.381642	0.999028
406.762972	0.998822
407.144240	0.999428
407.525447	0.998670
407.906593	0.998301
408.287677	0.999455
408.668700	0.999303
409.049661	0.998159
409.430560	0.999410
409.811399	0.999032
410.192176	0.997996
410.572891	0.998287
410.953545	0.998845
411.334138	0.998067
411.714669	0.998629
412.095139	0.998476
412.475547	0.999480
412.855894	0.999341
413.236180	0.999186
413.616405	0.998967
413.996568	1.000013
414.376670	0.998210
414.756711	0.998937
415.136691	0.999107
415.516609	0.998629
415.896466	0.998622
416.276262	0.997874
416.655997	0.998755
417.035670	0.998786
417.415283	0.999502
417.794834	0.998637
418.174324	0.999673
418.553753	0.998815
418.933121	0.998693
419.312428	0.998681
419.691674	0.998472
420.070859	0.998911
420.449983	0.999036
420.829045	0.999261
421.208047	1.000116
421.586988	0.999351
421.965867	0.998808
422.344686	1.000252
422.723444	0.998688
423.102141	0.999608
423.480777	0.999614
423.859352	0.999824
424.237866	0.998525
424.616319	0.999753
424.994712	0.999717
425.373044	0.998931
425.751314	0.999708
426.129524	0.999115
426.507673	1.000512
426.885762	1.000156
427.263789	0.998959
427.641756	1.000259
428.019662	1.000099
428.397508	0.998837
428.775292	0.998965
429.153016	0.999536
429.530679	1.000114
429.908282	0.999816
430.285824	0.998777
430.663305	0.999214
431.040726	0.998796
431.418086	1.000498
431.795385	0.999744
432.172624	0.998696
432.549802	0.999227
432.926920	0.999712
433.303977	0.998377
433.680974	0.999903
434.057910	0.999185
434.434786	0.999880
434.811601	0.998840
435.188355	0.998917
435.565050	0.998782
435.941683	0.999442
436.318257	1.000418
436.694770	0.998824
437.071222	0.999610
437.447614	1.000004
437.823946	0.999314
438.200218	1.000053
438.576429	0.998952
438.952580	0.999874
439.328670	0.999184
439.704700	0.999853
440.080670	0.999832
440.456580	0.999819
440.832429	0.999247
441.208218	0.999650
441.583947	0.999640
441.959616	0.999946
442.335224	0.999196
442.710773	1.000668
443.086261	0.999661
443.461689	0.999035
443.837057	0.999527
444.212365	1.000024
444.587612	0.999426
444.962800	0.999510
445.337927	0.999601
445.712995	1.000485
446.088002	0.999834
446.462949	0.999807
446.837837	0.999629
447.212664	1.000096
447.587431	1.000594
447.962139	0.998956
448.336786	0.999799
448.711374	1.000407
449.085901	0.998992
449.460369	1.000035
449.834776	0.999316
450.209124	1.000628
450.583412	1.000037
450.957640	0.999316
451.331808	1.000420
451.705917	0.999966
452.079965	0.999683
452.453954	0.999812
452.827883	1.000307
453.201752	1.000471
453.575562	1.000273
453.949311	1.000626
454.323001	0.998955
454.696632	0.999914
455.070202	0.999295
455.443713	0.999676
455.817164	0.999729
456.190556	0.999497
456.563888	0.999464
456.937160	1.000125
457.310373	0.999678
457.683526	0.999348
458.056619	0.999884
458.429653	1.000188
458.802628	0.999387
459.175542	0.999364
459.548398	1.000243
459.921194	0.999140
460.293930	0.999289
460.666607	0.999019
461.039224	0.998932
461.411782	1.000256
461.784280	0.999731
462.156719	1.000998
462.529099	1.000318
462.901419	0.999711
463.273680	0.999537
463.645882	0.999157
464.018024	0.999735
464.390106	1.000315
464.762130	1.000404
465.134094	0.999906
465.505999	0.999522
465.877845	1.000002
466.249631	1.001188
466.621358	1.000075
466.993026	0.999933
467.364634	1.000170
467.736184	1.000713
468.107674	0.999975
468.479105	0.999680
468.850477	1.000278
469.221790	1.000151
469.593043	1.000150
469.964238	1.001299
470.335373	0.999755
470.706449	1.000069
471.077467	1.000729
471.448425	0.999902
471.819324	1.000950
472.190164	0.999702
472.560945	1.000465
472.931667	0.999692
473.302330	0.999586
473.672934	0.999891
474.043479	1.000109
474.413965	0.999712
474.784393	1.000063
475.154761	1.000063
475.525070	0.999392
475.895321	0.999524
476.265513	0.999797
476.635645	1.000316
477.005719	1.000290
477.375734	1.000199
477.745691	1.000041
478.115588	0.999303
478.485427	1.000095
478.855207	0.999699
479.224928	1.000187
479.594591	0.999735
479.964194	1.000013
480.333739	1.000640
480.703226	1.000047
481.072653	1.000798
481.442022	1.001208
481.811333	0.999580
482.180584	1.000958
482.549777	0.999874
482.918912	0.999610
483.287988	1.000101
483.657005	1.000038
484.025964	1.001375
484.394864	1.000666
484.763706	1.000409
485.132489	1.000777
485.501213	0.999572
485.869879	1.000354
486.238487	1.000387
486.607036	1.000500
486.975527	0.999881
487.343959	0.999911
487.712333	0.999284
488.080648	0.999861
488.448905	0.999904
488.817104	1.000918
489.185244	1.000702
489.553326	0.999904
489.921350	0.999790
490.289315	1.000193
490.657222	1.000703
491.025070	1.000370
491.392861	1.000851
491.760593	1.000438
492.128267	1.000143
492.495883	0.999765
492.863440	1.000211
493.230939	0.999846
493.598380	0.999913
493.965763	0.999863
494.333088	0.999824
494.700354	0.999644
495.067563	0.999630
495.434713	0.999663
495.801805	1.000696
496.168839	1.000195
496.535815	0.999445
496.902733	0.999597
497.269593	0.999078
497.636395	0.999533
498.003139	0.999899
498.369825	0.999813
498.736453	0.999156
499.103023	0.998860
499.469535	0.999228
499.835989	0.999229
500.202385	0.999389
500.568723	0.999085
500.935003	0.999382
501.301226	0.999528
501.667390	0.999181
502.033497	0.998802
502.399546	0.999405
502.765537	0.998728
503.131470	0.998682
503.497345	0.998624
503.863163	1.000269
504.228923	0.998783
504.594625	0.999172
504.960269	0.999103
505.325856	0.999314
505.691385	0.997807
506.056856	0.998097
506.422270	0.998283
506.787625	0.998088
507.152924	0.998034
507.518164	0.997408
507.883347	0.997287
508.248472	0.997044
508.613540	0.997026
508.978550	0.997508
509.343503	0.996208
509.708398	0.995992
510.073236	0.995982
510.438016	0.996573
510.802738	0.995759
511.167403	0.995446
511.532010	0.995264
511.896561	0.994759
512.261053	0.995394
512.625488	0.993997
512.989866	0.993795
513.354186	0.993173
513.718449	0.992750
514.082655	0.992495
514.446803	0.991187
514.810894	0.991813
515.174927	0.990450
515.538904	0.989807
515.902822	0.989175
516.266684	0.989429
516.630488	0.988758
516.994235	0.986911
517.357925	0.986879
517.721558	0.987046
518.085133	0.984205
518.448651	0.985077
518.812112	0.984459
519.175516	0.982539
519.538863	0.981715
519.902152	0.981316
520.265385	0.979403
520.628560	0.979085
520.991678	0.978244
521.354739	0.977387
521.717743	0.976206
522.080690	0.975743
522.443580	0.973894
522.806413	0.972392
523.169189	0.971193
523.531908	0.969913
523.894569	0.968995
524.257174	0.967820
524.619722	0.965892
524.982213	0.965709
525.344647	0.963006
525.707025	0.961946
526.069345	0.959173
526.431608	0.957564
526.793815	0.956919
527.155964	0.954766
527.518057	0.953309
527.880093	0.951642
528.242072	0.949467
528.603995	0.947712
528.965860	0.946635
529.327669	0.943163
529.689421	0.941337
530.051117	0.940101
530.412755	0.937094
530.774337	0.936264
531.135862	0.932435
531.497331	0.930830
531.858743	0.928218
532.220098	0.925769
532.581396	0.923440
532.942638	0.921351
533.303824	0.918414
533.664953	0.915157
534.026025	0.913170
534.387040	0.909875
534.747999	0.907275
535.108902	0.904429
535.469748	0.901165
535.830537	0.898798
536.191270	0.895574
536.551947	0.892260
536.912567	0.889166
537.273131	0.887370
537.633638	0.882382
537.994089	0.879140
538.354483	0.876267
538.714821	0.872807
539.075103	0.869441
539.435328	0.865538
539.795497	0.863059
540.155609	0.858013
540.515665	0.854758
540.875665	0.851759
541.235609	0.847942
541.595496	0.844398
541.955328	0.838796
542.315102	0.836693
542.674821	0.833379
543.034483	0.829316
543.394090	0.825313
543.753640	0.822183
544.113134	0.816246
544.472571	0.813800
544.831953	0.808073
545.191278	0.805411
545.550548	0.801735
545.909761	0.796240
546.268918	0.792440
546.628019	0.787674
546.987064	0.783414
547.346053	0.780601
547.704986	0.774683
548.063863	0.771175
548.422684	0.768330
548.781449	0.764354
549.140158	0.758013
549.498811	0.754867
549.857408	0.752745
550.215949	0.745854
550.574434	0.742450
550.932864	0.735970
551.291237	0.732963
551.649555	0.726880
552.007817	0.723319
552.366022	0.719103
552.724173	0.714676
553.082267	0.710775
553.440305	0.702596
553.798288	0.702293
554.156215	0.694691
554.514086	0.691443
554.871902	0.687858
555.229661	0.682859
555.587365	0.678262
555.945014	0.676526
556.302606	0.668631
556.660143	0.666343
557.017625	0.658451
557.375050	0.656041
557.732421	0.649579
558.089735	0.645716
558.446994	0.641982
558.804197	0.637036
559.161345	0.632439
559.518437	0.630980
559.875474	0.623099
560.232455	0.618706
560.589381	0.616134
560.946251	0.608956
561.303065	0.605263
561.659825	0.600171
562.016528	0.596961
562.373177	0.594960
562.729770	0.587605
563.086307	0.584933
563.442789	0.579961
563.799216	0.575622
564.155587	0.571111
564.511904	0.567126
564.868164	0.563669
565.224370	0.559681
565.580520	0.554836
565.936615	0.552813
566.292654	0.548609
566.648638	0.543676
567.004567	0.539160
567.360441	0.536258
567.716260	0.533042
568.072023	0.527595
568.427732	0.523058
568.783385	0.522543
569.138982	0.515807
569.494525	0.511676
569.850013	0.509919
570.205445	0.503986
570.560823	0.503459
570.916145	0.499724
571.271412	0.494583
571.626625	0.491917
571.981782	0.488587
572.336884	0.485019
572.691931	0.481985
573.046923	0.478014
573.401860	0.475866
573.756743	0.473047
574.111570	0.468578
574.466342	0.465940
574.821059	0.461372
575.175722	0.460024
575.530330	0.455770
575.884882	0.453023
576.239380	0.450913
576.593823	0.447673
576.948211	0.443950
577.302544	0.443872
577.656823	0.439533
578.011047	0.436870
578.365216	0.434145
578.719330	0.432926
579.073389	0.429518
579.427394	0.428109
579.781344	0.425609
580.135239	0.423218
580.489080	0.420630
580.842866	0.419621
581.196597	0.416618
581.550273	0.413525
581.903895	0.411069
582.257463	0.407462
582.610975	0.407074
582.964434	0.404812
583.317837	0.403709
583.671186	0.402214
584.024481	0.399394
584.377721	0.399369
584.730906	0.397284
585.084037	0.393765
585.437113	0.393700
585.790135	0.390318
586.143103	0.390701
586.496016	0.389764
586.848874	0.385194
587.201679	0.384053
587.554428	0.384509
587.907124	0.381528
588.259765	0.380172
588.612352	0.378511
588.964884	0.380439
589.317362	0.378021
589.669786	0.376018
590.022155	0.373005
590.374470	0.369838
590.726731	0.370423
591.078937	0.372391
591.431090	0.367198
591.783188	0.369705
592.135232	0.367946
592.487222	0.366619
592.839157	0.363446
593.191038	0.363954
593.542866	0.363800
593.894639	0.365763
594.246358	0.361873
594.598022	0.360443
594.949633	0.362146
595.301190	0.361313
595.652692	0.359010
596.004141	0.354001
596.355535	0.359967
596.706876	0.359411
597.058162	0.360449
597.409395	0.356775
597.760573	0.352925
598.111698	0.355155
598.462768	0.354297
598.813785	0.354547
599.164748	0.354475
599.515657	0.353743
599.866511	0.355360
600.217312	0.350383
600.568060	0.354424
600.918753	0.349935
601.269392	0.350083
601.619978	0.351858
601.970510	0.348817
602.320988	0.348340
602.671412	0.344951
603.021783	0.346683
603.372100	0.347346
603.722363	0.345978
604.072572	0.346034
604.422728	0.345225
604.772830	0.346771
605.122878	0.345259
605.472872	0.344892
605.822813	0.342737
606.172701	0.344895
606.522534	0.341492
606.872314	0.341507
607.222041	0.341419
607.571714	0.339106
607.921333	0.339573
608.270899	0.339053
608.620411	0.335304
608.969870	0.338557
609.319276	0.338011
609.668627	0.337574
610.017926	0.335640
610.367171	0.333674
610.716362	0.334219
611.065500	0.333950
611.414585	0.332034
611.763616	0.332126
612.112594	0.332574
612.461518	0.331657
612.810389	0.328775
613.159207	0.331033
613.507971	0.332258
613.856682	0.327378
614.205340	0.329067
614.553945	0.325433
614.902496	0.328948
615.250994	0.326930
615.599439	0.327303
615.947830	0.326436
616.296169	0.327327
616.644454	0.326133
616.992686	0.326228
617.340864	0.323627
617.688990	0.327157
618.037063	0.323884
618.385082	0.325559
618.733048	0.322227
619.080961	0.324186
619.428821	0.323272
619.776628	0.322811
620.124382	0.324729
620.472083	0.324465
620.819731	0.324027
621.167326	0.327217
621.514868	0.327457
621.862357	0.330690
622.209793	0.330369
622.557176	0.332174
622.904506	0.333352
623.251783	0.335661
623.599007	0.337539
623.946179	0.336997
624.293297	0.338869
624.640363	0.342194
624.987376	0.342902
625.334336	0.345340
625.681243	0.347115
626.028097	0.347941
626.374899	0.349189
626.721647	0.348842
627.068343	0.351922
627.414987	0.352889
627.761577	0.355044
628.108115	0.353200
628.454600	0.358344
628.801032	0.355408
629.147412	0.357767
629.493739	0.358303
629.840014	0.361157
630.186236	0.358253
630.532405	0.363463
630.878521	0.361144
631.224585	0.363549
631.570597	0.367063
631.916556	0.365020
632.262462	0.365657
632.608316	0.367670
632.954117	0.368410
633.299866	0.369316
633.645562	0.369219
633.991206	0.373435
634.336797	0.376588
634.682336	0.378625
635.027823	0.380188
635.373257	0.380709
635.718639	0.384147
636.063968	0.383345
636.409245	0.389060
636.754470	0.389347
637.099642	0.392097
637.444762	0.394841
637.789829	0.394473
638.134845	0.397092
638.479808	0.398655
638.824719	0.398269
639.169577	0.402042
639.514383	0.400913
639.859137	0.404987
640.203839	0.405018
640.548489	0.405663
640.893086	0.406727
641.237632	0.408327
641.582125	0.407067
641.926566	0.408085
642.270955	0.408709
642.615292	0.408679
642.959576	0.407796
643.303809	0.408660
643.647990	0.408084
643.992118	0.408408
644.336195	0.412406
644.680219	0.410006
645.024192	0.410818
645.368112	0.404700
645.711981	0.403525
646.055797	0.398984
646.399562	0.401603
646.743274	0.393819
647.086935	0.390665
647.430544	0.391505
647.774101	0.390038
648.117606	0.389448
648.461059	0.390099
648.804460	0.392462
649.147810	0.397379
649.491108	0.399474
649.834354	0.400286
650.177548	0.405470
650.520690	0.411387
650.863781	0.412412
651.206820	0.411740
651.549807	0.416571
651.892742	0.419996
652.235626	0.419654
652.578458	0.421033
652.921238	0.427173
653.263967	0.424663
653.606644	0.428547
653.949269	0.427816
654.291843	0.431871
654.634365	0.428852
654.976836	0.432029
655.319255	0.431874
655.661622	0.433720
656.003938	0.434056
656.346203	0.436611
656.688416	0.434312
657.030577	0.438318
657.372687	0.439855
657.714746	0.440645
658.056753	0.437429
658.398708	0.441050
658.740612	0.442706
659.082465	0.439025
659.424266	0.439250
659.766016	0.439094
660.107715	0.441066
660.449362	0.440371
660.790958	0.440744
661.132503	0.441559
661.473996	0.439545
661.815438	0.439747
662.156829	0.439933
662.498168	0.441063
662.839456	0.442570
663.180693	0.440259
663.521879	0.439812
663.863013	0.440945
664.204097	0.439566
664.545129	0.436641
664.886110	0.436853
665.227040	0.433780
665.567918	0.436743
665.908746	0.434561
666.249522	0.433921
666.590248	0.435273
666.930922	0.433700
667.271545	0.432247
667.612118	0.432331
667.952639	0.434366
668.293109	0.432887
668.633528	0.435896
668.973896	0.435601
669.314213	0.435653
669.654480	0.437154
669.994695	0.438171
670.334859	0.438764
670.674973	0.438561
671.015035	0.439237
671.355047	0.438898
671.695008	0.440216
672.034918	0.441462
672.374777	0.441030
672.714585	0.442515
673.054342	0.442335
673.394049	0.442274
673.733705	0.440366
674.073310	0.441180
674.412864	0.444596
674.752368	0.444900
675.091820	0.445054
675.431223	0.449318
675.770574	0.448844
676.109875	0.452040
676.449125	0.452061
676.788324	0.454756
677.127473	0.460003
677.466571	0.459675
677.805619	0.460611
678.144616	0.462466
678.483562	0.463784
678.822458	0.466421
679.161303	0.467433
679.500098	0.467717
679.838842	0.469768
680.177535	0.469028
680.516179	0.468111
680.854771	0.466575
681.193314	0.460107
681.531805	0.451911
681.870247	0.439821
682.208638	0.432690
682.546978	0.431795
682.885268	0.433402
683.223508	0.439489
683.561697	0.442842
683.899836	0.446185
684.237925	0.449657
684.575963	0.451853
684.913951	0.455248
685.251889	0.450408
685.589776	0.452750
685.927614	0.455489
686.265401	0.449422
686.603137	0.450783
686.940824	0.444997
687.278460	0.443366
687.616046	0.442810
687.953582	0.437531
688.291068	0.438687
688.628504	0.434351
688.965889	0.436818
689.303224	0.440918
689.640510	0.444493
689.977745	0.450723
690.314930	0.457785
690.652065	0.463062
690.989150	0.470542
691.326185	0.476810
691.663170	0.480801
692.000105	0.488125
692.336990	0.495190
692.673825	0.497509
693.010610	0.504690
693.347345	0.510036
693.684030	0.511500
694.020665	0.516291
694.357251	0.524793
694.693786	0.524960
695.030272	0.528689
695.366707	0.532005
695.703093	0.535876
696.039429	0.533431
696.375716	0.535432
696.711952	0.537902
697.048139	0.540514
697.384276	0.541106
697.720363	0.540124
698.056400	0.539671
698.392388	0.545042
698.728326	0.548014
699.064214	0.550684
699.400053	0.551558
699.735842	0.554808
700.071581	0.558158
700.407270	0.560348
700.742910	0.562764
701.078501	0.570268
701.414042	0.570037
701.749533	0.572793
702.084974	0.581927
702.420366	0.574165
702.755709	0.581388
703.091002	0.589170
703.426246	0.582143
703.761440	0.588426
704.096584	0.593912
704.431679	0.590618
704.766725	0.592696
705.101721	0.594046
705.436668	0.589803
705.771565	0.596871
706.106413	0.593840
706.441212	0.589220
706.775961	0.588486
707.110661	0.591297
707.445311	0.587072
707.779913	0.584998
708.114465	0.582970
708.448967	0.579891
708.783421	0.571677
709.117825	0.566011
709.452180	0.567008
709.786485	0.560501
710.120742	0.549930
710.454949	0.552230
710.789107	0.544683
711.123216	0.535245
711.457275	0.537407
711.791286	0.528338
712.125247	0.526976
712.459159	0.537990
712.793023	0.530703
713.126837	0.534817
713.460602	0.535156
713.794318	0.544581
714.127985	0.543475
714.461602	0.553499
714.795171	0.556419
715.128691	0.564098
715.462162	0.571321
715.795584	0.577115
716.128957	0.579669
716.462281	0.586542
716.795556	0.590379
717.128782	0.594368
717.461960	0.604803
717.795088	0.602239
718.128167	0.609555
718.461198	0.617835
718.794180	0.618378
719.127113	0.621000
719.459997	0.624871
719.792833	0.630903
720.125619	0.632114
720.458357	0.638400
720.791046	0.637411
721.123686	0.640674
721.456278	0.648590
721.788821	0.645242
722.121315	0.649508
722.453761	0.653629
722.786158	0.651926
723.118506	0.647768
723.450805	0.655682
723.783056	0.651624
724.115259	0.649807
724.447412	0.648404
724.779518	0.650164
725.111574	0.649041
725.443582	0.644895
725.775542	0.646204
726.107453	0.639142
726.439315	0.639143
726.771129	0.637495
727.102895	0.630735
727.434612	0.623535
727.766281	0.622097
728.097901	0.620769
728.429473	0.620970
728.760996	0.619619
729.092471	0.619434
729.423897	0.622168
729.755276	0.621969
730.086606	0.622015
730.417887	0.615983
730.749120	0.607074
731.080305	0.598183
731.411442	0.595012
731.742530	0.599017
732.073570	0.598483
732.404562	0.591114
732.735506	0.592480
733.066401	0.596833
733.397249	0.606476
733.728048	0.617564
734.058798	0.629843
734.389501	0.640518
734.720156	0.650507
735.050762	0.658063
735.381320	0.658699
735.711831	0.668113
736.042293	0.672731
736.372707	0.668241
736.703073	0.673322
737.033391	0.675846
737.363661	0.672430
737.693883	0.667935
738.024056	0.667499
738.354182	0.667111
738.684260	0.656470
739.014290	0.652242
739.344272	0.653758
739.674207	0.647572
740.004093	0.646577
740.333931	0.647018
740.663722	0.646887
740.993464	0.647340
741.323159	0.651558
741.652806	0.655715
741.982405	0.661112
742.311956	0.665340
742.641460	0.668047
742.970915	0.672173
743.300323	0.678356
743.629683	0.686327
743.958996	0.686691
744.288260	0.691457
744.617477	0.697888
744.946647	0.699649
745.275768	0.704423
745.604842	0.704695
745.933869	0.714054
746.262847	0.714664
746.591778	0.708566
746.920662	0.714976
747.249498	0.721307
747.578286	0.712203
747.907027	0.708175
748.235720	0.708996
748.564365	0.703572
748.892963	0.703409
749.221514	0.706002
749.550017	0.711867
749.878473	0.711427
750.206881	0.717050
750.535242	0.718926
750.863555	0.719006
751.191821	0.720950
751.520039	0.723461
751.848210	0.727374
752.176334	0.720511
752.504411	0.719125
752.832440	0.727777
753.160421	0.732042
753.488356	0.728711
753.816243	0.726641
754.144082	0.735849
754.471875	0.739139
754.799620	0.734055
755.127318	0.736355
755.454969	0.735650
755.782572	0.734582
756.110129	0.740240
756.437638	0.742106
756.765100	0.738542
757.092515	0.737068
757.419882	0.736511
757.747203	0.741377
758.074477	0.741106
758.401703	0.738467
758.728882	0.733316
759.056014	0.731995
759.383099	0.730812
759.710138	0.732184
760.037129	0.728727
760.364073	0.723094
760.690970	0.724864
761.017820	0.731766
761.344623	0.726183
761.671379	0.717796
761.998088	0.706250
762.324751	0.683230
762.651366	0.642643
762.977935	0.576044
763.304456	0.523880
763.630931	0.515045
763.957359	0.553925
764.283740	0.598213
764.610074	0.625311
764.936362	0.655116
765.262602	0.682257
765.588796	0.702525
765.914943	0.720619
766.241044	0.738514
766.567097	0.745694
766.893104	0.753794
767.219064	0.761407
767.544978	0.767442
767.870845	0.780378
768.196665	0.784158
768.522438	0.782655
768.848165	0.783923
769.173846	0.793178
769.499479	0.797852
769.825066	0.800610
770.150607	0.805020
770.476101	0.799827
770.801548	0.802370
771.126949	0.812939
771.452303	0.816758
771.777611	0.816138
772.102872	0.815106
772.428087	0.820882
772.753256	0.824301
773.078378	0.825744
773.403453	0.835092
773.728482	0.839732
774.053465	0.832879
774.378401	0.836328
774.703291	0.844545
775.028135	0.844663
775.352932	0.844890
775.677683	0.849071
776.002388	0.848917
776.327046	0.848116
776.651658	0.852269
776.976224	0.855250
777.300743	0.855889
777.625216	0.857741
777.949643	0.859399
778.274024	0.859224
778.598359	0.861145
778.922647	0.859675
779.246889	0.859580
779.571086	0.863964
779.895236	0.866273
780.219339	0.863265
780.543397	0.860868
780.867409	0.858747
781.191374	0.860883
781.515294	0.862425
781.839167	0.861332
782.162995	0.864833
782.486776	0.861374
782.810511	0.862293
783.134201	0.866544
783.457844	0.863353
783.781441	0.866490
784.104993	0.873572
784.428498	0.873357
784.751958	0.868085
785.075372	0.870604
785.398739	0.874618
785.722061	0.870800
786.045337	0.867576
786.368568	0.872140
786.691752	0.874190
787.014891	0.859648
787.337983	0.850928
787.661030	0.844011
787.984031	0.826864
788.306987	0.813880
788.629897	0.815715
788.952760	0.820213
789.275579	0.824406
789.598351	0.839044
789.921078	0.852508
790.243759	0.853520
790.566395	0.859053
790.888984	0.866159
791.211529	0.870572
791.534027	0.874606
791.856480	0.875695
792.178888	0.881486
792.501249	0.884098
792.823566	0.885360
793.145836	0.884919
793.468062	0.887009
793.790241	0.886335
794.112375	0.885934
794.434464	0.880202
794.756507	0.880229
795.078505	0.879779
795.400457	0.874445
795.722364	0.863342
796.044226	0.855279
796.366042	0.854840
796.687812	0.858381
797.009538	0.854240
797.331218	0.857641
797.652852	0.862315
797.974442	0.866596
798.295986	0.866776
798.617484	0.869635
798.938938	0.873755
799.260346	0.878409
799.581709	0.879942
799.903026	0.881403
800.224299	0.883399
800.545526	0.886706
800.866708	0.891166
801.187845	0.894076
801.508936	0.893759
801.829983	0.892785
802.150984	0.894070
802.471940	0.899515
802.792851	0.899110
803.113717	0.900043
803.434538	0.897921
803.755314	0.900521
804.076045	0.902129
804.396731	0.902604
804.717372	0.902437
805.037967	0.904175
805.358518	0.901187
805.679024	0.898662
805.999485	0.899200
806.319901	0.899125
806.640272	0.900904
806.960598	0.899208
807.280879	0.896119
807.601115	0.894674
807.921306	0.897723
808.241453	0.898879
808.561554	0.895707
808.881611	0.895260
809.201623	0.898137
809.521590	0.897939
809.841513	0.898854
810.161390	0.898383
810.481223	0.900640
810.801011	0.902826
811.120755	0.905871
811.440453	0.903781
811.760107	0.901230
812.079716	0.902405
812.399281	0.905958
812.718801	0.907922
813.038276	0.909120
813.357707	0.908021
813.677093	0.904888
813.996434	0.909147
814.315731	0.910057
814.634983	0.911767
814.954191	0.909483
815.273354	0.907580
815.592473	0.903533
815.911547	0.902902
816.230577	0.900674
816.549562	0.897826
816.868502	0.899896
817.187399	0.895702
817.506250	0.890456
817.825058	0.893486
818.143821	0.888773
818.462539	0.883439
818.781213	0.875717
819.099843	0.866065
819.418429	0.849757
819.736970	0.833531
820.055466	0.814416
820.373919	0.789191
820.692327	0.756378
821.010691	0.722515
821.329011	0.646623
821.647286	0.533623
821.965517	0.421640
822.283704	0.379413
822.601847	0.381175
822.919945	0.416712
823.237999	0.449743
823.556010	0.495480
823.873976	0.550164
824.191897	0.600009
824.509775	0.641443
824.827609	0.687082
825.145398	0.708584
825.463144	0.711382
825.780845	0.693943
826.098502	0.675279
826.416116	0.631287
826.733685	0.587681
827.051210	0.579116
827.368692	0.593904
827.686129	0.630492
828.003522	0.682741
828.320872	0.729050
828.638177	0.772041
828.955439	0.803429
829.272656	0.825148
829.589830	0.841571
829.906960	0.856782
830.224046	0.869814
830.541088	0.880451
830.858086	0.884205
831.175041	0.891290
831.491952	0.889654
831.808819	0.887002
832.125642	0.880027
832.442421	0.865098
832.759157	0.844315
833.075849	0.799508
833.392497	0.736927
833.709101	0.696390
834.025662	0.705681
834.342179	0.736850
834.658653	0.774559
834.975083	0.811348
835.291469	0.836594
835.607811	0.858849
835.924110	0.873785
836.240366	0.891151
836.556578	0.904964
836.872746	0.911011
837.188871	0.918269
837.504952	0.922415
837.820990	0.925262
838.136984	0.929939
838.452935	0.932595
838.768842	0.933498
839.084706	0.926968
839.400526	0.902220
839.716303	0.863039
840.032037	0.840678
840.347727	0.844407
840.663373	0.862802
840.978977	0.883166
841.294537	0.904993
841.610054	0.921041
841.925527	0.927892
842.240957	0.934308
842.556344	0.941132
842.871687	0.947366
843.186987	0.951793
843.502244	0.952835
843.817458	0.954163
844.132629	0.957443
844.447756	0.960570
844.762840	0.962234
845.077881	0.960134
845.392879	0.961536
845.707833	0.963214
846.022745	0.965895
846.337613	0.965894
846.652438	0.967783
846.967221	0.965802
847.281960	0.966863
847.596656	0.969176
847.911309	0.967763
848.225919	0.968105
848.540485	0.969464
848.855009	0.969850
849.169490	0.969331
849.483928	0.970468
849.798323	0.970174
850.112675	0.971898
850.426984	0.970469
850.741251	0.971253
851.055474	0.971505
851.369654	0.968871
851.683792	0.971444
851.997887	0.970632
852.311938	0.972257
852.625947	0.971567
852.939914	0.969403
853.253837	0.970740
853.567718	0.972346
853.881555	0.972215
854.195350	0.970483
854.509103	0.970123
854.822812	0.972915
855.136479	0.971576
855.450103	0.972244
855.763685	0.968879
856.077224	0.969730
856.390720	0.971049
856.704173	0.972575
857.017584	0.969586
857.330953	0.967409
857.644278	0.969140
857.957561	0.969496
858.270802	0.970514
858.584000	0.968850
858.897155	0.967532
859.210268	0.968857
859.523339	0.968792
859.836367	0.970876
860.149352	0.972256
860.462295	0.969595
860.775195	0.970934
861.088054	0.969823
861.400869	0.971299
861.713642	0.971449
862.026373	0.971575
862.339062	0.971760
862.651708	0.968183
862.964312	0.968408
863.276873	0.971278
863.589392	0.970270
863.901869	0.967240
864.214303	0.966413
864.526696	0.966079
864.839045	0.965669
865.151353	0.963709
865.463619	0.965402
865.775842	0.964128
866.088023	0.962441
866.400162	0.963636
866.712258	0.963894
867.024313	0.965161
867.336325	0.964890
867.648296	0.965157
867.960224	0.963773
868.272110	0.964075
868.583954	0.965453
868.895755	0.965963
869.207515	0.962551
869.519233	0.961771
869.830909	0.961801
870.142542	0.965104
870.454134	0.963622
870.765684	0.962757
871.077191	0.960143
871.388657	0.961076
871.700081	0.959188
872.011463	0.960200
872.322803	0.960372
872.634101	0.957449
872.945357	0.956730
873.256571	0.954003
873.567744	0.955846
873.878874	0.954556
874.189963	0.954591
874.501010	0.953252
874.812015	0.952361
875.122979	0.954147
875.433900	0.956084
875.744780	0.956166
876.055618	0.952906
876.366415	0.952491
876.677169	0.952983
876.987882	0.954679
877.298554	0.952424
877.609183	0.950869
877.919771	0.946997
878.230317	0.945386
878.540822	0.943598
878.851285	0.937546
879.161707	0.930730
879.472087	0.919879
879.782425	0.903292
880.092722	0.870607
880.402977	0.820050
880.713191	0.762150
881.023363	0.705432
881.333494	0.673384
881.643583	0.644854
881.953631	0.644761
882.263637	0.672810
882.573602	0.711104
882.883526	0.736846
883.193408	0.758345
883.503248	0.780178
883.813048	0.806584
884.122806	0.835905
884.432522	0.858152
884.742197	0.877525
885.051831	0.887064
885.361424	0.896150
885.670975	0.907342
885.980485	0.918765
886.289954	0.923463
886.599382	0.928278
886.908768	0.932086
887.218113	0.937290
887.527417	0.941483
887.836680	0.944628
888.145901	0.946704
888.455082	0.948198
888.764221	0.953399
889.073319	0.954609
889.382376	0.955753
889.691392	0.956833
890.000366	0.954245
890.309300	0.956765
890.618193	0.955992
890.927044	0.954523
891.235855	0.954025
891.544625	0.952913
891.853353	0.954278
892.162041	0.951988
892.470687	0.946055
892.779293	0.940629
893.087858	0.937587
893.396381	0.928990
893.704864	0.917654
894.013306	0.894417
894.321707	0.868952
894.630068	0.856770
894.938387	0.850871
895.246665	0.852457
895.554903	0.864683
895.863100	0.876780
896.171256	0.893277
896.479371	0.910725
896.787446	0.924206
897.095480	0.930107
897.403473	0.931804
897.711425	0.936612
898.019336	0.944015
898.327207	0.946575
898.635038	0.948008
898.942827	0.949243
899.250576	0.951554
899.558284	0.954712
899.865952	0.957562
900.173579	0.958483
900.481165	0.958464
900.788711	0.962512
901.096216	0.963861
901.403681	0.964263
901.711105	0.965316
902.018489	0.966100
902.325832	0.965122
902.633135	0.963756
902.940397	0.958182
903.247619	0.947665
903.554800	0.923669
903.861941	0.885354
904.169041	0.852187
904.476101	0.835857
904.783121	0.836023
905.090100	0.852303
905.397039	0.871979
905.703938	0.891577
906.010796	0.912110
906.317614	0.927500
906.624391	0.938765
906.931129	0.948441
907.237826	0.954213
907.544483	0.962475
907.851099	0.964139
908.157675	0.969933
908.464211	0.972556
908.770707	0.974480
909.077163	0.975775
909.383578	0.977007
909.689954	0.977813
909.996289	0.977353
910.302584	0.979084
910.608839	0.981210
910.915054	0.979812
911.221229	0.979485
911.527363	0.979077
911.833458	0.978879
912.139513	0.978305
912.445527	0.976641
912.751502	0.976273
913.057436	0.974742
913.363331	0.972049
913.669186	0.968533
913.975000	0.962831
914.280775	0.959212
914.586510	0.951816
914.892205	0.939339
915.197859	0.919725
915.503475	0.893057
915.809050	0.875462
916.114585	0.871017
916.420081	0.868578
916.725536	0.865983
917.030952	0.872608
917.336328	0.884286
917.641665	0.899535
917.946961	0.913181
918.252218	0.923708
918.557435	0.932987
918.862612	0.940931
919.167750	0.946187
919.472848	0.950132
919.777906	0.956296
920.082925	0.961097
920.387904	0.964713
920.692843	0.966241
920.997743	0.966916
921.302603	0.969869
921.607423	0.971066
921.912204	0.974315
922.216946	0.974720
922.521647	0.975604
922.826310	0.976973
923.130932	0.978632
923.435516	0.979501
923.740059	0.981300
924.044564	0.981057
924.349028	0.982516
924.653454	0.984707
924.957840	0.986188
925.262186	0.985854
925.566493	0.985233
925.870761	0.986579
926.174989	0.987296
926.479178	0.988081
926.783328	0.990272
927.087438	0.989805
927.391509	0.988983
927.695541	0.991337
927.999533	0.991517
928.303486	0.990229
928.607400	0.992631
928.911275	0.989737
929.215110	0.992109
929.518906	0.991017
929.822663	0.990102
930.126381	0.992215
930.430060	0.991550
930.733699	0.991339
931.037299	0.990507
931.340861	0.991960
931.644383	0.990587
931.947866	0.990086
932.251309	0.991663
932.554714	0.991427
932.858080	0.990535
933.161407	0.990657
933.464694	0.990949
933.767943	0.989811
934.071153	0.991429
934.374323	0.992290
934.677455	0.990748
934.980548	0.992030
935.283602	0.992265
935.586617	0.992118
935.889593	0.991707
936.192530	0.991478
936.495428	0.992455
936.798287	0.992388
937.101108	0.991872
937.403890	0.989604
937.706632	0.990588
938.009336	0.987467
938.312002	0.988096
938.614628	0.984481
938.917216	0.984974
939.219765	0.983081
939.522275	0.985554
939.824747	0.985988
940.127179	0.983946
940.429573	0.986431
940.731929	0.985391
941.034246	0.985380
941.336524	0.987628
941.638763	0.986523
941.940964	0.987227
942.243126	0.987207
942.545250	0.988606
942.847335	0.989122
943.149381	0.988963
943.451389	0.989412
943.753359	0.989147
944.055290	0.990844
944.357182	0.990991
944.659036	0.989719
944.960851	0.990745
945.262628	0.991210
945.564367	0.991548
945.866067	0.989445
946.167729	0.991052
946.469352	0.990765
946.770937	0.989390
947.072484	0.992317
947.373992	0.991697
947.675462	0.989556
947.976893	0.991789
948.278286	0.991624
948.579641	0.992281
948.880958	0.991770
949.182236	0.992221
949.483476	0.991297
949.784678	0.991431
950.085841	0.993445
950.386967	0.992387
950.688054	0.991993
950.989103	0.992214
951.290114	0.990840
951.591087	0.990605
951.892021	0.990388
952.192917	0.990548
952.493776	0.989588
952.794596	0.989520
953.095378	0.988760
953.396122	0.988866
953.696828	0.988005
953.997496	0.990376
954.298126	0.991427
954.598718	0.991044
954.899272	0.991464
955.199788	0.992041
955.500266	0.994275
955.800706	0.993130
956.101108	0.994421
956.401472	0.994920
956.701798	0.995228
957.002087	0.993395
957.302337	0.994823
957.602550	0.995963
957.902724	0.995038
958.202861	0.995996
958.502960	0.995374
958.803022	0.994006
959.103045	0.996597
959.403031	0.996773
959.702979	0.995574
960.002889	0.996774
960.302762	0.995310
960.602596	0.996339
960.902393	0.995916
961.202153	0.996738
961.501875	0.996587
961.801559	0.996581
962.101205	0.996426
962.400814	0.996152
962.700385	0.996791
962.999918	0.996078
963.299414	0.997387
963.598873	0.995724
963.898293	0.997066
964.197677	0.997335
964.497022	0.997513
964.796331	0.996291
965.095601	0.996897
965.394835	0.997470
965.694030	0.997548
965.993189	0.997035
966.292309	0.997514
966.591393	0.998172
966.890439	0.996576
967.189447	0.997115
967.488419	0.995952
967.787353	0.996866
968.086249	0.996646
968.385108	0.997202
968.683930	0.997161
968.982714	0.997917
969.281462	0.997385
969.580172	0.997274
969.878844	0.998196
970.177480	0.996968
970.476078	0.997946
970.774639	0.997633
971.073162	0.998302
971.371649	0.997108
971.670098	0.996276
971.968510	0.998123
972.266885	0.996660
972.565223	0.997761
972.863524	0.996429
973.161788	0.996605
973.460014	0.997751
973.758204	0.996611
974.056356	0.996217
974.354471	0.994319
974.652550	0.995569
974.950591	0.996323
975.248595	0.996436
975.546563	0.996530
975.844493	0.998263
976.142386	0.997280
976.440243	0.998191
976.738062	0.997543
977.035845	0.997999
977.333590	0.997689
977.631299	0.998106
977.928971	0.997579
978.226606	0.996365
978.524204	0.995554
978.821765	0.998705
979.119290	0.996771
979.416777	0.996193
979.714228	0.998355
980.011642	0.996694
980.309020	0.996852
980.606360	0.997435
980.903664	0.998343
981.200931	0.996041
981.498162	0.994690
981.795356	0.995341
982.092513	0.994825
982.389633	0.995010
982.686717	0.992215
982.983764	0.991663
983.280775	0.990842
983.577749	0.992772
983.874686	0.992030
984.171587	0.992480
984.468451	0.994663
984.765279	0.995944
985.062070	0.995130
985.358824	0.994576
985.655543	0.995744
985.952224	0.996430
986.248869	0.996629
986.545478	0.996392
986.842050	0.998702
987.138586	0.994890
987.435086	0.997306
987.731549	0.999065
988.027975	0.997542
988.324366	0.997275
988.620719	0.998153
988.917037	0.997152
989.213318	0.998602
989.509563	0.998895
989.805772	0.998303
990.101944	0.999158
990.398080	0.998331
990.694180	0.997539
990.990244	0.998109
991.286271	0.997929
991.582262	0.998904
991.878217	0.998406
992.174136	0.999509
992.470019	0.998972
992.765865	0.998530
993.061676	0.998756
993.357450	0.998106
993.653188	0.998003
993.948890	0.996775
994.244556	0.997444
994.540186	0.997670
994.835780	0.996180
995.131337	0.997830
995.426859	0.997654
995.722345	0.997928
996.017795	0.997206
996.313208	0.995999
996.608586	0.995983
996.903928	0.997280
997.199234	0.996601
997.494504	0.996888
997.789738	0.995196
998.084936	0.996584
998.380099	0.997967
998.675225	0.996793
998.970316	0.997649
999.265371	0.998224
999.560390	0.998451
999.855373	0.998927
1000.150320	0.998396
1000.445232	0.998516
1000.740108	0.999058
1001.034948	0.998736
1001.329752	0.999100
1001.624521	0.999394
1001.919254	0.999431
1002.213951	0.998163
1002.508613	0.998530
1002.803239	0.998897
1003.097829	0.998786
1003.392384	0.999367
1003.686903	0.998545
1003.981386	0.999262
1004.275834	0.999271
1004.570246	0.998692
1004.864623	0.999129
1005.158964	1.000148
1005.453270	0.998685
1005.747540	0.997283
1006.041775	0.998602
1006.335974	0.998502
1006.630138	0.998840
1006.924266	0.999685
1007.218359	0.999859
1007.512416	0.999495
1007.806438	0.999247
1008.100425	1.000387
1008.394376	0.998793
1008.688292	0.998539
1008.982172	1.001238
1009.276017	0.999176
1009.569827	0.999148
1009.863602	0.998937
1010.157341	0.999652
1010.451045	0.998906
1010.744714	0.998521
1011.038347	0.998706
1011.331945	0.999074
1011.625508	0.998584
1011.919036	0.998426
1012.212528	0.999155
1012.505986	0.997642
1012.799408	0.998874
1013.092795	0.999610
1013.386147	0.998821
1013.679464	0.998898
1013.972745	0.998084
1014.265992	0.997168
1014.559204	0.999485
1014.852380	0.999734
1015.145521	0.999939
1015.438628	0.999130
1015.731699	0.998307
1016.024736	0.997965
1016.317737	0.999604
1016.610703	0.998279
1016.903635	0.999866
1017.196531	0.998586
1017.489393	0.999935
1017.782219	0.998364
1018.075011	0.998860
1018.367768	0.998617
1018.660490	0.999448
1018.953177	0.999448
1019.245829	0.999448
