Dividing Wavelength (nm)	Counts (n)	Blue Motor Position (mm): 0.000000	Red Motor Position (mm): 29.700000	
326.493990	1.001140
326.888308	1.001140
327.282561	1.001140
327.676750	1.000048
328.070874	0.999335
328.464933	0.999693
328.858929	0.997808
329.252859	1.000061
329.646726	0.999260
330.040528	0.999978
330.434265	0.998727
330.827938	1.000842
331.221547	0.999997
331.615091	0.999147
332.008571	0.999804
332.401986	0.999858
332.795338	0.999582
333.188625	0.998425
333.581847	0.999457
333.975006	0.999206
334.368100	0.999385
334.761129	1.000033
335.154095	1.000078
335.546996	0.997835
335.939833	0.993925
336.332606	0.994967
336.725315	0.994278
337.117960	0.995409
337.510540	0.995084
337.903056	0.995322
338.295508	0.993773
338.687896	0.995677
339.080220	0.995284
339.472480	0.994774
339.864676	0.995441
340.256807	0.995258
340.648875	0.996643
341.040879	0.995412
341.432818	0.995036
341.824694	0.994924
342.216506	0.995663
342.608253	0.995062
342.999937	0.994741
343.391557	0.995450
343.783113	0.995671
344.174605	0.995589
344.566033	0.995339
344.957397	0.995110
345.348697	0.993390
345.739934	0.995158
346.131106	0.995088
346.522215	0.995745
346.913260	0.995825
347.304241	0.994738
347.695159	0.995059
348.086012	0.994051
348.476802	0.994936
348.867528	0.994724
349.258191	0.994436
349.648789	0.995547
350.039324	0.995184
350.429796	0.995684
350.820203	0.996001
351.210548	0.994147
351.600828	0.994604
351.991045	0.995373
352.381198	0.993920
352.771288	0.994828
353.161314	0.994467
353.551276	0.995775
353.941175	0.994559
354.331010	0.994708
354.720782	0.995971
355.110490	0.994863
355.500135	0.995288
355.889717	0.995241
356.279235	0.994611
356.668689	0.994837
357.058080	0.996864
357.447408	0.997287
357.836672	0.996961
358.225873	0.995323
358.615010	0.995353
359.004084	0.996477
359.393095	0.994860
359.782043	0.995595
360.170927	0.997326
360.559748	0.996439
360.948505	0.994856
361.337199	0.995616
361.725830	0.996158
362.114398	0.994944
362.502903	0.997304
362.891344	0.995944
363.279722	0.994979
363.668037	0.996567
364.056289	0.995583
364.444478	0.997046
364.832603	0.996077
365.220665	0.995279
365.608665	0.995582
365.996601	0.995035
366.384474	0.994808
366.772284	0.995586
367.160031	0.994135
367.547715	0.994662
367.935336	0.994925
368.322893	0.996305
368.710388	0.995117
369.097820	0.995541
369.485189	0.995044
369.872495	0.995290
370.259738	0.993113
370.646918	0.996097
371.034035	0.996227
371.421090	0.994671
371.808081	0.994798
372.195010	0.996147
372.581875	0.995440
372.968678	0.994923
373.355418	0.996209
373.742096	0.994767
374.128710	0.996572
374.515262	0.995898
374.901751	0.996109
375.288177	0.996836
375.674540	0.996451
376.060841	0.995119
376.447079	0.995812
376.833254	0.995954
377.219367	0.996003
377.605417	0.995171
377.991404	0.995619
378.377329	0.995132
378.763191	0.995490
379.148991	0.996993
379.534727	0.995841
379.920402	0.996193
380.306013	0.996007
380.691563	0.996921
381.077049	0.995059
381.462474	0.997106
381.847835	0.996675
382.233134	0.996228
382.618371	0.996726
383.003545	0.995969
383.388657	0.995580
383.773706	0.997164
384.158693	0.996381
384.543618	0.995999
384.928480	0.996890
385.313280	0.996899
385.698017	0.997230
386.082692	0.996934
386.467305	0.996944
386.851856	0.996491
387.236344	0.995767
387.620770	0.996113
388.005133	0.997323
388.389435	0.997965
388.773674	0.995358
389.157851	0.995407
389.541965	0.996926
389.926018	0.996606
390.310008	0.997554
390.693936	0.996778
391.077802	0.996697
391.461606	0.996786
391.845348	0.997351
392.229027	0.997790
392.612645	0.997063
392.996200	0.997915
393.379694	0.996740
393.763125	0.998383
394.146494	0.997060
394.529801	0.996250
394.913047	0.996518
395.296230	0.996759
395.679351	0.996905
396.062410	0.995958
396.445408	0.997305
396.828343	0.996428
397.211217	0.997331
397.594028	0.996898
397.976778	0.996325
398.359466	0.997212
398.742092	0.996011
399.124656	0.996463
399.507158	0.996133
399.889598	0.996540
400.271977	0.996823
400.654294	0.997328
401.036549	0.997668
401.418742	0.998132
401.800874	0.995819
402.182944	0.996692
402.564952	0.996630
402.946898	0.997751
403.328783	0.996982
403.710606	0.997151
404.092367	0.997002
404.474067	0.996223
404.855705	0.997235
405.237282	0.997104
405.618797	0.996286
406.000250	0.996583
406.381642	0.996725
406.762972	0.997181
407.144240	0.998128
407.525447	0.997725
407.906593	0.996879
408.287677	0.997692
408.668700	0.997537
409.049661	0.996060
409.430560	0.997248
409.811399	0.997344
410.192176	0.996880
410.572891	0.996845
410.953545	0.996900
411.334138	0.996416
411.714669	0.997145
412.095139	0.996912
412.475547	0.997610
412.855894	0.997634
413.236180	0.997953
413.616405	0.997630
413.996568	0.998753
414.376670	0.997856
414.756711	0.997262
415.136691	0.997303
415.516609	0.997271
415.896466	0.997243
416.276262	0.996292
416.655997	0.997518
417.035670	0.996724
417.415283	0.998534
417.794834	0.997377
418.174324	0.997385
418.553753	0.997222
418.933121	0.997327
419.312428	0.996958
419.691674	0.997429
420.070859	0.997864
420.449983	0.997603
420.829045	0.997995
421.208047	0.997651
421.586988	0.998430
421.965867	0.997894
422.344686	0.998011
422.723444	0.997488
423.102141	0.997579
423.480777	0.997900
423.859352	0.996458
424.237866	0.997082
424.616319	0.996799
424.994712	0.997877
425.373044	0.998230
425.751314	0.997435
426.129524	0.996986
426.507673	0.997412
426.885762	0.998513
427.263789	0.997595
427.641756	0.997311
428.019662	0.997994
428.397508	0.997310
428.775292	0.996660
429.153016	0.997318
429.530679	0.996777
429.908282	0.998287
430.285824	0.996895
430.663305	0.997592
431.040726	0.996796
431.418086	0.998690
431.795385	0.997953
432.172624	0.996769
432.549802	0.997846
432.926920	0.997975
433.303977	0.996728
433.680974	0.997605
434.057910	0.996899
434.434786	0.997805
434.811601	0.997220
435.188355	0.996755
435.565050	0.997492
435.941683	0.998203
436.318257	0.998580
436.694770	0.997661
437.071222	0.997043
437.447614	0.997763
437.823946	0.997881
438.200218	0.997382
438.576429	0.997015
438.952580	0.997770
439.328670	0.997197
439.704700	0.997233
440.080670	0.997833
440.456580	0.997004
440.832429	0.997254
441.208218	0.997453
441.583947	0.996985
441.959616	0.997780
442.335224	0.997499
442.710773	0.998077
443.086261	0.997037
443.461689	0.997192
443.837057	0.996668
444.212365	0.997283
444.587612	0.997018
444.962800	0.997379
445.337927	0.996553
445.712995	0.997570
446.088002	0.997966
446.462949	0.997541
446.837837	0.998610
447.212664	0.997999
447.587431	0.997984
447.962139	0.997153
448.336786	0.997805
448.711374	0.997218
449.085901	0.997159
449.460369	0.998063
449.834776	0.997033
450.209124	0.997855
450.583412	0.997852
450.957640	0.997394
451.331808	0.997015
451.705917	0.997205
452.079965	0.996527
452.453954	0.997316
452.827883	0.996053
453.201752	0.997552
453.575562	0.997373
453.949311	0.997257
454.323001	0.996451
454.696632	0.996731
455.070202	0.996818
455.443713	0.996594
455.817164	0.997242
456.190556	0.996531
456.563888	0.996505
456.937160	0.996552
457.310373	0.996143
457.683526	0.996217
458.056619	0.996463
458.429653	0.996534
458.802628	0.994901
459.175542	0.994530
459.548398	0.994809
459.921194	0.995130
460.293930	0.993914
460.666607	0.993554
461.039224	0.992618
461.411782	0.993554
461.784280	0.992330
462.156719	0.993258
462.529099	0.991149
462.901419	0.991910
463.273680	0.990486
463.645882	0.990013
464.018024	0.989972
464.390106	0.989059
464.762130	0.989068
465.134094	0.986767
465.505999	0.984900
465.877845	0.982333
466.249631	0.982357
466.621358	0.982242
466.993026	0.980876
467.364634	0.980516
467.736184	0.979655
468.107674	0.977721
468.479105	0.975876
468.850477	0.975791
469.221790	0.974256
469.593043	0.973408
469.964238	0.971448
470.335373	0.969668
470.706449	0.967700
471.077467	0.966890
471.448425	0.961507
471.819324	0.958293
472.190164	0.955700
472.560945	0.956140
472.931667	0.954111
473.302330	0.952532
473.672934	0.950462
474.043479	0.947136
474.413965	0.944284
474.784393	0.942071
475.154761	0.938449
475.525070	0.934370
475.895321	0.932485
476.265513	0.929151
476.635645	0.925053
477.005719	0.920980
477.375734	0.916546
477.745691	0.912384
478.115588	0.907625
478.485427	0.902940
478.855207	0.895996
479.224928	0.886536
479.594591	0.880985
479.964194	0.876916
480.333739	0.874405
480.703226	0.868772
481.072653	0.863832
481.442022	0.856041
481.811333	0.849402
482.180584	0.846237
482.549777	0.840297
482.918912	0.835938
483.287988	0.829383
483.657005	0.823535
484.025964	0.819513
484.394864	0.812625
484.763706	0.806406
485.132489	0.802732
485.501213	0.796094
485.869879	0.789905
486.238487	0.783279
486.607036	0.777499
486.975527	0.770060
487.343959	0.762863
487.712333	0.755139
488.080648	0.749457
488.448905	0.741196
488.817104	0.735710
489.185244	0.726199
489.553326	0.717590
489.921350	0.705417
490.289315	0.689155
490.657222	0.680837
491.025070	0.673448
491.392861	0.668249
491.760593	0.663928
492.128267	0.658999
492.495883	0.653854
492.863440	0.648688
493.230939	0.643405
493.598380	0.636419
493.965763	0.629219
494.333088	0.624517
494.700354	0.616141
495.067563	0.610188
495.434713	0.602921
495.801805	0.595325
496.168839	0.588997
496.535815	0.581127
496.902733	0.575466
497.269593	0.567745
497.636395	0.560159
498.003139	0.551777
498.369825	0.547510
498.736453	0.537886
499.103023	0.532331
499.469535	0.524403
499.835989	0.518194
500.202385	0.511830
500.568723	0.507743
500.935003	0.498886
501.301226	0.493024
501.667390	0.483805
502.033497	0.476268
502.399546	0.472499
502.765537	0.466867
503.131470	0.458960
503.497345	0.449688
503.863163	0.451251
504.228923	0.439445
504.594625	0.433202
504.960269	0.431477
505.325856	0.421742
505.691385	0.419340
506.056856	0.411524
506.422270	0.405495
506.787625	0.403132
507.152924	0.394641
507.518164	0.390487
507.883347	0.386228
508.248472	0.383121
508.613540	0.374401
508.978550	0.371569
509.343503	0.367430
509.708398	0.360503
510.073236	0.354550
510.438016	0.350031
510.802738	0.346473
511.167403	0.341529
511.532010	0.339355
511.896561	0.331916
512.261053	0.327107
512.625488	0.324817
512.989866	0.321389
513.354186	0.318223
513.718449	0.316164
514.082655	0.310007
514.446803	0.308774
514.810894	0.303357
515.174927	0.302541
515.538904	0.299397
515.902822	0.293748
516.266684	0.293148
516.630488	0.291683
516.994235	0.288015
517.357925	0.284077
517.721558	0.280515
518.085133	0.277420
518.448651	0.275710
518.812112	0.275202
519.175516	0.272706
519.538863	0.268483
519.902152	0.268488
520.265385	0.263154
520.628560	0.263395
520.991678	0.261850
521.354739	0.259347
521.717743	0.258714
522.080690	0.257837
522.443580	0.253393
522.806413	0.253159
523.169189	0.251391
523.531908	0.249028
523.894569	0.251060
524.257174	0.250382
524.619722	0.246496
524.982213	0.247055
525.344647	0.244832
525.707025	0.244798
526.069345	0.242269
526.431608	0.242865
526.793815	0.239916
527.155964	0.243499
527.518057	0.241733
527.880093	0.242122
528.242072	0.239975
528.603995	0.241130
528.965860	0.242429
529.327669	0.240784
529.689421	0.241128
530.051117	0.241501
530.412755	0.238706
530.774337	0.240750
531.135862	0.240705
531.497331	0.239606
531.858743	0.242153
532.220098	0.238643
532.581396	0.240723
532.942638	0.241120
533.303824	0.241795
533.664953	0.241376
534.026025	0.242828
534.387040	0.240406
534.747999	0.240418
535.108902	0.239244
535.469748	0.243624
535.830537	0.241443
536.191270	0.241799
536.551947	0.241064
536.912567	0.240843
537.273131	0.242541
537.633638	0.242617
537.994089	0.242899
538.354483	0.243681
538.714821	0.240538
539.075103	0.240518
539.435328	0.240852
539.795497	0.244728
540.155609	0.240949
540.515665	0.239360
540.875665	0.244895
541.235609	0.243225
541.595496	0.243462
541.955328	0.239442
542.315102	0.242521
542.674821	0.243459
543.034483	0.243372
543.394090	0.243017
543.753640	0.244503
544.113134	0.239796
544.472571	0.242744
544.831953	0.239554
545.191278	0.243797
545.550548	0.243358
545.909761	0.239802
546.268918	0.240477
546.628019	0.238898
546.987064	0.241496
547.346053	0.243210
547.704986	0.240883
548.063863	0.241439
548.422684	0.241439
548.781449	0.243423
549.140158	0.241052
549.498811	0.243648
549.857408	0.246757
550.215949	0.241698
550.574434	0.244595
550.932864	0.242447
551.291237	0.241068
551.649555	0.242483
552.007817	0.242434
552.366022	0.243128
552.724173	0.243326
553.082267	0.243605
553.440305	0.240532
553.798288	0.244910
554.156215	0.241264
554.514086	0.242137
554.871902	0.245177
555.229661	0.244339
555.587365	0.244804
555.945014	0.247331
556.302606	0.244491
556.660143	0.246899
557.017625	0.243262
557.375050	0.245513
557.732421	0.242560
558.089735	0.244555
558.446994	0.244752
558.804197	0.243774
559.161345	0.243985
559.518437	0.247291
559.875474	0.244856
560.232455	0.244297
560.589381	0.245693
560.946251	0.245532
561.303065	0.243017
561.659825	0.244661
562.016528	0.246301
562.373177	0.248994
562.729770	0.246475
563.086307	0.248126
563.442789	0.246058
563.799216	0.248675
564.155587	0.247548
564.511904	0.248888
564.868164	0.248989
565.224370	0.248705
565.580520	0.250456
565.936615	0.250284
566.292654	0.253566
566.648638	0.250343
567.004567	0.251250
567.360441	0.251715
567.716260	0.253805
568.072023	0.251418
568.427732	0.252458
568.783385	0.254552
569.138982	0.252850
569.494525	0.252702
569.850013	0.255058
570.205445	0.253741
570.560823	0.256531
570.916145	0.258513
571.271412	0.256424
571.626625	0.258083
571.981782	0.258427
572.336884	0.259259
572.691931	0.259155
573.046923	0.259938
573.401860	0.261699
573.756743	0.263142
574.111570	0.261902
574.466342	0.262687
574.821059	0.261744
575.175722	0.264507
575.530330	0.263855
575.884882	0.264358
576.239380	0.266690
576.593823	0.266917
576.948211	0.266646
577.302544	0.269785
577.656823	0.269358
578.011047	0.269532
578.365216	0.270218
578.719330	0.272121
579.073389	0.271705
579.427394	0.272972
579.781344	0.273873
580.135239	0.275402
580.489080	0.275188
580.842866	0.278497
581.196597	0.277702
581.550273	0.276605
581.903895	0.277678
582.257463	0.275822
582.610975	0.279243
582.964434	0.278442
583.317837	0.281107
583.671186	0.281301
584.024481	0.281324
584.377721	0.283717
584.730906	0.284603
585.084037	0.283466
585.437113	0.285585
585.790135	0.284739
586.143103	0.288029
586.496016	0.288847
586.848874	0.286633
587.201679	0.287265
587.554428	0.290679
587.907124	0.289266
588.259765	0.289870
588.612352	0.290374
588.964884	0.294275
589.317362	0.294093
589.669786	0.293505
590.022155	0.292262
590.374470	0.291607
590.726731	0.293800
591.078937	0.298595
591.431090	0.294525
591.783188	0.298894
592.135232	0.299368
592.487222	0.299644
592.839157	0.297449
593.191038	0.299865
593.542866	0.301535
593.894639	0.305312
594.246358	0.303180
594.598022	0.302286
594.949633	0.306326
595.301190	0.307220
595.652692	0.306132
596.004141	0.302514
596.355535	0.310309
596.706876	0.310999
597.058162	0.313341
597.409395	0.310424
597.760573	0.308421
598.111698	0.311951
598.462768	0.312005
598.813785	0.313675
599.164748	0.314699
599.515657	0.315081
599.866511	0.318530
600.217312	0.313748
600.568060	0.319138
600.918753	0.315266
601.269392	0.316205
601.619978	0.319629
601.970510	0.317260
602.320988	0.317356
602.671412	0.315004
603.021783	0.317482
603.372100	0.319028
603.722363	0.318538
604.072572	0.319364
604.422728	0.319227
604.772830	0.321152
605.122878	0.320703
605.472872	0.321162
605.822813	0.319643
606.172701	0.322050
606.522534	0.320041
606.872314	0.319675
607.222041	0.320453
607.571714	0.318895
607.921333	0.320321
608.270899	0.319983
608.620411	0.316824
608.969870	0.320539
609.319276	0.320681
609.668627	0.320533
610.017926	0.319049
610.367171	0.317491
610.716362	0.318403
611.065500	0.318262
611.414585	0.317460
611.763616	0.317959
612.112594	0.318511
612.461518	0.317968
612.810389	0.315436
613.159207	0.318088
613.507971	0.319479
613.856682	0.315441
614.205340	0.317053
614.553945	0.313624
614.902496	0.317408
615.250994	0.315520
615.599439	0.316612
615.947830	0.315815
616.296169	0.316915
616.644454	0.316258
616.992686	0.316273
617.340864	0.314361
617.688990	0.317906
618.037063	0.314414
618.385082	0.316557
618.733048	0.313331
619.080961	0.315820
619.428821	0.314641
619.776628	0.314490
620.124382	0.316260
620.472083	0.316576
620.819731	0.315998
621.167326	0.319828
621.514868	0.319880
621.862357	0.323909
622.209793	0.323617
622.557176	0.325919
622.904506	0.326447
623.251783	0.329122
623.599007	0.331443
623.946179	0.331016
624.293297	0.333219
624.640363	0.336703
624.987376	0.337678
625.334336	0.340001
625.681243	0.342084
626.028097	0.343087
626.374899	0.343595
626.721647	0.343855
627.068343	0.347454
627.414987	0.348269
627.761577	0.350461
628.108115	0.348946
628.454600	0.353988
628.801032	0.351268
629.147412	0.353302
629.493739	0.353708
629.840014	0.356726
630.186236	0.354451
630.532405	0.359818
630.878521	0.357307
631.224585	0.359535
631.570597	0.362840
631.916556	0.361472
632.262462	0.361815
632.608316	0.363469
632.954117	0.364408
633.299866	0.365583
633.645562	0.365466
633.991206	0.369819
634.336797	0.372908
634.682336	0.375311
635.027823	0.376795
635.373257	0.377179
635.718639	0.380812
636.063968	0.380211
636.409245	0.386180
636.754470	0.386249
637.099642	0.389044
637.444762	0.392304
637.789829	0.391085
638.134845	0.394768
638.479808	0.395726
638.824719	0.395137
639.169577	0.399316
639.514383	0.398148
639.859137	0.402746
640.203839	0.402191
640.548489	0.402749
640.893086	0.404650
641.237632	0.405910
641.582125	0.403845
641.926566	0.406401
642.270955	0.405779
642.615292	0.406870
642.959576	0.405445
643.303809	0.406050
643.647990	0.405586
643.992118	0.406003
644.336195	0.409411
644.680219	0.407911
645.024192	0.408413
645.368112	0.402151
645.711981	0.401421
646.055797	0.396560
646.399562	0.399139
646.743274	0.391163
647.086935	0.388391
647.430544	0.388604
647.774101	0.387658
648.117606	0.387199
648.461059	0.387493
648.804460	0.390367
649.147810	0.395566
649.491108	0.397142
649.834354	0.398914
650.177548	0.403677
650.520690	0.409117
650.863781	0.410729
651.206820	0.409965
651.549807	0.414136
651.892742	0.418413
652.235626	0.417511
652.578458	0.418968
652.921238	0.425128
653.263967	0.422613
653.606644	0.426517
653.949269	0.426741
654.291843	0.430461
654.634365	0.427007
654.976836	0.429866
655.319255	0.430238
655.661622	0.431898
656.003938	0.432262
656.346203	0.435188
656.688416	0.432694
657.030577	0.436043
657.372687	0.438172
657.714746	0.439000
658.056753	0.435956
658.398708	0.439139
658.740612	0.441073
659.082465	0.437188
659.424266	0.437717
659.766016	0.437290
660.107715	0.439516
660.449362	0.438685
660.790958	0.439583
661.132503	0.439665
661.473996	0.437735
661.815438	0.438085
662.156829	0.438574
662.498168	0.439262
662.839456	0.441261
663.180693	0.438803
663.521879	0.439019
663.863013	0.439768
664.204097	0.437965
664.545129	0.435026
664.886110	0.435299
665.227040	0.432381
665.567918	0.435344
665.908746	0.433062
666.249522	0.432520
666.590248	0.434074
666.930922	0.432032
667.271545	0.430653
667.612118	0.431395
667.952639	0.432604
668.293109	0.430971
668.633528	0.434256
668.973896	0.433642
669.314213	0.433960
669.654480	0.436024
669.994695	0.436471
670.334859	0.436843
670.674973	0.437535
671.015035	0.437404
671.355047	0.437317
671.695008	0.438311
672.034918	0.440533
672.374777	0.439512
672.714585	0.440603
673.054342	0.440129
673.394049	0.440671
673.733705	0.438635
674.073310	0.439410
674.412864	0.443005
674.752368	0.443173
675.091820	0.443332
675.431223	0.447819
675.770574	0.447623
676.109875	0.450516
676.449125	0.450713
676.788324	0.452707
677.127473	0.458471
677.466571	0.457699
677.805619	0.460217
678.144616	0.460918
678.483562	0.461831
678.822458	0.464942
679.161303	0.465410
679.500098	0.466345
679.838842	0.468366
680.177535	0.467424
680.516179	0.466181
680.854771	0.465240
681.193314	0.458571
681.531805	0.450357
681.870247	0.438121
682.208638	0.431270
682.546978	0.430311
682.885268	0.431807
683.223508	0.438281
683.561697	0.441506
683.899836	0.444291
684.237925	0.447553
684.575963	0.450469
684.913951	0.453593
685.251889	0.449134
685.589776	0.451098
685.927614	0.453536
686.265401	0.447856
686.603137	0.449643
686.940824	0.442856
687.278460	0.442055
687.616046	0.441126
687.953582	0.435703
688.291068	0.436934
688.628504	0.432768
688.965889	0.435190
689.303224	0.439246
689.640510	0.442435
689.977745	0.448928
690.314930	0.457215
690.652065	0.461415
690.989150	0.468819
691.326185	0.475380
691.663170	0.480452
692.000105	0.486793
692.336990	0.493722
692.673825	0.495910
693.010610	0.503686
693.347345	0.508618
693.684030	0.510196
694.020665	0.514831
694.357251	0.523921
694.693786	0.523223
695.030272	0.527976
695.366707	0.530594
695.703093	0.534279
696.039429	0.532217
696.375716	0.533662
696.711952	0.536015
697.048139	0.538854
697.384276	0.540597
697.720363	0.539013
698.056400	0.537838
698.392388	0.543307
698.728326	0.546573
699.064214	0.548953
699.400053	0.550288
699.735842	0.553741
700.071581	0.556102
700.407270	0.558284
700.742910	0.562140
701.078501	0.568819
701.414042	0.568274
701.749533	0.571535
702.084974	0.580749
702.420366	0.572397
702.755709	0.580782
703.091002	0.588363
703.426246	0.581332
703.761440	0.587554
704.096584	0.591925
704.431679	0.589131
704.766725	0.590979
705.101721	0.592467
705.436668	0.588848
705.771565	0.595781
706.106413	0.592493
706.441212	0.587643
706.775961	0.586521
707.110661	0.589825
707.445311	0.585770
707.779913	0.582618
708.114465	0.581215
708.448967	0.578471
708.783421	0.570580
709.117825	0.565025
709.452180	0.565226
709.786485	0.558408
710.120742	0.549284
710.454949	0.550762
710.789107	0.542860
711.123216	0.534415
711.457275	0.536062
711.791286	0.526544
712.125247	0.525634
712.459159	0.536498
712.793023	0.528923
713.126837	0.532837
713.460602	0.533540
713.794318	0.543241
714.127985	0.541827
714.461602	0.551712
714.795171	0.554533
715.128691	0.562418
715.462162	0.570770
715.795584	0.576103
716.128957	0.578426
716.462281	0.585099
716.795556	0.588971
717.128782	0.593601
717.461960	0.603138
717.795088	0.601042
718.128167	0.608225
718.461198	0.615827
718.794180	0.617195
719.127113	0.619972
719.459997	0.623418
719.792833	0.630151
720.125619	0.630818
720.458357	0.637065
720.791046	0.636585
721.123686	0.640143
721.456278	0.646792
721.788821	0.643401
722.121315	0.648151
722.453761	0.651148
722.786158	0.650176
723.118506	0.646699
723.450805	0.654491
723.783056	0.650024
724.115259	0.647361
724.447412	0.647176
724.779518	0.648490
725.111574	0.647241
725.443582	0.643667
725.775542	0.645454
726.107453	0.637739
726.439315	0.637247
726.771129	0.636439
727.102895	0.629827
727.434612	0.622223
727.766281	0.620863
728.097901	0.619337
728.429473	0.619181
728.760996	0.616918
729.092471	0.617669
729.423897	0.621207
729.755276	0.620801
730.086606	0.620507
730.417887	0.614776
730.749120	0.606277
731.080305	0.596759
731.411442	0.593336
731.742530	0.597554
732.073570	0.597355
732.404562	0.588866
732.735506	0.591009
733.066401	0.596152
733.397249	0.604838
733.728048	0.616643
734.058798	0.627896
734.389501	0.639283
734.720156	0.648510
735.050762	0.656846
735.381320	0.657775
735.711831	0.667412
736.042293	0.671699
736.372707	0.667340
736.703073	0.672671
737.033391	0.674997
737.363661	0.671307
737.693883	0.666412
738.024056	0.665012
738.354182	0.666643
738.684260	0.655405
739.014290	0.651605
739.344272	0.651671
739.674207	0.645809
740.004093	0.645389
740.333931	0.646099
740.663722	0.645268
740.993464	0.646426
741.323159	0.649483
741.652806	0.654806
741.982405	0.659428
742.311956	0.664295
742.641460	0.666430
742.970915	0.670003
743.300323	0.677844
743.629683	0.683688
743.958996	0.685495
744.288260	0.690376
744.617477	0.695964
744.946647	0.697286
745.275768	0.702886
745.604842	0.702651
745.933869	0.713016
746.262847	0.713323
746.591778	0.706892
746.920662	0.712832
747.249498	0.719538
747.578286	0.710403
747.907027	0.706495
748.235720	0.707476
748.564365	0.703020
748.892963	0.701948
749.221514	0.705908
749.550017	0.710317
749.878473	0.709905
750.206881	0.716272
750.535242	0.718235
750.863555	0.717412
751.191821	0.718698
751.520039	0.722118
751.848210	0.727034
752.176334	0.718439
752.504411	0.719348
752.832440	0.726650
753.160421	0.729726
753.488356	0.728601
753.816243	0.725931
754.144082	0.734266
754.471875	0.737920
754.799620	0.733252
755.127318	0.734237
755.454969	0.734573
755.782572	0.733503
756.110129	0.738649
756.437638	0.741268
756.765100	0.737968
757.092515	0.735871
757.419882	0.734866
757.747203	0.739931
758.074477	0.739891
758.401703	0.736774
758.728882	0.731752
759.056014	0.730392
759.383099	0.729406
759.710138	0.731607
760.037129	0.727218
760.364073	0.720917
760.690970	0.723753
761.017820	0.729430
761.344623	0.724932
761.671379	0.715922
761.998088	0.704455
762.324751	0.681545
762.651366	0.640908
762.977935	0.574648
763.304456	0.522942
763.630931	0.512841
763.957359	0.552472
764.283740	0.596118
764.610074	0.623795
764.936362	0.653873
765.262602	0.680450
765.588796	0.701649
765.914943	0.719973
766.241044	0.736493
766.567097	0.743563
766.893104	0.753626
767.219064	0.759576
767.544978	0.765699
767.870845	0.779066
768.196665	0.782970
768.522438	0.780683
768.848165	0.782639
769.173846	0.790714
769.499479	0.795753
769.825066	0.798893
770.150607	0.804949
770.476101	0.799700
770.801548	0.799803
771.126949	0.811674
771.452303	0.815721
771.777611	0.814186
772.102872	0.814493
772.428087	0.818839
772.753256	0.822292
773.078378	0.823898
773.403453	0.833283
773.728482	0.837145
774.053465	0.830893
774.378401	0.834452
774.703291	0.843291
775.028135	0.842736
775.352932	0.844361
775.677683	0.847818
776.002388	0.848932
776.327046	0.846432
776.651658	0.850900
776.976224	0.853179
777.300743	0.854515
777.625216	0.857164
777.949643	0.857320
778.274024	0.858490
778.598359	0.859782
778.922647	0.857741
779.246889	0.859408
779.571086	0.863083
779.895236	0.865190
780.219339	0.862163
780.543397	0.858109
780.867409	0.857893
781.191374	0.860006
781.515294	0.860756
781.839167	0.859837
782.162995	0.863106
782.486776	0.860408
782.810511	0.861919
783.134201	0.865605
783.457844	0.862155
783.781441	0.864857
784.104993	0.872582
784.428498	0.871578
784.751958	0.867977
785.075372	0.870513
785.398739	0.874130
785.722061	0.869676
786.045337	0.866460
786.368568	0.871110
786.691752	0.873500
787.014891	0.859177
787.337983	0.850088
787.661030	0.842019
787.984031	0.824902
788.306987	0.812044
788.629897	0.814599
788.952760	0.818349
789.275579	0.823211
789.598351	0.838398
789.921078	0.850782
790.243759	0.852058
790.566395	0.858361
790.888984	0.864772
791.211529	0.869450
791.534027	0.872535
791.856480	0.874974
792.178888	0.880452
792.501249	0.883026
792.823566	0.883836
793.145836	0.883443
793.468062	0.886356
793.790241	0.884971
794.112375	0.883994
794.434464	0.878939
794.756507	0.879839
795.078505	0.878631
795.400457	0.873575
795.722364	0.861891
796.044226	0.855278
796.366042	0.853678
796.687812	0.856013
797.009538	0.852707
797.331218	0.855132
797.652852	0.861517
797.974442	0.865313
798.295986	0.865059
798.617484	0.867799
798.938938	0.872463
799.260346	0.876932
799.581709	0.878915
799.903026	0.881271
800.224299	0.881572
800.545526	0.885397
800.866708	0.890168
801.187845	0.893209
801.508936	0.891478
801.829983	0.891098
802.150984	0.894230
802.471940	0.899247
802.792851	0.897752
803.113717	0.898715
803.434538	0.897278
803.755314	0.899191
804.076045	0.902156
804.396731	0.900892
804.717372	0.900038
805.037967	0.903086
805.358518	0.900506
805.679024	0.898650
805.999485	0.897905
806.319901	0.897248
806.640272	0.899217
806.960598	0.897326
807.280879	0.894490
807.601115	0.892530
807.921306	0.896413
808.241453	0.896277
808.561554	0.895861
808.881611	0.894383
809.201623	0.897250
809.521590	0.896726
809.841513	0.898451
810.161390	0.897352
810.481223	0.898596
810.801011	0.902094
811.120755	0.904158
811.440453	0.902781
811.760107	0.901565
812.079716	0.901661
812.399281	0.904535
812.718801	0.907384
813.038276	0.908759
813.357707	0.908144
813.677093	0.905701
813.996434	0.907912
814.315731	0.910084
814.634983	0.910528
814.954191	0.907963
815.273354	0.906550
815.592473	0.901853
815.911547	0.902652
816.230577	0.899397
816.549562	0.897744
816.868502	0.898112
817.187399	0.893918
817.506250	0.889496
817.825058	0.891777
818.143821	0.888523
818.462539	0.882019
818.781213	0.875037
819.099843	0.864014
819.418429	0.847216
819.736970	0.832171
820.055466	0.812233
820.373919	0.786935
820.692327	0.754447
821.010691	0.720162
821.329011	0.644504
821.647286	0.530850
821.965517	0.417793
822.283704	0.375652
822.601847	0.377614
822.919945	0.413335
823.237999	0.445582
823.556010	0.491988
823.873976	0.547155
824.191897	0.597243
824.509775	0.638181
824.827609	0.683476
825.145398	0.705799
825.463144	0.708904
825.780845	0.691188
826.098502	0.673368
826.416116	0.628133
826.733685	0.584977
827.051210	0.576845
827.368692	0.591396
827.686129	0.627610
828.003522	0.680236
828.320872	0.726877
828.638177	0.770102
828.955439	0.803433
829.272656	0.823631
829.589830	0.840561
829.906960	0.856284
830.224046	0.868928
830.541088	0.878795
830.858086	0.882998
831.175041	0.889573
831.491952	0.889923
831.808819	0.884871
832.125642	0.878507
832.442421	0.864094
832.759157	0.842367
833.075849	0.797399
833.392497	0.733795
833.709101	0.694756
834.025662	0.703202
834.342179	0.734334
834.658653	0.772703
834.975083	0.808989
835.291469	0.834261
835.607811	0.857456
835.924110	0.871937
836.240366	0.888300
836.556578	0.903155
836.872746	0.909687
837.188871	0.915377
837.504952	0.920866
837.820990	0.924300
838.136984	0.928765
838.452935	0.931140
838.768842	0.933174
839.084706	0.925346
839.400526	0.900343
839.716303	0.861044
840.032037	0.838844
840.347727	0.843167
840.663373	0.860661
840.978977	0.881054
841.294537	0.903921
841.610054	0.919295
841.925527	0.926967
842.240957	0.933644
842.556344	0.940608
842.871687	0.946639
843.186987	0.950391
843.502244	0.950652
843.817458	0.952587
844.132629	0.955824
844.447756	0.960657
844.762840	0.960329
845.077881	0.961030
845.392879	0.960869
845.707833	0.962916
846.022745	0.965083
846.337613	0.965442
846.652438	0.967457
846.967221	0.964555
847.281960	0.965547
847.596656	0.967606
847.911309	0.967015
848.225919	0.967853
848.540485	0.968876
848.855009	0.969327
849.169490	0.969230
849.483928	0.968706
849.798323	0.969467
850.112675	0.971000
850.426984	0.969792
850.741251	0.970923
851.055474	0.971096
851.369654	0.968361
851.683792	0.969217
851.997887	0.970336
852.311938	0.971475
852.625947	0.970490
852.939914	0.968414
853.253837	0.971078
853.567718	0.971892
853.881555	0.970915
854.195350	0.969160
854.509103	0.969679
854.822812	0.970651
855.136479	0.970441
855.450103	0.970148
855.763685	0.969447
856.077224	0.968794
856.390720	0.971216
856.704173	0.970849
857.017584	0.969433
857.330953	0.968138
857.644278	0.968883
857.957561	0.970117
858.270802	0.968485
858.584000	0.969380
858.897155	0.967749
859.210268	0.968607
859.523339	0.968454
859.836367	0.971307
860.149352	0.971887
860.462295	0.969909
860.775195	0.970247
861.088054	0.968821
861.400869	0.969954
861.713642	0.971136
862.026373	0.970946
862.339062	0.971353
862.651708	0.968435
862.964312	0.968284
863.276873	0.969709
863.589392	0.969782
863.901869	0.966704
864.214303	0.966953
864.526696	0.964589
864.839045	0.964198
865.151353	0.962258
865.463619	0.963488
865.775842	0.963797
866.088023	0.962808
866.400162	0.962356
866.712258	0.963149
867.024313	0.963208
867.336325	0.964021
867.648296	0.964767
867.960224	0.963914
868.272110	0.962806
868.583954	0.964341
868.895755	0.965283
869.207515	0.962757
869.519233	0.959533
869.830909	0.962263
870.142542	0.963496
870.454134	0.962548
870.765684	0.961459
871.077191	0.959059
871.388657	0.959791
871.700081	0.958626
872.011463	0.959545
872.322803	0.958196
872.634101	0.957615
872.945357	0.955505
873.256571	0.953451
873.567744	0.954871
873.878874	0.954464
874.189963	0.952643
874.501010	0.951858
874.812015	0.950266
875.122979	0.952418
875.433900	0.954666
875.744780	0.954479
876.055618	0.952493
876.366415	0.950983
876.677169	0.952128
876.987882	0.953074
877.298554	0.951960
877.609183	0.948754
877.919771	0.945976
878.230317	0.944317
878.540822	0.941979
878.851285	0.935615
879.161707	0.929104
879.472087	0.918492
879.782425	0.901530
880.092722	0.868231
880.402977	0.817292
880.713191	0.758479
881.023363	0.700771
881.333494	0.668035
881.643583	0.639990
881.953631	0.639645
882.263637	0.668393
882.573602	0.707514
882.883526	0.733452
883.193408	0.755764
883.503248	0.776629
883.813048	0.803229
884.122806	0.832480
884.432522	0.856528
884.742197	0.874517
885.051831	0.885308
885.361424	0.893936
885.670975	0.905792
885.980485	0.915441
886.289954	0.921465
886.599382	0.926679
886.908768	0.930647
887.218113	0.936825
887.527417	0.940278
887.836680	0.944492
888.145901	0.945714
888.455082	0.947785
888.764221	0.951191
889.073319	0.954560
889.382376	0.953218
889.691392	0.953899
890.000366	0.955281
890.309300	0.956145
890.618193	0.953809
890.927044	0.953441
891.235855	0.952557
891.544625	0.952381
891.853353	0.954268
892.162041	0.951142
892.470687	0.944859
892.779293	0.940079
893.087858	0.936324
893.396381	0.929398
893.704864	0.915674
894.013306	0.892518
894.321707	0.865990
894.630068	0.853712
894.938387	0.848184
895.246665	0.849853
895.554903	0.861851
895.863100	0.873395
896.171256	0.890732
896.479371	0.908856
896.787446	0.921928
897.095480	0.926941
897.403473	0.930828
897.711425	0.934943
898.019336	0.942532
898.327207	0.946017
898.635038	0.946649
898.942827	0.947057
899.250576	0.949691
899.558284	0.953778
899.865952	0.955384
900.173579	0.955026
900.481165	0.956876
900.788711	0.961462
901.096216	0.962952
901.403681	0.962206
901.711105	0.963674
902.018489	0.965065
902.325832	0.964268
902.633135	0.962744
902.940397	0.957161
903.247619	0.946747
903.554800	0.920049
903.861941	0.882095
904.169041	0.849204
904.476101	0.831426
904.783121	0.832947
905.090100	0.847860
905.397039	0.870237
905.703938	0.890006
906.010796	0.909241
906.317614	0.925848
906.624391	0.935934
906.931129	0.945422
907.237826	0.954016
907.544483	0.960932
907.851099	0.963573
908.157675	0.970277
908.464211	0.971440
908.770707	0.973104
909.077163	0.973722
909.383578	0.974433
909.689954	0.975739
909.996289	0.976522
910.302584	0.977726
910.608839	0.981557
910.915054	0.978894
911.221229	0.978842
911.527363	0.977643
911.833458	0.977428
912.139513	0.977709
912.445527	0.975252
912.751502	0.975260
913.057436	0.973429
913.363331	0.970482
913.669186	0.966919
913.975000	0.962904
914.280775	0.957148
914.586510	0.951611
914.892205	0.937832
915.197859	0.917740
915.503475	0.891409
915.809050	0.871474
916.114585	0.866952
916.420081	0.865468
916.725536	0.861195
917.030952	0.869772
917.336328	0.881545
917.641665	0.896224
917.946961	0.911247
918.252218	0.922478
918.557435	0.931052
918.862612	0.938374
919.167750	0.944817
919.472848	0.949160
919.777906	0.954267
920.082925	0.960306
920.387904	0.963871
920.692843	0.965110
920.997743	0.966221
921.302603	0.968396
921.607423	0.970480
921.912204	0.971807
922.216946	0.973300
922.521647	0.974506
922.826310	0.975795
923.130932	0.977320
923.435516	0.979033
923.740059	0.980172
924.044564	0.979967
924.349028	0.980894
924.653454	0.983551
924.957840	0.985690
925.262186	0.984191
925.566493	0.985035
925.870761	0.985646
926.174989	0.987057
926.479178	0.988312
926.783328	0.988810
927.087438	0.988908
927.391509	0.988415
927.695541	0.990518
927.999533	0.989849
928.303486	0.990344
928.607400	0.992450
928.911275	0.989851
929.215110	0.990593
929.518906	0.991570
929.822663	0.991042
930.126381	0.991065
930.430060	0.990493
930.733699	0.990792
931.037299	0.989282
931.340861	0.990817
931.644383	0.990125
931.947866	0.989703
932.251309	0.991000
932.554714	0.990968
932.858080	0.990458
933.161407	0.989884
933.464694	0.991244
933.767943	0.989894
934.071153	0.990990
934.374323	0.991826
934.677455	0.991750
934.980548	0.992813
935.283602	0.989963
935.586617	0.991326
935.889593	0.991612
936.192530	0.991777
936.495428	0.991844
936.798287	0.991442
937.101108	0.990615
937.403890	0.989439
937.706632	0.988258
938.009336	0.986454
938.312002	0.986675
938.614628	0.985325
938.917216	0.984545
939.219765	0.981768
939.522275	0.984477
939.824747	0.983587
940.127179	0.983524
940.429573	0.986507
940.731929	0.985176
941.034246	0.985080
941.336524	0.986472
941.638763	0.986802
941.940964	0.987337
942.243126	0.986566
942.545250	0.987379
942.847335	0.988760
943.149381	0.988560
943.451389	0.987713
943.753359	0.987544
944.055290	0.990767
944.357182	0.989776
944.659036	0.989192
944.960851	0.990026
945.262628	0.991224
945.564367	0.990920
945.866067	0.991918
946.167729	0.990503
946.469352	0.989058
946.770937	0.989702
947.072484	0.991152
947.373992	0.989293
947.675462	0.990274
947.976893	0.990807
948.278286	0.990199
948.579641	0.991021
948.880958	0.989660
949.182236	0.990344
949.483476	0.991882
949.784678	0.990087
950.085841	0.991579
950.386967	0.990651
950.688054	0.990586
950.989103	0.991962
951.290114	0.989356
951.591087	0.990062
951.892021	0.989636
952.192917	0.988730
952.493776	0.989437
952.794596	0.988037
953.095378	0.988326
953.396122	0.988494
953.696828	0.987688
953.997496	0.991752
954.298126	0.989336
954.598718	0.991695
954.899272	0.991033
955.199788	0.990074
955.500266	0.991376
955.800706	0.993509
956.101108	0.993506
956.401472	0.994688
956.701798	0.994552
957.002087	0.994572
957.302337	0.993641
957.602550	0.995754
957.902724	0.994549
958.202861	0.995545
958.502960	0.995951
958.803022	0.993961
959.103045	0.996365
959.403031	0.995969
959.702979	0.995086
960.002889	0.995963
960.302762	0.994344
960.602596	0.996817
960.902393	0.994742
961.202153	0.996697
961.501875	0.997270
961.801559	0.996574
962.101205	0.994613
962.400814	0.996072
962.700385	0.997067
962.999918	0.995836
963.299414	0.997128
963.598873	0.995510
963.898293	0.996367
964.197677	0.995756
964.497022	0.996433
964.796331	0.997526
965.095601	0.995982
965.394835	0.996175
965.694030	0.997343
965.993189	0.997480
966.292309	0.996596
966.591393	0.997087
966.890439	0.997032
967.189447	0.996525
967.488419	0.996896
967.787353	0.996899
968.086249	0.996689
968.385108	0.997335
968.683930	0.996825
968.982714	0.997429
969.281462	0.996974
969.580172	0.996645
969.878844	0.995921
970.177480	0.997731
970.476078	0.996579
970.774639	0.996745
971.073162	0.997466
971.371649	0.996584
971.670098	0.995769
971.968510	0.998193
972.266885	0.994816
972.565223	0.996588
972.863524	0.995243
973.161788	0.996104
973.460014	0.997848
973.758204	0.994441
974.056356	0.995870
974.354471	0.995309
974.652550	0.995569
974.950591	0.996353
975.248595	0.995946
975.546563	0.997384
975.844493	0.998319
976.142386	0.996011
976.440243	0.997941
976.738062	0.996672
977.035845	0.998146
977.333590	0.995516
977.631299	0.997193
977.928971	0.996788
978.226606	0.995988
978.524204	0.995731
978.821765	0.997856
979.119290	0.997531
979.416777	0.995960
979.714228	0.997914
980.011642	0.996708
980.309020	0.996569
980.606360	0.997052
980.903664	0.998939
981.200931	0.996628
981.498162	0.995055
981.795356	0.994083
982.092513	0.994475
982.389633	0.994682
982.686717	0.991005
982.983764	0.992210
983.280775	0.990960
983.577749	0.990388
983.874686	0.991830
984.171587	0.992253
984.468451	0.994321
984.765279	0.995647
985.062070	0.994023
985.358824	0.995398
985.655543	0.994575
985.952224	0.996654
986.248869	0.996885
986.545478	0.996741
986.842050	0.998319
987.138586	0.995204
987.435086	0.996810
987.731549	0.998328
988.027975	0.998235
988.324366	0.998048
988.620719	0.997447
988.917037	0.996693
989.213318	0.998228
989.509563	0.997524
989.805772	0.997990
990.101944	0.998405
990.398080	0.997737
990.694180	0.997755
990.990244	0.997415
991.286271	0.997282
991.582262	0.997944
991.878217	0.997965
992.174136	0.998653
992.470019	0.998172
992.765865	0.997957
993.061676	0.998158
993.357450	0.997621
993.653188	0.997118
993.948890	0.997700
994.244556	0.998411
994.540186	0.996740
994.835780	0.996526
995.131337	0.996544
995.426859	0.996051
995.722345	0.996690
996.017795	0.995488
996.313208	0.996190
996.608586	0.996351
996.903928	0.995555
997.199234	0.995483
997.494504	0.997495
997.789738	0.996236
998.084936	0.994778
998.380099	0.997905
998.675225	0.997223
998.970316	0.997582
999.265371	0.997558
999.560390	0.998544
999.855373	0.998242
1000.150320	0.997880
1000.445232	0.998335
1000.740108	0.997158
1001.034948	0.999089
1001.329752	0.998604
1001.624521	0.997189
1001.919254	0.998669
1002.213951	0.997319
1002.508613	0.997445
1002.803239	0.998918
1003.097829	0.998149
1003.392384	0.997494
1003.686903	0.997350
1003.981386	0.998066
1004.275834	0.998989
1004.570246	0.998551
1004.864623	0.998328
1005.158964	0.999296
1005.453270	0.997182
1005.747540	0.997561
1006.041775	0.998720
1006.335974	0.998966
1006.630138	0.999032
1006.924266	0.998578
1007.218359	0.999422
1007.512416	0.999850
1007.806438	0.998221
1008.100425	0.998822
1008.394376	0.999538
1008.688292	0.997930
1008.982172	1.000820
1009.276017	0.998944
1009.569827	0.999403
1009.863602	0.998412
1010.157341	0.999005
1010.451045	0.998754
1010.744714	0.997585
1011.038347	0.997878
1011.331945	0.998631
1011.625508	0.998302
1011.919036	0.998009
1012.212528	0.999120
1012.505986	0.996752
1012.799408	0.998974
1013.092795	0.999385
1013.386147	0.998141
1013.679464	0.998710
1013.972745	0.998664
1014.265992	0.996890
1014.559204	0.998896
1014.852380	0.999261
1015.145521	0.998719
1015.438628	0.998919
1015.731699	0.998212
1016.024736	0.998174
1016.317737	0.998614
1016.610703	0.999087
1016.903635	1.000015
1017.196531	0.997866
1017.489393	0.999788
1017.782219	0.997868
1018.075011	0.997924
1018.367768	0.998732
1018.660490	0.999459
1018.953177	0.999459
1019.245829	0.999459
