Dividing Wavelength (nm)	Counts (n)	Blue Motor Position (mm): 0.000000	Red Motor Position (mm): 12.600000	
326.493990	1.000504
326.888308	1.000504
327.282561	1.000504
327.676750	0.999883
328.070874	0.999174
328.464933	1.000851
328.858929	0.999645
329.252859	0.998829
329.646726	0.999909
330.040528	0.999558
330.434265	0.999207
330.827938	0.999870
331.221547	1.000379
331.615091	1.000008
332.008571	0.999960
332.401986	0.999406
332.795338	0.998918
333.188625	0.998433
333.581847	1.000840
333.975006	0.999393
334.368100	0.999948
334.761129	1.000090
335.154095	1.001256
335.546996	0.996922
335.939833	0.992348
336.332606	0.992640
336.725315	0.994847
337.117960	0.994694
337.510540	0.992941
337.903056	0.994916
338.295508	0.993118
338.687896	0.993921
339.080220	0.994982
339.472480	0.993953
339.864676	0.993487
340.256807	0.994775
340.648875	0.994207
341.040879	0.994430
341.432818	0.993026
341.824694	0.993247
342.216506	0.994247
342.608253	0.993657
342.999937	0.992935
343.391557	0.993818
343.783113	0.994051
344.174605	0.993622
344.566033	0.993931
344.957397	0.993545
345.348697	0.992627
345.739934	0.993752
346.131106	0.992640
346.522215	0.993122
346.913260	0.993835
347.304241	0.993426
347.695159	0.992723
348.086012	0.992701
348.476802	0.992789
348.867528	0.994003
349.258191	0.993511
349.648789	0.994205
350.039324	0.992837
350.429796	0.994157
350.820203	0.993920
351.210548	0.992596
351.600828	0.992578
351.991045	0.993015
352.381198	0.991793
352.771288	0.993537
353.161314	0.991988
353.551276	0.994947
353.941175	0.993621
354.331010	0.993027
354.720782	0.993994
355.110490	0.992215
355.500135	0.993996
355.889717	0.992916
356.279235	0.993011
356.668689	0.993454
357.058080	0.993635
357.447408	0.994977
357.836672	0.994146
358.225873	0.994494
358.615010	0.993193
359.004084	0.993736
359.393095	0.993120
359.782043	0.993553
360.170927	0.993439
360.559748	0.994153
360.948505	0.992488
361.337199	0.992239
361.725830	0.993552
362.114398	0.992716
362.502903	0.994429
362.891344	0.994308
363.279722	0.992899
363.668037	0.993816
364.056289	0.993069
364.444478	0.993126
364.832603	0.993428
365.220665	0.993287
365.608665	0.993057
365.996601	0.993369
366.384474	0.993993
366.772284	0.993540
367.160031	0.991599
367.547715	0.991561
367.935336	0.993673
368.322893	0.991503
368.710388	0.991785
369.097820	0.992195
369.485189	0.993086
369.872495	0.992236
370.259738	0.991242
370.646918	0.992552
371.034035	0.992807
371.421090	0.993607
371.808081	0.991701
372.195010	0.993339
372.581875	0.992822
372.968678	0.992349
373.355418	0.992193
373.742096	0.990595
374.128710	0.993475
374.515262	0.991849
374.901751	0.992441
375.288177	0.992492
375.674540	0.993237
376.060841	0.992777
376.447079	0.992312
376.833254	0.993032
377.219367	0.992741
377.605417	0.991642
377.991404	0.992420
378.377329	0.991669
378.763191	0.993072
379.148991	0.992854
379.534727	0.993225
379.920402	0.992629
380.306013	0.992017
380.691563	0.992896
381.077049	0.992497
381.462474	0.992653
381.847835	0.991998
382.233134	0.992886
382.618371	0.992942
383.003545	0.991607
383.388657	0.992864
383.773706	0.993033
384.158693	0.991848
384.543618	0.992364
384.928480	0.992000
385.313280	0.991466
385.698017	0.992389
386.082692	0.990989
386.467305	0.990212
386.851856	0.988997
387.236344	0.986743
387.620770	0.985533
388.005133	0.984470
388.389435	0.983786
388.773674	0.980523
389.157851	0.977180
389.541965	0.974491
389.926018	0.970851
390.310008	0.968435
390.693936	0.962824
391.077802	0.957797
391.461606	0.953435
391.845348	0.947752
392.229027	0.943766
392.612645	0.937848
392.996200	0.930921
393.379694	0.922819
393.763125	0.914732
394.146494	0.909710
394.529801	0.900776
394.913047	0.890988
395.296230	0.886061
395.679351	0.876180
396.062410	0.867264
396.445408	0.860461
396.828343	0.850256
397.211217	0.841063
397.594028	0.838367
397.976778	0.824700
398.359466	0.814914
398.742092	0.804193
399.124656	0.801722
399.507158	0.787987
399.889598	0.777662
400.271977	0.765099
400.654294	0.758379
401.036549	0.748894
401.418742	0.744172
401.800874	0.726060
402.182944	0.716493
402.564952	0.702314
402.946898	0.697388
403.328783	0.689346
403.710606	0.690126
404.092367	0.664018
404.474067	0.660897
404.855705	0.653594
405.237282	0.655811
405.618797	0.637845
406.000250	0.627967
406.381642	0.614560
406.762972	0.612978
407.144240	0.606948
407.525447	0.602628
407.906593	0.591185
408.287677	0.582312
408.668700	0.585759
409.049661	0.575918
409.430560	0.568916
409.811399	0.573614
410.192176	0.552953
410.572891	0.556314
410.953545	0.542512
411.334138	0.552924
411.714669	0.543835
412.095139	0.552614
412.475547	0.536225
412.855894	0.536841
413.236180	0.534016
413.616405	0.537681
413.996568	0.527291
414.376670	0.532110
414.756711	0.535984
415.136691	0.531787
415.516609	0.522378
415.896466	0.518522
416.276262	0.513658
416.655997	0.515208
417.035670	0.496196
417.415283	0.487478
417.794834	0.492736
418.174324	0.497616
418.553753	0.506806
418.933121	0.488717
419.312428	0.481895
419.691674	0.487968
420.070859	0.476137
420.449983	0.483798
420.829045	0.473490
421.208047	0.482072
421.586988	0.475562
421.965867	0.474139
422.344686	0.463277
422.723444	0.475349
423.102141	0.492436
423.480777	0.465277
423.859352	0.485815
424.237866	0.462344
424.616319	0.463288
424.994712	0.454116
425.373044	0.464836
425.751314	0.452962
426.129524	0.469282
426.507673	0.453475
426.885762	0.447036
427.263789	0.452025
427.641756	0.461955
428.019662	0.451901
428.397508	0.450816
428.775292	0.455242
429.153016	0.447028
429.530679	0.453969
429.908282	0.446844
430.285824	0.456624
430.663305	0.435573
431.040726	0.456106
431.418086	0.456224
431.795385	0.447824
432.172624	0.446604
432.549802	0.447419
432.926920	0.446739
433.303977	0.445493
433.680974	0.443070
434.057910	0.440974
434.434786	0.441163
434.811601	0.443206
435.188355	0.425321
435.565050	0.434725
435.941683	0.436679
436.318257	0.420949
436.694770	0.421191
437.071222	0.419409
437.447614	0.423504
437.823946	0.430361
438.200218	0.419937
438.576429	0.429604
438.952580	0.422706
439.328670	0.419357
439.704700	0.425552
440.080670	0.426831
440.456580	0.407799
440.832429	0.416324
441.208218	0.427199
441.583947	0.415580
441.959616	0.416016
442.335224	0.420671
442.710773	0.411694
443.086261	0.409350
443.461689	0.423204
443.837057	0.413724
444.212365	0.403523
444.587612	0.410466
444.962800	0.400591
445.337927	0.401434
445.712995	0.427743
446.088002	0.390606
446.462949	0.400340
446.837837	0.405326
447.212664	0.393966
447.587431	0.386015
447.962139	0.356274
448.336786	0.316155
448.711374	0.325881
449.085901	0.370136
449.460369	0.374089
449.834776	0.377820
450.209124	0.357224
450.583412	0.349771
450.957640	0.343182
451.331808	0.354201
451.705917	0.377434
452.079965	0.381866
452.453954	0.369878
452.827883	0.377174
453.201752	0.371590
453.575562	0.383620
453.949311	0.371833
454.323001	0.378378
454.696632	0.373797
455.070202	0.366879
455.443713	0.358194
455.817164	0.352931
456.190556	0.348795
456.563888	0.345734
456.937160	0.343278
457.310373	0.360218
457.683526	0.359354
458.056619	0.365143
458.429653	0.365642
458.802628	0.368610
459.175542	0.363621
459.548398	0.346033
459.921194	0.338504
460.293930	0.338349
460.666607	0.316076
461.039224	0.304380
461.411782	0.300141
461.784280	0.299520
462.156719	0.303193
462.529099	0.307960
462.901419	0.323845
463.273680	0.328484
463.645882	0.328065
464.018024	0.333533
464.390106	0.326790
464.762130	0.311606
465.134094	0.294475
465.505999	0.263624
465.877845	0.234340
466.249631	0.221311
466.621358	0.228781
466.993026	0.242630
467.364634	0.248488
467.736184	0.257199
468.107674	0.265965
468.479105	0.265249
468.850477	0.272063
469.221790	0.278766
469.593043	0.288872
469.964238	0.293852
470.335373	0.292947
470.706449	0.291515
471.077467	0.292183
471.448425	0.254253
471.819324	0.229587
472.190164	0.229196
472.560945	0.258021
472.931667	0.279947
473.302330	0.284396
473.672934	0.296072
474.043479	0.284596
474.413965	0.286104
474.784393	0.289602
475.154761	0.284674
475.525070	0.281679
475.895321	0.287664
476.265513	0.281430
476.635645	0.277325
477.005719	0.276934
477.375734	0.273491
477.745691	0.267203
478.115588	0.263479
478.485427	0.256800
478.855207	0.243792
479.224928	0.226192
479.594591	0.214649
479.964194	0.217673
480.333739	0.218829
480.703226	0.220510
481.072653	0.218947
481.442022	0.214648
481.811333	0.211071
482.180584	0.214637
482.549777	0.219908
482.918912	0.223313
483.287988	0.222896
483.657005	0.222371
484.025964	0.229038
484.394864	0.226111
484.763706	0.227106
485.132489	0.231816
485.501213	0.232545
485.869879	0.231088
486.238487	0.234326
486.607036	0.232283
486.975527	0.236832
487.343959	0.232538
487.712333	0.231509
488.080648	0.232984
488.448905	0.232180
488.817104	0.233649
489.185244	0.228187
489.553326	0.225005
489.921350	0.215080
490.289315	0.197218
490.657222	0.192530
491.025070	0.193668
491.392861	0.195613
491.760593	0.201173
492.128267	0.207059
492.495883	0.212452
492.863440	0.218753
493.230939	0.225170
493.598380	0.226383
493.965763	0.228555
494.333088	0.230916
494.700354	0.231982
495.067563	0.231168
495.434713	0.234660
495.801805	0.232675
496.168839	0.233925
496.535815	0.235131
496.902733	0.235273
497.269593	0.236763
497.636395	0.234579
498.003139	0.234841
498.369825	0.238073
498.736453	0.234385
499.103023	0.235753
499.469535	0.235200
499.835989	0.235632
500.202385	0.236299
500.568723	0.239860
500.935003	0.234891
501.301226	0.238951
501.667390	0.233374
502.033497	0.231627
502.399546	0.234574
502.765537	0.236372
503.131470	0.234647
503.497345	0.231123
503.863163	0.239575
504.228923	0.232882
504.594625	0.231380
504.960269	0.236845
505.325856	0.232112
505.691385	0.236358
506.056856	0.233412
506.422270	0.232551
506.787625	0.235032
507.152924	0.232350
507.518164	0.232914
507.883347	0.234306
508.248472	0.236472
508.613540	0.231402
508.978550	0.233917
509.343503	0.234254
509.708398	0.231943
510.073236	0.229720
510.438016	0.229667
510.802738	0.230597
511.167403	0.229634
511.532010	0.231450
511.896561	0.227107
512.261053	0.225711
512.625488	0.227850
512.989866	0.228017
513.354186	0.228418
513.718449	0.230106
514.082655	0.226692
514.446803	0.228904
514.810894	0.226317
515.174927	0.229230
515.538904	0.228481
515.902822	0.225516
516.266684	0.227988
516.630488	0.229252
516.994235	0.227721
517.357925	0.226599
517.721558	0.224905
518.085133	0.224469
518.448651	0.224506
518.812112	0.226811
519.175516	0.226191
519.538863	0.224197
519.902152	0.225528
520.265385	0.222479
520.628560	0.224127
520.991678	0.224826
521.354739	0.223347
521.717743	0.224532
522.080690	0.225061
522.443580	0.222544
522.806413	0.223494
523.169189	0.222587
523.531908	0.221512
523.894569	0.225397
524.257174	0.225221
524.619722	0.222759
524.982213	0.223993
525.344647	0.222921
525.707025	0.223657
526.069345	0.221810
526.431608	0.223441
526.793815	0.221595
527.155964	0.225525
527.518057	0.224757
527.880093	0.225589
528.242072	0.224262
528.603995	0.226074
528.965860	0.227537
529.327669	0.226664
529.689421	0.227448
530.051117	0.228461
530.412755	0.226056
530.774337	0.228653
531.135862	0.228836
531.497331	0.228294
531.858743	0.230826
532.220098	0.227597
532.581396	0.230348
532.942638	0.230837
533.303824	0.231522
533.664953	0.231573
534.026025	0.233115
534.387040	0.231009
534.747999	0.231035
535.108902	0.229817
535.469748	0.234920
535.830537	0.232891
536.191270	0.233114
536.551947	0.232692
536.912567	0.232796
537.273131	0.234331
537.633638	0.234657
537.994089	0.235034
538.354483	0.236306
538.714821	0.233139
539.075103	0.232844
539.435328	0.233637
539.795497	0.237361
540.155609	0.234170
540.515665	0.232098
540.875665	0.237668
541.235609	0.236174
541.595496	0.236415
541.955328	0.232741
542.315102	0.235567
542.674821	0.236601
543.034483	0.236556
543.394090	0.236448
543.753640	0.238230
544.113134	0.233119
544.472571	0.236645
544.831953	0.233395
545.191278	0.237569
545.550548	0.237024
545.909761	0.233827
546.268918	0.234410
546.628019	0.232646
546.987064	0.235441
547.346053	0.237611
547.704986	0.235066
548.063863	0.235554
548.422684	0.235777
548.781449	0.237309
549.140158	0.234926
549.498811	0.237917
549.857408	0.240933
550.215949	0.235936
550.574434	0.238838
550.932864	0.237091
551.291237	0.235508
551.649555	0.236930
552.007817	0.236619
552.366022	0.237436
552.724173	0.237673
553.082267	0.238470
553.440305	0.234781
553.798288	0.239262
554.156215	0.235824
554.514086	0.236230
554.871902	0.239938
555.229661	0.238956
555.587365	0.239487
555.945014	0.241828
556.302606	0.238824
556.660143	0.241464
557.017625	0.237810
557.375050	0.240105
557.732421	0.237293
558.089735	0.239232
558.446994	0.239325
558.804197	0.238590
559.161345	0.238481
559.518437	0.241986
559.875474	0.239511
560.232455	0.238944
560.589381	0.240442
560.946251	0.240437
561.303065	0.237853
561.659825	0.239372
562.016528	0.240816
562.373177	0.243714
562.729770	0.241098
563.086307	0.243233
563.442789	0.240755
563.799216	0.243755
564.155587	0.242081
564.511904	0.243492
564.868164	0.243743
565.224370	0.243424
565.580520	0.245283
565.936615	0.245234
566.292654	0.248155
566.648638	0.245316
567.004567	0.246058
567.360441	0.246605
567.716260	0.248462
568.072023	0.246356
568.427732	0.246948
568.783385	0.249572
569.138982	0.247297
569.494525	0.247228
569.850013	0.250098
570.205445	0.248713
570.560823	0.251203
570.916145	0.253210
571.271412	0.251438
571.626625	0.252787
571.981782	0.253270
572.336884	0.254181
572.691931	0.253997
573.046923	0.254971
573.401860	0.256050
573.756743	0.258253
574.111570	0.257029
574.466342	0.257392
574.821059	0.256626
575.175722	0.259497
575.530330	0.259089
575.884882	0.259612
576.239380	0.261320
576.593823	0.261871
576.948211	0.261260
577.302544	0.264893
577.656823	0.264327
578.011047	0.264339
578.365216	0.264953
578.719330	0.266905
579.073389	0.267101
579.427394	0.268391
579.781344	0.269184
580.135239	0.270339
580.489080	0.269966
580.842866	0.272904
581.196597	0.272619
581.550273	0.271715
581.903895	0.272219
582.257463	0.270516
582.610975	0.274044
582.964434	0.273417
583.317837	0.275705
583.671186	0.276331
584.024481	0.276342
584.377721	0.279031
584.730906	0.279664
585.084037	0.278608
585.437113	0.280406
585.790135	0.279897
586.143103	0.282669
586.496016	0.284317
586.848874	0.281332
587.201679	0.282146
587.554428	0.285762
587.907124	0.284419
588.259765	0.284871
588.612352	0.285297
588.964884	0.289296
589.317362	0.288667
589.669786	0.288682
590.022155	0.287280
590.374470	0.286743
590.726731	0.288523
591.078937	0.292970
591.431090	0.289841
591.783188	0.293682
592.135232	0.294545
592.487222	0.294460
592.839157	0.292604
593.191038	0.294722
593.542866	0.296962
593.894639	0.300470
594.246358	0.298113
594.598022	0.297881
594.949633	0.301442
595.301190	0.302321
595.652692	0.301530
596.004141	0.297561
596.355535	0.305643
596.706876	0.306165
597.058162	0.308414
597.409395	0.305644
597.760573	0.303515
598.111698	0.306659
598.462768	0.306920
598.813785	0.308485
599.164748	0.309626
599.515657	0.310135
599.866511	0.313396
600.217312	0.308525
600.568060	0.314402
600.918753	0.310553
601.269392	0.311041
601.619978	0.314467
601.970510	0.311954
602.320988	0.312613
602.671412	0.310226
603.021783	0.312508
603.372100	0.313576
603.722363	0.313832
604.072572	0.314496
604.422728	0.313836
604.772830	0.316103
605.122878	0.315851
605.472872	0.316318
605.822813	0.314638
606.172701	0.317494
606.522534	0.314889
606.872314	0.314945
607.222041	0.315553
607.571714	0.313927
607.921333	0.315353
608.270899	0.314961
608.620411	0.311691
608.969870	0.315320
609.319276	0.316157
609.668627	0.315657
610.017926	0.314171
610.367171	0.312578
610.716362	0.313408
611.065500	0.313675
611.414585	0.312534
611.763616	0.312749
612.112594	0.313353
612.461518	0.312817
612.810389	0.310404
613.159207	0.312601
613.507971	0.314729
613.856682	0.310491
614.205340	0.312122
614.553945	0.308679
614.902496	0.312723
615.250994	0.310902
615.599439	0.311866
615.947830	0.310931
616.296169	0.312051
616.644454	0.311280
616.992686	0.311331
617.340864	0.309145
617.688990	0.312903
618.037063	0.309468
618.385082	0.311378
618.733048	0.307994
619.080961	0.310167
619.428821	0.310062
619.776628	0.309865
620.124382	0.311443
620.472083	0.311874
620.819731	0.311213
621.167326	0.315334
621.514868	0.314524
621.862357	0.319179
622.209793	0.318558
622.557176	0.320688
622.904506	0.322049
623.251783	0.324606
623.599007	0.326469
623.946179	0.326266
624.293297	0.328249
624.640363	0.331697
624.987376	0.332314
625.334336	0.335143
625.681243	0.337282
626.028097	0.337729
626.374899	0.338702
626.721647	0.339524
627.068343	0.342500
627.414987	0.343475
627.761577	0.345927
628.108115	0.343684
628.454600	0.348977
628.801032	0.346610
629.147412	0.348595
629.493739	0.348608
629.840014	0.352129
630.186236	0.349486
630.532405	0.355044
630.878521	0.352080
631.224585	0.354611
631.570597	0.358151
631.916556	0.356464
632.262462	0.357010
632.608316	0.358592
632.954117	0.359419
633.299866	0.360175
633.645562	0.360735
633.991206	0.365397
634.336797	0.368023
634.682336	0.370421
635.027823	0.372561
635.373257	0.372796
635.718639	0.376020
636.063968	0.375304
636.409245	0.381517
636.754470	0.381867
637.099642	0.384292
637.444762	0.387279
637.789829	0.386604
638.134845	0.389973
638.479808	0.390677
638.824719	0.390805
639.169577	0.394809
639.514383	0.393810
639.859137	0.397984
640.203839	0.397472
640.548489	0.398395
640.893086	0.399667
641.237632	0.401396
641.582125	0.399254
641.926566	0.401359
642.270955	0.401226
642.615292	0.401826
642.959576	0.401015
643.303809	0.401038
643.647990	0.400913
643.992118	0.401765
644.336195	0.405213
644.680219	0.403537
645.024192	0.404220
645.368112	0.397427
645.711981	0.396629
646.055797	0.391744
646.399562	0.394250
646.743274	0.386936
647.086935	0.384053
647.430544	0.383856
647.774101	0.383055
648.117606	0.382560
648.461059	0.383024
648.804460	0.385407
649.147810	0.390393
649.491108	0.392363
649.834354	0.393940
650.177548	0.399259
650.520690	0.404499
650.863781	0.405757
651.206820	0.404498
651.549807	0.409694
651.892742	0.413555
652.235626	0.413484
652.578458	0.414205
652.921238	0.420069
653.263967	0.418258
653.606644	0.422128
653.949269	0.421834
654.291843	0.425519
654.634365	0.422439
654.976836	0.425796
655.319255	0.425633
655.661622	0.427396
656.003938	0.427860
656.346203	0.430513
656.688416	0.428497
657.030577	0.431588
657.372687	0.433413
657.714746	0.434460
658.056753	0.431570
658.398708	0.435420
658.740612	0.436418
659.082465	0.432065
659.424266	0.433532
659.766016	0.432013
660.107715	0.435432
660.449362	0.433998
660.790958	0.434868
661.132503	0.435254
661.473996	0.432997
661.815438	0.434038
662.156829	0.433896
662.498168	0.434476
662.839456	0.436149
663.180693	0.433939
663.521879	0.433570
663.863013	0.434853
664.204097	0.433137
664.545129	0.430138
664.886110	0.430462
665.227040	0.427836
665.567918	0.430631
665.908746	0.428341
666.249522	0.427676
666.590248	0.429412
666.930922	0.427581
667.271545	0.426077
667.612118	0.426224
667.952639	0.427852
668.293109	0.426268
668.633528	0.429610
668.973896	0.429060
669.314213	0.430200
669.654480	0.431636
669.994695	0.431718
670.334859	0.432605
670.674973	0.432825
671.015035	0.433169
671.355047	0.432398
671.695008	0.434543
672.034918	0.435525
672.374777	0.434932
672.714585	0.436012
673.054342	0.435922
673.394049	0.436130
673.733705	0.433710
674.073310	0.434996
674.412864	0.437820
674.752368	0.438796
675.091820	0.438707
675.431223	0.443288
675.770574	0.443338
676.109875	0.446161
676.449125	0.446260
676.788324	0.448281
677.127473	0.453626
677.466571	0.453368
677.805619	0.455332
678.144616	0.456145
678.483562	0.457803
678.822458	0.460767
679.161303	0.461528
679.500098	0.461909
679.838842	0.463368
680.177535	0.463423
680.516179	0.462134
680.854771	0.461089
681.193314	0.454260
681.531805	0.445544
681.870247	0.434389
682.208638	0.426603
682.546978	0.425553
682.885268	0.426677
683.223508	0.433830
683.561697	0.437127
683.899836	0.439815
684.237925	0.442972
684.575963	0.445625
684.913951	0.449072
685.251889	0.444748
685.589776	0.446442
685.927614	0.449370
686.265401	0.443318
686.603137	0.444376
686.940824	0.438765
687.278460	0.436850
687.616046	0.436272
687.953582	0.430979
688.291068	0.432833
688.628504	0.428830
688.965889	0.430776
689.303224	0.434072
689.640510	0.438471
689.977745	0.444101
690.314930	0.452315
690.652065	0.456988
690.989150	0.464240
691.326185	0.470427
691.663170	0.475110
692.000105	0.482600
692.336990	0.489255
692.673825	0.492485
693.010610	0.498675
693.347345	0.503888
693.684030	0.506298
694.020665	0.510693
694.357251	0.520298
694.693786	0.518798
695.030272	0.523823
695.366707	0.526627
695.703093	0.530216
696.039429	0.527679
696.375716	0.529792
696.711952	0.532533
697.048139	0.533923
697.384276	0.536290
697.720363	0.534564
698.056400	0.533794
698.392388	0.539035
698.728326	0.542193
699.064214	0.545138
699.400053	0.545736
699.735842	0.549363
700.071581	0.551922
700.407270	0.554941
700.742910	0.557504
701.078501	0.563968
701.414042	0.564422
701.749533	0.568056
702.084974	0.576645
702.420366	0.568935
702.755709	0.576285
703.091002	0.584197
703.426246	0.577939
703.761440	0.582774
704.096584	0.588089
704.431679	0.585659
704.766725	0.587051
705.101721	0.588810
705.436668	0.585254
705.771565	0.593113
706.106413	0.588111
706.441212	0.584128
706.775961	0.582410
707.110661	0.585656
707.445311	0.581814
707.779913	0.579595
708.114465	0.577470
708.448967	0.574191
708.783421	0.566108
709.117825	0.560870
709.452180	0.560830
709.786485	0.555077
710.120742	0.544757
710.454949	0.546545
710.789107	0.538444
711.123216	0.529242
711.457275	0.531808
711.791286	0.522403
712.125247	0.520985
712.459159	0.531237
712.793023	0.524474
713.126837	0.529160
713.460602	0.528951
713.794318	0.538310
714.127985	0.537067
714.461602	0.547625
714.795171	0.550790
715.128691	0.558503
715.462162	0.565959
715.795584	0.571126
716.128957	0.574688
716.462281	0.580965
716.795556	0.583932
717.128782	0.589672
717.461960	0.598749
717.795088	0.597513
718.128167	0.604262
718.461198	0.612845
718.794180	0.612701
719.127113	0.615567
719.459997	0.619269
719.792833	0.625492
720.125619	0.626881
720.458357	0.633415
720.791046	0.632622
721.123686	0.636190
721.456278	0.642558
721.788821	0.639876
722.121315	0.643922
722.453761	0.648795
722.786158	0.646428
723.118506	0.642821
723.450805	0.650717
723.783056	0.646943
724.115259	0.643807
724.447412	0.644225
724.779518	0.644680
725.111574	0.643647
725.443582	0.639093
725.775542	0.641136
726.107453	0.633704
726.439315	0.634178
726.771129	0.631800
727.102895	0.625830
727.434612	0.618080
727.766281	0.615959
728.097901	0.615901
728.429473	0.615492
728.760996	0.613188
729.092471	0.613269
729.423897	0.617384
729.755276	0.616195
730.086606	0.616805
730.417887	0.610895
730.749120	0.602084
731.080305	0.592762
731.411442	0.589293
731.742530	0.593502
732.073570	0.592642
732.404562	0.585760
732.735506	0.586672
733.066401	0.591133
733.397249	0.600565
733.728048	0.611593
734.058798	0.625159
734.389501	0.634517
734.720156	0.643988
735.050762	0.653286
735.381320	0.654345
735.711831	0.662533
736.042293	0.667927
736.372707	0.664086
736.703073	0.668134
737.033391	0.670896
737.363661	0.666951
737.693883	0.662902
738.024056	0.661619
738.354182	0.662272
738.684260	0.651643
739.014290	0.648046
739.344272	0.647763
739.674207	0.642417
740.004093	0.640846
740.333931	0.641471
740.663722	0.641671
740.993464	0.641790
741.323159	0.645993
741.652806	0.650526
741.982405	0.655619
742.311956	0.660214
742.641460	0.662604
742.970915	0.665599
743.300323	0.673055
743.629683	0.680338
743.958996	0.681957
744.288260	0.686024
744.617477	0.692481
744.946647	0.693957
745.275768	0.699944
745.604842	0.699259
745.933869	0.708684
746.262847	0.710273
746.591778	0.703777
746.920662	0.709271
747.249498	0.716110
747.578286	0.707012
747.907027	0.702439
748.235720	0.703540
748.564365	0.698794
748.892963	0.698674
749.221514	0.701726
749.550017	0.707024
749.878473	0.705857
750.206881	0.713105
750.535242	0.714271
750.863555	0.714481
751.191821	0.715079
751.520039	0.718132
751.848210	0.723838
752.176334	0.715475
752.504411	0.714986
752.832440	0.722352
753.160421	0.726903
753.488356	0.724595
753.816243	0.722304
754.144082	0.730682
754.471875	0.734538
754.799620	0.729135
755.127318	0.730835
755.454969	0.731289
755.782572	0.730726
756.110129	0.735526
756.437638	0.737721
756.765100	0.734152
757.092515	0.733006
757.419882	0.731997
757.747203	0.736067
758.074477	0.736044
758.401703	0.733447
758.728882	0.728870
759.056014	0.726749
759.383099	0.725676
759.710138	0.727041
760.037129	0.724118
760.364073	0.718027
760.690970	0.719921
761.017820	0.725406
761.344623	0.721837
761.671379	0.712136
761.998088	0.699809
762.324751	0.677793
762.651366	0.636006
762.977935	0.568932
763.304456	0.516330
763.630931	0.506718
763.957359	0.545605
764.283740	0.591357
764.610074	0.618208
764.936362	0.649501
765.262602	0.675570
765.588796	0.697619
765.914943	0.715411
766.241044	0.733644
766.567097	0.739649
766.893104	0.749334
767.219064	0.757004
767.544978	0.762721
767.870845	0.776357
768.196665	0.780012
768.522438	0.778250
768.848165	0.779793
769.173846	0.787995
769.499479	0.792716
769.825066	0.796117
770.150607	0.801440
770.476101	0.796046
770.801548	0.798213
771.126949	0.809144
771.452303	0.812344
771.777611	0.812799
772.102872	0.811727
772.428087	0.816056
772.753256	0.820289
773.078378	0.821055
773.403453	0.830441
773.728482	0.834193
774.053465	0.829745
774.378401	0.832012
774.703291	0.839756
775.028135	0.840401
775.352932	0.841906
775.677683	0.845766
776.002388	0.845867
776.327046	0.844608
776.651658	0.847713
776.976224	0.852423
777.300743	0.852283
777.625216	0.854044
777.949643	0.855110
778.274024	0.856201
778.598359	0.856097
778.922647	0.855887
779.246889	0.856118
779.571086	0.860385
779.895236	0.864172
780.219339	0.859975
780.543397	0.857610
780.867409	0.856449
781.191374	0.857745
781.515294	0.857802
781.839167	0.858018
782.162995	0.860940
782.486776	0.857891
782.810511	0.858165
783.134201	0.862735
783.457844	0.860753
783.781441	0.863134
784.104993	0.868899
784.428498	0.869120
784.751958	0.865171
785.075372	0.867135
785.398739	0.870761
785.722061	0.867522
786.045337	0.863889
786.368568	0.867672
786.691752	0.871281
787.014891	0.855561
787.337983	0.846915
787.661030	0.839374
787.984031	0.821812
788.306987	0.810033
788.629897	0.811309
788.952760	0.815678
789.275579	0.819110
789.598351	0.835412
789.921078	0.847680
790.243759	0.850948
790.566395	0.855222
790.888984	0.862001
791.211529	0.866684
791.534027	0.869422
791.856480	0.872736
792.178888	0.877565
792.501249	0.880089
792.823566	0.882040
793.145836	0.881813
793.468062	0.883158
793.790241	0.883768
794.112375	0.882025
794.434464	0.875986
794.756507	0.876692
795.078505	0.876284
795.400457	0.870686
795.722364	0.858224
796.044226	0.851367
796.366042	0.850604
796.687812	0.854369
797.009538	0.850174
797.331218	0.853119
797.652852	0.858538
797.974442	0.863203
798.295986	0.863023
798.617484	0.864659
798.938938	0.870245
799.260346	0.875165
799.581709	0.877247
799.903026	0.879258
800.224299	0.879622
800.545526	0.882670
800.866708	0.888023
801.187845	0.891041
801.508936	0.890168
801.829983	0.889852
802.150984	0.892397
802.471940	0.895907
802.792851	0.896197
803.113717	0.896503
803.434538	0.894351
803.755314	0.897503
804.076045	0.898860
804.396731	0.897821
804.717372	0.898175
805.037967	0.900380
805.358518	0.898342
805.679024	0.895325
805.999485	0.895540
806.319901	0.896363
806.640272	0.896177
806.960598	0.895959
807.280879	0.892831
807.601115	0.891616
807.921306	0.894495
808.241453	0.894076
808.561554	0.894214
808.881611	0.892369
809.201623	0.895234
809.521590	0.895559
809.841513	0.896186
810.161390	0.894925
810.481223	0.895428
810.801011	0.900743
811.120755	0.901910
811.440453	0.901438
811.760107	0.899427
812.079716	0.899028
812.399281	0.901650
812.718801	0.905939
813.038276	0.906326
813.357707	0.905064
813.677093	0.902500
813.996434	0.905392
814.315731	0.906845
814.634983	0.908286
814.954191	0.906953
815.273354	0.903847
815.592473	0.900062
815.911547	0.900359
816.230577	0.897394
816.549562	0.895140
816.868502	0.896096
817.187399	0.891804
817.506250	0.886710
817.825058	0.888140
818.143821	0.884685
818.462539	0.879985
818.781213	0.872025
819.099843	0.860007
819.418429	0.845309
819.736970	0.827526
820.055466	0.807632
820.373919	0.782069
820.692327	0.748603
821.010691	0.714589
821.329011	0.635433
821.647286	0.519972
821.965517	0.405372
822.283704	0.362167
822.601847	0.363489
822.919945	0.398569
823.237999	0.432749
823.556010	0.480305
823.873976	0.536017
824.191897	0.587456
824.509775	0.630828
824.827609	0.676257
825.145398	0.698741
825.463144	0.701388
825.780845	0.684754
826.098502	0.665647
826.416116	0.619155
826.733685	0.575612
827.051210	0.566283
827.368692	0.581262
827.686129	0.618578
828.003522	0.672932
828.320872	0.720464
828.638177	0.764378
828.955439	0.797001
829.272656	0.819477
829.589830	0.836896
829.906960	0.852267
830.224046	0.864526
830.541088	0.875691
830.858086	0.880068
831.175041	0.885961
831.491952	0.885128
831.808819	0.882281
832.125642	0.874970
832.442421	0.860034
832.759157	0.837701
833.075849	0.791699
833.392497	0.727255
833.709101	0.686501
834.025662	0.695743
834.342179	0.727720
834.658653	0.766810
834.975083	0.803993
835.291469	0.831029
835.607811	0.852935
835.924110	0.869323
836.240366	0.885434
836.556578	0.900467
836.872746	0.907936
837.188871	0.914185
837.504952	0.919232
837.820990	0.921237
838.136984	0.926636
838.452935	0.928947
838.768842	0.930293
839.084706	0.924751
839.400526	0.897648
839.716303	0.857484
840.032037	0.835058
840.347727	0.837966
840.663373	0.857344
840.978977	0.878446
841.294537	0.901182
841.610054	0.915916
841.925527	0.924527
842.240957	0.931815
842.556344	0.940110
842.871687	0.943603
843.186987	0.949863
843.502244	0.949923
843.817458	0.950759
844.132629	0.954163
844.447756	0.959955
844.762840	0.960016
845.077881	0.958352
845.392879	0.958561
845.707833	0.962084
846.022745	0.963137
846.337613	0.964578
846.652438	0.965642
846.967221	0.963916
847.281960	0.964753
847.596656	0.967189
847.911309	0.964769
848.225919	0.967292
848.540485	0.967622
848.855009	0.968495
849.169490	0.967062
849.483928	0.969445
849.798323	0.969621
850.112675	0.969548
850.426984	0.968546
850.741251	0.970176
851.055474	0.969809
851.369654	0.968038
851.683792	0.969062
851.997887	0.969231
852.311938	0.970021
852.625947	0.970174
852.939914	0.966963
853.253837	0.968391
853.567718	0.970036
853.881555	0.970533
854.195350	0.967107
854.509103	0.969582
854.822812	0.969906
855.136479	0.970057
855.450103	0.969116
855.763685	0.967515
856.077224	0.967251
856.390720	0.969468
856.704173	0.969189
857.017584	0.968207
857.330953	0.965479
857.644278	0.968016
857.957561	0.969000
858.270802	0.967147
858.584000	0.968165
858.897155	0.966582
859.210268	0.967818
859.523339	0.967683
859.836367	0.970163
860.149352	0.969184
860.462295	0.968250
860.775195	0.970225
861.088054	0.968803
861.400869	0.968613
861.713642	0.969969
862.026373	0.969085
862.339062	0.969986
862.651708	0.965467
862.964312	0.967995
863.276873	0.968291
863.589392	0.967015
863.901869	0.965753
864.214303	0.963793
864.526696	0.963177
864.839045	0.962540
865.151353	0.961645
865.463619	0.961938
865.775842	0.961540
866.088023	0.961027
866.400162	0.961345
866.712258	0.961678
867.024313	0.961781
867.336325	0.963527
867.648296	0.962085
867.960224	0.961764
868.272110	0.960328
868.583954	0.962861
868.895755	0.961925
869.207515	0.960413
869.519233	0.959277
869.830909	0.960608
870.142542	0.961724
870.454134	0.960376
870.765684	0.959228
871.077191	0.956732
871.388657	0.959328
871.700081	0.956527
872.011463	0.958014
872.322803	0.957159
872.634101	0.956076
872.945357	0.953031
873.256571	0.952220
873.567744	0.951751
873.878874	0.952054
874.189963	0.950617
874.501010	0.950562
874.812015	0.948997
875.122979	0.950476
875.433900	0.951788
875.744780	0.953012
876.055618	0.950692
876.366415	0.948570
876.677169	0.948650
876.987882	0.950431
877.298554	0.949773
877.609183	0.946761
877.919771	0.944240
878.230317	0.941794
878.540822	0.939075
878.851285	0.933231
879.161707	0.926419
879.472087	0.912991
879.782425	0.896941
880.092722	0.861585
880.402977	0.810004
880.713191	0.747452
881.023363	0.687595
881.333494	0.653933
881.643583	0.625498
881.953631	0.625255
882.263637	0.654007
882.573602	0.693186
882.883526	0.718723
883.193408	0.743246
883.503248	0.767358
883.813048	0.794074
884.122806	0.824076
884.432522	0.848031
884.742197	0.868918
885.051831	0.878967
885.361424	0.889625
885.670975	0.901802
885.980485	0.912002
886.289954	0.918214
886.599382	0.923774
886.908768	0.926431
887.218113	0.933204
887.527417	0.936719
887.836680	0.940718
888.145901	0.942654
888.455082	0.945306
888.764221	0.949693
889.073319	0.951090
889.382376	0.952483
889.691392	0.952180
890.000366	0.952082
890.309300	0.953898
890.618193	0.952124
890.927044	0.950267
891.235855	0.950319
891.544625	0.949135
891.853353	0.950608
892.162041	0.947540
892.470687	0.942109
892.779293	0.935729
893.087858	0.932124
893.396381	0.924739
893.704864	0.911212
894.013306	0.887633
894.321707	0.860095
894.630068	0.844926
894.938387	0.841170
895.246665	0.841131
895.554903	0.854555
895.863100	0.867775
896.171256	0.885385
896.479371	0.904779
896.787446	0.916585
897.095480	0.923570
897.403473	0.926687
897.711425	0.931227
898.019336	0.938848
898.327207	0.941997
898.635038	0.943796
898.942827	0.944067
899.250576	0.947755
899.558284	0.950928
899.865952	0.953251
900.173579	0.953907
900.481165	0.955136
900.788711	0.958846
901.096216	0.960484
901.403681	0.961025
901.711105	0.961919
902.018489	0.962468
902.325832	0.961475
902.633135	0.960611
902.940397	0.954209
903.247619	0.942278
903.554800	0.915274
903.861941	0.875134
904.169041	0.839737
904.476101	0.821469
904.783121	0.822502
905.090100	0.839351
905.397039	0.861639
905.703938	0.882178
906.010796	0.903222
906.317614	0.920927
906.624391	0.932222
906.931129	0.943133
907.237826	0.950561
907.544483	0.957997
907.851099	0.960936
908.157675	0.966019
908.464211	0.970249
908.770707	0.971422
909.077163	0.973100
909.383578	0.973987
909.689954	0.973505
909.996289	0.975205
910.302584	0.977804
910.608839	0.979264
910.915054	0.977283
911.221229	0.977965
911.527363	0.976499
911.833458	0.976244
912.139513	0.975667
912.445527	0.975279
912.751502	0.973415
913.057436	0.971657
913.363331	0.970150
913.669186	0.964103
913.975000	0.959582
914.280775	0.954294
914.586510	0.946822
914.892205	0.933382
915.197859	0.912034
915.503475	0.884376
915.809050	0.863536
916.114585	0.857017
916.420081	0.855019
916.725536	0.851781
917.030952	0.860599
917.336328	0.873415
917.641665	0.888203
917.946961	0.904276
918.252218	0.916154
918.557435	0.925356
918.862612	0.935324
919.167750	0.940485
919.472848	0.945496
919.777906	0.951993
920.082925	0.956529
920.387904	0.960497
920.692843	0.962119
920.997743	0.962070
921.302603	0.966714
921.607423	0.968499
921.912204	0.970362
922.216946	0.971514
922.521647	0.971537
922.826310	0.973876
923.130932	0.975379
923.435516	0.977260
923.740059	0.978248
924.044564	0.977027
924.349028	0.979459
924.653454	0.981901
924.957840	0.985030
925.262186	0.983433
925.566493	0.983037
925.870761	0.984017
926.174989	0.984673
926.479178	0.988594
926.783328	0.987468
927.087438	0.988027
927.391509	0.986882
927.695541	0.989341
927.999533	0.988487
928.303486	0.988114
928.607400	0.989962
928.911275	0.989281
929.215110	0.989589
929.518906	0.990872
929.822663	0.990325
930.126381	0.989784
930.430060	0.990485
930.733699	0.990063
931.037299	0.989058
931.340861	0.989612
931.644383	0.989660
931.947866	0.989558
932.251309	0.990683
932.554714	0.990170
932.858080	0.989846
933.161407	0.991370
933.464694	0.991092
933.767943	0.988984
934.071153	0.990129
934.374323	0.990815
934.677455	0.990701
934.980548	0.991767
935.283602	0.989780
935.586617	0.991396
935.889593	0.989099
936.192530	0.990017
936.495428	0.990522
936.798287	0.989699
937.101108	0.990372
937.403890	0.988980
937.706632	0.987402
938.009336	0.986701
938.312002	0.986176
938.614628	0.984725
938.917216	0.983506
939.219765	0.982050
939.522275	0.982852
939.824747	0.983077
940.127179	0.981814
940.429573	0.984651
940.731929	0.983181
941.034246	0.983329
941.336524	0.984073
941.638763	0.985963
941.940964	0.986231
942.243126	0.986190
942.545250	0.986535
942.847335	0.987142
943.149381	0.986654
943.451389	0.988316
943.753359	0.987535
944.055290	0.990694
944.357182	0.989579
944.659036	0.987418
944.960851	0.988077
945.262628	0.989186
945.564367	0.989599
945.866067	0.988760
946.167729	0.989590
946.469352	0.989107
946.770937	0.988447
947.072484	0.990023
947.373992	0.988816
947.675462	0.989761
947.976893	0.989876
948.278286	0.989202
948.579641	0.990095
948.880958	0.989028
949.182236	0.990240
949.483476	0.990927
949.784678	0.989828
950.085841	0.990751
950.386967	0.990513
950.688054	0.988910
950.989103	0.990026
951.290114	0.989111
951.591087	0.989004
951.892021	0.989759
952.192917	0.986987
952.493776	0.988901
952.794596	0.988040
953.095378	0.987832
953.396122	0.987305
953.696828	0.987292
953.997496	0.989004
954.298126	0.991134
954.598718	0.989951
954.899272	0.990164
955.199788	0.990217
955.500266	0.991611
955.800706	0.992034
956.101108	0.993245
956.401472	0.992569
956.701798	0.992887
957.002087	0.992385
957.302337	0.992377
957.602550	0.994643
957.902724	0.994590
958.202861	0.995567
958.502960	0.994893
958.803022	0.993797
959.103045	0.995194
959.403031	0.995985
959.702979	0.994674
960.002889	0.995787
960.302762	0.994991
960.602596	0.994581
960.902393	0.994830
961.202153	0.996341
961.501875	0.995616
961.801559	0.995172
962.101205	0.995319
962.400814	0.996383
962.700385	0.997198
962.999918	0.996314
963.299414	0.995216
963.598873	0.994108
963.898293	0.996268
964.197677	0.995582
964.497022	0.995372
964.796331	0.997023
965.095601	0.996217
965.394835	0.996391
965.694030	0.997189
965.993189	0.995738
966.292309	0.996849
966.591393	0.997458
966.890439	0.996561
967.189447	0.996914
967.488419	0.996539
967.787353	0.996858
968.086249	0.996854
968.385108	0.996566
968.683930	0.995990
968.982714	0.996525
969.281462	0.997620
969.580172	0.995957
969.878844	0.997722
970.177480	0.996670
970.476078	0.997284
970.774639	0.996200
971.073162	0.997658
971.371649	0.996691
971.670098	0.995511
971.968510	0.997146
972.266885	0.994707
972.565223	0.995709
972.863524	0.996126
973.161788	0.995601
973.460014	0.997644
973.758204	0.995463
974.056356	0.995236
974.354471	0.994169
974.652550	0.995542
974.950591	0.995806
975.248595	0.996786
975.546563	0.996192
975.844493	0.997900
976.142386	0.995892
976.440243	0.996645
976.738062	0.997073
977.035845	0.996828
977.333590	0.997468
977.631299	0.997404
977.928971	0.996455
978.226606	0.996724
978.524204	0.995425
978.821765	0.997697
979.119290	0.995910
979.416777	0.997851
979.714228	0.996509
980.011642	0.995372
980.309020	0.996814
980.606360	0.996969
980.903664	0.997546
981.200931	0.996346
981.498162	0.994452
981.795356	0.994488
982.092513	0.993686
982.389633	0.994378
982.686717	0.991392
982.983764	0.991182
983.280775	0.989230
983.577749	0.990867
983.874686	0.991179
984.171587	0.991934
984.468451	0.994296
984.765279	0.994774
985.062070	0.994279
985.358824	0.993882
985.655543	0.995207
985.952224	0.995241
986.248869	0.995530
986.545478	0.996275
986.842050	0.997886
987.138586	0.995482
987.435086	0.996957
987.731549	0.998578
988.027975	0.997338
988.324366	0.997259
988.620719	0.997023
988.917037	0.996187
989.213318	0.998836
989.509563	0.998237
989.805772	0.998619
990.101944	0.998626
990.398080	0.996373
990.694180	0.998584
990.990244	0.997946
991.286271	0.998340
991.582262	0.996871
991.878217	0.996920
992.174136	0.998588
992.470019	0.998935
992.765865	0.997493
993.061676	0.998957
993.357450	0.997892
993.653188	0.996506
993.948890	0.997075
994.244556	0.997758
994.540186	0.996347
994.835780	0.996714
995.131337	0.998206
995.426859	0.996410
995.722345	0.996923
996.017795	0.996200
996.313208	0.994902
996.608586	0.995877
996.903928	0.996986
997.199234	0.995157
997.494504	0.997052
997.789738	0.995819
998.084936	0.996281
998.380099	0.997549
998.675225	0.996790
998.970316	0.998115
999.265371	0.997618
999.560390	0.996947
999.855373	0.998401
1000.150320	0.998093
1000.445232	0.997635
1000.740108	0.997128
1001.034948	0.998134
1001.329752	0.998302
1001.624521	0.998325
1001.919254	0.998256
1002.213951	0.998315
1002.508613	0.996812
1002.803239	0.999417
1003.097829	0.999244
1003.392384	0.998898
1003.686903	0.997709
1003.981386	0.998182
1004.275834	0.999331
1004.570246	0.998055
1004.864623	0.998637
1005.158964	0.998967
1005.453270	0.997743
1005.747540	0.997303
1006.041775	0.998306
1006.335974	0.999140
1006.630138	0.999632
1006.924266	0.999558
1007.218359	0.999172
1007.512416	0.999157
1007.806438	0.998752
1008.100425	0.999090
1008.394376	0.998110
1008.688292	0.997823
1008.982172	0.999664
1009.276017	0.999525
1009.569827	0.997358
1009.863602	0.998717
1010.157341	0.999675
1010.451045	0.999228
1010.744714	0.998730
1011.038347	1.000105
1011.331945	0.998666
1011.625508	0.997893
1011.919036	0.997460
1012.212528	0.997226
1012.505986	0.996920
1012.799408	0.999044
1013.092795	0.999949
1013.386147	0.999022
1013.679464	0.999325
1013.972745	0.999006
1014.265992	0.996379
1014.559204	0.998206
1014.852380	0.998978
1015.145521	0.999243
1015.438628	0.998178
1015.731699	0.999259
1016.024736	0.998983
1016.317737	0.998112
1016.610703	0.998966
1016.903635	1.000259
1017.196531	0.998842
1017.489393	0.999693
1017.782219	0.998111
1018.075011	0.997805
1018.367768	0.999201
1018.660490	0.999574
1018.953177	0.999574
1019.245829	0.999574
