Dividing Wavelength (nm)	Counts (n)	Blue Motor Position (mm): 0.000000	Red Motor Position (mm): 29.300000	
326.493990	1.000538
326.888308	1.000538
327.282561	1.000538
327.676750	0.999673
328.070874	1.000192
328.464933	1.001695
328.858929	0.998927
329.252859	0.999955
329.646726	0.999331
330.040528	1.001104
330.434265	0.999155
330.827938	1.000189
331.221547	1.000523
331.615091	0.999530
332.008571	0.998642
332.401986	1.000316
332.795338	1.000687
333.188625	0.998600
333.581847	1.000212
333.975006	1.000083
334.368100	0.999838
334.761129	1.000504
335.154095	0.999851
335.546996	0.998130
335.939833	0.993720
336.332606	0.994527
336.725315	0.996363
337.117960	0.996244
337.510540	0.994645
337.903056	0.995235
338.295508	0.994495
338.687896	0.995619
339.080220	0.995402
339.472480	0.995001
339.864676	0.995200
340.256807	0.995251
340.648875	0.996796
341.040879	0.995106
341.432818	0.995197
341.824694	0.994174
342.216506	0.996087
342.608253	0.994672
342.999937	0.994779
343.391557	0.995687
343.783113	0.994528
344.174605	0.995288
344.566033	0.995239
344.957397	0.994688
345.348697	0.994600
345.739934	0.995429
346.131106	0.994474
346.522215	0.994253
346.913260	0.995308
347.304241	0.994180
347.695159	0.995296
348.086012	0.994726
348.476802	0.996426
348.867528	0.995123
349.258191	0.993979
349.648789	0.996411
350.039324	0.994372
350.429796	0.995544
350.820203	0.996327
351.210548	0.996022
351.600828	0.995774
351.991045	0.994748
352.381198	0.995399
352.771288	0.994676
353.161314	0.994961
353.551276	0.996251
353.941175	0.994423
354.331010	0.995446
354.720782	0.995119
355.110490	0.995522
355.500135	0.994726
355.889717	0.996001
356.279235	0.995617
356.668689	0.994504
357.058080	0.995573
357.447408	0.996276
357.836672	0.995956
358.225873	0.996374
358.615010	0.996193
359.004084	0.995530
359.393095	0.996664
359.782043	0.995591
360.170927	0.997378
360.559748	0.994759
360.948505	0.996161
361.337199	0.995542
361.725830	0.995682
362.114398	0.995107
362.502903	0.996248
362.891344	0.996010
363.279722	0.995853
363.668037	0.996012
364.056289	0.994969
364.444478	0.995741
364.832603	0.995817
365.220665	0.994819
365.608665	0.994223
365.996601	0.995892
366.384474	0.995155
366.772284	0.995901
367.160031	0.993873
367.547715	0.994432
367.935336	0.995058
368.322893	0.995354
368.710388	0.994185
369.097820	0.994398
369.485189	0.995341
369.872495	0.994869
370.259738	0.994520
370.646918	0.995893
371.034035	0.996429
371.421090	0.995269
371.808081	0.994806
372.195010	0.994955
372.581875	0.995652
372.968678	0.995110
373.355418	0.996283
373.742096	0.994762
374.128710	0.995595
374.515262	0.995600
374.901751	0.996145
375.288177	0.995785
375.674540	0.996622
376.060841	0.994850
376.447079	0.996114
376.833254	0.995249
377.219367	0.995834
377.605417	0.996689
377.991404	0.996186
378.377329	0.995111
378.763191	0.996572
379.148991	0.997979
379.534727	0.996447
379.920402	0.996423
380.306013	0.996326
380.691563	0.997548
381.077049	0.995980
381.462474	0.997203
381.847835	0.997184
382.233134	0.996171
382.618371	0.996755
383.003545	0.998158
383.388657	0.997539
383.773706	0.998679
384.158693	0.997443
384.543618	0.997093
384.928480	0.997923
385.313280	0.997566
385.698017	0.997346
386.082692	0.998296
386.467305	0.997628
386.851856	0.996183
387.236344	0.997482
387.620770	0.996431
388.005133	0.997249
388.389435	0.998549
388.773674	0.997992
389.157851	0.998604
389.541965	0.997065
389.926018	0.996595
390.310008	0.998298
390.693936	0.996990
391.077802	0.997492
391.461606	0.996797
391.845348	0.997963
392.229027	0.998123
392.612645	0.998256
392.996200	0.999003
393.379694	0.997143
393.763125	0.997977
394.146494	0.997456
394.529801	0.996916
394.913047	0.998726
395.296230	0.998004
395.679351	0.997748
396.062410	0.998140
396.445408	0.997585
396.828343	0.997899
397.211217	0.997401
397.594028	0.998415
397.976778	0.997514
398.359466	0.997811
398.742092	0.997793
399.124656	0.997844
399.507158	0.997619
399.889598	0.997306
400.271977	0.998147
400.654294	0.998432
401.036549	0.998240
401.418742	0.998612
401.800874	0.997168
402.182944	0.997730
402.564952	0.997076
402.946898	0.998417
403.328783	0.998236
403.710606	0.998460
404.092367	0.997571
404.474067	0.997787
404.855705	0.998222
405.237282	0.997656
405.618797	0.998015
406.000250	0.998250
406.381642	0.998133
406.762972	0.998886
407.144240	0.998738
407.525447	0.998232
407.906593	0.998548
408.287677	0.998838
408.668700	0.998894
409.049661	0.997890
409.430560	0.998730
409.811399	0.997615
410.192176	0.997400
410.572891	0.998157
410.953545	0.997407
411.334138	0.997285
411.714669	0.998557
412.095139	0.997746
412.475547	0.998003
412.855894	0.997482
413.236180	0.998750
413.616405	0.998354
413.996568	0.998747
414.376670	0.998218
414.756711	0.997912
415.136691	0.998040
415.516609	0.998391
415.896466	0.997488
416.276262	0.997348
416.655997	0.998277
417.035670	0.997409
417.415283	0.998447
417.794834	0.997313
418.174324	0.998600
418.553753	0.998589
418.933121	0.998894
419.312428	0.997478
419.691674	0.998199
420.070859	0.998573
420.449983	0.998752
420.829045	0.998410
421.208047	0.999253
421.586988	0.999522
421.965867	0.998058
422.344686	0.998792
422.723444	0.998397
423.102141	0.997953
423.480777	0.998379
423.859352	0.998083
424.237866	0.998102
424.616319	0.997894
424.994712	0.998949
425.373044	0.998983
425.751314	0.998385
426.129524	0.998593
426.507673	0.999684
426.885762	0.999471
427.263789	0.998191
427.641756	0.998928
428.019662	0.999572
428.397508	0.997792
428.775292	0.998375
429.153016	0.998206
429.530679	0.998364
429.908282	0.999142
430.285824	0.998523
430.663305	0.997493
431.040726	0.997838
431.418086	0.999438
431.795385	0.999130
432.172624	0.997987
432.549802	0.998698
432.926920	0.998968
433.303977	0.997979
433.680974	0.998246
434.057910	0.998487
434.434786	0.998551
434.811601	0.998641
435.188355	0.997814
435.565050	0.997579
435.941683	0.998658
436.318257	0.999990
436.694770	0.997699
437.071222	0.998833
437.447614	0.998004
437.823946	0.998716
438.200218	0.999306
438.576429	0.998736
438.952580	0.999034
439.328670	0.998681
439.704700	0.998537
440.080670	0.998923
440.456580	0.998880
440.832429	0.998513
441.208218	0.998322
441.583947	0.998258
441.959616	0.998624
442.335224	0.998353
442.710773	0.998946
443.086261	0.997925
443.461689	0.998299
443.837057	0.998389
444.212365	0.998782
444.587612	0.997582
444.962800	0.998368
445.337927	0.998509
445.712995	0.998267
446.088002	0.998518
446.462949	0.998418
446.837837	0.997922
447.212664	0.998400
447.587431	0.998679
447.962139	0.998584
448.336786	0.998754
448.711374	0.998785
449.085901	0.998176
449.460369	0.998675
449.834776	0.997836
450.209124	0.997888
450.583412	0.997823
450.957640	0.998441
451.331808	0.998341
451.705917	0.997530
452.079965	0.997494
452.453954	0.998130
452.827883	0.997783
453.201752	0.998430
453.575562	0.998788
453.949311	0.998145
454.323001	0.996946
454.696632	0.997288
455.070202	0.997388
455.443713	0.997449
455.817164	0.996985
456.190556	0.996641
456.563888	0.996440
456.937160	0.996022
457.310373	0.996409
457.683526	0.995731
458.056619	0.995327
458.429653	0.995611
458.802628	0.993734
459.175542	0.994041
459.548398	0.994257
459.921194	0.993089
460.293930	0.991694
460.666607	0.990842
461.039224	0.989230
461.411782	0.989954
461.784280	0.988349
462.156719	0.989454
462.529099	0.988465
462.901419	0.986932
463.273680	0.985701
463.645882	0.985716
464.018024	0.984320
464.390106	0.983466
464.762130	0.982957
465.134094	0.979079
465.505999	0.975751
465.877845	0.972559
466.249631	0.971638
466.621358	0.970559
466.993026	0.970583
467.364634	0.969453
467.736184	0.968476
468.107674	0.965669
468.479105	0.962947
468.850477	0.962846
469.221790	0.960386
469.593043	0.959339
469.964238	0.956813
470.335373	0.953861
470.706449	0.951953
471.077467	0.949032
471.448425	0.941643
471.819324	0.936560
472.190164	0.933564
472.560945	0.933923
472.931667	0.932367
473.302330	0.929764
473.672934	0.927228
474.043479	0.922409
474.413965	0.918225
474.784393	0.914421
475.154761	0.910159
475.525070	0.905279
475.895321	0.902915
476.265513	0.897638
476.635645	0.892234
477.005719	0.886813
477.375734	0.881365
477.745691	0.875891
478.115588	0.870049
478.485427	0.863350
478.855207	0.854480
479.224928	0.843175
479.594591	0.835577
479.964194	0.830961
480.333739	0.827405
480.703226	0.820402
481.072653	0.815036
481.442022	0.804968
481.811333	0.797349
482.180584	0.792853
482.549777	0.786544
482.918912	0.781014
483.287988	0.773964
483.657005	0.767609
484.025964	0.762721
484.394864	0.754640
484.763706	0.747111
485.132489	0.742599
485.501213	0.735036
485.869879	0.727681
486.238487	0.720624
486.607036	0.713508
486.975527	0.705588
487.343959	0.697628
487.712333	0.689079
488.080648	0.683138
488.448905	0.673317
488.817104	0.667104
489.185244	0.657193
489.553326	0.647583
489.921350	0.634574
490.289315	0.616920
490.657222	0.608494
491.025070	0.600592
491.392861	0.594770
491.760593	0.589743
492.128267	0.584785
492.495883	0.580320
492.863440	0.575785
493.230939	0.571473
493.598380	0.564235
493.965763	0.557349
494.333088	0.552766
494.700354	0.544635
495.067563	0.538100
495.434713	0.532213
495.801805	0.524874
496.168839	0.518222
496.535815	0.511360
496.902733	0.505506
497.269593	0.498054
497.636395	0.491001
498.003139	0.483033
498.369825	0.479960
498.736453	0.470017
499.103023	0.465111
499.469535	0.457497
499.835989	0.451901
500.202385	0.445873
500.568723	0.442826
500.935003	0.433560
501.301226	0.429338
501.667390	0.420557
502.033497	0.413023
502.399546	0.409989
502.765537	0.405397
503.131470	0.398682
503.497345	0.389542
503.863163	0.392333
504.228923	0.380392
504.594625	0.375280
504.960269	0.374981
505.325856	0.365856
505.691385	0.364653
506.056856	0.357574
506.422270	0.352340
506.787625	0.350800
507.152924	0.344018
507.518164	0.340626
507.883347	0.337507
508.248472	0.335456
508.613540	0.327323
508.978550	0.325381
509.343503	0.322463
509.708398	0.316747
510.073236	0.311088
510.438016	0.307771
510.802738	0.305469
511.167403	0.301429
511.532010	0.300346
511.896561	0.293674
512.261053	0.289330
512.625488	0.288666
512.989866	0.286196
513.354186	0.284185
513.718449	0.283063
514.082655	0.277592
514.446803	0.277185
514.810894	0.273125
515.174927	0.273527
515.538904	0.270971
515.902822	0.265813
516.266684	0.266363
516.630488	0.265926
516.994235	0.263149
517.357925	0.260029
517.721558	0.257256
518.085133	0.254794
518.448651	0.253955
518.812112	0.254689
519.175516	0.252854
519.538863	0.249475
519.902152	0.249821
520.265385	0.245508
520.628560	0.246321
520.991678	0.245751
521.354739	0.243772
521.717743	0.244054
522.080690	0.243636
522.443580	0.240152
522.806413	0.240471
523.169189	0.239133
523.531908	0.237267
523.894569	0.240140
524.257174	0.239713
524.619722	0.236811
524.982213	0.237549
525.344647	0.236133
525.707025	0.236447
526.069345	0.234086
526.431608	0.235182
526.793815	0.233045
527.155964	0.236800
527.518057	0.235475
527.880093	0.236087
528.242072	0.234381
528.603995	0.236013
528.965860	0.237466
529.327669	0.236084
529.689421	0.236700
530.051117	0.237485
530.412755	0.235016
530.774337	0.237142
531.135862	0.237396
531.497331	0.236429
531.858743	0.239285
532.220098	0.235937
532.581396	0.237945
532.942638	0.238593
533.303824	0.239186
533.664953	0.239029
534.026025	0.240519
534.387040	0.238404
534.747999	0.238354
535.108902	0.236880
535.469748	0.241918
535.830537	0.239873
536.191270	0.239976
536.551947	0.239482
536.912567	0.239594
537.273131	0.241139
537.633638	0.241135
537.994089	0.241539
538.354483	0.242365
538.714821	0.239444
539.075103	0.239104
539.435328	0.239676
539.795497	0.243438
540.155609	0.240049
540.515665	0.238153
540.875665	0.243881
541.235609	0.241960
541.595496	0.242438
541.955328	0.238610
542.315102	0.241393
542.674821	0.242162
543.034483	0.242147
543.394090	0.242047
543.753640	0.243821
544.113134	0.239025
544.472571	0.242092
544.831953	0.238864
545.191278	0.243013
545.550548	0.242283
545.909761	0.239339
546.268918	0.239882
546.628019	0.238399
546.987064	0.240802
547.346053	0.242700
547.704986	0.240234
548.063863	0.241116
548.422684	0.241130
548.781449	0.242729
549.140158	0.240560
549.498811	0.243565
549.857408	0.246441
550.215949	0.241444
550.574434	0.244112
550.932864	0.242291
551.291237	0.240684
551.649555	0.242290
552.007817	0.241862
552.366022	0.242882
552.724173	0.242993
553.082267	0.243422
553.440305	0.240442
553.798288	0.244656
554.156215	0.241188
554.514086	0.241738
554.871902	0.244825
555.229661	0.244305
555.587365	0.244590
555.945014	0.247218
556.302606	0.244466
556.660143	0.246866
557.017625	0.243150
557.375050	0.245157
557.732421	0.242346
558.089735	0.244151
558.446994	0.244357
558.804197	0.243653
559.161345	0.243668
559.518437	0.247123
559.875474	0.244878
560.232455	0.244204
560.589381	0.245286
560.946251	0.245369
561.303065	0.242889
561.659825	0.244695
562.016528	0.246061
562.373177	0.248700
562.729770	0.246135
563.086307	0.248311
563.442789	0.245659
563.799216	0.248801
564.155587	0.247423
564.511904	0.248546
564.868164	0.248771
565.224370	0.248653
565.580520	0.250454
565.936615	0.250230
566.292654	0.253159
566.648638	0.249935
567.004567	0.250880
567.360441	0.251960
567.716260	0.253533
568.072023	0.251521
568.427732	0.252184
568.783385	0.254688
569.138982	0.252836
569.494525	0.252397
569.850013	0.255349
570.205445	0.253887
570.560823	0.256053
570.916145	0.258075
571.271412	0.256283
571.626625	0.257996
571.981782	0.258416
572.336884	0.259132
572.691931	0.258938
573.046923	0.260192
573.401860	0.261382
573.756743	0.262867
574.111570	0.261908
574.466342	0.262426
574.821059	0.261604
575.175722	0.263973
575.530330	0.263993
575.884882	0.264213
576.239380	0.266363
576.593823	0.266833
576.948211	0.266458
577.302544	0.269523
577.656823	0.269317
578.011047	0.269254
578.365216	0.269953
578.719330	0.272022
579.073389	0.271770
579.427394	0.273066
579.781344	0.273977
580.135239	0.275594
580.489080	0.275173
580.842866	0.277734
581.196597	0.277818
581.550273	0.276265
581.903895	0.277430
582.257463	0.275783
582.610975	0.278985
582.964434	0.278384
583.317837	0.280859
583.671186	0.281256
584.024481	0.281132
584.377721	0.283781
584.730906	0.284518
585.084037	0.283240
585.437113	0.285567
585.790135	0.284875
586.143103	0.287914
586.496016	0.288693
586.848874	0.286597
587.201679	0.286930
587.554428	0.290165
587.907124	0.289238
588.259765	0.289406
588.612352	0.290429
588.964884	0.294370
589.317362	0.293706
589.669786	0.293633
590.022155	0.292401
590.374470	0.291630
590.726731	0.293615
591.078937	0.298375
591.431090	0.294865
591.783188	0.298816
592.135232	0.299004
592.487222	0.298913
592.839157	0.297683
593.191038	0.299809
593.542866	0.301776
593.894639	0.305200
594.246358	0.303207
594.598022	0.302549
594.949633	0.306072
595.301190	0.307054
595.652692	0.306191
596.004141	0.302449
596.355535	0.310148
596.706876	0.310747
597.058162	0.313545
597.409395	0.310521
597.760573	0.308435
598.111698	0.311611
598.462768	0.312261
598.813785	0.313363
599.164748	0.314978
599.515657	0.314814
599.866511	0.318310
600.217312	0.313667
600.568060	0.318987
600.918753	0.315225
601.269392	0.315899
601.619978	0.319364
601.970510	0.317215
602.320988	0.317140
602.671412	0.315015
603.021783	0.317401
603.372100	0.318741
603.722363	0.318094
604.072572	0.319406
604.422728	0.319228
604.772830	0.321288
605.122878	0.320842
605.472872	0.320799
605.822813	0.319761
606.172701	0.322235
606.522534	0.319523
606.872314	0.319484
607.222041	0.320596
607.571714	0.318785
607.921333	0.320202
608.270899	0.319707
608.620411	0.316576
608.969870	0.320409
609.319276	0.320602
609.668627	0.320715
610.017926	0.319118
610.367171	0.317432
610.716362	0.318353
611.065500	0.318616
611.414585	0.317415
611.763616	0.317817
612.112594	0.318055
612.461518	0.317702
612.810389	0.315157
613.159207	0.317587
613.507971	0.319647
613.856682	0.315404
614.205340	0.316850
614.553945	0.313518
614.902496	0.317685
615.250994	0.315536
615.599439	0.316024
615.947830	0.316220
616.296169	0.316538
616.644454	0.316134
616.992686	0.316303
617.340864	0.314392
617.688990	0.317871
618.037063	0.314515
618.385082	0.316254
618.733048	0.313115
619.080961	0.315328
619.428821	0.315112
619.776628	0.314640
620.124382	0.316314
620.472083	0.316939
620.819731	0.316281
621.167326	0.320191
621.514868	0.319818
621.862357	0.323871
622.209793	0.323711
622.557176	0.325534
622.904506	0.326936
623.251783	0.329172
623.599007	0.331547
623.946179	0.330747
624.293297	0.332896
624.640363	0.336560
624.987376	0.337121
625.334336	0.339916
625.681243	0.341981
626.028097	0.342736
626.374899	0.343810
626.721647	0.343888
627.068343	0.347558
627.414987	0.348148
627.761577	0.350480
628.108115	0.348724
628.454600	0.353595
628.801032	0.351050
629.147412	0.353383
629.493739	0.353445
629.840014	0.356704
630.186236	0.353999
630.532405	0.359944
630.878521	0.357106
631.224585	0.359333
631.570597	0.362993
631.916556	0.361233
632.262462	0.361389
632.608316	0.363915
632.954117	0.364479
633.299866	0.365160
633.645562	0.365874
633.991206	0.369991
634.336797	0.372793
634.682336	0.375043
635.027823	0.377086
635.373257	0.377136
635.718639	0.381122
636.063968	0.380243
636.409245	0.385767
636.754470	0.386377
637.099642	0.388823
637.444762	0.391828
637.789829	0.391143
638.134845	0.394531
638.479808	0.395784
638.824719	0.395418
639.169577	0.399320
639.514383	0.398221
639.859137	0.402222
640.203839	0.402181
640.548489	0.402966
640.893086	0.404130
641.237632	0.405500
641.582125	0.404184
641.926566	0.405644
642.270955	0.406352
642.615292	0.406370
642.959576	0.405155
643.303809	0.406026
643.647990	0.405541
643.992118	0.406026
644.336195	0.409652
644.680219	0.408032
645.024192	0.408812
645.368112	0.402455
645.711981	0.400973
646.055797	0.396211
646.399562	0.399261
646.743274	0.391132
647.086935	0.388197
647.430544	0.388826
647.774101	0.387293
648.117606	0.387036
648.461059	0.387581
648.804460	0.390256
649.147810	0.395522
649.491108	0.397187
649.834354	0.398395
650.177548	0.403591
650.520690	0.409622
650.863781	0.410385
651.206820	0.409581
651.549807	0.414090
651.892742	0.417978
652.235626	0.417597
652.578458	0.418709
652.921238	0.424352
653.263967	0.422519
653.606644	0.426893
653.949269	0.426667
654.291843	0.430123
654.634365	0.427472
654.976836	0.430063
655.319255	0.430205
655.661622	0.432150
656.003938	0.432056
656.346203	0.435033
656.688416	0.432979
657.030577	0.436025
657.372687	0.438567
657.714746	0.439020
658.056753	0.435984
658.398708	0.439710
658.740612	0.440779
659.082465	0.436917
659.424266	0.437861
659.766016	0.437005
660.107715	0.439557
660.449362	0.438335
660.790958	0.439220
661.132503	0.439767
661.473996	0.437371
661.815438	0.438258
662.156829	0.438347
662.498168	0.438971
662.839456	0.440629
663.180693	0.438491
663.521879	0.438059
663.863013	0.439300
664.204097	0.437586
664.545129	0.434546
664.886110	0.434982
665.227040	0.432608
665.567918	0.434905
665.908746	0.433080
666.249522	0.432347
666.590248	0.433828
666.930922	0.431771
667.271545	0.430212
667.612118	0.431052
667.952639	0.432273
668.293109	0.431618
668.633528	0.434135
668.973896	0.433897
669.314213	0.434047
669.654480	0.435904
669.994695	0.435753
670.334859	0.436874
670.674973	0.437161
671.015035	0.438182
671.355047	0.437476
671.695008	0.438495
672.034918	0.440437
672.374777	0.439858
672.714585	0.440890
673.054342	0.440819
673.394049	0.440715
673.733705	0.438301
674.073310	0.439486
674.412864	0.442274
674.752368	0.443073
675.091820	0.443198
675.431223	0.447892
675.770574	0.447570
676.109875	0.450850
676.449125	0.450750
676.788324	0.452608
677.127473	0.458555
677.466571	0.458091
677.805619	0.459713
678.144616	0.461093
678.483562	0.462241
678.822458	0.465120
679.161303	0.465863
679.500098	0.466153
679.838842	0.467911
680.177535	0.467989
680.516179	0.465696
680.854771	0.465581
681.193314	0.458828
681.531805	0.450102
681.870247	0.438504
682.208638	0.431431
682.546978	0.430227
682.885268	0.431918
683.223508	0.437731
683.561697	0.441628
683.899836	0.444039
684.237925	0.447756
684.575963	0.450350
684.913951	0.453545
685.251889	0.449339
685.589776	0.451669
685.927614	0.453793
686.265401	0.448037
686.603137	0.449962
686.940824	0.443276
687.278460	0.441791
687.616046	0.440672
687.953582	0.435783
688.291068	0.437524
688.628504	0.433237
688.965889	0.435284
689.303224	0.439307
689.640510	0.442991
689.977745	0.448915
690.314930	0.457030
690.652065	0.461213
690.989150	0.468500
691.326185	0.475285
691.663170	0.480258
692.000105	0.486792
692.336990	0.493545
692.673825	0.496130
693.010610	0.503531
693.347345	0.507967
693.684030	0.509833
694.020665	0.515263
694.357251	0.523626
694.693786	0.523554
695.030272	0.527854
695.366707	0.530766
695.703093	0.534686
696.039429	0.532176
696.375716	0.533897
696.711952	0.537067
697.048139	0.538562
697.384276	0.540881
697.720363	0.538741
698.056400	0.537472
698.392388	0.543568
698.728326	0.546695
699.064214	0.549112
699.400053	0.549989
699.735842	0.554023
700.071581	0.556214
700.407270	0.559494
700.742910	0.561367
701.078501	0.568465
701.414042	0.568407
701.749533	0.571782
702.084974	0.579896
702.420366	0.572859
702.755709	0.580294
703.091002	0.587552
703.426246	0.581577
703.761440	0.587056
704.096584	0.592507
704.431679	0.589082
704.766725	0.590770
705.101721	0.593004
705.436668	0.588877
705.771565	0.595948
706.106413	0.593134
706.441212	0.587979
706.775961	0.586539
707.110661	0.589604
707.445311	0.586166
707.779913	0.583446
708.114465	0.582214
708.448967	0.577941
708.783421	0.570443
709.117825	0.564992
709.452180	0.564204
709.786485	0.559252
710.120742	0.548334
710.454949	0.550936
710.789107	0.543007
711.123216	0.533822
711.457275	0.535616
711.791286	0.527056
712.125247	0.525585
712.459159	0.536740
712.793023	0.529912
713.126837	0.533375
713.460602	0.534150
713.794318	0.542730
714.127985	0.541795
714.461602	0.551571
714.795171	0.554440
715.128691	0.562686
715.462162	0.569742
715.795584	0.575577
716.128957	0.578800
716.462281	0.585312
716.795556	0.588916
717.128782	0.593453
717.461960	0.603781
717.795088	0.600971
718.128167	0.608539
718.461198	0.616265
718.794180	0.617459
719.127113	0.619325
719.459997	0.623544
719.792833	0.630262
720.125619	0.631067
720.458357	0.636656
720.791046	0.635507
721.123686	0.639994
721.456278	0.646656
721.788821	0.644627
722.121315	0.648140
722.453761	0.651876
722.786158	0.650191
723.118506	0.646794
723.450805	0.654285
723.783056	0.650549
724.115259	0.647501
724.447412	0.647118
724.779518	0.648647
725.111574	0.647973
725.443582	0.643964
725.775542	0.645005
726.107453	0.637236
726.439315	0.637986
726.771129	0.635316
727.102895	0.629096
727.434612	0.621585
727.766281	0.620191
728.097901	0.619682
728.429473	0.619043
728.760996	0.617575
729.092471	0.618018
729.423897	0.621413
729.755276	0.621148
730.086606	0.620915
730.417887	0.616003
730.749120	0.606664
731.080305	0.596399
731.411442	0.593100
731.742530	0.597826
732.073570	0.597229
732.404562	0.589334
732.735506	0.590364
733.066401	0.595851
733.397249	0.604526
733.728048	0.616373
734.058798	0.628981
734.389501	0.639655
734.720156	0.649015
735.050762	0.656749
735.381320	0.657942
735.711831	0.666910
736.042293	0.671434
736.372707	0.667434
736.703073	0.672485
737.033391	0.673970
737.363661	0.670453
737.693883	0.666246
738.024056	0.666302
738.354182	0.665881
738.684260	0.655240
739.014290	0.651257
739.344272	0.652637
739.674207	0.645630
740.004093	0.645486
740.333931	0.644914
740.663722	0.645665
740.993464	0.646311
741.323159	0.649649
741.652806	0.654432
741.982405	0.659697
742.311956	0.663909
742.641460	0.666059
742.970915	0.669365
743.300323	0.677221
743.629683	0.683633
743.958996	0.685907
744.288260	0.690034
744.617477	0.695981
744.946647	0.697469
745.275768	0.703196
745.604842	0.702694
745.933869	0.712293
746.262847	0.713223
746.591778	0.706941
746.920662	0.713566
747.249498	0.719430
747.578286	0.710755
747.907027	0.706431
748.235720	0.707633
748.564365	0.702279
748.892963	0.702093
749.221514	0.705063
749.550017	0.709507
749.878473	0.710150
750.206881	0.716699
750.535242	0.718523
750.863555	0.717443
751.191821	0.719049
751.520039	0.721274
751.848210	0.726904
752.176334	0.719608
752.504411	0.717393
752.832440	0.725559
753.160421	0.729232
753.488356	0.728980
753.816243	0.725477
754.144082	0.734603
754.471875	0.738143
754.799620	0.733104
755.127318	0.734632
755.454969	0.734654
755.782572	0.733940
756.110129	0.739057
756.437638	0.741537
756.765100	0.737825
757.092515	0.736186
757.419882	0.736111
757.747203	0.740341
758.074477	0.740345
758.401703	0.736674
758.728882	0.731845
759.056014	0.731099
759.383099	0.729386
759.710138	0.731289
760.037129	0.727779
760.364073	0.721285
760.690970	0.723381
761.017820	0.729235
761.344623	0.725685
761.671379	0.716636
761.998088	0.704249
762.324751	0.682639
762.651366	0.641279
762.977935	0.574512
763.304456	0.522447
763.630931	0.512736
763.957359	0.551960
764.283740	0.596624
764.610074	0.622685
764.936362	0.653673
765.262602	0.681214
765.588796	0.701274
765.914943	0.719337
766.241044	0.737057
766.567097	0.743184
766.893104	0.753342
767.219064	0.759828
767.544978	0.766529
767.870845	0.779201
768.196665	0.783243
768.522438	0.780723
768.848165	0.782475
769.173846	0.791319
769.499479	0.796054
769.825066	0.799470
770.150607	0.803713
770.476101	0.799248
770.801548	0.800650
771.126949	0.811662
771.452303	0.815316
771.777611	0.814447
772.102872	0.814322
772.428087	0.818368
772.753256	0.822513
773.078378	0.824881
773.403453	0.833383
773.728482	0.838854
774.053465	0.831258
774.378401	0.834952
774.703291	0.842991
775.028135	0.842777
775.352932	0.844739
775.677683	0.848019
776.002388	0.847916
776.327046	0.847142
776.651658	0.850364
776.976224	0.852615
777.300743	0.853839
777.625216	0.856584
777.949643	0.857729
778.274024	0.858274
778.598359	0.860028
778.922647	0.857544
779.246889	0.858870
779.571086	0.862443
779.895236	0.864973
780.219339	0.862345
780.543397	0.859786
780.867409	0.857350
781.191374	0.860237
781.515294	0.860755
781.839167	0.860013
782.162995	0.863763
782.486776	0.860956
782.810511	0.861839
783.134201	0.864972
783.457844	0.864145
783.781441	0.866063
784.104993	0.871582
784.428498	0.871128
784.751958	0.866753
785.075372	0.869493
785.398739	0.874752
785.722061	0.869280
786.045337	0.865896
786.368568	0.870249
786.691752	0.873029
787.014891	0.858642
787.337983	0.849932
787.661030	0.842586
787.984031	0.825533
788.306987	0.812276
788.629897	0.814522
788.952760	0.818296
789.275579	0.822658
789.598351	0.838438
789.921078	0.851189
790.243759	0.853115
790.566395	0.858246
790.888984	0.864659
791.211529	0.870743
791.534027	0.873131
791.856480	0.874747
792.178888	0.881273
792.501249	0.883250
792.823566	0.883912
793.145836	0.884358
793.468062	0.886340
793.790241	0.886667
794.112375	0.883914
794.434464	0.880462
794.756507	0.879078
795.078505	0.878344
795.400457	0.873994
795.722364	0.861822
796.044226	0.854229
796.366042	0.854232
796.687812	0.857036
797.009538	0.852687
797.331218	0.855311
797.652852	0.861555
797.974442	0.865962
798.295986	0.865494
798.617484	0.868191
798.938938	0.871898
799.260346	0.877458
799.581709	0.879738
799.903026	0.881200
800.224299	0.881302
800.545526	0.886275
800.866708	0.890003
801.187845	0.893218
801.508936	0.892574
801.829983	0.890857
802.150984	0.893458
802.471940	0.898673
802.792851	0.898201
803.113717	0.899319
803.434538	0.897410
803.755314	0.899595
804.076045	0.901861
804.396731	0.901045
804.717372	0.900675
805.037967	0.902754
805.358518	0.900824
805.679024	0.896820
805.999485	0.898718
806.319901	0.897937
806.640272	0.899716
806.960598	0.897778
807.280879	0.896000
807.601115	0.893720
807.921306	0.897522
808.241453	0.897013
808.561554	0.895235
808.881611	0.895140
809.201623	0.896515
809.521590	0.897532
809.841513	0.899183
810.161390	0.897037
810.481223	0.900092
810.801011	0.902372
811.120755	0.904408
811.440453	0.903331
811.760107	0.901582
812.079716	0.902238
812.399281	0.904144
812.718801	0.908160
813.038276	0.909042
813.357707	0.907394
813.677093	0.904403
813.996434	0.907765
814.315731	0.910188
814.634983	0.909644
814.954191	0.909042
815.273354	0.906469
815.592473	0.902752
815.911547	0.903038
816.230577	0.899272
816.549562	0.897380
816.868502	0.898464
817.187399	0.894689
817.506250	0.889204
817.825058	0.891732
818.143821	0.887771
818.462539	0.883638
818.781213	0.874662
819.099843	0.863766
819.418429	0.848503
819.736970	0.832472
820.055466	0.813313
820.373919	0.787596
820.692327	0.753665
821.010691	0.720102
821.329011	0.644737
821.647286	0.530729
821.965517	0.417928
822.283704	0.375385
822.601847	0.377431
822.919945	0.412803
823.237999	0.445463
823.556010	0.491306
823.873976	0.547184
824.191897	0.596567
824.509775	0.639030
824.827609	0.683793
825.145398	0.706738
825.463144	0.709245
825.780845	0.691541
826.098502	0.673643
826.416116	0.627585
826.733685	0.584092
827.051210	0.575765
827.368692	0.591386
827.686129	0.627183
828.003522	0.680048
828.320872	0.726806
828.638177	0.769981
828.955439	0.802218
829.272656	0.824301
829.589830	0.840309
829.906960	0.857030
830.224046	0.870007
830.541088	0.879086
830.858086	0.882642
831.175041	0.889049
831.491952	0.888841
831.808819	0.885521
832.125642	0.878274
832.442421	0.864612
832.759157	0.842209
833.075849	0.797522
833.392497	0.734132
833.709101	0.693343
834.025662	0.703476
834.342179	0.734903
834.658653	0.773818
834.975083	0.808935
835.291469	0.835073
835.607811	0.856126
835.924110	0.872920
836.240366	0.888823
836.556578	0.902678
836.872746	0.909818
837.188871	0.915742
837.504952	0.922314
837.820990	0.925737
838.136984	0.928179
838.452935	0.931891
838.768842	0.933161
839.084706	0.926030
839.400526	0.901384
839.716303	0.861022
840.032037	0.838799
840.347727	0.842518
840.663373	0.859945
840.978977	0.881171
841.294537	0.903936
841.610054	0.919497
841.925527	0.928148
842.240957	0.934285
842.556344	0.941387
842.871687	0.947655
843.186987	0.951707
843.502244	0.951204
843.817458	0.952255
844.132629	0.956219
844.447756	0.960222
844.762840	0.961284
845.077881	0.960207
845.392879	0.960408
845.707833	0.963954
846.022745	0.965026
846.337613	0.965708
846.652438	0.966653
846.967221	0.965228
847.281960	0.966721
847.596656	0.968242
847.911309	0.967419
848.225919	0.967825
848.540485	0.968460
848.855009	0.969279
849.169490	0.969834
849.483928	0.970343
849.798323	0.970466
850.112675	0.970292
850.426984	0.971388
850.741251	0.970617
851.055474	0.970883
851.369654	0.968734
851.683792	0.969562
851.997887	0.970442
852.311938	0.970533
852.625947	0.970689
852.939914	0.969588
853.253837	0.969779
853.567718	0.971788
853.881555	0.971512
854.195350	0.968486
854.509103	0.970271
854.822812	0.970982
855.136479	0.970718
855.450103	0.969842
855.763685	0.968468
856.077224	0.970064
856.390720	0.970865
856.704173	0.971793
857.017584	0.969072
857.330953	0.967967
857.644278	0.969661
857.957561	0.970317
858.270802	0.969340
858.584000	0.969866
858.897155	0.965903
859.210268	0.967905
859.523339	0.969113
859.836367	0.970262
860.149352	0.971279
860.462295	0.969841
860.775195	0.970711
861.088054	0.970676
861.400869	0.969588
861.713642	0.971503
862.026373	0.970707
862.339062	0.971684
862.651708	0.968996
862.964312	0.968862
863.276873	0.970404
863.589392	0.969527
863.901869	0.966942
864.214303	0.964731
864.526696	0.964462
864.839045	0.965094
865.151353	0.962966
865.463619	0.962910
865.775842	0.963747
866.088023	0.963460
866.400162	0.963736
866.712258	0.962984
867.024313	0.963414
867.336325	0.964731
867.648296	0.963870
867.960224	0.963653
868.272110	0.961178
868.583954	0.965122
868.895755	0.964654
869.207515	0.962733
869.519233	0.958979
869.830909	0.961511
870.142542	0.963756
870.454134	0.962746
870.765684	0.961384
871.077191	0.959344
871.388657	0.959649
871.700081	0.958278
872.011463	0.959976
872.322803	0.959167
872.634101	0.958375
872.945357	0.955372
873.256571	0.954816
873.567744	0.953118
873.878874	0.955156
874.189963	0.952488
874.501010	0.953297
874.812015	0.949829
875.122979	0.952226
875.433900	0.954805
875.744780	0.954723
876.055618	0.953039
876.366415	0.951032
876.677169	0.951512
876.987882	0.952435
877.298554	0.952548
877.609183	0.948242
877.919771	0.946587
878.230317	0.943748
878.540822	0.942691
878.851285	0.936771
879.161707	0.929363
879.472087	0.917551
879.782425	0.902080
880.092722	0.868100
880.402977	0.817485
880.713191	0.758262
881.023363	0.701098
881.333494	0.667804
881.643583	0.640462
881.953631	0.639502
882.263637	0.668494
882.573602	0.706961
882.883526	0.733146
883.193408	0.754226
883.503248	0.776121
883.813048	0.803438
884.122806	0.832932
884.432522	0.854392
884.742197	0.874498
885.051831	0.883372
885.361424	0.894155
885.670975	0.905638
885.980485	0.915939
886.289954	0.921981
886.599382	0.926699
886.908768	0.930592
887.218113	0.935239
887.527417	0.941755
887.836680	0.944044
888.145901	0.944876
888.455082	0.947167
888.764221	0.951447
889.073319	0.953756
889.382376	0.955158
889.691392	0.954452
890.000366	0.954256
890.309300	0.955173
890.618193	0.954453
890.927044	0.952278
891.235855	0.953242
891.544625	0.953024
891.853353	0.953686
892.162041	0.951863
892.470687	0.944786
892.779293	0.940101
893.087858	0.935913
893.396381	0.927190
893.704864	0.916338
894.013306	0.892438
894.321707	0.867475
894.630068	0.853390
894.938387	0.848815
895.246665	0.848954
895.554903	0.862084
895.863100	0.874707
896.171256	0.890680
896.479371	0.909359
896.787446	0.921453
897.095480	0.927341
897.403473	0.929906
897.711425	0.935248
898.019336	0.942197
898.327207	0.944032
898.635038	0.947682
898.942827	0.946551
899.250576	0.950528
899.558284	0.953979
899.865952	0.956306
900.173579	0.956687
900.481165	0.957012
900.788711	0.961395
901.096216	0.963381
901.403681	0.962750
901.711105	0.964567
902.018489	0.966036
902.325832	0.963795
902.633135	0.963844
902.940397	0.957787
903.247619	0.946607
903.554800	0.921335
903.861941	0.882331
904.169041	0.848159
904.476101	0.832930
904.783121	0.832990
905.090100	0.848100
905.397039	0.869715
905.703938	0.890198
906.010796	0.908352
906.317614	0.926104
906.624391	0.936638
906.931129	0.945504
907.237826	0.953710
907.544483	0.960882
907.851099	0.963932
908.157675	0.968276
908.464211	0.970350
908.770707	0.973641
909.077163	0.975217
909.383578	0.975411
909.689954	0.975574
909.996289	0.976729
910.302584	0.978161
910.608839	0.981049
910.915054	0.979344
911.221229	0.979183
911.527363	0.977533
911.833458	0.977697
912.139513	0.977237
912.445527	0.975913
912.751502	0.974757
913.057436	0.973252
913.363331	0.971944
913.669186	0.967665
913.975000	0.963769
914.280775	0.957329
914.586510	0.951506
914.892205	0.938492
915.197859	0.917811
915.503475	0.891385
915.809050	0.872200
916.114585	0.867515
916.420081	0.864685
916.725536	0.861894
917.030952	0.868770
917.336328	0.881198
917.641665	0.896526
917.946961	0.912619
918.252218	0.922213
918.557435	0.929880
918.862612	0.939504
919.167750	0.944440
919.472848	0.949437
919.777906	0.954743
920.082925	0.959998
920.387904	0.963684
920.692843	0.964091
920.997743	0.965339
921.302603	0.969104
921.607423	0.970027
921.912204	0.972077
922.216946	0.973395
922.521647	0.974892
922.826310	0.976321
923.130932	0.976862
923.435516	0.980117
923.740059	0.980529
924.044564	0.980133
924.349028	0.981622
924.653454	0.982630
924.957840	0.985419
925.262186	0.985739
925.566493	0.984786
925.870761	0.986090
926.174989	0.987582
926.479178	0.988819
926.783328	0.988616
927.087438	0.988616
927.391509	0.988951
927.695541	0.991075
927.999533	0.989943
928.303486	0.989937
928.607400	0.992575
928.911275	0.988770
929.215110	0.991530
929.518906	0.991808
929.822663	0.989744
930.126381	0.991812
930.430060	0.990677
930.733699	0.990360
931.037299	0.990226
931.340861	0.991073
931.644383	0.991108
931.947866	0.989839
932.251309	0.990530
932.554714	0.991553
932.858080	0.990998
933.161407	0.990848
933.464694	0.991412
933.767943	0.989746
934.071153	0.991582
934.374323	0.991150
934.677455	0.992494
934.980548	0.993675
935.283602	0.991405
935.586617	0.991816
935.889593	0.992157
936.192530	0.990553
936.495428	0.991396
936.798287	0.991445
937.101108	0.990873
937.403890	0.990072
937.706632	0.989711
938.009336	0.988227
938.312002	0.986928
938.614628	0.984806
938.917216	0.984365
939.219765	0.982664
939.522275	0.984730
939.824747	0.983128
940.127179	0.983043
940.429573	0.984880
940.731929	0.985345
941.034246	0.985584
941.336524	0.986027
941.638763	0.986813
941.940964	0.987007
942.243126	0.986845
942.545250	0.988203
942.847335	0.988923
943.149381	0.988238
943.451389	0.989719
943.753359	0.988679
944.055290	0.990782
944.357182	0.990654
944.659036	0.988638
944.960851	0.989288
945.262628	0.990656
945.564367	0.990534
945.866067	0.990493
946.167729	0.991144
946.469352	0.990511
946.770937	0.989450
947.072484	0.991869
947.373992	0.990836
947.675462	0.991104
947.976893	0.991586
948.278286	0.990969
948.579641	0.991532
948.880958	0.990844
949.182236	0.991712
949.483476	0.990259
949.784678	0.990665
950.085841	0.991967
950.386967	0.991920
950.688054	0.991435
950.989103	0.991785
951.290114	0.990390
951.591087	0.990539
951.892021	0.990343
952.192917	0.990010
952.493776	0.988957
952.794596	0.988837
953.095378	0.987521
953.396122	0.989477
953.696828	0.987776
953.997496	0.990795
954.298126	0.991140
954.598718	0.991163
954.899272	0.991191
955.199788	0.990832
955.500266	0.992604
955.800706	0.993551
956.101108	0.993172
956.401472	0.994535
956.701798	0.995052
957.002087	0.992501
957.302337	0.994808
957.602550	0.995677
957.902724	0.995362
958.202861	0.994825
958.502960	0.995619
958.803022	0.993047
959.103045	0.996509
959.403031	0.996083
959.702979	0.994506
960.002889	0.995708
960.302762	0.995133
960.602596	0.996115
960.902393	0.994959
961.202153	0.997280
961.501875	0.997663
961.801559	0.995850
962.101205	0.995599
962.400814	0.996707
962.700385	0.996307
962.999918	0.995564
963.299414	0.996689
963.598873	0.995300
963.898293	0.996312
964.197677	0.997131
964.497022	0.996476
964.796331	0.996624
965.095601	0.997421
965.394835	0.996906
965.694030	0.996680
965.993189	0.997615
966.292309	0.996170
966.591393	0.997308
966.890439	0.997102
967.189447	0.996324
967.488419	0.996612
967.787353	0.996714
968.086249	0.996936
968.385108	0.997921
968.683930	0.997116
968.982714	0.997433
969.281462	0.997622
969.580172	0.996121
969.878844	0.997246
970.177480	0.996861
970.476078	0.997253
970.774639	0.996742
971.073162	0.997770
971.371649	0.996011
971.670098	0.995374
971.968510	0.996780
972.266885	0.995727
972.565223	0.995452
972.863524	0.996245
973.161788	0.995932
973.460014	0.996334
973.758204	0.995463
974.056356	0.996846
974.354471	0.994731
974.652550	0.996426
974.950591	0.995766
975.248595	0.996253
975.546563	0.996558
975.844493	0.998906
976.142386	0.996510
976.440243	0.997952
976.738062	0.998133
977.035845	0.997234
977.333590	0.996954
977.631299	0.998195
977.928971	0.997551
978.226606	0.996326
978.524204	0.996508
978.821765	0.998772
979.119290	0.996766
979.416777	0.997382
979.714228	0.997485
980.011642	0.995327
980.309020	0.998356
980.606360	0.997020
980.903664	0.998998
981.200931	0.996180
981.498162	0.993656
981.795356	0.994922
982.092513	0.994560
982.389633	0.995591
982.686717	0.990411
982.983764	0.991537
983.280775	0.990802
983.577749	0.990586
983.874686	0.991434
984.171587	0.992260
984.468451	0.993979
984.765279	0.994670
985.062070	0.996002
985.358824	0.994861
985.655543	0.993830
985.952224	0.995858
986.248869	0.996778
986.545478	0.998216
986.842050	0.996933
987.138586	0.996026
987.435086	0.997184
987.731549	0.998349
988.027975	0.998436
988.324366	0.997733
988.620719	0.997764
988.917037	0.996393
989.213318	0.997080
989.509563	0.998397
989.805772	0.999609
990.101944	0.997119
990.398080	0.997971
990.694180	0.997597
990.990244	0.998298
991.286271	0.997888
991.582262	0.997931
991.878217	0.999040
992.174136	0.998574
992.470019	0.998801
992.765865	0.998955
993.061676	0.998900
993.357450	0.998085
993.653188	0.997440
993.948890	0.997445
994.244556	0.997331
994.540186	0.997417
994.835780	0.996926
995.131337	0.997223
995.426859	0.996093
995.722345	0.997762
996.017795	0.997093
996.313208	0.995921
996.608586	0.995383
996.903928	0.996570
997.199234	0.996699
997.494504	0.997042
997.789738	0.995801
998.084936	0.997037
998.380099	0.997765
998.675225	0.998663
998.970316	0.998024
999.265371	0.997429
999.560390	0.997048
999.855373	0.998909
1000.150320	0.997508
1000.445232	0.997166
1000.740108	0.997938
1001.034948	0.997995
1001.329752	0.999348
1001.624521	0.998691
1001.919254	0.998918
1002.213951	0.997765
1002.508613	0.997444
1002.803239	0.997785
1003.097829	0.998689
1003.392384	0.999571
1003.686903	0.999271
1003.981386	0.997789
1004.275834	0.999972
1004.570246	0.998019
1004.864623	0.998812
1005.158964	0.999878
1005.453270	0.997830
1005.747540	0.997978
1006.041775	0.999074
1006.335974	0.999637
1006.630138	0.999326
1006.924266	0.999893
1007.218359	1.000313
1007.512416	0.998653
1007.806438	0.997784
1008.100425	0.998878
1008.394376	0.999435
1008.688292	0.998386
1008.982172	1.001181
1009.276017	0.998950
1009.569827	0.998346
1009.863602	0.999025
1010.157341	0.999578
1010.451045	0.999132
1010.744714	0.998044
1011.038347	0.999050
1011.331945	0.999228
1011.625508	0.997406
1011.919036	0.999212
1012.212528	0.998968
1012.505986	0.998216
1012.799408	0.998166
1013.092795	0.997436
1013.386147	0.998708
1013.679464	0.999491
1013.972745	0.998409
1014.265992	0.997661
1014.559204	0.999411
1014.852380	1.000181
1015.145521	0.999486
1015.438628	0.998317
1015.731699	0.998403
1016.024736	0.998081
1016.317737	0.999029
1016.610703	0.997636
1016.903635	1.000302
1017.196531	0.998548
1017.489393	1.000048
1017.782219	0.999116
1018.075011	0.998821
1018.367768	0.998093
1018.660490	0.999383
1018.953177	0.999383
1019.245829	0.999383
