Dividing Wavelength (nm)	Counts (n)	Blue Motor Position (mm): 0.000000	Red Motor Position (mm): 22.900000	
326.493990	1.000574
326.888308	1.000574
327.282561	1.000574
327.676750	0.999666
328.070874	0.998427
328.464933	0.999976
328.858929	0.999641
329.252859	1.000228
329.646726	0.998741
330.040528	0.999899
330.434265	0.998059
330.827938	1.000260
331.221547	1.000399
331.615091	1.000635
332.008571	0.999844
332.401986	1.000525
332.795338	0.999426
333.188625	0.997939
333.581847	0.999780
333.975006	1.001118
334.368100	0.999470
334.761129	0.999714
335.154095	1.000501
335.546996	0.997147
335.939833	0.993324
336.332606	0.993008
336.725315	0.994606
337.117960	0.995803
337.510540	0.993949
337.903056	0.994790
338.295508	0.994130
338.687896	0.994755
339.080220	0.994812
339.472480	0.993907
339.864676	0.993032
340.256807	0.994304
340.648875	0.994824
341.040879	0.996015
341.432818	0.993609
341.824694	0.994152
342.216506	0.994868
342.608253	0.994068
342.999937	0.994049
343.391557	0.993939
343.783113	0.993132
344.174605	0.994244
344.566033	0.994387
344.957397	0.993418
345.348697	0.993519
345.739934	0.994878
346.131106	0.993353
346.522215	0.993041
346.913260	0.993378
347.304241	0.994436
347.695159	0.993250
348.086012	0.992540
348.476802	0.992906
348.867528	0.995188
349.258191	0.993259
349.648789	0.994093
350.039324	0.994672
350.429796	0.995829
350.820203	0.994575
351.210548	0.994334
351.600828	0.993266
351.991045	0.993281
352.381198	0.994568
352.771288	0.994242
353.161314	0.994271
353.551276	0.995180
353.941175	0.992995
354.331010	0.994570
354.720782	0.994530
355.110490	0.994003
355.500135	0.993913
355.889717	0.993292
356.279235	0.993793
356.668689	0.993154
357.058080	0.994516
357.447408	0.995766
357.836672	0.994386
358.225873	0.995134
358.615010	0.994758
359.004084	0.995867
359.393095	0.994672
359.782043	0.995043
360.170927	0.994833
360.559748	0.995381
360.948505	0.993297
361.337199	0.994523
361.725830	0.994555
362.114398	0.994105
362.502903	0.994178
362.891344	0.994778
363.279722	0.993391
363.668037	0.995309
364.056289	0.993691
364.444478	0.995833
364.832603	0.994389
365.220665	0.993259
365.608665	0.994521
365.996601	0.993145
366.384474	0.993885
366.772284	0.994722
367.160031	0.993068
367.547715	0.993630
367.935336	0.993770
368.322893	0.993164
368.710388	0.994749
369.097820	0.994281
369.485189	0.994741
369.872495	0.993565
370.259738	0.992348
370.646918	0.996197
371.034035	0.995053
371.421090	0.993910
371.808081	0.993628
372.195010	0.994209
372.581875	0.994652
372.968678	0.993452
373.355418	0.993815
373.742096	0.992932
374.128710	0.995090
374.515262	0.994201
374.901751	0.994858
375.288177	0.994715
375.674540	0.995531
376.060841	0.993530
376.447079	0.995048
376.833254	0.994512
377.219367	0.994940
377.605417	0.995805
377.991404	0.995356
378.377329	0.994630
378.763191	0.996298
379.148991	0.995974
379.534727	0.996369
379.920402	0.995519
380.306013	0.995279
380.691563	0.995277
381.077049	0.995223
381.462474	0.995796
381.847835	0.996200
382.233134	0.995362
382.618371	0.995612
383.003545	0.996741
383.388657	0.995309
383.773706	0.996014
384.158693	0.996465
384.543618	0.995939
384.928480	0.995832
385.313280	0.995812
385.698017	0.996119
386.082692	0.996377
386.467305	0.996908
386.851856	0.997192
387.236344	0.996037
387.620770	0.996264
388.005133	0.996394
388.389435	0.997786
388.773674	0.995917
389.157851	0.997104
389.541965	0.996578
389.926018	0.996309
390.310008	0.997378
390.693936	0.996559
391.077802	0.996378
391.461606	0.996497
391.845348	0.996242
392.229027	0.997709
392.612645	0.996592
392.996200	0.997670
393.379694	0.996496
393.763125	0.997511
394.146494	0.997380
394.529801	0.996450
394.913047	0.997943
395.296230	0.997149
395.679351	0.996556
396.062410	0.996792
396.445408	0.997340
396.828343	0.996956
397.211217	0.997446
397.594028	0.997245
397.976778	0.996534
398.359466	0.996753
398.742092	0.996751
399.124656	0.996921
399.507158	0.996573
399.889598	0.997035
400.271977	0.997254
400.654294	0.996571
401.036549	0.997203
401.418742	0.996937
401.800874	0.996139
402.182944	0.996865
402.564952	0.996014
402.946898	0.997431
403.328783	0.997461
403.710606	0.995907
404.092367	0.997071
404.474067	0.997617
404.855705	0.996554
405.237282	0.996586
405.618797	0.996525
406.000250	0.996180
406.381642	0.996887
406.762972	0.996839
407.144240	0.997409
407.525447	0.997717
407.906593	0.996916
408.287677	0.996969
408.668700	0.997334
409.049661	0.996092
409.430560	0.997415
409.811399	0.996595
410.192176	0.996886
410.572891	0.995812
410.953545	0.996679
411.334138	0.995760
411.714669	0.997297
412.095139	0.996700
412.475547	0.996539
412.855894	0.996129
413.236180	0.996794
413.616405	0.996498
413.996568	0.997030
414.376670	0.996392
414.756711	0.996070
415.136691	0.996098
415.516609	0.996382
415.896466	0.996601
416.276262	0.996119
416.655997	0.996768
417.035670	0.995803
417.415283	0.996089
417.794834	0.996158
418.174324	0.996963
418.553753	0.996131
418.933121	0.995247
419.312428	0.996375
419.691674	0.996158
420.070859	0.996138
420.449983	0.995299
420.829045	0.995929
421.208047	0.995918
421.586988	0.996277
421.965867	0.994882
422.344686	0.994873
422.723444	0.994103
423.102141	0.993537
423.480777	0.992875
423.859352	0.991480
424.237866	0.990609
424.616319	0.990397
424.994712	0.989255
425.373044	0.989149
425.751314	0.987002
426.129524	0.984802
426.507673	0.983691
426.885762	0.983158
427.263789	0.979983
427.641756	0.978541
428.019662	0.977690
428.397508	0.974044
428.775292	0.971429
429.153016	0.969520
429.530679	0.968144
429.908282	0.964928
430.285824	0.961272
430.663305	0.956960
431.040726	0.954755
431.418086	0.953881
431.795385	0.949000
432.172624	0.944469
432.549802	0.941285
432.926920	0.936379
433.303977	0.932025
433.680974	0.928330
434.057910	0.922650
434.434786	0.918457
434.811601	0.913393
435.188355	0.905466
435.565050	0.902026
435.941683	0.896332
436.318257	0.888641
436.694770	0.881092
437.071222	0.876015
437.447614	0.870791
437.823946	0.866465
438.200218	0.857043
438.576429	0.852639
438.952580	0.843526
439.328670	0.835183
439.704700	0.830592
440.080670	0.824080
440.456580	0.809434
440.832429	0.804106
441.208218	0.800495
441.583947	0.788983
441.959616	0.781181
442.335224	0.774675
442.710773	0.763665
443.086261	0.753895
443.461689	0.752830
443.837057	0.739068
444.212365	0.726336
444.587612	0.720588
444.962800	0.707607
445.337927	0.700231
445.712995	0.704873
446.088002	0.676369
446.462949	0.674073
446.837837	0.667443
447.212664	0.654503
447.587431	0.639364
447.962139	0.613600
448.336786	0.580789
448.711374	0.580198
449.085901	0.598316
449.460369	0.591714
449.834776	0.585599
450.209124	0.564551
450.583412	0.550512
450.957640	0.539839
451.331808	0.538698
451.705917	0.547788
452.079965	0.543874
452.453954	0.527696
452.827883	0.525862
453.201752	0.515641
453.575562	0.518630
453.949311	0.502027
454.323001	0.501927
454.696632	0.492263
455.070202	0.480215
455.443713	0.468518
455.817164	0.458588
456.190556	0.449745
456.563888	0.441462
456.937160	0.434646
457.310373	0.444111
457.683526	0.437688
458.056619	0.438309
458.429653	0.434650
458.802628	0.433783
459.175542	0.425015
459.548398	0.405076
459.921194	0.395297
460.293930	0.392647
460.666607	0.368568
461.039224	0.355215
461.411782	0.348412
461.784280	0.343933
462.156719	0.344294
462.529099	0.345184
462.901419	0.357456
463.273680	0.359122
463.645882	0.356448
464.018024	0.359260
464.390106	0.350705
464.762130	0.334686
465.134094	0.317550
465.505999	0.286796
465.877845	0.256975
466.249631	0.242422
466.621358	0.247539
466.993026	0.259510
467.364634	0.264258
467.736184	0.271736
468.107674	0.279410
468.479105	0.277510
468.850477	0.283489
469.221790	0.289417
469.593043	0.298973
469.964238	0.303146
470.335373	0.301594
470.706449	0.299645
471.077467	0.299776
471.448425	0.261940
471.819324	0.237374
472.190164	0.236522
472.560945	0.264867
472.931667	0.286412
473.302330	0.290563
473.672934	0.302119
474.043479	0.289910
474.413965	0.291311
474.784393	0.295214
475.154761	0.289904
475.525070	0.286896
475.895321	0.292336
476.265513	0.286499
476.635645	0.281694
477.005719	0.281656
477.375734	0.278180
477.745691	0.271582
478.115588	0.268116
478.485427	0.261456
478.855207	0.248387
479.224928	0.230760
479.594591	0.218903
479.964194	0.222529
480.333739	0.223462
480.703226	0.224799
481.072653	0.223468
481.442022	0.218967
481.811333	0.215591
482.180584	0.218957
482.549777	0.223891
482.918912	0.227229
483.287988	0.227078
483.657005	0.226621
484.025964	0.233017
484.394864	0.230442
484.763706	0.231034
485.132489	0.235873
485.501213	0.236417
485.869879	0.234841
486.238487	0.238305
486.607036	0.235949
486.975527	0.240396
487.343959	0.236647
487.712333	0.235503
488.080648	0.236657
488.448905	0.236118
488.817104	0.237540
489.185244	0.231749
489.553326	0.228642
489.921350	0.218507
490.289315	0.201154
490.657222	0.196188
491.025070	0.197134
491.392861	0.199108
491.760593	0.205172
492.128267	0.210743
492.495883	0.215990
492.863440	0.222303
493.230939	0.228494
493.598380	0.229900
493.965763	0.231938
494.333088	0.234294
494.700354	0.235614
495.067563	0.234750
495.434713	0.237792
495.801805	0.235931
496.168839	0.237547
496.535815	0.238715
496.902733	0.238633
497.269593	0.240121
497.636395	0.237916
498.003139	0.238392
498.369825	0.241250
498.736453	0.237680
499.103023	0.239119
499.469535	0.238545
499.835989	0.238807
500.202385	0.239582
500.568723	0.242782
500.935003	0.238000
501.301226	0.242112
501.667390	0.236363
502.033497	0.234726
502.399546	0.237680
502.765537	0.239020
503.131470	0.238023
503.497345	0.234069
503.863163	0.242574
504.228923	0.235747
504.594625	0.234542
504.960269	0.239738
505.325856	0.235101
505.691385	0.239406
506.056856	0.236003
506.422270	0.235528
506.787625	0.237874
507.152924	0.235341
507.518164	0.235782
507.883347	0.237541
508.248472	0.239125
508.613540	0.234292
508.978550	0.236785
509.343503	0.237306
509.708398	0.234862
510.073236	0.232669
510.438016	0.232702
510.802738	0.233369
511.167403	0.232252
511.532010	0.234463
511.896561	0.229744
512.261053	0.228615
512.625488	0.230756
512.989866	0.230898
513.354186	0.231395
513.718449	0.232800
514.082655	0.229504
514.446803	0.231649
514.810894	0.229465
515.174927	0.232080
515.538904	0.231548
515.902822	0.228538
516.266684	0.230842
516.630488	0.232052
516.994235	0.230728
517.357925	0.229340
517.721558	0.227929
518.085133	0.227349
518.448651	0.227427
518.812112	0.229679
519.175516	0.229163
519.538863	0.227037
519.902152	0.228572
520.265385	0.225350
520.628560	0.227216
520.991678	0.227744
521.354739	0.226589
521.717743	0.227770
522.080690	0.228450
522.443580	0.225614
522.806413	0.226553
523.169189	0.225788
523.531908	0.224722
523.894569	0.228194
524.257174	0.228259
524.619722	0.225864
524.982213	0.226982
525.344647	0.225923
525.707025	0.227004
526.069345	0.225106
526.431608	0.226404
526.793815	0.224484
527.155964	0.228674
527.518057	0.227714
527.880093	0.228584
528.242072	0.227204
528.603995	0.229152
528.965860	0.230905
529.327669	0.229724
529.689421	0.230486
530.051117	0.231340
530.412755	0.229354
530.774337	0.231697
531.135862	0.231681
531.497331	0.230847
531.858743	0.233932
532.220098	0.230547
532.581396	0.233185
532.942638	0.233909
533.303824	0.234723
533.664953	0.234771
534.026025	0.236223
534.387040	0.234174
534.747999	0.234185
535.108902	0.233043
535.469748	0.238030
535.830537	0.235843
536.191270	0.236365
536.551947	0.235870
536.912567	0.235709
537.273131	0.237561
537.633638	0.237530
537.994089	0.237915
538.354483	0.239324
538.714821	0.236098
539.075103	0.235762
539.435328	0.236919
539.795497	0.240336
540.155609	0.236937
540.515665	0.235173
540.875665	0.240638
541.235609	0.239194
541.595496	0.239500
541.955328	0.235999
542.315102	0.238714
542.674821	0.239403
543.034483	0.239633
543.394090	0.239078
543.753640	0.241105
544.113134	0.236126
544.472571	0.239612
544.831953	0.236562
545.191278	0.240574
545.550548	0.240114
545.909761	0.236978
546.268918	0.237956
546.628019	0.235804
546.987064	0.238647
547.346053	0.240301
547.704986	0.238226
548.063863	0.238525
548.422684	0.238873
548.781449	0.240484
549.140158	0.238255
549.498811	0.241562
549.857408	0.244180
550.215949	0.239304
550.574434	0.242319
550.932864	0.240013
551.291237	0.238939
551.649555	0.240183
552.007817	0.239836
552.366022	0.240473
552.724173	0.240964
553.082267	0.241352
553.440305	0.238246
553.798288	0.242684
554.156215	0.239051
554.514086	0.239513
554.871902	0.242860
555.229661	0.242258
555.587365	0.242456
555.945014	0.245333
556.302606	0.242460
556.660143	0.244868
557.017625	0.241113
557.375050	0.243613
557.732421	0.240611
558.089735	0.242519
558.446994	0.242635
558.804197	0.241498
559.161345	0.241443
559.518437	0.245073
559.875474	0.242724
560.232455	0.242389
560.589381	0.243591
560.946251	0.243808
561.303065	0.241123
561.659825	0.242871
562.016528	0.244218
562.373177	0.247097
562.729770	0.244362
563.086307	0.246471
563.442789	0.243979
563.799216	0.246952
564.155587	0.245545
564.511904	0.246993
564.868164	0.246981
565.224370	0.246647
565.580520	0.248587
565.936615	0.248482
566.292654	0.251538
566.648638	0.248337
567.004567	0.249326
567.360441	0.250091
567.716260	0.251613
568.072023	0.249721
568.427732	0.250505
568.783385	0.252928
569.138982	0.250866
569.494525	0.250528
569.850013	0.253528
570.205445	0.251748
570.560823	0.254334
570.916145	0.256643
571.271412	0.254811
571.626625	0.256083
571.981782	0.256521
572.336884	0.257266
572.691931	0.257264
573.046923	0.258339
573.401860	0.259860
573.756743	0.261195
574.111570	0.260158
574.466342	0.260766
574.821059	0.259843
575.175722	0.262752
575.530330	0.262171
575.884882	0.262548
576.239380	0.264634
576.593823	0.265249
576.948211	0.264578
577.302544	0.267680
577.656823	0.267577
578.011047	0.267500
578.365216	0.268181
578.719330	0.270015
579.073389	0.270072
579.427394	0.271651
579.781344	0.272005
580.135239	0.273825
580.489080	0.273290
580.842866	0.276110
581.196597	0.275970
581.550273	0.274590
581.903895	0.275660
582.257463	0.273480
582.610975	0.277138
582.964434	0.276644
583.317837	0.278871
583.671186	0.279339
584.024481	0.279302
584.377721	0.281934
584.730906	0.282610
585.084037	0.281860
585.437113	0.283739
585.790135	0.282916
586.143103	0.286072
586.496016	0.287035
586.848874	0.284610
587.201679	0.285295
587.554428	0.288685
587.907124	0.287468
588.259765	0.287975
588.612352	0.288839
588.964884	0.292467
589.317362	0.291805
589.669786	0.291755
590.022155	0.290546
590.374470	0.289743
590.726731	0.291973
591.078937	0.296630
591.431090	0.292519
591.783188	0.297303
592.135232	0.297261
592.487222	0.297285
592.839157	0.296051
593.191038	0.297890
593.542866	0.299510
593.894639	0.303614
594.246358	0.301713
594.598022	0.300634
594.949633	0.304407
595.301190	0.305320
595.652692	0.304401
596.004141	0.300904
596.355535	0.308574
596.706876	0.309247
597.058162	0.311788
597.409395	0.308851
597.760573	0.305972
598.111698	0.309619
598.462768	0.310159
598.813785	0.311332
599.164748	0.313103
599.515657	0.313042
599.866511	0.316479
600.217312	0.311252
600.568060	0.317018
600.918753	0.313290
601.269392	0.314401
601.619978	0.317514
601.970510	0.315166
602.320988	0.315527
602.671412	0.313306
603.021783	0.315854
603.372100	0.317142
603.722363	0.316830
604.072572	0.317220
604.422728	0.317278
604.772830	0.318989
605.122878	0.318505
605.472872	0.319308
605.822813	0.317811
606.172701	0.320269
606.522534	0.317883
606.872314	0.317596
607.222041	0.318456
607.571714	0.316916
607.921333	0.318311
608.270899	0.317929
608.620411	0.314549
608.969870	0.318622
609.319276	0.318883
609.668627	0.318659
610.017926	0.317191
610.367171	0.315782
610.716362	0.315991
611.065500	0.316897
611.414585	0.315599
611.763616	0.316013
612.112594	0.316387
612.461518	0.315917
612.810389	0.313869
613.159207	0.316038
613.507971	0.317676
613.856682	0.313329
614.205340	0.314960
614.553945	0.311648
614.902496	0.315588
615.250994	0.313555
615.599439	0.314443
615.947830	0.313899
616.296169	0.314752
616.644454	0.314427
616.992686	0.314477
617.340864	0.312258
617.688990	0.315806
618.037063	0.312678
618.385082	0.314013
618.733048	0.311322
619.080961	0.313528
619.428821	0.312937
619.776628	0.312514
620.124382	0.314401
620.472083	0.314919
620.819731	0.313829
621.167326	0.318016
621.514868	0.317715
621.862357	0.322020
622.209793	0.321511
622.557176	0.323612
622.904506	0.324919
623.251783	0.326873
623.599007	0.329466
623.946179	0.329038
624.293297	0.330833
624.640363	0.334592
624.987376	0.335298
625.334336	0.337695
625.681243	0.340014
626.028097	0.340757
626.374899	0.341390
626.721647	0.341999
627.068343	0.345200
627.414987	0.346318
627.761577	0.348540
628.108115	0.346562
628.454600	0.351889
628.801032	0.348886
629.147412	0.351256
629.493739	0.351575
629.840014	0.354794
630.186236	0.351860
630.532405	0.357588
630.878521	0.355069
631.224585	0.357159
631.570597	0.361047
631.916556	0.359323
632.262462	0.359772
632.608316	0.361417
632.954117	0.361930
633.299866	0.363426
633.645562	0.363756
633.991206	0.367823
634.336797	0.370756
634.682336	0.373313
635.027823	0.374827
635.373257	0.375332
635.718639	0.378683
636.063968	0.378060
636.409245	0.383702
636.754470	0.384304
637.099642	0.386496
637.444762	0.389671
637.789829	0.389032
638.134845	0.392637
638.479808	0.393556
638.824719	0.393281
639.169577	0.396876
639.514383	0.396185
639.859137	0.400818
640.203839	0.400273
640.548489	0.401042
640.893086	0.402251
641.237632	0.403922
641.582125	0.402078
641.926566	0.403543
642.270955	0.403667
642.615292	0.404302
642.959576	0.403427
643.303809	0.403996
643.647990	0.403016
643.992118	0.403813
644.336195	0.407277
644.680219	0.406112
645.024192	0.406397
645.368112	0.400187
645.711981	0.399541
646.055797	0.394884
646.399562	0.396828
646.743274	0.388862
647.086935	0.386254
647.430544	0.386557
647.774101	0.385414
648.117606	0.385047
648.461059	0.385568
648.804460	0.387932
649.147810	0.393195
649.491108	0.394951
649.834354	0.396038
650.177548	0.401649
650.520690	0.407024
650.863781	0.408501
651.206820	0.407604
651.549807	0.412396
651.892742	0.416345
652.235626	0.415589
652.578458	0.417129
652.921238	0.422611
653.263967	0.420841
653.606644	0.424927
653.949269	0.424423
654.291843	0.427943
654.634365	0.424909
654.976836	0.428173
655.319255	0.428275
655.661622	0.430287
656.003938	0.430096
656.346203	0.432691
656.688416	0.430656
657.030577	0.434155
657.372687	0.436054
657.714746	0.436598
658.056753	0.434120
658.398708	0.437707
658.740612	0.439142
659.082465	0.434733
659.424266	0.435902
659.766016	0.434614
660.107715	0.437477
660.449362	0.436860
660.790958	0.437149
661.132503	0.437814
661.473996	0.435365
661.815438	0.436380
662.156829	0.436534
662.498168	0.436827
662.839456	0.438731
663.180693	0.436514
663.521879	0.436320
663.863013	0.437525
664.204097	0.436113
664.545129	0.432846
664.886110	0.433342
665.227040	0.430663
665.567918	0.432958
665.908746	0.430740
666.249522	0.430681
666.590248	0.431439
666.930922	0.429856
667.271545	0.428477
667.612118	0.429164
667.952639	0.430648
668.293109	0.428571
668.633528	0.431748
668.973896	0.431383
669.314213	0.432188
669.654480	0.433039
669.994695	0.434115
670.334859	0.435376
670.674973	0.435170
671.015035	0.435011
671.355047	0.435577
671.695008	0.435987
672.034918	0.438506
672.374777	0.437174
672.714585	0.438227
673.054342	0.438100
673.394049	0.438628
673.733705	0.436366
674.073310	0.437448
674.412864	0.440547
674.752368	0.441420
675.091820	0.440872
675.431223	0.445860
675.770574	0.445602
676.109875	0.448383
676.449125	0.448244
676.788324	0.450762
677.127473	0.456096
677.466571	0.455806
677.805619	0.457552
678.144616	0.458648
678.483562	0.460404
678.822458	0.462937
679.161303	0.463917
679.500098	0.464053
679.838842	0.465666
680.177535	0.465346
680.516179	0.463792
680.854771	0.463153
681.193314	0.456262
681.531805	0.447983
681.870247	0.436322
682.208638	0.428756
682.546978	0.427732
682.885268	0.429249
683.223508	0.435783
683.561697	0.439901
683.899836	0.441901
684.237925	0.445583
684.575963	0.447893
684.913951	0.451369
685.251889	0.446673
685.589776	0.449056
685.927614	0.451462
686.265401	0.445454
686.603137	0.446693
686.940824	0.441504
687.278460	0.439414
687.616046	0.438247
687.953582	0.433290
688.291068	0.434844
688.628504	0.430705
688.965889	0.432862
689.303224	0.436894
689.640510	0.440916
689.977745	0.446556
690.314930	0.454908
690.652065	0.459058
690.989150	0.466510
691.326185	0.473053
691.663170	0.477616
692.000105	0.484667
692.336990	0.491463
692.673825	0.494195
693.010610	0.501127
693.347345	0.506236
693.684030	0.507885
694.020665	0.513188
694.357251	0.521349
694.693786	0.521177
695.030272	0.525051
695.366707	0.529473
695.703093	0.532259
696.039429	0.529393
696.375716	0.531693
696.711952	0.533964
697.048139	0.536401
697.384276	0.538443
697.720363	0.536478
698.056400	0.535572
698.392388	0.541725
698.728326	0.543891
699.064214	0.547644
699.400053	0.548000
699.735842	0.551855
700.071581	0.554062
700.407270	0.556992
700.742910	0.559870
701.078501	0.565934
701.414042	0.566079
701.749533	0.569377
702.084974	0.578719
702.420366	0.570618
702.755709	0.578637
703.091002	0.585782
703.426246	0.579382
703.761440	0.585471
704.096584	0.590030
704.431679	0.587088
704.766725	0.589271
705.101721	0.591351
705.436668	0.586550
705.771565	0.594018
706.106413	0.590870
706.441212	0.586348
706.775961	0.584641
707.110661	0.587519
707.445311	0.583956
707.779913	0.581083
708.114465	0.579309
708.448967	0.576266
708.783421	0.568967
709.117825	0.563293
709.452180	0.563736
709.786485	0.556900
710.120742	0.546816
710.454949	0.549228
710.789107	0.540944
711.123216	0.532428
711.457275	0.533047
711.791286	0.524818
712.125247	0.523451
712.459159	0.534423
712.793023	0.527148
713.126837	0.530884
713.460602	0.531402
713.794318	0.540717
714.127985	0.539376
714.461602	0.549936
714.795171	0.553069
715.128691	0.560830
715.462162	0.567861
715.795584	0.573669
716.128957	0.576726
716.462281	0.582717
716.795556	0.586556
717.128782	0.591066
717.461960	0.601478
717.795088	0.599723
718.128167	0.605535
718.461198	0.615098
718.794180	0.614698
719.127113	0.617641
719.459997	0.621504
719.792833	0.627613
720.125619	0.629070
720.458357	0.634333
720.791046	0.634246
721.123686	0.637622
721.456278	0.644771
721.788821	0.642885
722.121315	0.645919
722.453761	0.650434
722.786158	0.648546
723.118506	0.644883
723.450805	0.652069
723.783056	0.648398
724.115259	0.645207
724.447412	0.645230
724.779518	0.646417
725.111574	0.645765
725.443582	0.641238
725.775542	0.643480
726.107453	0.635649
726.439315	0.635983
726.771129	0.634525
727.102895	0.627632
727.434612	0.619695
727.766281	0.617605
728.097901	0.617759
728.429473	0.616789
728.760996	0.615515
729.092471	0.615768
729.423897	0.619779
729.755276	0.618700
730.086606	0.618892
730.417887	0.612917
730.749120	0.604769
731.080305	0.594839
731.411442	0.590834
731.742530	0.595820
732.073570	0.595077
732.404562	0.587312
732.735506	0.589042
733.066401	0.593000
733.397249	0.602565
733.728048	0.613101
734.058798	0.626023
734.389501	0.637473
734.720156	0.647521
735.050762	0.655165
735.381320	0.655438
735.711831	0.665212
736.042293	0.669546
736.372707	0.665671
736.703073	0.669923
737.033391	0.672479
737.363661	0.669523
737.693883	0.664249
738.024056	0.663195
738.354182	0.664463
738.684260	0.652882
739.014290	0.649414
739.344272	0.650060
739.674207	0.642946
740.004093	0.643386
740.333931	0.643695
740.663722	0.643532
740.993464	0.644401
741.323159	0.647055
741.652806	0.652338
741.982405	0.657173
742.311956	0.661733
742.641460	0.663854
742.970915	0.667748
743.300323	0.675314
743.629683	0.681725
743.958996	0.684227
744.288260	0.688511
744.617477	0.693608
744.946647	0.695703
745.275768	0.700788
745.604842	0.701132
745.933869	0.711109
746.262847	0.711032
746.591778	0.705458
746.920662	0.710607
747.249498	0.717434
747.578286	0.708440
747.907027	0.704055
748.235720	0.705995
748.564365	0.700301
748.892963	0.700138
749.221514	0.703588
749.550017	0.708336
749.878473	0.708110
750.206881	0.714777
750.535242	0.715398
750.863555	0.715883
751.191821	0.716928
751.520039	0.720076
751.848210	0.725295
752.176334	0.717374
752.504411	0.716886
752.832440	0.724182
753.160421	0.728386
753.488356	0.726382
753.816243	0.723823
754.144082	0.732532
754.471875	0.736063
754.799620	0.731803
755.127318	0.732421
755.454969	0.732015
755.782572	0.731741
756.110129	0.737950
756.437638	0.740321
756.765100	0.735442
757.092515	0.733961
757.419882	0.732308
757.747203	0.737593
758.074477	0.738162
758.401703	0.735195
758.728882	0.729952
759.056014	0.728784
759.383099	0.727453
759.710138	0.729465
760.037129	0.725899
760.364073	0.719746
760.690970	0.721739
761.017820	0.727999
761.344623	0.722257
761.671379	0.714051
761.998088	0.702630
762.324751	0.679990
762.651366	0.638633
762.977935	0.571504
763.304456	0.519828
763.630931	0.510404
763.957359	0.549202
764.283740	0.593337
764.610074	0.620791
764.936362	0.650903
765.262602	0.678527
765.588796	0.698198
765.914943	0.717283
766.241044	0.735169
766.567097	0.741202
766.893104	0.750521
767.219064	0.757742
767.544978	0.764675
767.870845	0.777123
768.196665	0.781799
768.522438	0.779600
768.848165	0.780448
769.173846	0.789309
769.499479	0.793924
769.825066	0.797438
770.150607	0.802400
770.476101	0.798260
770.801548	0.798037
771.126949	0.810528
771.452303	0.813862
771.777611	0.813274
772.102872	0.812386
772.428087	0.818081
772.753256	0.821048
773.078378	0.823239
773.403453	0.831654
773.728482	0.836567
774.053465	0.830325
774.378401	0.833829
774.703291	0.841789
775.028135	0.842044
775.352932	0.843333
775.677683	0.845992
776.002388	0.847287
776.327046	0.845340
776.651658	0.848814
776.976224	0.851945
777.300743	0.853175
777.625216	0.855016
777.949643	0.857370
778.274024	0.856081
778.598359	0.858333
778.922647	0.856947
779.246889	0.857036
779.571086	0.861115
779.895236	0.863557
780.219339	0.861164
780.543397	0.858330
780.867409	0.857394
781.191374	0.858130
781.515294	0.859693
781.839167	0.858621
782.162995	0.862365
782.486776	0.858353
782.810511	0.860333
783.134201	0.864376
783.457844	0.861616
783.781441	0.864337
784.104993	0.869913
784.428498	0.870432
784.751958	0.866655
785.075372	0.868058
785.398739	0.872010
785.722061	0.869108
786.045337	0.864250
786.368568	0.869875
786.691752	0.872451
787.014891	0.856594
787.337983	0.849318
787.661030	0.840748
787.984031	0.823744
788.306987	0.811482
788.629897	0.812718
788.952760	0.817405
789.275579	0.821374
789.598351	0.835927
789.921078	0.849166
790.243759	0.851509
790.566395	0.855907
790.888984	0.863643
791.211529	0.869009
791.534027	0.871371
791.856480	0.873821
792.178888	0.878458
792.501249	0.881554
792.823566	0.882026
793.145836	0.882567
793.468062	0.884029
793.790241	0.884543
794.112375	0.882790
794.434464	0.878873
794.756507	0.877872
795.078505	0.877532
795.400457	0.872064
795.722364	0.859773
796.044226	0.853003
796.366042	0.852062
796.687812	0.855873
797.009538	0.851625
797.331218	0.854974
797.652852	0.860404
797.974442	0.864974
798.295986	0.863575
798.617484	0.866572
798.938938	0.871006
799.260346	0.875819
799.581709	0.878161
799.903026	0.879779
800.224299	0.880655
800.545526	0.885129
800.866708	0.888023
801.187845	0.892251
801.508936	0.891856
801.829983	0.889294
802.150984	0.892133
802.471940	0.897630
802.792851	0.897006
803.113717	0.897922
803.434538	0.896557
803.755314	0.898700
804.076045	0.899897
804.396731	0.900116
804.717372	0.899730
805.037967	0.901769
805.358518	0.899653
805.679024	0.896568
805.999485	0.896464
806.319901	0.897314
806.640272	0.899000
806.960598	0.896164
807.280879	0.894857
807.601115	0.891629
807.921306	0.895388
808.241453	0.895965
808.561554	0.894263
808.881611	0.894356
809.201623	0.896137
809.521590	0.896165
809.841513	0.897427
810.161390	0.897015
810.481223	0.897995
810.801011	0.901634
811.120755	0.902381
811.440453	0.901729
811.760107	0.899913
812.079716	0.899831
812.399281	0.904175
812.718801	0.906653
813.038276	0.907130
813.357707	0.906934
813.677093	0.904159
813.996434	0.906095
814.315731	0.908897
814.634983	0.909392
814.954191	0.907714
815.273354	0.904482
815.592473	0.900496
815.911547	0.902016
816.230577	0.898651
816.549562	0.895612
816.868502	0.897364
817.187399	0.892864
817.506250	0.887956
817.825058	0.889105
818.143821	0.887085
818.462539	0.881924
818.781213	0.872838
819.099843	0.862824
819.418429	0.846663
819.736970	0.829234
820.055466	0.810073
820.373919	0.785271
820.692327	0.751500
821.010691	0.717056
821.329011	0.639950
821.647286	0.525011
821.965517	0.412000
822.283704	0.369486
822.601847	0.370798
822.919945	0.406941
823.237999	0.440121
823.556010	0.486050
823.873976	0.542037
824.191897	0.592451
824.509775	0.634445
824.827609	0.679531
825.145398	0.702396
825.463144	0.705056
825.780845	0.688160
826.098502	0.670480
826.416116	0.623826
826.733685	0.579883
827.051210	0.572085
827.368692	0.586544
827.686129	0.623667
828.003522	0.676391
828.320872	0.723399
828.638177	0.767652
828.955439	0.799903
829.272656	0.821849
829.589830	0.838822
829.906960	0.855179
830.224046	0.866959
830.541088	0.877867
830.858086	0.881149
831.175041	0.888229
831.491952	0.887575
831.808819	0.883646
832.125642	0.877041
832.442421	0.862389
832.759157	0.840481
833.075849	0.794918
833.392497	0.730977
833.709101	0.690985
834.025662	0.700163
834.342179	0.731139
834.658653	0.769525
834.975083	0.806003
835.291469	0.832970
835.607811	0.854755
835.924110	0.870262
836.240366	0.886725
836.556578	0.902028
836.872746	0.909837
837.188871	0.914394
837.504952	0.920801
837.820990	0.923670
838.136984	0.926875
838.452935	0.930428
838.768842	0.931770
839.084706	0.924185
839.400526	0.899203
839.716303	0.859541
840.032037	0.836521
840.347727	0.841080
840.663373	0.859668
840.978977	0.879710
841.294537	0.902041
841.610054	0.917786
841.925527	0.925873
842.240957	0.932492
842.556344	0.940205
842.871687	0.946280
843.186987	0.950398
843.502244	0.949995
843.817458	0.951724
844.132629	0.955284
844.447756	0.960192
844.762840	0.959564
845.077881	0.960169
845.392879	0.960319
845.707833	0.962337
846.022745	0.963986
846.337613	0.965830
846.652438	0.965111
846.967221	0.963860
847.281960	0.964410
847.596656	0.967608
847.911309	0.965392
848.225919	0.967521
848.540485	0.969084
848.855009	0.968876
849.169490	0.968362
849.483928	0.970132
849.798323	0.969751
850.112675	0.969666
850.426984	0.968675
850.741251	0.969870
851.055474	0.969721
851.369654	0.967577
851.683792	0.969216
851.997887	0.969743
852.311938	0.970669
852.625947	0.968029
852.939914	0.967371
853.253837	0.969435
853.567718	0.969553
853.881555	0.970157
854.195350	0.967851
854.509103	0.970358
854.822812	0.970572
855.136479	0.970486
855.450103	0.969264
855.763685	0.967574
856.077224	0.969651
856.390720	0.970914
856.704173	0.970019
857.017584	0.968514
857.330953	0.965914
857.644278	0.967279
857.957561	0.968050
858.270802	0.968573
858.584000	0.968009
858.897155	0.966128
859.210268	0.966691
859.523339	0.968437
859.836367	0.969683
860.149352	0.971513
860.462295	0.969125
860.775195	0.969953
861.088054	0.969417
861.400869	0.970304
861.713642	0.969926
862.026373	0.969591
862.339062	0.969862
862.651708	0.968415
862.964312	0.967761
863.276873	0.969863
863.589392	0.968128
863.901869	0.966268
864.214303	0.965762
864.526696	0.963856
864.839045	0.962820
865.151353	0.961571
865.463619	0.961638
865.775842	0.962383
866.088023	0.961524
866.400162	0.961836
866.712258	0.962618
867.024313	0.962121
867.336325	0.962144
867.648296	0.963695
867.960224	0.961912
868.272110	0.961544
868.583954	0.964022
868.895755	0.964153
869.207515	0.963037
869.519233	0.959457
869.830909	0.961037
870.142542	0.962003
870.454134	0.962712
870.765684	0.960549
871.077191	0.958001
871.388657	0.958740
871.700081	0.957432
872.011463	0.957737
872.322803	0.958784
872.634101	0.956778
872.945357	0.953576
873.256571	0.953404
873.567744	0.953173
873.878874	0.953910
874.189963	0.952447
874.501010	0.951311
874.812015	0.948682
875.122979	0.950961
875.433900	0.953421
875.744780	0.953207
876.055618	0.951089
876.366415	0.950851
876.677169	0.950386
876.987882	0.950896
877.298554	0.951338
877.609183	0.947060
877.919771	0.945495
878.230317	0.942812
878.540822	0.940847
878.851285	0.934950
879.161707	0.926996
879.472087	0.915598
879.782425	0.899255
880.092722	0.865879
880.402977	0.813528
880.713191	0.753109
881.023363	0.695329
881.333494	0.661909
881.643583	0.633211
881.953631	0.632697
882.263637	0.661222
882.573602	0.701579
882.883526	0.727125
883.193408	0.749792
883.503248	0.771792
883.813048	0.798853
884.122806	0.828782
884.432522	0.851749
884.742197	0.871584
885.051831	0.882377
885.361424	0.891532
885.670975	0.904227
885.980485	0.913737
886.289954	0.919836
886.599382	0.925013
886.908768	0.929139
887.218113	0.934652
887.527417	0.938125
887.836680	0.941035
888.145901	0.942975
888.455082	0.946832
888.764221	0.951084
889.073319	0.952924
889.382376	0.953106
889.691392	0.953249
890.000366	0.953091
890.309300	0.954763
890.618193	0.953467
890.927044	0.951154
891.235855	0.951934
891.544625	0.951068
891.853353	0.953325
892.162041	0.948833
892.470687	0.942626
892.779293	0.938264
893.087858	0.933525
893.396381	0.927012
893.704864	0.913724
894.013306	0.889747
894.321707	0.862821
894.630068	0.849409
894.938387	0.844978
895.246665	0.845646
895.554903	0.858841
895.863100	0.871415
896.171256	0.888093
896.479371	0.905996
896.787446	0.919728
897.095480	0.926001
897.403473	0.929036
897.711425	0.933538
898.019336	0.939712
898.327207	0.943623
898.635038	0.946359
898.942827	0.945226
899.250576	0.948186
899.558284	0.952678
899.865952	0.952909
900.173579	0.956335
900.481165	0.954310
900.788711	0.960770
901.096216	0.960583
901.403681	0.961377
901.711105	0.962155
902.018489	0.963771
902.325832	0.963609
902.633135	0.961393
902.940397	0.956436
903.247619	0.944430
903.554800	0.918616
903.861941	0.879081
904.169041	0.844264
904.476101	0.827604
904.783121	0.827920
905.090100	0.844133
905.397039	0.865309
905.703938	0.887091
906.010796	0.906982
906.317614	0.923314
906.624391	0.934902
906.931129	0.944859
907.237826	0.950645
907.544483	0.959436
907.851099	0.962671
908.157675	0.967312
908.464211	0.968872
908.770707	0.972068
909.077163	0.974107
909.383578	0.974773
909.689954	0.975403
909.996289	0.974716
910.302584	0.978410
910.608839	0.978712
910.915054	0.978543
911.221229	0.976946
911.527363	0.977801
911.833458	0.977063
912.139513	0.978317
912.445527	0.975450
912.751502	0.974278
913.057436	0.972240
913.363331	0.969828
913.669186	0.966449
913.975000	0.960795
914.280775	0.956331
914.586510	0.948919
914.892205	0.936034
915.197859	0.914559
915.503475	0.887742
915.809050	0.868075
916.114585	0.863201
916.420081	0.860517
916.725536	0.857264
917.030952	0.864444
917.336328	0.878186
917.641665	0.893403
917.946961	0.907811
918.252218	0.920322
918.557435	0.928368
918.862612	0.937087
919.167750	0.942381
919.472848	0.947609
919.777906	0.953580
920.082925	0.958521
920.387904	0.961645
920.692843	0.963510
920.997743	0.964046
921.302603	0.967837
921.607423	0.969049
921.912204	0.972146
922.216946	0.970972
922.521647	0.974051
922.826310	0.974077
923.130932	0.977392
923.435516	0.977862
923.740059	0.978773
924.044564	0.978631
924.349028	0.980260
924.653454	0.982247
924.957840	0.984483
925.262186	0.983876
925.566493	0.983582
925.870761	0.985201
926.174989	0.984962
926.479178	0.987924
926.783328	0.987213
927.087438	0.988020
927.391509	0.986951
927.695541	0.989959
927.999533	0.988109
928.303486	0.989290
928.607400	0.990240
928.911275	0.989143
929.215110	0.989696
929.518906	0.990679
929.822663	0.990497
930.126381	0.990326
930.430060	0.990625
930.733699	0.990078
931.037299	0.989265
931.340861	0.990476
931.644383	0.989482
931.947866	0.990508
932.251309	0.990079
932.554714	0.990327
932.858080	0.989962
933.161407	0.989919
933.464694	0.990913
933.767943	0.989159
934.071153	0.990259
934.374323	0.991468
934.677455	0.991323
934.980548	0.991448
935.283602	0.989882
935.586617	0.990110
935.889593	0.991422
936.192530	0.990018
936.495428	0.990374
936.798287	0.991184
937.101108	0.989909
937.403890	0.988116
937.706632	0.989174
938.009336	0.986736
938.312002	0.985812
938.614628	0.985042
938.917216	0.983549
939.219765	0.980976
939.522275	0.982672
939.824747	0.982532
940.127179	0.982322
940.429573	0.984749
940.731929	0.983940
941.034246	0.983889
941.336524	0.984811
941.638763	0.986062
941.940964	0.985669
942.243126	0.986064
942.545250	0.987685
942.847335	0.987976
943.149381	0.988304
943.451389	0.988482
943.753359	0.987970
944.055290	0.990111
944.357182	0.988829
944.659036	0.988993
944.960851	0.988840
945.262628	0.989045
945.564367	0.990183
945.866067	0.989505
946.167729	0.989227
946.469352	0.989598
946.770937	0.989147
947.072484	0.989899
947.373992	0.989580
947.675462	0.990726
947.976893	0.990682
948.278286	0.989564
948.579641	0.991135
948.880958	0.990827
949.182236	0.991420
949.483476	0.991434
949.784678	0.990096
950.085841	0.991846
950.386967	0.990946
950.688054	0.990994
950.989103	0.989637
951.290114	0.989167
951.591087	0.989932
951.892021	0.988945
952.192917	0.989775
952.493776	0.988392
952.794596	0.988321
953.095378	0.987065
953.396122	0.989009
953.696828	0.987828
953.997496	0.989874
954.298126	0.991620
954.598718	0.990155
954.899272	0.990424
955.199788	0.989571
955.500266	0.990723
955.800706	0.993188
956.101108	0.992883
956.401472	0.993784
956.701798	0.994038
957.002087	0.992778
957.302337	0.993780
957.602550	0.993887
957.902724	0.994346
958.202861	0.995792
958.502960	0.995934
958.803022	0.993835
959.103045	0.996425
959.403031	0.996126
959.702979	0.994462
960.002889	0.995808
960.302762	0.994386
960.602596	0.995732
960.902393	0.993686
961.202153	0.995429
961.501875	0.996017
961.801559	0.995861
962.101205	0.995367
962.400814	0.994929
962.700385	0.996138
962.999918	0.995665
963.299414	0.995235
963.598873	0.996718
963.898293	0.995104
964.197677	0.995005
964.497022	0.996043
964.796331	0.997643
965.095601	0.998097
965.394835	0.996359
965.694030	0.996995
965.993189	0.996262
966.292309	0.996954
966.591393	0.997390
966.890439	0.996436
967.189447	0.995326
967.488419	0.996375
967.787353	0.996719
968.086249	0.996850
968.385108	0.996603
968.683930	0.996903
968.982714	0.996544
969.281462	0.996670
969.580172	0.995775
969.878844	0.996386
970.177480	0.995928
970.476078	0.997018
970.774639	0.996042
971.073162	0.997699
971.371649	0.995894
971.670098	0.995959
971.968510	0.997700
972.266885	0.994729
972.565223	0.995852
972.863524	0.995081
973.161788	0.995894
973.460014	0.997195
973.758204	0.996292
974.056356	0.995431
974.354471	0.994060
974.652550	0.995851
974.950591	0.995584
975.248595	0.996268
975.546563	0.996185
975.844493	0.996835
976.142386	0.996772
976.440243	0.996573
976.738062	0.996411
977.035845	0.997976
977.333590	0.995982
977.631299	0.996583
977.928971	0.996547
978.226606	0.996355
978.524204	0.995851
978.821765	0.997662
979.119290	0.996274
979.416777	0.996809
979.714228	0.996209
980.011642	0.996279
980.309020	0.995980
980.606360	0.996054
980.903664	0.998801
981.200931	0.996167
981.498162	0.993893
981.795356	0.994091
982.092513	0.994873
982.389633	0.993166
982.686717	0.990394
982.983764	0.990907
983.280775	0.989857
983.577749	0.989898
983.874686	0.991731
984.171587	0.990579
984.468451	0.994195
984.765279	0.995130
985.062070	0.994681
985.358824	0.994478
985.655543	0.995323
985.952224	0.995705
986.248869	0.995347
986.545478	0.995722
986.842050	0.998672
987.138586	0.994390
987.435086	0.997200
987.731549	0.998739
988.027975	0.997741
988.324366	0.996210
988.620719	0.996237
988.917037	0.996323
989.213318	0.997344
989.509563	0.998065
989.805772	0.998675
990.101944	0.997957
990.398080	0.996976
990.694180	0.996303
990.990244	0.997175
991.286271	0.998169
991.582262	0.997797
991.878217	0.996905
992.174136	0.998607
992.470019	0.998485
992.765865	0.997488
993.061676	0.998147
993.357450	0.998025
993.653188	0.996127
993.948890	0.997098
994.244556	0.996549
994.540186	0.997876
994.835780	0.995997
995.131337	0.996663
995.426859	0.997332
995.722345	0.995993
996.017795	0.996548
996.313208	0.996063
996.608586	0.996196
996.903928	0.996493
997.199234	0.995758
997.494504	0.995488
997.789738	0.996471
998.084936	0.996319
998.380099	0.997811
998.675225	0.997039
998.970316	0.996260
999.265371	0.998797
999.560390	0.997868
999.855373	0.998191
1000.150320	0.998692
1000.445232	0.997496
1000.740108	0.997730
1001.034948	0.998113
1001.329752	0.998306
1001.624521	0.997952
1001.919254	0.997961
1002.213951	0.998889
1002.508613	0.996924
1002.803239	0.998572
1003.097829	0.998492
1003.392384	0.997792
1003.686903	0.999044
1003.981386	0.998622
1004.275834	0.998910
1004.570246	0.997713
1004.864623	0.997733
1005.158964	0.998986
1005.453270	0.998412
1005.747540	0.997177
1006.041775	0.999314
1006.335974	0.998173
1006.630138	0.998870
1006.924266	0.999365
1007.218359	1.000124
1007.512416	0.998313
1007.806438	0.998523
1008.100425	0.999960
1008.394376	0.998135
1008.688292	0.998260
1008.982172	1.001286
1009.276017	0.996851
1009.569827	0.998801
1009.863602	0.999212
1010.157341	0.999812
1010.451045	0.998725
1010.744714	0.998307
1011.038347	0.999194
1011.331945	0.997423
1011.625508	0.998270
1011.919036	0.998454
1012.212528	0.998102
1012.505986	0.997959
1012.799408	0.997179
1013.092795	0.998561
1013.386147	0.999806
1013.679464	0.998732
1013.972745	0.997007
1014.265992	0.996036
1014.559204	0.998477
1014.852380	0.998511
1015.145521	0.997675
1015.438628	0.998963
1015.731699	0.997946
1016.024736	0.998833
1016.317737	0.999042
1016.610703	0.997885
1016.903635	0.999716
1017.196531	0.998382
1017.489393	1.000120
1017.782219	0.998141
1018.075011	0.998307
1018.367768	0.999556
1018.660490	0.998904
1018.953177	0.998904
1019.245829	0.998904
