Dividing Wavelength (nm)	Counts (n)	Blue Motor Position (mm): 0.000000	Red Motor Position (mm): 27.900000	
326.493990	0.999865
326.888308	0.999865
327.282561	0.999865
327.676750	1.000005
328.070874	0.999698
328.464933	0.999935
328.858929	0.998572
329.252859	0.998836
329.646726	0.998931
330.040528	1.000414
330.434265	0.998523
330.827938	1.000916
331.221547	0.999792
331.615091	1.000645
332.008571	0.999234
332.401986	0.999962
332.795338	1.000106
333.188625	0.998511
333.581847	0.999869
333.975006	0.998926
334.368100	0.998863
334.761129	1.000184
335.154095	1.000799
335.546996	0.997470
335.939833	0.994615
336.332606	0.994775
336.725315	0.995800
337.117960	0.995648
337.510540	0.994860
337.903056	0.996181
338.295508	0.993417
338.687896	0.995241
339.080220	0.995181
339.472480	0.994808
339.864676	0.995160
340.256807	0.994556
340.648875	0.995965
341.040879	0.995728
341.432818	0.994201
341.824694	0.995251
342.216506	0.996548
342.608253	0.995212
342.999937	0.994246
343.391557	0.996203
343.783113	0.994217
344.174605	0.994695
344.566033	0.996158
344.957397	0.994382
345.348697	0.994112
345.739934	0.994865
346.131106	0.994798
346.522215	0.993821
346.913260	0.995241
347.304241	0.994919
347.695159	0.995065
348.086012	0.994566
348.476802	0.995135
348.867528	0.994627
349.258191	0.995017
349.648789	0.995574
350.039324	0.995522
350.429796	0.994334
350.820203	0.994828
351.210548	0.995161
351.600828	0.994809
351.991045	0.995018
352.381198	0.993425
352.771288	0.995586
353.161314	0.994835
353.551276	0.996020
353.941175	0.995964
354.331010	0.994189
354.720782	0.996941
355.110490	0.995123
355.500135	0.996178
355.889717	0.995294
356.279235	0.994904
356.668689	0.994638
357.058080	0.995710
357.447408	0.995473
357.836672	0.995613
358.225873	0.996116
358.615010	0.995805
359.004084	0.994850
359.393095	0.995603
359.782043	0.994646
360.170927	0.995756
360.559748	0.995304
360.948505	0.994337
361.337199	0.994465
361.725830	0.995697
362.114398	0.994794
362.502903	0.995571
362.891344	0.996638
363.279722	0.995339
363.668037	0.996243
364.056289	0.994961
364.444478	0.996513
364.832603	0.996032
365.220665	0.994150
365.608665	0.994371
365.996601	0.994366
366.384474	0.995490
366.772284	0.995336
367.160031	0.994098
367.547715	0.994365
367.935336	0.996910
368.322893	0.994648
368.710388	0.994296
369.097820	0.995114
369.485189	0.995918
369.872495	0.993521
370.259738	0.994166
370.646918	0.995276
371.034035	0.995065
371.421090	0.994749
371.808081	0.995903
372.195010	0.994267
372.581875	0.996459
372.968678	0.995753
373.355418	0.994836
373.742096	0.994159
374.128710	0.996109
374.515262	0.994250
374.901751	0.994685
375.288177	0.995394
375.674540	0.996208
376.060841	0.994561
376.447079	0.995968
376.833254	0.996157
377.219367	0.995138
377.605417	0.996759
377.991404	0.996328
378.377329	0.994879
378.763191	0.996017
379.148991	0.996969
379.534727	0.996209
379.920402	0.996224
380.306013	0.995698
380.691563	0.996680
381.077049	0.995729
381.462474	0.996243
381.847835	0.996415
382.233134	0.995803
382.618371	0.995505
383.003545	0.995484
383.388657	0.996406
383.773706	0.996986
384.158693	0.996530
384.543618	0.995703
384.928480	0.997809
385.313280	0.996610
385.698017	0.996796
386.082692	0.996875
386.467305	0.997367
386.851856	0.996883
387.236344	0.996423
387.620770	0.995089
388.005133	0.996679
388.389435	0.997731
388.773674	0.996408
389.157851	0.997092
389.541965	0.997916
389.926018	0.996880
390.310008	0.997470
390.693936	0.996832
391.077802	0.996624
391.461606	0.997059
391.845348	0.997725
392.229027	0.998545
392.612645	0.997309
392.996200	0.998510
393.379694	0.997132
393.763125	0.998334
394.146494	0.997773
394.529801	0.996022
394.913047	0.997923
395.296230	0.997644
395.679351	0.997620
396.062410	0.996851
396.445408	0.997913
396.828343	0.996181
397.211217	0.997029
397.594028	0.997321
397.976778	0.997016
398.359466	0.997292
398.742092	0.998169
399.124656	0.997031
399.507158	0.997130
399.889598	0.997075
400.271977	0.997497
400.654294	0.998080
401.036549	0.997627
401.418742	0.997605
401.800874	0.996441
402.182944	0.997358
402.564952	0.997268
402.946898	0.997017
403.328783	0.997360
403.710606	0.997284
404.092367	0.997900
404.474067	0.998274
404.855705	0.997694
405.237282	0.997179
405.618797	0.997543
406.000250	0.996776
406.381642	0.997865
406.762972	0.997652
407.144240	0.998209
407.525447	0.997824
407.906593	0.997214
408.287677	0.997625
408.668700	0.998374
409.049661	0.997433
409.430560	0.997979
409.811399	0.997987
410.192176	0.997549
410.572891	0.996851
410.953545	0.997994
411.334138	0.996477
411.714669	0.997679
412.095139	0.997486
412.475547	0.998293
412.855894	0.998370
413.236180	0.998245
413.616405	0.998070
413.996568	0.998692
414.376670	0.997928
414.756711	0.997091
415.136691	0.997776
415.516609	0.997722
415.896466	0.997101
416.276262	0.996136
416.655997	0.997558
417.035670	0.997043
417.415283	0.998144
417.794834	0.997546
418.174324	0.997959
418.553753	0.997359
418.933121	0.998289
419.312428	0.997470
419.691674	0.997309
420.070859	0.997828
420.449983	0.998391
420.829045	0.997948
421.208047	0.998813
421.586988	0.998273
421.965867	0.998130
422.344686	0.998463
422.723444	0.997579
423.102141	0.997425
423.480777	0.997710
423.859352	0.998227
424.237866	0.997498
424.616319	0.997194
424.994712	0.998766
425.373044	0.997604
425.751314	0.997746
426.129524	0.997343
426.507673	0.998507
426.885762	0.998943
427.263789	0.998106
427.641756	0.998266
428.019662	0.998608
428.397508	0.997131
428.775292	0.997289
429.153016	0.997836
429.530679	0.997817
429.908282	0.999031
430.285824	0.997778
430.663305	0.997412
431.040726	0.998163
431.418086	0.998908
431.795385	0.999063
432.172624	0.996729
432.549802	0.998509
432.926920	0.998585
433.303977	0.996854
433.680974	0.998678
434.057910	0.997460
434.434786	0.998545
434.811601	0.998299
435.188355	0.997732
435.565050	0.997361
435.941683	0.997771
436.318257	0.998292
436.694770	0.996872
437.071222	0.997662
437.447614	0.998271
437.823946	0.997347
438.200218	0.998204
438.576429	0.997919
438.952580	0.997840
439.328670	0.998062
439.704700	0.997790
440.080670	0.998206
440.456580	0.997698
440.832429	0.997098
441.208218	0.997585
441.583947	0.998474
441.959616	0.997900
442.335224	0.997574
442.710773	0.998211
443.086261	0.996515
443.461689	0.996874
443.837057	0.997614
444.212365	0.997639
444.587612	0.996729
444.962800	0.996994
445.337927	0.997046
445.712995	0.997833
446.088002	0.997786
446.462949	0.997152
446.837837	0.996544
447.212664	0.996518
447.587431	0.996514
447.962139	0.996259
448.336786	0.995076
448.711374	0.994912
449.085901	0.994374
449.460369	0.995069
449.834776	0.993831
450.209124	0.993577
450.583412	0.992847
450.957640	0.992408
451.331808	0.991452
451.705917	0.991444
452.079965	0.989693
452.453954	0.989493
452.827883	0.988488
453.201752	0.988000
453.575562	0.987142
453.949311	0.986065
454.323001	0.984856
454.696632	0.984204
455.070202	0.981732
455.443713	0.980462
455.817164	0.978903
456.190556	0.976461
456.563888	0.974890
456.937160	0.974057
457.310373	0.972105
457.683526	0.971328
458.056619	0.969576
458.429653	0.967644
458.802628	0.964885
459.175542	0.962534
459.548398	0.958986
459.921194	0.956167
460.293930	0.953127
460.666607	0.946724
461.039224	0.942641
461.411782	0.940433
461.784280	0.936257
462.156719	0.935637
462.529099	0.932553
462.901419	0.930086
463.273680	0.928388
463.645882	0.924202
464.018024	0.920973
464.390106	0.916205
464.762130	0.910641
465.134094	0.902492
465.505999	0.890312
465.877845	0.878525
466.249631	0.873820
466.621358	0.872042
466.993026	0.869622
467.364634	0.866435
467.736184	0.863459
468.107674	0.858289
468.479105	0.850924
468.850477	0.848236
469.221790	0.842611
469.593043	0.838920
469.964238	0.833149
470.335373	0.827021
470.706449	0.819250
471.077467	0.813643
471.448425	0.795587
471.819324	0.781185
472.190164	0.775566
472.560945	0.777390
472.931667	0.775344
473.302330	0.769956
473.672934	0.766232
474.043479	0.755708
474.413965	0.748634
474.784393	0.742138
475.154761	0.733040
475.525070	0.723934
475.895321	0.719448
476.265513	0.709070
476.635645	0.699529
477.005719	0.691326
477.375734	0.682321
477.745691	0.671424
478.115588	0.661340
478.485427	0.650054
478.855207	0.636114
479.224928	0.618604
479.594591	0.605857
479.964194	0.599215
480.333739	0.592441
480.703226	0.582585
481.072653	0.574804
481.442022	0.563660
481.811333	0.553956
482.180584	0.548380
482.549777	0.541818
482.918912	0.536068
483.287988	0.528001
483.657005	0.520490
484.025964	0.516775
484.394864	0.506237
484.763706	0.498806
485.132489	0.494942
485.501213	0.487332
485.869879	0.479511
486.238487	0.473418
486.607036	0.465958
486.975527	0.460902
487.343959	0.451208
487.712333	0.443570
488.080648	0.438365
488.448905	0.430750
488.817104	0.425391
489.185244	0.414919
489.553326	0.406122
489.921350	0.393491
490.289315	0.373967
490.657222	0.365145
491.025070	0.359416
491.392861	0.355345
491.760593	0.353631
492.128267	0.351865
492.495883	0.350221
492.863440	0.350060
493.230939	0.350275
493.598380	0.346146
493.965763	0.343014
494.333088	0.341333
494.700354	0.337369
495.067563	0.332746
495.434713	0.331098
495.801805	0.325047
496.168839	0.322529
496.535815	0.319520
496.902733	0.316146
497.269593	0.313918
497.636395	0.308390
498.003139	0.304830
498.369825	0.305114
498.736453	0.298310
499.103023	0.296780
499.469535	0.293504
499.835989	0.291177
500.202385	0.289207
500.568723	0.289763
500.935003	0.283039
501.301226	0.284239
501.667390	0.277050
502.033497	0.272566
502.399546	0.273452
502.765537	0.273091
503.131470	0.269416
503.497345	0.264348
503.863163	0.271285
504.228923	0.262294
504.594625	0.259860
504.960269	0.263468
505.325856	0.257566
505.691385	0.260514
506.056856	0.255973
506.422270	0.254437
506.787625	0.255919
507.152924	0.252152
507.518164	0.251612
507.883347	0.252494
508.248472	0.253365
508.613540	0.247784
508.978550	0.249446
509.343503	0.249267
509.708398	0.246258
510.073236	0.243302
510.438016	0.242728
510.802738	0.243280
511.167403	0.241706
511.532010	0.243324
511.896561	0.238045
512.261053	0.236672
512.625488	0.238529
512.989866	0.238257
513.354186	0.238372
513.718449	0.239892
514.082655	0.236140
514.446803	0.237875
514.810894	0.235570
515.174927	0.237823
515.538904	0.236901
515.902822	0.233572
516.266684	0.235944
516.630488	0.236900
516.994235	0.235434
517.357925	0.233987
517.721558	0.232154
518.085133	0.231627
518.448651	0.231731
518.812112	0.233594
519.175516	0.232991
519.538863	0.230659
519.902152	0.232263
520.265385	0.229049
520.628560	0.230680
520.991678	0.230977
521.354739	0.229966
521.717743	0.230966
522.080690	0.231315
522.443580	0.228450
522.806413	0.229224
523.169189	0.228894
523.531908	0.227656
523.894569	0.231077
524.257174	0.231114
524.619722	0.228374
524.982213	0.229577
525.344647	0.228639
525.707025	0.229224
526.069345	0.227471
526.431608	0.228890
526.793815	0.226881
527.155964	0.230892
527.518057	0.229718
527.880093	0.230665
528.242072	0.229319
528.603995	0.231254
528.965860	0.232958
529.327669	0.231915
529.689421	0.232635
530.051117	0.233548
530.412755	0.231228
530.774337	0.233397
531.135862	0.233637
531.497331	0.232947
531.858743	0.235808
532.220098	0.232712
532.581396	0.235184
532.942638	0.235831
533.303824	0.236528
533.664953	0.236201
534.026025	0.237950
534.387040	0.235847
534.747999	0.235816
535.108902	0.234616
535.469748	0.239529
535.830537	0.237933
536.191270	0.238141
536.551947	0.237435
536.912567	0.237364
537.273131	0.239184
537.633638	0.239257
537.994089	0.239885
538.354483	0.240718
538.714821	0.237842
539.075103	0.237486
539.435328	0.238126
539.795497	0.242047
540.155609	0.238800
540.515665	0.236666
540.875665	0.242598
541.235609	0.240875
541.595496	0.241065
541.955328	0.237259
542.315102	0.240393
542.674821	0.240960
543.034483	0.241394
543.394090	0.241008
543.753640	0.242733
544.113134	0.237882
544.472571	0.241053
544.831953	0.237985
545.191278	0.242071
545.550548	0.241631
545.909761	0.238377
546.268918	0.239163
546.628019	0.237375
546.987064	0.240067
547.346053	0.241854
547.704986	0.239717
548.063863	0.240021
548.422684	0.240347
548.781449	0.241903
549.140158	0.239671
549.498811	0.242894
549.857408	0.245744
550.215949	0.240575
550.574434	0.243288
550.932864	0.241419
551.291237	0.239981
551.649555	0.241455
552.007817	0.241130
552.366022	0.242070
552.724173	0.242343
553.082267	0.242785
553.440305	0.239483
553.798288	0.244237
554.156215	0.240402
554.514086	0.241080
554.871902	0.244361
555.229661	0.243615
555.587365	0.244069
555.945014	0.246530
556.302606	0.243613
556.660143	0.246133
557.017625	0.242595
557.375050	0.244737
557.732421	0.241694
558.089735	0.243734
558.446994	0.243953
558.804197	0.243187
559.161345	0.243288
559.518437	0.246573
559.875474	0.244354
560.232455	0.243579
560.589381	0.244938
560.946251	0.245044
561.303065	0.242370
561.659825	0.244125
562.016528	0.245213
562.373177	0.248326
562.729770	0.245572
563.086307	0.247522
563.442789	0.245527
563.799216	0.248125
564.155587	0.246998
564.511904	0.248110
564.868164	0.248268
565.224370	0.248142
565.580520	0.249853
565.936615	0.249445
566.292654	0.252853
566.648638	0.249734
567.004567	0.250600
567.360441	0.251229
567.716260	0.253393
568.072023	0.250990
568.427732	0.251885
568.783385	0.254076
569.138982	0.252180
569.494525	0.251896
569.850013	0.254458
570.205445	0.253168
570.560823	0.255832
570.916145	0.257687
571.271412	0.255922
571.626625	0.257352
571.981782	0.257940
572.336884	0.258998
572.691931	0.258692
573.046923	0.259640
573.401860	0.260929
573.756743	0.262735
574.111570	0.261234
574.466342	0.262316
574.821059	0.261273
575.175722	0.264155
575.530330	0.263893
575.884882	0.264030
576.239380	0.266120
576.593823	0.266511
576.948211	0.265820
577.302544	0.269281
577.656823	0.268744
578.011047	0.268978
578.365216	0.269495
578.719330	0.271581
579.073389	0.271541
579.427394	0.272705
579.781344	0.273518
580.135239	0.275191
580.489080	0.274630
580.842866	0.277331
581.196597	0.277284
581.550273	0.276093
581.903895	0.277224
582.257463	0.275142
582.610975	0.278619
582.964434	0.277992
583.317837	0.280323
583.671186	0.280888
584.024481	0.280907
584.377721	0.283203
584.730906	0.284141
585.084037	0.283212
585.437113	0.284899
585.790135	0.284772
586.143103	0.287105
586.496016	0.288359
586.848874	0.286199
587.201679	0.286566
587.554428	0.289986
587.907124	0.288608
588.259765	0.289062
588.612352	0.290033
588.964884	0.294012
589.317362	0.293397
589.669786	0.293436
590.022155	0.292127
590.374470	0.291009
590.726731	0.293189
591.078937	0.297837
591.431090	0.294300
591.783188	0.298668
592.135232	0.298893
592.487222	0.298931
592.839157	0.297164
593.191038	0.299377
593.542866	0.301208
593.894639	0.304682
594.246358	0.303075
594.598022	0.302387
594.949633	0.305908
595.301190	0.306422
595.652692	0.305931
596.004141	0.302172
596.355535	0.309849
596.706876	0.310638
597.058162	0.312969
597.409395	0.310279
597.760573	0.308060
598.111698	0.310981
598.462768	0.311618
598.813785	0.313036
599.164748	0.314189
599.515657	0.314618
599.866511	0.317607
600.217312	0.313161
600.568060	0.318648
600.918753	0.314846
601.269392	0.315973
601.619978	0.319137
601.970510	0.316846
602.320988	0.316540
602.671412	0.314466
603.021783	0.317293
603.372100	0.318840
603.722363	0.317914
604.072572	0.318918
604.422728	0.318374
604.772830	0.320671
605.122878	0.320448
605.472872	0.320794
605.822813	0.319269
606.172701	0.321760
606.522534	0.318987
606.872314	0.319390
607.222041	0.319917
607.571714	0.318760
607.921333	0.319653
608.270899	0.319529
608.620411	0.316236
608.969870	0.320141
609.319276	0.320437
609.668627	0.319932
610.017926	0.318741
610.367171	0.317385
610.716362	0.318013
611.065500	0.318247
611.414585	0.317080
611.763616	0.317479
612.112594	0.318130
612.461518	0.317614
612.810389	0.315329
613.159207	0.317086
613.507971	0.319128
613.856682	0.314787
614.205340	0.316459
614.553945	0.313781
614.902496	0.317019
615.250994	0.315617
615.599439	0.315897
615.947830	0.315104
616.296169	0.316475
616.644454	0.315959
616.992686	0.316149
617.340864	0.313814
617.688990	0.317339
618.037063	0.314163
618.385082	0.315598
618.733048	0.312915
619.080961	0.315179
619.428821	0.314845
619.776628	0.314095
620.124382	0.316341
620.472083	0.315928
620.819731	0.316117
621.167326	0.319452
621.514868	0.319070
621.862357	0.323346
622.209793	0.323290
622.557176	0.325374
622.904506	0.326572
623.251783	0.329000
623.599007	0.331512
623.946179	0.330316
624.293297	0.332468
624.640363	0.336135
624.987376	0.336983
625.334336	0.339344
625.681243	0.341556
626.028097	0.342337
626.374899	0.343252
626.721647	0.343536
627.068343	0.347058
627.414987	0.347889
627.761577	0.350053
628.108115	0.348314
628.454600	0.353706
628.801032	0.350604
629.147412	0.353101
629.493739	0.353246
629.840014	0.356166
630.186236	0.353751
630.532405	0.358936
630.878521	0.357277
631.224585	0.358776
631.570597	0.362692
631.916556	0.360807
632.262462	0.361432
632.608316	0.363289
632.954117	0.364319
633.299866	0.364793
633.645562	0.365758
633.991206	0.369685
634.336797	0.372397
634.682336	0.374716
635.027823	0.376687
635.373257	0.376957
635.718639	0.380250
636.063968	0.380009
636.409245	0.385920
636.754470	0.385900
637.099642	0.387873
637.444762	0.391928
637.789829	0.390711
638.134845	0.394090
638.479808	0.395324
638.824719	0.395316
639.169577	0.399074
639.514383	0.397966
639.859137	0.401806
640.203839	0.401854
640.548489	0.402361
640.893086	0.403936
641.237632	0.405444
641.582125	0.403823
641.926566	0.405539
642.270955	0.405649
642.615292	0.406070
642.959576	0.404905
643.303809	0.406032
643.647990	0.405246
643.992118	0.405502
644.336195	0.409579
644.680219	0.407561
645.024192	0.408433
645.368112	0.401547
645.711981	0.400970
646.055797	0.395897
646.399562	0.398554
646.743274	0.391011
647.086935	0.388493
647.430544	0.388453
647.774101	0.387060
648.117606	0.387272
648.461059	0.387265
648.804460	0.389532
649.147810	0.394956
649.491108	0.396819
649.834354	0.397839
650.177548	0.403833
650.520690	0.408968
650.863781	0.410249
651.206820	0.409581
651.549807	0.414071
651.892742	0.418108
652.235626	0.417339
652.578458	0.418275
652.921238	0.424540
653.263967	0.422652
653.606644	0.426210
653.949269	0.425671
654.291843	0.429935
654.634365	0.426855
654.976836	0.430175
655.319255	0.430163
655.661622	0.431651
656.003938	0.431787
656.346203	0.434660
656.688416	0.432503
657.030577	0.435791
657.372687	0.437639
657.714746	0.438384
658.056753	0.435757
658.398708	0.439692
658.740612	0.440922
659.082465	0.436880
659.424266	0.437346
659.766016	0.437064
660.107715	0.439584
660.449362	0.437985
660.790958	0.438742
661.132503	0.438955
661.473996	0.437122
661.815438	0.438528
662.156829	0.438488
662.498168	0.439346
662.839456	0.440521
663.180693	0.438280
663.521879	0.438581
663.863013	0.439177
664.204097	0.437566
664.545129	0.434464
664.886110	0.435011
665.227040	0.432203
665.567918	0.434527
665.908746	0.432648
666.249522	0.432410
666.590248	0.433478
666.930922	0.431660
667.271545	0.430299
667.612118	0.430723
667.952639	0.432457
668.293109	0.430919
668.633528	0.433348
668.973896	0.433348
669.314213	0.434259
669.654480	0.435357
669.994695	0.435974
670.334859	0.436807
670.674973	0.436845
671.015035	0.437292
671.355047	0.436789
671.695008	0.438225
672.034918	0.440366
672.374777	0.439532
672.714585	0.439879
673.054342	0.440229
673.394049	0.440764
673.733705	0.438687
674.073310	0.439162
674.412864	0.442645
674.752368	0.443154
675.091820	0.442759
675.431223	0.447326
675.770574	0.447211
676.109875	0.450360
676.449125	0.450729
676.788324	0.452764
677.127473	0.457589
677.466571	0.457645
677.805619	0.459164
678.144616	0.460612
678.483562	0.462103
678.822458	0.464670
679.161303	0.465653
679.500098	0.465619
679.838842	0.467759
680.177535	0.467481
680.516179	0.466616
680.854771	0.464738
681.193314	0.458497
681.531805	0.449965
681.870247	0.438016
682.208638	0.430710
682.546978	0.429620
682.885268	0.430974
683.223508	0.438028
683.561697	0.441390
683.899836	0.444477
684.237925	0.447119
684.575963	0.449713
684.913951	0.452897
685.251889	0.448719
685.589776	0.450377
685.927614	0.452706
686.265401	0.446991
686.603137	0.449375
686.940824	0.442682
687.278460	0.440940
687.616046	0.440761
687.953582	0.435419
688.291068	0.436722
688.628504	0.432281
688.965889	0.434713
689.303224	0.438952
689.640510	0.442563
689.977745	0.448852
690.314930	0.456374
690.652065	0.461024
690.989150	0.468299
691.326185	0.474814
691.663170	0.479202
692.000105	0.486405
692.336990	0.493767
692.673825	0.496188
693.010610	0.502946
693.347345	0.508312
693.684030	0.509926
694.020665	0.514907
694.357251	0.523135
694.693786	0.523022
695.030272	0.527073
695.366707	0.530800
695.703093	0.534910
696.039429	0.531257
696.375716	0.532796
696.711952	0.536505
697.048139	0.537494
697.384276	0.539778
697.720363	0.538067
698.056400	0.537816
698.392388	0.542535
698.728326	0.546010
699.064214	0.549017
699.400053	0.549714
699.735842	0.553036
700.071581	0.555448
700.407270	0.559083
700.742910	0.561250
701.078501	0.568424
701.414042	0.568137
701.749533	0.571181
702.084974	0.579833
702.420366	0.572434
702.755709	0.580198
703.091002	0.587973
703.426246	0.580998
703.761440	0.586876
704.096584	0.592607
704.431679	0.588811
704.766725	0.590796
705.101721	0.592552
705.436668	0.588815
705.771565	0.595620
706.106413	0.592278
706.441212	0.587654
706.775961	0.585996
707.110661	0.589132
707.445311	0.585924
707.779913	0.583103
708.114465	0.581087
708.448967	0.578061
708.783421	0.569876
709.117825	0.565210
709.452180	0.563960
709.786485	0.558653
710.120742	0.548287
710.454949	0.550450
710.789107	0.542301
711.123216	0.533506
711.457275	0.535213
711.791286	0.526111
712.125247	0.525037
712.459159	0.536165
712.793023	0.528902
713.126837	0.532229
713.460602	0.533325
713.794318	0.542157
714.127985	0.541507
714.461602	0.551034
714.795171	0.555162
715.128691	0.562286
715.462162	0.569598
715.795584	0.575224
716.128957	0.578223
716.462281	0.584826
716.795556	0.588092
717.128782	0.593215
717.461960	0.603090
717.795088	0.600755
718.128167	0.607587
718.461198	0.617272
718.794180	0.617300
719.127113	0.619995
719.459997	0.622733
719.792833	0.629112
720.125619	0.630215
720.458357	0.636013
720.791046	0.635778
721.123686	0.638790
721.456278	0.646549
721.788821	0.643399
722.121315	0.647563
722.453761	0.651976
722.786158	0.649586
723.118506	0.646276
723.450805	0.654801
723.783056	0.650804
724.115259	0.647984
724.447412	0.646844
724.779518	0.648138
725.111574	0.647418
725.443582	0.642123
725.775542	0.645040
726.107453	0.636709
726.439315	0.636656
726.771129	0.635169
727.102895	0.629452
727.434612	0.622023
727.766281	0.620313
728.097901	0.619058
728.429473	0.618757
728.760996	0.617973
729.092471	0.617483
729.423897	0.620739
729.755276	0.619837
730.086606	0.620600
730.417887	0.614768
730.749120	0.606180
731.080305	0.597017
731.411442	0.593247
731.742530	0.597292
732.073570	0.596907
732.404562	0.588883
732.735506	0.589613
733.066401	0.594736
733.397249	0.604303
733.728048	0.615784
734.058798	0.627635
734.389501	0.638101
734.720156	0.648451
735.050762	0.655897
735.381320	0.657437
735.711831	0.666595
736.042293	0.671201
736.372707	0.667539
736.703073	0.670641
737.033391	0.674300
737.363661	0.670199
737.693883	0.665525
738.024056	0.664977
738.354182	0.665342
738.684260	0.654790
739.014290	0.650911
739.344272	0.651133
739.674207	0.644629
740.004093	0.644405
740.333931	0.644926
740.663722	0.645139
740.993464	0.645547
741.323159	0.649413
741.652806	0.654383
741.982405	0.659189
742.311956	0.663448
742.641460	0.666141
742.970915	0.668473
743.300323	0.676389
743.629683	0.683796
743.958996	0.685395
744.288260	0.689793
744.617477	0.695512
744.946647	0.697254
745.275768	0.702738
745.604842	0.701942
745.933869	0.711534
746.262847	0.712739
746.591778	0.705445
746.920662	0.713015
747.249498	0.718702
747.578286	0.709371
747.907027	0.705521
748.235720	0.707698
748.564365	0.701560
748.892963	0.701742
749.221514	0.704853
749.550017	0.710058
749.878473	0.709544
750.206881	0.715668
750.535242	0.717369
750.863555	0.716644
751.191821	0.718651
751.520039	0.722050
751.848210	0.725685
752.176334	0.718891
752.504411	0.717558
752.832440	0.725950
753.160421	0.730047
753.488356	0.727802
753.816243	0.725797
754.144082	0.733005
754.471875	0.737247
754.799620	0.733533
755.127318	0.733958
755.454969	0.733772
755.782572	0.733780
756.110129	0.738318
756.437638	0.740673
756.765100	0.737566
757.092515	0.735539
757.419882	0.733952
757.747203	0.739431
758.074477	0.739298
758.401703	0.735749
758.728882	0.731433
759.056014	0.729942
759.383099	0.729855
759.710138	0.731091
760.037129	0.726968
760.364073	0.721174
760.690970	0.723325
761.017820	0.729197
761.344623	0.724813
761.671379	0.715647
761.998088	0.703670
762.324751	0.681920
762.651366	0.640383
762.977935	0.573896
763.304456	0.521827
763.630931	0.511729
763.957359	0.551470
764.283740	0.596193
764.610074	0.622744
764.936362	0.653628
765.262602	0.679442
765.588796	0.700871
765.914943	0.718510
766.241044	0.736637
766.567097	0.742448
766.893104	0.752220
767.219064	0.758936
767.544978	0.765047
767.870845	0.778696
768.196665	0.783209
768.522438	0.780882
768.848165	0.781471
769.173846	0.791277
769.499479	0.795404
769.825066	0.798836
770.150607	0.803220
770.476101	0.799335
770.801548	0.799262
771.126949	0.811574
771.452303	0.815728
771.777611	0.814468
772.102872	0.813307
772.428087	0.819764
772.753256	0.822386
773.078378	0.823421
773.403453	0.832758
773.728482	0.838143
774.053465	0.830631
774.378401	0.834584
774.703291	0.842140
775.028135	0.842222
775.352932	0.844113
775.677683	0.846846
776.002388	0.848020
776.327046	0.846348
776.651658	0.850162
776.976224	0.853165
777.300743	0.854195
777.625216	0.857029
777.949643	0.857850
778.274024	0.857664
778.598359	0.860038
778.922647	0.857676
779.246889	0.857968
779.571086	0.862479
779.895236	0.864756
780.219339	0.861332
780.543397	0.859261
780.867409	0.857697
781.191374	0.859555
781.515294	0.861001
781.839167	0.860940
782.162995	0.863365
782.486776	0.859850
782.810511	0.860450
783.134201	0.865245
783.457844	0.863123
783.781441	0.866341
784.104993	0.871581
784.428498	0.871566
784.751958	0.867083
785.075372	0.870152
785.398739	0.873262
785.722061	0.870366
786.045337	0.864695
786.368568	0.870271
786.691752	0.872904
787.014891	0.858436
787.337983	0.848916
787.661030	0.842474
787.984031	0.824712
788.306987	0.811788
788.629897	0.814568
788.952760	0.818402
789.275579	0.822450
789.598351	0.837146
789.921078	0.850212
790.243759	0.851770
790.566395	0.857153
790.888984	0.864515
791.211529	0.869201
791.534027	0.872058
791.856480	0.875755
792.178888	0.879432
792.501249	0.882634
792.823566	0.883581
793.145836	0.883325
793.468062	0.886482
793.790241	0.885798
794.112375	0.884239
794.434464	0.879487
794.756507	0.877929
795.078505	0.879044
795.400457	0.873331
795.722364	0.860905
796.044226	0.853981
796.366042	0.853995
796.687812	0.856138
797.009538	0.852540
797.331218	0.855352
797.652852	0.860719
797.974442	0.865764
798.295986	0.864950
798.617484	0.867733
798.938938	0.872459
799.260346	0.877215
799.581709	0.877985
799.903026	0.881109
800.224299	0.882049
800.545526	0.885932
800.866708	0.889297
801.187845	0.893394
801.508936	0.892103
801.829983	0.891218
802.150984	0.893680
802.471940	0.897865
802.792851	0.898049
803.113717	0.898523
803.434538	0.896299
803.755314	0.898927
804.076045	0.901199
804.396731	0.901587
804.717372	0.899955
805.037967	0.902765
805.358518	0.899595
805.679024	0.897159
805.999485	0.897632
806.319901	0.897881
806.640272	0.899071
806.960598	0.897040
807.280879	0.893798
807.601115	0.893502
807.921306	0.896482
808.241453	0.897960
808.561554	0.894675
808.881611	0.894898
809.201623	0.897354
809.521590	0.897400
809.841513	0.897819
810.161390	0.897082
810.481223	0.898791
810.801011	0.902021
811.120755	0.904167
811.440453	0.902435
811.760107	0.900325
812.079716	0.900284
812.399281	0.905532
812.718801	0.907710
813.038276	0.907629
813.357707	0.907636
813.677093	0.904254
813.996434	0.907748
814.315731	0.909156
814.634983	0.909672
814.954191	0.908439
815.273354	0.906314
815.592473	0.901402
815.911547	0.901334
816.230577	0.899273
816.549562	0.898621
816.868502	0.898287
817.187399	0.894953
817.506250	0.888478
817.825058	0.891263
818.143821	0.887379
818.462539	0.882461
818.781213	0.875179
819.099843	0.863270
819.418429	0.847907
819.736970	0.830731
820.055466	0.811838
820.373919	0.786743
820.692327	0.753734
821.010691	0.719798
821.329011	0.643804
821.647286	0.529279
821.965517	0.416205
822.283704	0.373712
822.601847	0.375620
822.919945	0.411751
823.237999	0.443890
823.556010	0.490493
823.873976	0.545092
824.191897	0.595510
824.509775	0.637691
824.827609	0.682634
825.145398	0.705400
825.463144	0.708328
825.780845	0.690842
826.098502	0.671759
826.416116	0.626483
826.733685	0.583732
827.051210	0.575598
827.368692	0.589946
827.686129	0.626314
828.003522	0.678897
828.320872	0.726086
828.638177	0.769598
828.955439	0.802205
829.272656	0.823256
829.589830	0.840202
829.906960	0.856258
830.224046	0.868767
830.541088	0.879442
830.858086	0.883090
831.175041	0.889790
831.491952	0.887354
831.808819	0.884684
832.125642	0.877352
832.442421	0.863417
832.759157	0.842406
833.075849	0.796188
833.392497	0.734338
833.709101	0.692625
834.025662	0.701889
834.342179	0.734128
834.658653	0.773129
834.975083	0.808604
835.291469	0.834607
835.607811	0.855678
835.924110	0.872887
836.240366	0.888874
836.556578	0.902916
836.872746	0.910954
837.188871	0.915706
837.504952	0.921393
837.820990	0.924686
838.136984	0.928552
838.452935	0.929711
838.768842	0.932670
839.084706	0.925253
839.400526	0.900613
839.716303	0.860249
840.032037	0.838152
840.347727	0.842355
840.663373	0.860194
840.978977	0.881239
841.294537	0.904300
841.610054	0.920193
841.925527	0.926742
842.240957	0.933825
842.556344	0.940863
842.871687	0.947440
843.186987	0.951473
843.502244	0.950349
843.817458	0.951884
844.132629	0.957147
844.447756	0.959905
844.762840	0.960629
845.077881	0.959116
845.392879	0.960425
845.707833	0.962746
846.022745	0.964830
846.337613	0.965308
846.652438	0.967230
846.967221	0.964629
847.281960	0.965364
847.596656	0.967810
847.911309	0.965932
848.225919	0.967368
848.540485	0.967772
848.855009	0.969738
849.169490	0.968725
849.483928	0.969277
849.798323	0.970033
850.112675	0.970174
850.426984	0.970113
850.741251	0.970445
851.055474	0.971117
851.369654	0.967593
851.683792	0.970209
851.997887	0.970163
852.311938	0.971216
852.625947	0.970599
852.939914	0.967438
853.253837	0.968823
853.567718	0.971011
853.881555	0.971724
854.195350	0.969108
854.509103	0.970399
854.822812	0.971069
855.136479	0.970019
855.450103	0.970257
855.763685	0.968337
856.077224	0.968738
856.390720	0.970925
856.704173	0.971063
857.017584	0.968837
857.330953	0.967407
857.644278	0.968621
857.957561	0.969088
858.270802	0.969213
858.584000	0.968058
858.897155	0.966776
859.210268	0.967677
859.523339	0.968525
859.836367	0.970421
860.149352	0.971350
860.462295	0.968800
860.775195	0.970647
861.088054	0.969569
861.400869	0.970182
861.713642	0.971589
862.026373	0.971007
862.339062	0.971122
862.651708	0.968107
862.964312	0.967738
863.276873	0.970165
863.589392	0.968148
863.901869	0.966708
864.214303	0.965602
864.526696	0.964235
864.839045	0.964114
865.151353	0.961817
865.463619	0.962847
865.775842	0.963179
866.088023	0.962003
866.400162	0.962431
866.712258	0.962924
867.024313	0.964292
867.336325	0.963812
867.648296	0.963892
867.960224	0.962261
868.272110	0.962605
868.583954	0.963949
868.895755	0.965361
869.207515	0.962040
869.519233	0.960186
869.830909	0.961674
870.142542	0.962416
870.454134	0.962334
870.765684	0.961646
871.077191	0.959256
871.388657	0.959171
871.700081	0.958851
872.011463	0.959303
872.322803	0.958932
872.634101	0.956951
872.945357	0.954951
873.256571	0.952971
873.567744	0.954230
873.878874	0.954193
874.189963	0.952703
874.501010	0.952483
874.812015	0.951380
875.122979	0.952975
875.433900	0.954066
875.744780	0.954869
876.055618	0.951495
876.366415	0.951410
876.677169	0.950872
876.987882	0.952267
877.298554	0.951740
877.609183	0.947861
877.919771	0.946952
878.230317	0.943213
878.540822	0.941781
878.851285	0.936027
879.161707	0.928930
879.472087	0.915880
879.782425	0.900770
880.092722	0.868075
880.402977	0.816855
880.713191	0.757631
881.023363	0.699082
881.333494	0.666242
881.643583	0.638576
881.953631	0.637797
882.263637	0.666063
882.573602	0.705817
882.883526	0.730228
883.193408	0.753054
883.503248	0.775059
883.813048	0.801897
884.122806	0.831325
884.432522	0.854552
884.742197	0.873933
885.051831	0.884297
885.361424	0.893924
885.670975	0.905307
885.980485	0.916031
886.289954	0.921871
886.599382	0.926766
886.908768	0.929398
887.218113	0.935485
887.527417	0.940290
887.836680	0.943748
888.145901	0.945134
888.455082	0.946374
888.764221	0.951473
889.073319	0.953596
889.382376	0.954430
889.691392	0.954191
890.000366	0.953913
890.309300	0.954746
890.618193	0.954616
890.927044	0.952007
891.235855	0.952500
891.544625	0.952215
891.853353	0.952561
892.162041	0.950611
892.470687	0.943523
892.779293	0.939663
893.087858	0.936062
893.396381	0.928156
893.704864	0.915524
894.013306	0.892580
894.321707	0.865488
894.630068	0.851403
894.938387	0.847011
895.246665	0.847761
895.554903	0.860978
895.863100	0.873621
896.171256	0.889512
896.479371	0.909450
896.787446	0.921083
897.095480	0.927608
897.403473	0.930453
897.711425	0.935024
898.019336	0.941810
898.327207	0.945654
898.635038	0.945604
898.942827	0.946283
899.250576	0.949908
899.558284	0.952925
899.865952	0.955384
900.173579	0.957133
900.481165	0.957008
900.788711	0.960367
901.096216	0.961838
901.403681	0.962500
901.711105	0.963526
902.018489	0.965103
902.325832	0.963227
902.633135	0.961886
902.940397	0.957325
903.247619	0.944559
903.554800	0.920433
903.861941	0.881116
904.169041	0.847126
904.476101	0.831670
904.783121	0.831958
905.090100	0.846237
905.397039	0.868199
905.703938	0.888960
906.010796	0.909312
906.317614	0.924871
906.624391	0.935891
906.931129	0.945994
907.237826	0.952350
907.544483	0.960699
907.851099	0.964165
908.157675	0.969270
908.464211	0.970364
908.770707	0.972998
909.077163	0.975261
909.383578	0.976381
909.689954	0.976257
909.996289	0.976564
910.302584	0.978803
910.608839	0.980448
910.915054	0.978441
911.221229	0.978256
911.527363	0.978503
911.833458	0.977205
912.139513	0.977845
912.445527	0.975830
912.751502	0.974367
913.057436	0.973312
913.363331	0.970913
913.669186	0.967808
913.975000	0.962252
914.280775	0.956194
914.586510	0.951034
914.892205	0.936564
915.197859	0.916141
915.503475	0.889772
915.809050	0.872186
916.114585	0.866721
916.420081	0.863587
916.725536	0.860697
917.030952	0.867404
917.336328	0.879781
917.641665	0.895168
917.946961	0.910944
918.252218	0.920823
918.557435	0.929439
918.862612	0.938931
919.167750	0.944356
919.472848	0.948841
919.777906	0.953991
920.082925	0.959234
920.387904	0.963279
920.692843	0.964080
920.997743	0.964446
921.302603	0.968898
921.607423	0.969377
921.912204	0.973388
922.216946	0.972843
922.521647	0.973972
922.826310	0.975177
923.130932	0.979170
923.435516	0.979033
923.740059	0.979707
924.044564	0.978826
924.349028	0.981026
924.653454	0.983150
924.957840	0.984925
925.262186	0.984673
925.566493	0.984329
925.870761	0.985965
926.174989	0.986378
926.479178	0.988941
926.783328	0.989166
927.087438	0.988540
927.391509	0.987607
927.695541	0.989498
927.999533	0.990384
928.303486	0.989806
928.607400	0.991651
928.911275	0.989518
929.215110	0.991571
929.518906	0.992058
929.822663	0.989546
930.126381	0.991845
930.430060	0.990184
930.733699	0.990756
931.037299	0.989004
931.340861	0.991319
931.644383	0.989212
931.947866	0.989749
932.251309	0.991846
932.554714	0.990242
932.858080	0.989786
933.161407	0.989349
933.464694	0.991306
933.767943	0.989642
934.071153	0.991270
934.374323	0.991522
934.677455	0.992082
934.980548	0.992196
935.283602	0.990843
935.586617	0.991470
935.889593	0.990673
936.192530	0.991846
936.495428	0.990569
936.798287	0.991782
937.101108	0.990998
937.403890	0.989761
937.706632	0.989596
938.009336	0.987311
938.312002	0.986976
938.614628	0.984795
938.917216	0.983778
939.219765	0.983432
939.522275	0.984086
939.824747	0.983741
940.127179	0.983919
940.429573	0.984727
940.731929	0.985771
941.034246	0.985331
941.336524	0.986866
941.638763	0.986340
941.940964	0.986907
942.243126	0.987713
942.545250	0.987352
942.847335	0.989025
943.149381	0.988732
943.451389	0.987438
943.753359	0.989124
944.055290	0.990533
944.357182	0.990235
944.659036	0.988846
944.960851	0.989814
945.262628	0.990252
945.564367	0.991820
945.866067	0.989828
946.167729	0.990421
946.469352	0.989319
946.770937	0.989878
947.072484	0.990398
947.373992	0.990903
947.675462	0.990687
947.976893	0.991252
948.278286	0.990015
948.579641	0.991466
948.880958	0.990906
949.182236	0.990865
949.483476	0.990963
949.784678	0.990338
950.085841	0.991517
950.386967	0.992478
950.688054	0.990586
950.989103	0.990656
951.290114	0.990122
951.591087	0.990107
951.892021	0.989498
952.192917	0.988769
952.493776	0.989074
952.794596	0.989281
953.095378	0.987881
953.396122	0.988263
953.696828	0.987119
953.997496	0.991070
954.298126	0.990492
954.598718	0.990945
954.899272	0.990999
955.199788	0.991756
955.500266	0.992876
955.800706	0.992499
956.101108	0.992921
956.401472	0.993797
956.701798	0.993580
957.002087	0.993653
957.302337	0.994048
957.602550	0.995707
957.902724	0.995037
958.202861	0.995220
958.502960	0.995187
958.803022	0.993824
959.103045	0.995963
959.403031	0.995677
959.702979	0.994389
960.002889	0.994867
960.302762	0.994262
960.602596	0.996374
960.902393	0.995337
961.202153	0.997538
961.501875	0.996162
961.801559	0.995915
962.101205	0.995442
962.400814	0.995588
962.700385	0.996719
962.999918	0.996832
963.299414	0.996669
963.598873	0.995811
963.898293	0.995888
964.197677	0.995136
964.497022	0.996748
964.796331	0.997160
965.095601	0.996061
965.394835	0.996626
965.694030	0.996442
965.993189	0.996467
966.292309	0.995955
966.591393	0.996604
966.890439	0.996881
967.189447	0.996045
967.488419	0.996618
967.787353	0.996402
968.086249	0.996641
968.385108	0.997276
968.683930	0.997619
968.982714	0.997404
969.281462	0.997562
969.580172	0.996311
969.878844	0.997262
970.177480	0.998032
970.476078	0.997450
970.774639	0.997433
971.073162	0.996841
971.371649	0.997036
971.670098	0.996492
971.968510	0.996927
972.266885	0.994687
972.565223	0.996386
972.863524	0.996720
973.161788	0.995053
973.460014	0.998023
973.758204	0.996060
974.056356	0.996127
974.354471	0.994048
974.652550	0.996650
974.950591	0.997790
975.248595	0.996897
975.546563	0.995453
975.844493	0.997883
976.142386	0.996739
976.440243	0.996644
976.738062	0.995697
977.035845	0.997529
977.333590	0.996969
977.631299	0.997855
977.928971	0.996244
978.226606	0.996745
978.524204	0.995521
978.821765	0.997953
979.119290	0.995384
979.416777	0.997235
979.714228	0.997541
980.011642	0.995583
980.309020	0.998230
980.606360	0.996301
980.903664	0.998445
981.200931	0.995644
981.498162	0.994952
981.795356	0.996307
982.092513	0.993904
982.389633	0.994090
982.686717	0.991830
982.983764	0.991987
983.280775	0.992177
983.577749	0.990683
983.874686	0.991954
984.171587	0.991914
984.468451	0.994262
984.765279	0.994303
985.062070	0.995310
985.358824	0.996001
985.655543	0.995254
985.952224	0.995717
986.248869	0.996441
986.545478	0.996868
986.842050	0.997985
987.138586	0.995918
987.435086	0.997295
987.731549	0.998561
988.027975	0.997980
988.324366	0.996538
988.620719	0.998539
988.917037	0.995493
989.213318	0.997755
989.509563	0.997398
989.805772	0.998352
990.101944	0.997042
990.398080	0.997490
990.694180	0.997646
990.990244	0.997232
991.286271	0.998225
991.582262	0.998811
991.878217	0.998234
992.174136	0.998071
992.470019	0.999012
992.765865	0.997555
993.061676	0.998281
993.357450	0.996863
993.653188	0.996549
993.948890	0.996400
994.244556	0.998911
994.540186	0.996092
994.835780	0.996246
995.131337	0.997556
995.426859	0.996625
995.722345	0.997415
996.017795	0.996256
996.313208	0.996357
996.608586	0.996648
996.903928	0.996361
997.199234	0.996394
997.494504	0.996927
997.789738	0.996055
998.084936	0.996173
998.380099	0.997624
998.675225	0.997320
998.970316	0.998917
999.265371	0.998504
999.560390	0.999132
999.855373	0.999255
1000.150320	0.997583
1000.445232	0.998618
1000.740108	0.998078
1001.034948	0.999327
1001.329752	0.998166
1001.624521	0.997278
1001.919254	0.999025
1002.213951	0.996915
1002.508613	0.996980
1002.803239	0.998884
1003.097829	0.999887
1003.392384	0.999065
1003.686903	0.998275
1003.981386	0.997363
1004.275834	0.997963
1004.570246	0.998388
1004.864623	0.998848
1005.158964	0.999487
1005.453270	0.998310
1005.747540	0.996747
1006.041775	0.997283
1006.335974	0.999132
1006.630138	0.998591
1006.924266	0.999055
1007.218359	0.999303
1007.512416	1.000460
1007.806438	0.999491
1008.100425	0.999535
1008.394376	0.998944
1008.688292	0.997986
1008.982172	1.000807
1009.276017	0.999027
1009.569827	0.997909
1009.863602	0.999566
1010.157341	0.999564
1010.451045	0.999489
1010.744714	0.998855
1011.038347	0.999042
1011.331945	0.998363
1011.625508	0.997329
1011.919036	0.998370
1012.212528	0.997743
1012.505986	0.997658
1012.799408	0.999540
1013.092795	0.999287
1013.386147	0.998725
1013.679464	0.999651
1013.972745	0.998338
1014.265992	0.996444
1014.559204	0.998627
1014.852380	0.998143
1015.145521	0.998404
1015.438628	0.999081
1015.731699	0.998022
1016.024736	0.999050
1016.317737	0.998557
1016.610703	0.998542
1016.903635	0.999145
1017.196531	0.998037
1017.489393	0.998963
1017.782219	0.998404
1018.075011	0.999103
1018.367768	0.999326
1018.660490	0.999091
1018.953177	0.999091
1019.245829	0.999091
