Dividing Wavelength (nm)	Counts (n)	Blue Motor Position (mm): 0.000000	Red Motor Position (mm): 16.300000	
326.493990	1.001335
326.888308	1.001335
327.282561	1.001335
327.676750	1.000677
328.070874	0.999583
328.464933	1.000332
328.858929	0.999569
329.252859	1.000051
329.646726	0.999879
330.040528	1.000511
330.434265	1.000782
330.827938	1.001324
331.221547	1.000637
331.615091	1.001131
332.008571	1.000474
332.401986	0.999685
332.795338	1.000439
333.188625	0.999146
333.581847	0.999839
333.975006	0.999317
334.368100	0.999402
334.761129	1.000482
335.154095	1.001153
335.546996	0.998349
335.939833	0.993182
336.332606	0.993707
336.725315	0.994588
337.117960	0.995588
337.510540	0.993917
337.903056	0.995479
338.295508	0.993577
338.687896	0.994174
339.080220	0.994378
339.472480	0.994960
339.864676	0.994334
340.256807	0.994404
340.648875	0.994855
341.040879	0.994313
341.432818	0.993816
341.824694	0.994584
342.216506	0.995388
342.608253	0.994215
342.999937	0.993650
343.391557	0.994137
343.783113	0.994352
344.174605	0.994315
344.566033	0.995129
344.957397	0.993723
345.348697	0.994110
345.739934	0.993871
346.131106	0.993844
346.522215	0.994374
346.913260	0.993959
347.304241	0.993670
347.695159	0.993676
348.086012	0.992267
348.476802	0.993629
348.867528	0.994370
349.258191	0.992619
349.648789	0.994947
350.039324	0.993417
350.429796	0.994241
350.820203	0.994508
351.210548	0.992749
351.600828	0.994418
351.991045	0.994342
352.381198	0.992653
352.771288	0.994153
353.161314	0.993684
353.551276	0.994388
353.941175	0.993738
354.331010	0.993126
354.720782	0.994531
355.110490	0.993231
355.500135	0.994552
355.889717	0.994051
356.279235	0.994644
356.668689	0.994396
357.058080	0.993918
357.447408	0.994526
357.836672	0.993876
358.225873	0.994537
358.615010	0.994800
359.004084	0.995561
359.393095	0.994823
359.782043	0.994985
360.170927	0.994569
360.559748	0.995065
360.948505	0.992656
361.337199	0.994829
361.725830	0.994592
362.114398	0.994392
362.502903	0.995338
362.891344	0.995203
363.279722	0.993617
363.668037	0.994827
364.056289	0.994634
364.444478	0.994191
364.832603	0.994440
365.220665	0.993541
365.608665	0.994188
365.996601	0.993134
366.384474	0.994026
366.772284	0.994223
367.160031	0.991721
367.547715	0.993966
367.935336	0.994282
368.322893	0.993640
368.710388	0.992787
369.097820	0.994235
369.485189	0.994039
369.872495	0.993536
370.259738	0.992111
370.646918	0.995425
371.034035	0.994277
371.421090	0.993446
371.808081	0.993516
372.195010	0.994132
372.581875	0.994933
372.968678	0.993828
373.355418	0.994567
373.742096	0.993690
374.128710	0.995178
374.515262	0.993600
374.901751	0.993749
375.288177	0.993497
375.674540	0.994574
376.060841	0.993700
376.447079	0.994132
376.833254	0.994960
377.219367	0.994592
377.605417	0.994169
377.991404	0.994208
378.377329	0.992895
378.763191	0.993732
379.148991	0.995486
379.534727	0.995495
379.920402	0.995247
380.306013	0.994694
380.691563	0.995168
381.077049	0.994020
381.462474	0.994226
381.847835	0.995007
382.233134	0.993710
382.618371	0.994622
383.003545	0.995182
383.388657	0.994290
383.773706	0.994492
384.158693	0.995035
384.543618	0.994208
384.928480	0.995548
385.313280	0.995225
385.698017	0.995452
386.082692	0.995250
386.467305	0.995424
386.851856	0.995395
387.236344	0.993895
387.620770	0.994185
388.005133	0.995761
388.389435	0.995397
388.773674	0.995223
389.157851	0.995051
389.541965	0.995478
389.926018	0.994835
390.310008	0.995852
390.693936	0.994586
391.077802	0.995719
391.461606	0.994843
391.845348	0.995065
392.229027	0.995253
392.612645	0.994388
392.996200	0.995619
393.379694	0.994673
393.763125	0.995671
394.146494	0.994962
394.529801	0.994636
394.913047	0.995240
395.296230	0.994574
395.679351	0.993938
396.062410	0.994137
396.445408	0.993504
396.828343	0.992690
397.211217	0.993231
397.594028	0.992291
397.976778	0.991178
398.359466	0.989673
398.742092	0.988584
399.124656	0.986535
399.507158	0.985164
399.889598	0.984167
400.271977	0.982153
400.654294	0.979266
401.036549	0.976099
401.418742	0.973267
401.800874	0.968094
402.182944	0.965594
402.564952	0.960085
402.946898	0.957954
403.328783	0.951968
403.710606	0.949040
404.092367	0.941612
404.474067	0.936350
404.855705	0.931542
405.237282	0.928443
405.618797	0.918557
406.000250	0.912529
406.381642	0.904864
406.762972	0.899049
407.144240	0.892407
407.525447	0.885510
407.906593	0.875626
408.287677	0.867655
408.668700	0.862885
409.049661	0.852206
409.430560	0.843014
409.811399	0.836360
410.192176	0.823068
410.572891	0.817345
410.953545	0.804481
411.334138	0.799958
411.714669	0.789578
412.095139	0.785860
412.475547	0.770435
412.855894	0.761884
413.236180	0.753340
413.616405	0.746941
413.996568	0.733590
414.376670	0.728345
414.756711	0.722372
415.136691	0.712073
415.516609	0.698497
415.896466	0.687959
416.276262	0.676860
416.655997	0.670988
417.035670	0.649185
417.415283	0.636407
417.794834	0.632092
418.174324	0.628719
418.553753	0.628391
418.933121	0.606771
419.312428	0.594849
419.691674	0.591966
420.070859	0.576838
420.449983	0.576312
420.829045	0.561781
421.208047	0.563492
421.586988	0.552629
421.965867	0.545435
422.344686	0.530310
422.723444	0.536895
423.102141	0.546285
423.480777	0.518133
423.859352	0.532519
424.237866	0.507291
424.616319	0.504660
424.994712	0.493003
425.373044	0.499626
425.751314	0.484728
426.129524	0.497468
426.507673	0.479314
426.885762	0.470955
427.263789	0.473574
427.641756	0.481028
428.019662	0.469570
428.397508	0.466232
428.775292	0.469172
429.153016	0.460316
429.530679	0.465122
429.908282	0.456507
430.285824	0.466248
430.663305	0.443665
431.040726	0.463366
431.418086	0.463286
431.795385	0.454099
432.172624	0.451580
432.549802	0.452295
432.926920	0.451154
433.303977	0.449650
433.680974	0.446268
434.057910	0.444561
434.434786	0.444316
434.811601	0.446295
435.188355	0.428493
435.565050	0.437060
435.941683	0.438788
436.318257	0.423035
436.694770	0.423627
437.071222	0.421069
437.447614	0.425877
437.823946	0.432340
438.200218	0.421688
438.576429	0.431352
438.952580	0.423760
439.328670	0.421018
439.704700	0.427220
440.080670	0.428468
440.456580	0.409153
440.832429	0.417026
441.208218	0.427988
441.583947	0.417190
441.959616	0.417254
442.335224	0.421818
442.710773	0.412996
443.086261	0.410751
443.461689	0.424510
443.837057	0.414681
444.212365	0.404572
444.587612	0.411773
444.962800	0.401212
445.337927	0.403392
445.712995	0.429169
446.088002	0.391242
446.462949	0.401242
446.837837	0.405913
447.212664	0.394842
447.587431	0.386599
447.962139	0.357631
448.336786	0.316443
448.711374	0.327085
449.085901	0.370772
449.460369	0.375377
449.834776	0.378902
450.209124	0.358242
450.583412	0.350712
450.957640	0.343477
451.331808	0.355652
451.705917	0.378367
452.079965	0.382873
452.453954	0.371477
452.827883	0.377606
453.201752	0.373033
453.575562	0.383771
453.949311	0.372624
454.323001	0.379200
454.696632	0.374654
455.070202	0.367258
455.443713	0.359138
455.817164	0.354227
456.190556	0.349963
456.563888	0.346410
456.937160	0.344163
457.310373	0.361501
457.683526	0.360170
458.056619	0.366090
458.429653	0.366810
458.802628	0.369864
459.175542	0.364548
459.548398	0.347052
459.921194	0.339420
460.293930	0.339583
460.666607	0.316896
461.039224	0.305393
461.411782	0.301577
461.784280	0.300363
462.156719	0.304800
462.529099	0.309110
462.901419	0.325053
463.273680	0.329170
463.645882	0.329096
464.018024	0.334774
464.390106	0.327859
464.762130	0.312798
465.134094	0.295705
465.505999	0.264751
465.877845	0.235216
466.249631	0.222469
466.621358	0.229812
466.993026	0.243600
467.364634	0.249824
467.736184	0.258750
468.107674	0.267165
468.479105	0.266362
468.850477	0.273192
469.221790	0.280034
469.593043	0.290242
469.964238	0.295028
470.335373	0.294354
470.706449	0.292420
471.077467	0.293338
471.448425	0.255428
471.819324	0.231156
472.190164	0.230611
472.560945	0.258951
472.931667	0.281290
473.302330	0.285632
473.672934	0.297598
474.043479	0.285704
474.413965	0.287646
474.784393	0.291131
475.154761	0.286237
475.525070	0.282924
475.895321	0.288738
476.265513	0.283148
476.635645	0.278042
477.005719	0.278538
477.375734	0.275087
477.745691	0.268015
478.115588	0.264805
478.485427	0.258545
478.855207	0.245412
479.224928	0.227996
479.594591	0.215990
479.964194	0.219557
480.333739	0.220602
480.703226	0.222038
481.072653	0.220613
481.442022	0.215909
481.811333	0.212664
482.180584	0.216008
482.549777	0.221265
482.918912	0.224555
483.287988	0.224290
483.657005	0.223949
484.025964	0.230452
484.394864	0.227652
484.763706	0.228344
485.132489	0.233488
485.501213	0.233883
485.869879	0.232323
486.238487	0.235874
486.607036	0.233529
486.975527	0.237927
487.343959	0.233995
487.712333	0.232784
488.080648	0.234139
488.448905	0.233767
488.817104	0.234905
489.185244	0.229434
489.553326	0.226077
489.921350	0.215930
490.289315	0.198728
490.657222	0.193687
491.025070	0.194982
491.392861	0.196917
491.760593	0.202411
492.128267	0.208359
492.495883	0.213820
492.863440	0.220012
493.230939	0.226480
493.598380	0.227519
493.965763	0.229727
494.333088	0.232264
494.700354	0.233642
495.067563	0.232359
495.434713	0.235757
495.801805	0.233689
496.168839	0.235023
496.535815	0.236707
496.902733	0.236502
497.269593	0.238131
497.636395	0.235964
498.003139	0.236180
498.369825	0.239032
498.736453	0.235782
499.103023	0.237303
499.469535	0.236582
499.835989	0.236796
500.202385	0.237641
500.568723	0.240917
500.935003	0.236125
501.301226	0.240345
501.667390	0.234601
502.033497	0.233018
502.399546	0.235586
502.765537	0.237547
503.131470	0.236146
503.497345	0.232071
503.863163	0.240952
504.228923	0.233915
504.594625	0.232689
504.960269	0.238132
505.325856	0.233116
505.691385	0.237794
506.056856	0.234621
506.422270	0.233888
506.787625	0.236095
507.152924	0.233780
507.518164	0.234282
507.883347	0.235699
508.248472	0.237551
508.613540	0.232689
508.978550	0.234997
509.343503	0.235569
509.708398	0.233215
510.073236	0.230796
510.438016	0.230818
510.802738	0.231600
511.167403	0.230964
511.532010	0.232923
511.896561	0.228278
512.261053	0.226882
512.625488	0.228824
512.989866	0.229317
513.354186	0.229458
513.718449	0.231719
514.082655	0.227933
514.446803	0.229965
514.810894	0.227783
515.174927	0.230250
515.538904	0.229705
515.902822	0.226663
516.266684	0.229338
516.630488	0.230608
516.994235	0.228948
517.357925	0.227957
517.721558	0.226126
518.085133	0.225835
518.448651	0.225822
518.812112	0.228040
519.175516	0.227465
519.538863	0.225381
519.902152	0.226873
520.265385	0.223723
520.628560	0.225616
520.991678	0.225772
521.354739	0.224608
521.717743	0.226217
522.080690	0.226688
522.443580	0.223731
522.806413	0.224615
523.169189	0.224012
523.531908	0.222586
523.894569	0.226367
524.257174	0.226244
524.619722	0.224095
524.982213	0.225258
525.344647	0.224185
525.707025	0.224915
526.069345	0.223034
526.431608	0.224873
526.793815	0.222750
527.155964	0.227058
527.518057	0.225887
527.880093	0.226611
528.242072	0.225137
528.603995	0.227160
528.965860	0.228870
529.327669	0.227711
529.689421	0.228638
530.051117	0.229595
530.412755	0.227366
530.774337	0.229727
531.135862	0.230129
531.497331	0.229491
531.858743	0.232097
532.220098	0.228872
532.581396	0.231381
532.942638	0.231916
533.303824	0.232691
533.664953	0.232547
534.026025	0.234235
534.387040	0.232160
534.747999	0.232187
535.108902	0.231029
535.469748	0.236051
535.830537	0.233934
536.191270	0.234300
536.551947	0.233519
536.912567	0.233999
537.273131	0.235751
537.633638	0.235887
537.994089	0.236133
538.354483	0.237057
538.714821	0.234164
539.075103	0.233811
539.435328	0.234729
539.795497	0.238474
540.155609	0.234987
540.515665	0.232943
540.875665	0.238955
541.235609	0.237292
541.595496	0.237455
541.955328	0.233852
542.315102	0.236629
542.674821	0.237590
543.034483	0.237333
543.394090	0.237621
543.753640	0.239348
544.113134	0.234049
544.472571	0.237489
544.831953	0.234291
545.191278	0.238588
545.550548	0.237878
545.909761	0.234484
546.268918	0.235505
546.628019	0.233972
546.987064	0.236493
547.346053	0.238315
547.704986	0.236272
548.063863	0.236716
548.422684	0.236766
548.781449	0.238682
549.140158	0.235996
549.498811	0.239020
549.857408	0.242074
550.215949	0.236935
550.574434	0.239855
550.932864	0.237879
551.291237	0.236578
551.649555	0.238169
552.007817	0.237775
552.366022	0.238641
552.724173	0.238781
553.082267	0.238984
553.440305	0.235825
553.798288	0.240784
554.156215	0.236913
554.514086	0.237728
554.871902	0.240940
555.229661	0.239928
555.587365	0.240254
555.945014	0.243072
556.302606	0.240167
556.660143	0.242674
557.017625	0.239087
557.375050	0.241148
557.732421	0.238326
558.089735	0.240532
558.446994	0.240377
558.804197	0.239620
559.161345	0.239642
559.518437	0.243136
559.875474	0.240822
560.232455	0.240216
560.589381	0.241402
560.946251	0.241428
561.303065	0.238620
561.659825	0.240579
562.016528	0.241832
562.373177	0.244668
562.729770	0.242200
563.086307	0.244156
563.442789	0.241855
563.799216	0.244731
564.155587	0.243593
564.511904	0.244303
564.868164	0.244878
565.224370	0.244610
565.580520	0.246253
565.936615	0.246016
566.292654	0.249084
566.648638	0.246309
567.004567	0.247043
567.360441	0.247425
567.716260	0.249672
568.072023	0.247297
568.427732	0.248142
568.783385	0.250719
569.138982	0.248808
569.494525	0.248348
569.850013	0.251198
570.205445	0.249697
570.560823	0.252391
570.916145	0.254280
571.271412	0.252368
571.626625	0.254101
571.981782	0.254517
572.336884	0.255131
572.691931	0.254928
573.046923	0.255841
573.401860	0.257459
573.756743	0.259030
574.111570	0.257742
574.466342	0.258493
574.821059	0.257517
575.175722	0.260607
575.530330	0.260174
575.884882	0.260484
576.239380	0.262378
576.593823	0.263009
576.948211	0.262253
577.302544	0.265581
577.656823	0.265194
578.011047	0.265510
578.365216	0.266046
578.719330	0.268336
579.073389	0.268051
579.427394	0.269054
579.781344	0.269677
580.135239	0.271251
580.489080	0.271108
580.842866	0.273896
581.196597	0.273860
581.550273	0.272558
581.903895	0.273414
582.257463	0.271720
582.610975	0.275026
582.964434	0.274536
583.317837	0.276778
583.671186	0.277323
584.024481	0.277192
584.377721	0.279729
584.730906	0.280147
585.084037	0.279575
585.437113	0.281817
585.790135	0.280646
586.143103	0.283832
586.496016	0.284668
586.848874	0.282171
587.201679	0.283003
587.554428	0.286234
587.907124	0.285184
588.259765	0.285752
588.612352	0.286191
588.964884	0.290294
589.317362	0.289861
589.669786	0.289673
590.022155	0.288391
590.374470	0.287860
590.726731	0.289424
591.078937	0.294208
591.431090	0.290586
591.783188	0.295022
592.135232	0.295441
592.487222	0.295409
592.839157	0.293216
593.191038	0.295796
593.542866	0.297383
593.894639	0.301003
594.246358	0.299346
594.598022	0.298753
594.949633	0.302353
595.301190	0.303496
595.652692	0.302592
596.004141	0.298543
596.355535	0.306380
596.706876	0.306954
597.058162	0.309204
597.409395	0.306603
597.760573	0.304208
598.111698	0.307567
598.462768	0.308130
598.813785	0.309624
599.164748	0.310545
599.515657	0.310617
599.866511	0.314223
600.217312	0.309433
600.568060	0.315023
600.918753	0.311251
601.269392	0.312106
601.619978	0.315659
601.970510	0.313211
602.320988	0.313488
602.671412	0.310794
603.021783	0.313293
603.372100	0.315000
603.722363	0.314911
604.072572	0.315451
604.422728	0.315166
604.772830	0.317024
605.122878	0.316737
605.472872	0.317028
605.822813	0.316030
606.172701	0.318352
606.522534	0.315965
606.872314	0.315750
607.222041	0.316843
607.571714	0.314949
607.921333	0.316210
608.270899	0.315760
608.620411	0.312754
608.969870	0.316436
609.319276	0.316819
609.668627	0.316781
610.017926	0.314832
610.367171	0.313694
610.716362	0.314360
611.065500	0.314469
611.414585	0.313407
611.763616	0.314166
612.112594	0.314612
612.461518	0.313587
612.810389	0.311517
613.159207	0.313683
613.507971	0.315605
613.856682	0.311709
614.205340	0.312732
614.553945	0.309783
614.902496	0.313392
615.250994	0.311767
615.599439	0.312414
615.947830	0.311637
616.296169	0.312567
616.644454	0.312251
616.992686	0.312090
617.340864	0.310020
617.688990	0.313899
618.037063	0.310490
618.385082	0.312322
618.733048	0.309009
619.080961	0.311429
619.428821	0.311024
619.776628	0.310404
620.124382	0.312151
620.472083	0.312889
620.819731	0.311971
621.167326	0.315868
621.514868	0.315637
621.862357	0.320133
622.209793	0.319295
622.557176	0.321602
622.904506	0.322877
623.251783	0.325276
623.599007	0.327520
623.946179	0.327001
624.293297	0.329200
624.640363	0.332886
624.987376	0.333645
625.334336	0.335986
625.681243	0.338122
626.028097	0.338737
626.374899	0.340001
626.721647	0.339992
627.068343	0.343243
627.414987	0.344546
627.761577	0.346712
628.108115	0.345105
628.454600	0.349730
628.801032	0.347616
629.147412	0.349157
629.493739	0.349664
629.840014	0.352917
630.186236	0.350338
630.532405	0.355790
630.878521	0.352993
631.224585	0.355505
631.570597	0.359273
631.916556	0.357578
632.262462	0.357778
632.608316	0.359853
632.954117	0.360681
633.299866	0.361648
633.645562	0.361792
633.991206	0.365884
634.336797	0.368881
634.682336	0.371788
635.027823	0.372880
635.373257	0.373554
635.718639	0.376836
636.063968	0.376062
636.409245	0.382540
636.754470	0.382536
637.099642	0.384395
637.444762	0.388705
637.789829	0.387239
638.134845	0.391311
638.479808	0.392280
638.824719	0.391712
639.169577	0.395233
639.514383	0.394886
639.859137	0.398552
640.203839	0.398805
640.548489	0.398922
640.893086	0.400461
641.237632	0.402070
641.582125	0.400166
641.926566	0.401931
642.270955	0.402224
642.615292	0.402512
642.959576	0.401818
643.303809	0.402419
643.647990	0.402028
643.992118	0.402893
644.336195	0.406326
644.680219	0.404083
645.024192	0.405348
645.368112	0.398524
645.711981	0.397705
646.055797	0.392803
646.399562	0.395296
646.743274	0.387240
647.086935	0.385134
647.430544	0.384819
647.774101	0.383937
648.117606	0.383462
648.461059	0.383870
648.804460	0.386275
649.147810	0.391353
649.491108	0.393818
649.834354	0.394550
650.177548	0.400190
650.520690	0.405688
650.863781	0.406775
651.206820	0.405778
651.549807	0.410857
651.892742	0.414664
652.235626	0.414328
652.578458	0.415217
652.921238	0.421617
653.263967	0.418956
653.606644	0.422357
653.949269	0.422701
654.291843	0.426563
654.634365	0.423015
654.976836	0.426563
655.319255	0.426798
655.661622	0.428549
656.003938	0.428168
656.346203	0.431468
656.688416	0.429113
657.030577	0.432342
657.372687	0.434594
657.714746	0.435275
658.056753	0.433251
658.398708	0.435817
658.740612	0.437206
659.082465	0.433187
659.424266	0.434332
659.766016	0.433512
660.107715	0.435992
660.449362	0.435005
660.790958	0.435770
661.132503	0.436296
661.473996	0.433752
661.815438	0.434483
662.156829	0.434744
662.498168	0.435805
662.839456	0.437245
663.180693	0.435434
663.521879	0.435094
663.863013	0.435865
664.204097	0.434467
664.545129	0.431203
664.886110	0.431307
665.227040	0.428885
665.567918	0.431011
665.908746	0.429623
666.249522	0.428815
666.590248	0.429822
666.930922	0.428697
667.271545	0.427478
667.612118	0.427267
667.952639	0.428930
668.293109	0.427679
668.633528	0.430528
668.973896	0.429988
669.314213	0.430717
669.654480	0.432044
669.994695	0.432623
670.334859	0.433042
670.674973	0.433422
671.015035	0.433803
671.355047	0.433478
671.695008	0.435116
672.034918	0.436401
672.374777	0.435903
672.714585	0.437190
673.054342	0.437271
673.394049	0.437490
673.733705	0.434861
674.073310	0.436144
674.412864	0.438705
674.752368	0.439698
675.091820	0.439718
675.431223	0.444339
675.770574	0.444084
676.109875	0.446985
676.449125	0.447157
676.788324	0.449552
677.127473	0.454668
677.466571	0.454824
677.805619	0.456411
678.144616	0.457674
678.483562	0.458680
678.822458	0.461250
679.161303	0.462642
679.500098	0.462597
679.838842	0.464703
680.177535	0.464510
680.516179	0.462937
680.854771	0.461713
681.193314	0.455082
681.531805	0.446744
681.870247	0.435067
682.208638	0.427453
682.546978	0.426517
682.885268	0.428026
683.223508	0.434562
683.561697	0.437205
683.899836	0.441028
684.237925	0.443582
684.575963	0.446845
684.913951	0.450154
685.251889	0.445464
685.589776	0.447370
685.927614	0.450247
686.265401	0.444311
686.603137	0.446132
686.940824	0.439966
687.278460	0.437849
687.616046	0.437065
687.953582	0.432050
688.291068	0.433611
688.628504	0.429251
688.965889	0.431250
689.303224	0.435857
689.640510	0.439690
689.977745	0.445171
690.314930	0.453487
690.652065	0.457069
690.989150	0.465242
691.326185	0.471618
691.663170	0.476867
692.000105	0.483387
692.336990	0.490184
692.673825	0.492239
693.010610	0.499912
693.347345	0.505206
693.684030	0.506303
694.020665	0.511058
694.357251	0.520269
694.693786	0.519983
695.030272	0.524591
695.366707	0.527904
695.703093	0.531368
696.039429	0.529280
696.375716	0.530303
696.711952	0.533242
697.048139	0.535152
697.384276	0.537576
697.720363	0.535168
698.056400	0.534993
698.392388	0.539788
698.728326	0.542919
699.064214	0.546535
699.400053	0.546156
699.735842	0.550457
700.071581	0.552889
700.407270	0.555987
700.742910	0.558180
701.078501	0.565628
701.414042	0.565175
701.749533	0.568964
702.084974	0.577691
702.420366	0.569184
702.755709	0.577319
703.091002	0.585243
703.426246	0.578398
703.761440	0.584570
704.096584	0.589299
704.431679	0.585611
704.766725	0.588824
705.101721	0.589979
705.436668	0.585780
705.771565	0.592747
706.106413	0.589790
706.441212	0.584830
706.775961	0.582920
707.110661	0.586749
707.445311	0.582867
707.779913	0.580196
708.114465	0.578845
708.448967	0.575233
708.783421	0.567336
709.117825	0.562859
709.452180	0.562510
709.786485	0.555162
710.120742	0.545552
710.454949	0.547615
710.789107	0.539677
711.123216	0.530575
711.457275	0.531886
711.791286	0.522836
712.125247	0.522429
712.459159	0.532653
712.793023	0.525935
713.126837	0.529778
713.460602	0.530044
713.794318	0.539193
714.127985	0.537953
714.461602	0.548075
714.795171	0.551348
715.128691	0.559696
715.462162	0.566729
715.795584	0.572959
716.128957	0.575872
716.462281	0.581839
716.795556	0.585999
717.128782	0.590667
717.461960	0.600868
717.795088	0.598529
718.128167	0.604733
718.461198	0.613179
718.794180	0.614044
719.127113	0.616473
719.459997	0.620538
719.792833	0.626751
720.125619	0.628326
720.458357	0.634501
720.791046	0.633421
721.123686	0.636800
721.456278	0.643791
721.788821	0.641135
722.121315	0.645852
722.453761	0.649411
722.786158	0.647037
723.118506	0.643295
723.450805	0.651416
723.783056	0.647196
724.115259	0.644559
724.447412	0.644285
724.779518	0.645630
725.111574	0.644791
725.443582	0.640487
725.775542	0.641928
726.107453	0.633854
726.439315	0.634632
726.771129	0.632661
727.102895	0.626883
727.434612	0.618588
727.766281	0.616872
728.097901	0.616485
728.429473	0.615891
728.760996	0.614770
729.092471	0.614221
729.423897	0.618188
729.755276	0.617739
730.086606	0.618126
730.417887	0.612045
730.749120	0.603095
731.080305	0.593771
731.411442	0.590055
731.742530	0.594474
732.073570	0.594281
732.404562	0.586115
732.735506	0.587663
733.066401	0.592177
733.397249	0.600903
733.728048	0.612895
734.058798	0.625818
734.389501	0.636120
734.720156	0.645517
735.050762	0.653915
735.381320	0.654867
735.711831	0.664316
736.042293	0.669217
736.372707	0.664419
736.703073	0.668345
737.033391	0.672001
737.363661	0.668118
737.693883	0.663110
738.024056	0.662143
738.354182	0.663078
738.684260	0.651707
739.014290	0.648113
739.344272	0.648644
739.674207	0.642147
740.004093	0.641586
740.333931	0.643035
740.663722	0.642248
740.993464	0.642725
741.323159	0.647076
741.652806	0.652330
741.982405	0.656136
742.311956	0.660750
742.641460	0.663252
742.970915	0.667399
743.300323	0.675023
743.629683	0.681406
743.958996	0.682476
744.288260	0.687409
744.617477	0.693105
744.946647	0.694816
745.275768	0.700511
745.604842	0.699732
745.933869	0.709877
746.262847	0.710716
746.591778	0.704171
746.920662	0.710437
747.249498	0.716480
747.578286	0.708310
747.907027	0.703616
748.235720	0.704597
748.564365	0.699658
748.892963	0.700010
749.221514	0.701802
749.550017	0.707529
749.878473	0.707207
750.206881	0.713743
750.535242	0.714941
750.863555	0.714266
751.191821	0.715554
751.520039	0.719839
751.848210	0.723422
752.176334	0.717158
752.504411	0.715503
752.832440	0.722784
753.160421	0.727171
753.488356	0.725281
753.816243	0.722719
754.144082	0.731402
754.471875	0.735854
754.799620	0.731126
755.127318	0.732112
755.454969	0.731854
755.782572	0.731290
756.110129	0.735718
756.437638	0.739035
756.765100	0.735617
757.092515	0.733401
757.419882	0.732049
757.747203	0.736623
758.074477	0.737402
758.401703	0.734179
758.728882	0.729375
759.056014	0.728106
759.383099	0.726732
759.710138	0.728922
760.037129	0.724475
760.364073	0.719220
760.690970	0.720848
761.017820	0.725943
761.344623	0.721651
761.671379	0.713250
761.998088	0.701345
762.324751	0.678406
762.651366	0.637738
762.977935	0.570017
763.304456	0.517659
763.630931	0.508258
763.957359	0.547381
764.283740	0.592551
764.610074	0.618596
764.936362	0.650049
765.262602	0.677177
765.588796	0.698674
765.914943	0.716544
766.241044	0.734838
766.567097	0.740724
766.893104	0.750313
767.219064	0.757818
767.544978	0.763521
767.870845	0.777135
768.196665	0.780947
768.522438	0.778606
768.848165	0.779679
769.173846	0.789339
769.499479	0.793715
769.825066	0.797366
770.150607	0.801749
770.476101	0.797231
770.801548	0.799229
771.126949	0.809283
771.452303	0.813472
771.777611	0.813292
772.102872	0.812037
772.428087	0.817454
772.753256	0.820566
773.078378	0.823222
773.403453	0.831826
773.728482	0.836503
774.053465	0.829429
774.378401	0.833421
774.703291	0.841679
775.028135	0.841365
775.352932	0.841869
775.677683	0.845741
776.002388	0.846293
776.327046	0.845415
776.651658	0.848868
776.976224	0.852485
777.300743	0.852962
777.625216	0.854116
777.949643	0.856029
778.274024	0.857022
778.598359	0.858214
778.922647	0.855695
779.246889	0.857551
779.571086	0.861240
779.895236	0.863781
780.219339	0.861048
780.543397	0.857593
780.867409	0.855638
781.191374	0.858854
781.515294	0.859330
781.839167	0.857493
782.162995	0.861945
782.486776	0.858891
782.810511	0.859240
783.134201	0.863307
783.457844	0.861443
783.781441	0.863825
784.104993	0.869580
784.428498	0.870344
784.751958	0.864964
785.075372	0.868993
785.398739	0.871880
785.722061	0.869109
786.045337	0.863571
786.368568	0.870043
786.691752	0.870750
787.014891	0.856511
787.337983	0.848020
787.661030	0.839912
787.984031	0.822675
788.306987	0.810008
788.629897	0.812486
788.952760	0.815729
789.275579	0.820313
789.598351	0.836399
789.921078	0.848846
790.243759	0.851516
790.566395	0.856334
790.888984	0.862565
791.211529	0.867177
791.534027	0.871125
791.856480	0.873252
792.178888	0.879173
792.501249	0.881084
792.823566	0.882103
793.145836	0.882945
793.468062	0.884390
793.790241	0.885321
794.112375	0.882284
794.434464	0.877351
794.756507	0.877427
795.078505	0.877320
795.400457	0.871606
795.722364	0.859932
796.044226	0.851567
796.366042	0.851100
796.687812	0.855148
797.009538	0.851173
797.331218	0.854213
797.652852	0.859634
797.974442	0.864675
798.295986	0.864645
798.617484	0.865340
798.938938	0.870653
799.260346	0.875049
799.581709	0.877319
799.903026	0.879884
800.224299	0.880296
800.545526	0.883911
800.866708	0.887206
801.187845	0.891853
801.508936	0.891711
801.829983	0.889465
802.150984	0.891962
802.471940	0.897474
802.792851	0.897919
803.113717	0.897996
803.434538	0.895820
803.755314	0.898434
804.076045	0.899750
804.396731	0.900109
804.717372	0.899110
805.037967	0.901771
805.358518	0.899778
805.679024	0.896265
805.999485	0.897979
806.319901	0.895544
806.640272	0.897744
806.960598	0.895630
807.280879	0.893475
807.601115	0.891852
807.921306	0.894559
808.241453	0.895557
808.561554	0.893183
808.881611	0.892729
809.201623	0.895073
809.521590	0.895787
809.841513	0.896817
810.161390	0.895372
810.481223	0.896841
810.801011	0.899774
811.120755	0.902910
811.440453	0.900692
811.760107	0.899895
812.079716	0.900186
812.399281	0.903835
812.718801	0.907143
813.038276	0.906890
813.357707	0.906101
813.677093	0.903508
813.996434	0.906184
814.315731	0.908279
814.634983	0.909648
814.954191	0.907551
815.273354	0.905108
815.592473	0.900906
815.911547	0.901847
816.230577	0.898568
816.549562	0.895301
816.868502	0.897201
817.187399	0.892149
817.506250	0.887497
817.825058	0.889555
818.143821	0.886015
818.462539	0.881239
818.781213	0.873183
819.099843	0.861688
819.418429	0.845426
819.736970	0.829294
820.055466	0.808378
820.373919	0.783475
820.692327	0.750182
821.010691	0.715253
821.329011	0.637735
821.647286	0.521537
821.965517	0.408057
822.283704	0.365154
822.601847	0.366396
822.919945	0.402189
823.237999	0.435629
823.556010	0.482561
823.873976	0.538739
824.191897	0.589399
824.509775	0.632277
824.827609	0.678153
825.145398	0.700423
825.463144	0.703625
825.780845	0.686048
826.098502	0.667570
826.416116	0.622088
826.733685	0.577182
827.051210	0.568065
827.368692	0.583802
827.686129	0.621174
828.003522	0.674010
828.320872	0.721500
828.638177	0.765696
828.955439	0.798873
829.272656	0.820138
829.589830	0.838592
829.906960	0.853428
830.224046	0.867388
830.541088	0.875943
830.858086	0.880843
831.175041	0.886658
831.491952	0.886475
831.808819	0.883632
832.125642	0.876586
832.442421	0.862176
832.759157	0.838400
833.075849	0.792486
833.392497	0.729324
833.709101	0.688732
834.025662	0.698009
834.342179	0.729266
834.658653	0.768338
834.975083	0.805412
835.291469	0.832162
835.607811	0.853538
835.924110	0.870255
836.240366	0.887088
836.556578	0.900624
836.872746	0.908093
837.188871	0.914685
837.504952	0.919869
837.820990	0.923460
838.136984	0.926063
838.452935	0.929509
838.768842	0.931062
839.084706	0.923726
839.400526	0.898339
839.716303	0.858101
840.032037	0.836526
840.347727	0.839819
840.663373	0.857656
840.978977	0.878892
841.294537	0.902346
841.610054	0.917513
841.925527	0.926410
842.240957	0.933314
842.556344	0.938987
842.871687	0.946461
843.186987	0.950575
843.502244	0.949904
843.817458	0.951251
844.132629	0.955078
844.447756	0.959592
844.762840	0.959697
845.077881	0.959829
845.392879	0.959652
845.707833	0.962586
846.022745	0.964587
846.337613	0.964898
846.652438	0.965468
846.967221	0.964813
847.281960	0.965314
847.596656	0.967707
847.911309	0.964796
848.225919	0.967220
848.540485	0.967935
848.855009	0.969431
849.169490	0.969232
849.483928	0.969656
849.798323	0.969052
850.112675	0.969432
850.426984	0.970327
850.741251	0.969086
851.055474	0.969399
851.369654	0.967956
851.683792	0.968831
851.997887	0.970000
852.311938	0.970104
852.625947	0.969758
852.939914	0.967417
853.253837	0.967960
853.567718	0.970529
853.881555	0.970364
854.195350	0.968089
854.509103	0.969871
854.822812	0.970540
855.136479	0.970284
855.450103	0.968492
855.763685	0.969382
856.077224	0.969049
856.390720	0.970290
856.704173	0.969609
857.017584	0.969231
857.330953	0.967017
857.644278	0.967433
857.957561	0.968516
858.270802	0.969052
858.584000	0.968402
858.897155	0.965773
859.210268	0.968300
859.523339	0.967740
859.836367	0.970074
860.149352	0.970348
860.462295	0.968821
860.775195	0.969525
861.088054	0.969327
861.400869	0.969533
861.713642	0.970453
862.026373	0.970852
862.339062	0.971044
862.651708	0.968220
862.964312	0.967499
863.276873	0.968833
863.589392	0.968230
863.901869	0.966734
864.214303	0.964896
864.526696	0.963785
864.839045	0.964150
865.151353	0.961000
865.463619	0.961379
865.775842	0.962158
866.088023	0.961727
866.400162	0.961544
866.712258	0.962162
867.024313	0.962490
867.336325	0.963174
867.648296	0.962081
867.960224	0.962200
868.272110	0.961866
868.583954	0.964404
868.895755	0.964019
869.207515	0.961489
869.519233	0.959861
869.830909	0.960521
870.142542	0.962482
870.454134	0.962555
870.765684	0.961042
871.077191	0.958002
871.388657	0.959290
871.700081	0.958468
872.011463	0.959109
872.322803	0.957792
872.634101	0.957246
872.945357	0.955055
873.256571	0.952383
873.567744	0.952740
873.878874	0.953243
874.189963	0.950717
874.501010	0.951624
874.812015	0.950132
875.122979	0.951115
875.433900	0.951854
875.744780	0.953728
876.055618	0.950890
876.366415	0.949943
876.677169	0.949874
876.987882	0.951590
877.298554	0.949195
877.609183	0.946608
877.919771	0.945087
878.230317	0.942821
878.540822	0.940791
878.851285	0.933900
879.161707	0.927107
879.472087	0.913948
879.782425	0.898572
880.092722	0.863427
880.402977	0.811930
880.713191	0.750096
881.023363	0.691013
881.333494	0.656959
881.643583	0.628857
881.953631	0.628361
882.263637	0.657561
882.573602	0.696916
882.883526	0.722610
883.193408	0.746677
883.503248	0.768918
883.813048	0.796382
884.122806	0.826352
884.432522	0.849942
884.742197	0.870196
885.051831	0.880798
885.361424	0.890782
885.670975	0.903521
885.980485	0.913278
886.289954	0.919499
886.599382	0.924156
886.908768	0.928269
887.218113	0.932985
887.527417	0.939031
887.836680	0.941981
888.145901	0.943322
888.455082	0.946541
888.764221	0.950413
889.073319	0.952589
889.382376	0.952940
889.691392	0.953439
890.000366	0.952336
890.309300	0.954375
890.618193	0.953487
890.927044	0.950998
891.235855	0.951701
891.544625	0.949904
891.853353	0.951845
892.162041	0.948349
892.470687	0.940707
892.779293	0.937580
893.087858	0.933573
893.396381	0.925595
893.704864	0.913327
894.013306	0.888370
894.321707	0.862499
894.630068	0.846920
894.938387	0.842407
895.246665	0.844271
895.554903	0.855693
895.863100	0.870162
896.171256	0.886517
896.479371	0.905441
896.787446	0.918262
897.095480	0.924709
897.403473	0.929041
897.711425	0.931863
898.019336	0.940740
898.327207	0.942349
898.635038	0.945477
898.942827	0.944384
899.250576	0.947248
899.558284	0.952937
899.865952	0.953675
900.173579	0.955138
900.481165	0.954902
900.788711	0.959823
901.096216	0.960672
901.403681	0.961971
901.711105	0.962277
902.018489	0.963237
902.325832	0.962002
902.633135	0.961083
902.940397	0.955972
903.247619	0.944099
903.554800	0.917652
903.861941	0.878989
904.169041	0.842234
904.476101	0.824870
904.783121	0.826172
905.090100	0.841808
905.397039	0.864208
905.703938	0.885960
906.010796	0.905647
906.317614	0.922963
906.624391	0.933878
906.931129	0.943912
907.237826	0.952178
907.544483	0.959582
907.851099	0.962965
908.157675	0.968683
908.464211	0.969938
908.770707	0.973371
909.077163	0.975252
909.383578	0.973578
909.689954	0.974858
909.996289	0.975620
910.302584	0.977917
910.608839	0.979602
910.915054	0.978766
911.221229	0.977252
911.527363	0.976959
911.833458	0.977499
912.139513	0.976252
912.445527	0.975220
912.751502	0.973645
913.057436	0.973129
913.363331	0.970072
913.669186	0.965657
913.975000	0.959966
914.280775	0.955225
914.586510	0.948303
914.892205	0.933776
915.197859	0.913944
915.503475	0.886346
915.809050	0.866080
916.114585	0.859967
916.420081	0.858128
916.725536	0.854913
917.030952	0.862754
917.336328	0.875474
917.641665	0.890566
917.946961	0.906703
918.252218	0.917504
918.557435	0.926885
918.862612	0.935517
919.167750	0.941961
919.472848	0.946751
919.777906	0.953145
920.082925	0.957830
920.387904	0.962163
920.692843	0.962784
920.997743	0.964145
921.302603	0.968136
921.607423	0.968881
921.912204	0.972609
922.216946	0.972047
922.521647	0.972482
922.826310	0.975756
923.130932	0.976793
923.435516	0.979059
923.740059	0.979714
924.044564	0.977135
924.349028	0.980881
924.653454	0.983192
924.957840	0.985089
925.262186	0.985136
925.566493	0.984560
925.870761	0.984881
926.174989	0.986334
926.479178	0.988088
926.783328	0.988320
927.087438	0.988546
927.391509	0.988434
927.695541	0.990661
927.999533	0.989383
928.303486	0.989905
928.607400	0.991218
928.911275	0.990106
929.215110	0.990450
929.518906	0.990044
929.822663	0.988696
930.126381	0.991306
930.430060	0.990008
930.733699	0.989904
931.037299	0.988764
931.340861	0.990523
931.644383	0.990191
931.947866	0.988659
932.251309	0.990955
932.554714	0.990534
932.858080	0.989825
933.161407	0.990283
933.464694	0.990322
933.767943	0.990597
934.071153	0.990169
934.374323	0.993485
934.677455	0.990324
934.980548	0.991809
935.283602	0.990619
935.586617	0.991987
935.889593	0.990772
936.192530	0.990814
936.495428	0.991313
936.798287	0.990631
937.101108	0.990780
937.403890	0.988631
937.706632	0.988721
938.009336	0.985860
938.312002	0.986704
938.614628	0.984904
938.917216	0.983626
939.219765	0.981557
939.522275	0.983271
939.824747	0.982910
940.127179	0.983574
940.429573	0.983445
940.731929	0.983819
941.034246	0.984326
941.336524	0.985247
941.638763	0.986321
941.940964	0.986720
942.243126	0.986096
942.545250	0.987434
942.847335	0.986699
943.149381	0.987997
943.451389	0.987911
943.753359	0.988126
944.055290	0.990973
944.357182	0.990205
944.659036	0.989114
944.960851	0.989594
945.262628	0.989339
945.564367	0.991317
945.866067	0.990179
946.167729	0.990424
946.469352	0.990633
946.770937	0.989956
947.072484	0.990394
947.373992	0.990237
947.675462	0.990780
947.976893	0.990517
948.278286	0.990772
948.579641	0.991912
948.880958	0.990939
949.182236	0.991239
949.483476	0.990492
949.784678	0.989748
950.085841	0.991859
950.386967	0.991357
950.688054	0.991443
950.989103	0.990490
951.290114	0.989275
951.591087	0.989746
951.892021	0.989514
952.192917	0.989656
952.493776	0.988063
952.794596	0.988319
953.095378	0.987765
953.396122	0.988739
953.696828	0.987281
953.997496	0.989887
954.298126	0.990377
954.598718	0.989591
954.899272	0.990560
955.199788	0.990702
955.500266	0.992099
955.800706	0.993851
956.101108	0.993556
956.401472	0.993547
956.701798	0.993917
957.002087	0.993675
957.302337	0.994339
957.602550	0.994312
957.902724	0.994649
958.202861	0.996075
958.502960	0.995544
958.803022	0.993399
959.103045	0.996167
959.403031	0.995976
959.702979	0.995141
960.002889	0.996158
960.302762	0.996033
960.602596	0.996252
960.902393	0.994840
961.202153	0.996355
961.501875	0.996570
961.801559	0.995594
962.101205	0.995762
962.400814	0.996311
962.700385	0.997437
962.999918	0.997262
963.299414	0.996429
963.598873	0.996702
963.898293	0.997178
964.197677	0.996093
964.497022	0.996155
964.796331	0.997164
965.095601	0.997310
965.394835	0.996887
965.694030	0.997818
965.993189	0.998137
966.292309	0.997221
966.591393	0.998192
966.890439	0.997678
967.189447	0.996966
967.488419	0.997023
967.787353	0.996497
968.086249	0.996929
968.385108	0.996951
968.683930	0.997180
968.982714	0.997710
969.281462	0.997791
969.580172	0.996546
969.878844	0.997092
970.177480	0.996562
970.476078	0.999228
970.774639	0.997188
971.073162	0.996849
971.371649	0.996020
971.670098	0.996161
971.968510	0.997275
972.266885	0.996124
972.565223	0.996790
972.863524	0.995714
973.161788	0.996708
973.460014	0.998760
973.758204	0.995529
974.056356	0.996164
974.354471	0.995269
974.652550	0.996546
974.950591	0.995751
975.248595	0.996667
975.546563	0.996667
975.844493	0.997559
976.142386	0.997011
976.440243	0.997504
976.738062	0.998075
977.035845	0.997736
977.333590	0.996950
977.631299	0.997559
977.928971	0.996810
978.226606	0.995891
978.524204	0.996031
978.821765	0.998137
979.119290	0.996366
979.416777	0.997740
979.714228	0.996403
980.011642	0.996054
980.309020	0.998356
980.606360	0.996688
980.903664	0.997911
981.200931	0.996301
981.498162	0.995126
981.795356	0.995322
982.092513	0.994972
982.389633	0.995486
982.686717	0.992047
982.983764	0.990989
983.280775	0.990648
983.577749	0.990090
983.874686	0.992297
984.171587	0.991671
984.468451	0.994914
984.765279	0.994644
985.062070	0.994334
985.358824	0.995400
985.655543	0.995331
985.952224	0.996017
986.248869	0.996623
986.545478	0.997655
986.842050	0.998482
987.138586	0.996475
987.435086	0.997119
987.731549	0.997709
988.027975	0.997363
988.324366	0.996404
988.620719	0.996596
988.917037	0.996413
989.213318	0.998042
989.509563	0.999656
989.805772	0.999398
990.101944	0.999170
990.398080	0.997576
990.694180	0.998031
990.990244	0.997461
991.286271	0.998596
991.582262	0.998170
991.878217	0.998148
992.174136	0.999220
992.470019	0.998652
992.765865	0.997142
993.061676	0.997933
993.357450	0.997348
993.653188	0.996362
993.948890	0.996844
994.244556	0.997922
994.540186	0.997549
994.835780	0.997166
995.131337	0.996916
995.426859	0.997013
995.722345	0.997136
996.017795	0.996550
996.313208	0.995194
996.608586	0.995140
996.903928	0.996296
997.199234	0.996178
997.494504	0.996322
997.789738	0.996555
998.084936	0.996366
998.380099	0.998066
998.675225	0.997935
998.970316	0.998436
999.265371	0.998868
999.560390	0.997847
999.855373	0.998413
1000.150320	0.997976
1000.445232	0.998143
1000.740108	0.997778
1001.034948	0.997696
1001.329752	0.999962
1001.624521	0.999588
1001.919254	0.998190
1002.213951	0.997361
1002.508613	0.998531
1002.803239	0.999144
1003.097829	0.998861
1003.392384	0.999696
1003.686903	0.999006
1003.981386	0.999186
1004.275834	0.998968
1004.570246	0.997958
1004.864623	0.999261
1005.158964	1.000280
1005.453270	0.998193
1005.747540	0.997787
1006.041775	0.998749
1006.335974	0.999286
1006.630138	0.999080
1006.924266	1.000001
1007.218359	1.000154
1007.512416	0.999050
1007.806438	0.998246
1008.100425	0.999273
1008.394376	0.999188
1008.688292	0.999417
1008.982172	1.000554
1009.276017	1.000022
1009.569827	0.998983
1009.863602	0.999012
1010.157341	1.000323
1010.451045	0.999645
1010.744714	0.999657
1011.038347	1.000036
1011.331945	0.998576
1011.625508	0.998015
1011.919036	0.998067
1012.212528	0.999075
1012.505986	0.999404
1012.799408	0.998566
1013.092795	0.999791
1013.386147	0.998738
1013.679464	0.999009
1013.972745	0.998255
1014.265992	0.997662
1014.559204	0.999006
1014.852380	0.998235
1015.145521	0.998864
1015.438628	0.998054
1015.731699	0.998885
1016.024736	0.998775
1016.317737	0.998612
1016.610703	1.000243
1016.903635	0.999359
1017.196531	0.998453
1017.489393	0.999125
1017.782219	0.999315
1018.075011	0.998514
1018.367768	0.998372
1018.660490	0.999421
1018.953177	0.999421
1019.245829	0.999421
