Dividing Wavelength (nm)	Counts (n)	Blue Motor Position (mm): 0.000000	Red Motor Position (mm): 4.200000	
326.493990	1.000759
326.888308	1.000759
327.282561	1.000759
327.676750	0.999360
328.070874	0.999241
328.464933	0.998872
328.858929	0.998607
329.252859	0.999915
329.646726	0.999951
330.040528	1.002088
330.434265	0.999663
330.827938	1.000826
331.221547	1.000561
331.615091	1.000103
332.008571	1.000138
332.401986	1.000663
332.795338	1.000019
333.188625	0.998623
333.581847	0.999697
333.975006	0.999575
334.368100	0.999833
334.761129	1.000773
335.154095	1.001298
335.546996	0.998270
335.939833	0.994146
336.332606	0.993756
336.725315	0.993551
337.117960	0.994368
337.510540	0.992817
337.903056	0.993899
338.295508	0.992559
338.687896	0.994954
339.080220	0.994118
339.472480	0.993610
339.864676	0.992964
340.256807	0.993337
340.648875	0.995660
341.040879	0.994812
341.432818	0.993464
341.824694	0.993302
342.216506	0.994235
342.608253	0.994066
342.999937	0.994951
343.391557	0.994252
343.783113	0.993024
344.174605	0.993991
344.566033	0.994371
344.957397	0.993122
345.348697	0.994175
345.739934	0.993313
346.131106	0.994025
346.522215	0.993013
346.913260	0.992532
347.304241	0.993153
347.695159	0.992627
348.086012	0.992156
348.476802	0.993763
348.867528	0.992859
349.258191	0.991373
349.648789	0.992878
350.039324	0.993647
350.429796	0.993642
350.820203	0.993112
351.210548	0.993440
351.600828	0.993117
351.991045	0.992745
352.381198	0.991773
352.771288	0.992841
353.161314	0.992714
353.551276	0.994429
353.941175	0.992273
354.331010	0.993231
354.720782	0.993649
355.110490	0.993973
355.500135	0.993013
355.889717	0.992030
356.279235	0.991069
356.668689	0.991937
357.058080	0.993323
357.447408	0.993592
357.836672	0.992898
358.225873	0.993651
358.615010	0.991514
359.004084	0.994499
359.393095	0.993025
359.782043	0.992482
360.170927	0.992358
360.559748	0.993668
360.948505	0.991311
361.337199	0.992182
361.725830	0.991785
362.114398	0.991892
362.502903	0.993570
362.891344	0.992816
363.279722	0.991934
363.668037	0.992894
364.056289	0.992139
364.444478	0.992778
364.832603	0.992159
365.220665	0.991030
365.608665	0.991201
365.996601	0.990916
366.384474	0.991110
366.772284	0.991673
367.160031	0.989198
367.547715	0.990972
367.935336	0.990013
368.322893	0.990276
368.710388	0.989259
369.097820	0.989099
369.485189	0.987472
369.872495	0.986089
370.259738	0.984152
370.646918	0.983900
371.034035	0.981506
371.421090	0.978578
371.808081	0.974411
372.195010	0.974116
372.581875	0.969180
372.968678	0.965200
373.355418	0.960491
373.742096	0.956388
374.128710	0.953108
374.515262	0.947577
374.901751	0.942878
375.288177	0.938343
375.674540	0.930900
376.060841	0.925051
376.447079	0.919963
376.833254	0.912141
377.219367	0.906077
377.605417	0.897310
377.991404	0.893450
378.377329	0.885009
378.763191	0.879451
379.148991	0.871041
379.534727	0.863508
379.920402	0.853916
380.306013	0.850610
380.691563	0.836971
381.077049	0.828645
381.462474	0.824474
381.847835	0.814394
382.233134	0.807108
382.618371	0.806988
383.003545	0.788804
383.388657	0.786414
383.773706	0.778842
384.158693	0.773499
384.543618	0.766657
384.928480	0.759064
385.313280	0.748137
385.698017	0.746898
386.082692	0.735247
386.467305	0.733811
386.851856	0.725968
387.236344	0.720654
387.620770	0.714547
388.005133	0.709274
388.389435	0.704332
388.773674	0.701436
389.157851	0.692374
389.541965	0.688815
389.926018	0.696372
390.310008	0.683148
390.693936	0.679232
391.077802	0.671652
391.461606	0.673234
391.845348	0.662934
392.229027	0.663339
392.612645	0.660423
392.996200	0.647809
393.379694	0.640832
393.763125	0.630893
394.146494	0.635724
394.529801	0.626019
394.913047	0.618815
395.296230	0.624864
395.679351	0.615287
396.062410	0.611891
396.445408	0.614603
396.828343	0.610126
397.211217	0.605301
397.594028	0.617911
397.976778	0.607672
398.359466	0.604321
398.742092	0.598679
399.124656	0.611539
399.507158	0.600329
399.889598	0.596997
400.271977	0.588302
400.654294	0.592619
401.036549	0.591510
401.418742	0.595331
401.800874	0.581064
402.182944	0.578046
402.564952	0.569816
402.946898	0.571353
403.328783	0.572700
403.710606	0.583508
404.092367	0.558763
404.474067	0.563602
404.855705	0.562944
405.237282	0.572064
405.618797	0.558038
406.000250	0.553066
406.381642	0.543691
406.762972	0.548702
407.144240	0.547128
407.525447	0.547218
407.906593	0.540515
408.287677	0.535945
408.668700	0.544335
409.049661	0.537544
409.430560	0.533133
409.811399	0.541595
410.192176	0.523376
410.572891	0.530046
410.953545	0.519206
411.334138	0.531415
411.714669	0.524980
412.095139	0.536089
412.475547	0.520766
412.855894	0.523201
413.236180	0.521950
413.616405	0.527266
413.996568	0.518546
414.376670	0.523621
414.756711	0.528585
415.136691	0.525841
415.516609	0.516887
415.896466	0.513170
416.276262	0.509724
416.655997	0.511695
417.035670	0.492769
417.415283	0.484228
417.794834	0.489341
418.174324	0.494056
418.553753	0.503625
418.933121	0.485433
419.312428	0.479710
419.691674	0.484757
420.070859	0.474259
420.449983	0.481763
420.829045	0.471515
421.208047	0.480365
421.586988	0.473995
421.965867	0.472713
422.344686	0.461137
422.723444	0.474352
423.102141	0.491022
423.480777	0.463562
423.859352	0.483986
424.237866	0.461338
424.616319	0.461921
424.994712	0.452629
425.373044	0.462693
425.751314	0.451592
426.129524	0.467661
426.507673	0.452032
426.885762	0.445268
427.263789	0.450194
427.641756	0.460372
428.019662	0.450270
428.397508	0.449769
428.775292	0.453940
429.153016	0.446033
429.530679	0.452320
429.908282	0.445769
430.285824	0.455918
430.663305	0.433963
431.040726	0.455073
431.418086	0.455277
431.795385	0.446460
432.172624	0.444965
432.549802	0.446348
432.926920	0.445457
433.303977	0.444143
433.680974	0.441772
434.057910	0.440069
434.434786	0.439949
434.811601	0.442044
435.188355	0.424355
435.565050	0.433597
435.941683	0.434931
436.318257	0.419568
436.694770	0.420035
437.071222	0.418575
437.447614	0.422673
437.823946	0.429693
438.200218	0.419184
438.576429	0.428351
438.952580	0.421649
439.328670	0.417947
439.704700	0.424995
440.080670	0.425730
440.456580	0.407001
440.832429	0.414825
441.208218	0.425645
441.583947	0.414978
441.959616	0.414847
442.335224	0.419956
442.710773	0.410637
443.086261	0.408230
443.461689	0.422225
443.837057	0.412424
444.212365	0.401939
444.587612	0.408993
444.962800	0.398898
445.337927	0.400982
445.712995	0.427066
446.088002	0.389265
446.462949	0.399789
446.837837	0.404489
447.212664	0.393012
447.587431	0.384538
447.962139	0.355052
448.336786	0.314520
448.711374	0.324999
449.085901	0.368329
449.460369	0.373418
449.834776	0.376247
450.209124	0.355988
450.583412	0.348635
450.957640	0.341972
451.331808	0.352884
451.705917	0.376374
452.079965	0.380361
452.453954	0.369419
452.827883	0.375599
453.201752	0.370660
453.575562	0.381970
453.949311	0.370233
454.323001	0.376634
454.696632	0.372444
455.070202	0.365054
455.443713	0.356890
455.817164	0.351650
456.190556	0.347877
456.563888	0.344343
456.937160	0.341709
457.310373	0.359130
457.683526	0.357760
458.056619	0.363783
458.429653	0.364409
458.802628	0.367539
459.175542	0.361910
459.548398	0.344451
459.921194	0.336995
460.293930	0.337655
460.666607	0.314706
461.039224	0.302617
461.411782	0.298880
461.784280	0.297424
462.156719	0.302061
462.529099	0.306404
462.901419	0.322446
463.273680	0.327167
463.645882	0.326381
464.018024	0.332077
464.390106	0.324916
464.762130	0.309546
465.134094	0.292884
465.505999	0.261728
465.877845	0.232553
466.249631	0.219583
466.621358	0.226827
466.993026	0.240970
467.364634	0.247038
467.736184	0.255772
468.107674	0.264626
468.479105	0.263455
468.850477	0.270264
469.221790	0.277192
469.593043	0.287463
469.964238	0.292106
470.335373	0.291430
470.706449	0.289805
471.077467	0.290323
471.448425	0.252506
471.819324	0.228138
472.190164	0.227402
472.560945	0.256325
472.931667	0.278536
473.302330	0.282430
473.672934	0.294626
474.043479	0.282546
474.413965	0.284546
474.784393	0.288226
475.154761	0.282966
475.525070	0.280004
475.895321	0.285986
476.265513	0.280220
476.635645	0.275343
477.005719	0.275543
477.375734	0.271752
477.745691	0.265126
478.115588	0.261933
478.485427	0.255199
478.855207	0.242003
479.224928	0.224554
479.594591	0.212649
479.964194	0.216290
480.333739	0.217201
480.703226	0.218653
481.072653	0.217407
481.442022	0.213297
481.811333	0.209643
482.180584	0.212881
482.549777	0.218180
482.918912	0.221409
483.287988	0.221184
483.657005	0.220910
484.025964	0.227444
484.394864	0.224830
484.763706	0.225424
485.132489	0.230328
485.501213	0.231208
485.869879	0.229332
486.238487	0.232774
486.607036	0.230540
486.975527	0.235173
487.343959	0.231063
487.712333	0.230195
488.080648	0.231676
488.448905	0.230621
488.817104	0.232180
489.185244	0.226298
489.553326	0.223308
489.921350	0.213308
490.289315	0.195749
490.657222	0.190770
491.025070	0.191988
491.392861	0.194056
491.760593	0.199785
492.128267	0.205398
492.495883	0.210783
492.863440	0.217301
493.230939	0.223550
493.598380	0.224866
493.965763	0.226927
494.333088	0.229470
494.700354	0.230910
495.067563	0.229892
495.434713	0.232976
495.801805	0.231041
496.168839	0.232294
496.535815	0.233913
496.902733	0.233841
497.269593	0.235181
497.636395	0.233029
498.003139	0.233389
498.369825	0.236260
498.736453	0.232716
499.103023	0.234444
499.469535	0.233791
499.835989	0.234183
500.202385	0.234814
500.568723	0.238324
500.935003	0.233427
501.301226	0.237510
501.667390	0.231887
502.033497	0.230106
502.399546	0.233017
502.765537	0.234701
503.131470	0.233205
503.497345	0.229401
503.863163	0.238183
504.228923	0.231335
504.594625	0.230093
504.960269	0.235520
505.325856	0.230508
505.691385	0.235064
506.056856	0.231599
506.422270	0.231099
506.787625	0.233361
507.152924	0.231124
507.518164	0.231201
507.883347	0.233277
508.248472	0.234902
508.613540	0.229821
508.978550	0.232378
509.343503	0.232632
509.708398	0.230567
510.073236	0.228092
510.438016	0.228141
510.802738	0.229035
511.167403	0.228041
511.532010	0.230235
511.896561	0.225482
512.261053	0.224402
512.625488	0.226266
512.989866	0.226648
513.354186	0.227009
513.718449	0.228866
514.082655	0.225122
514.446803	0.227182
514.810894	0.224962
515.174927	0.227702
515.538904	0.227168
515.902822	0.223807
516.266684	0.226361
516.630488	0.227526
516.994235	0.226433
517.357925	0.225242
517.721558	0.223412
518.085133	0.222927
518.448651	0.222913
518.812112	0.225203
519.175516	0.224948
519.538863	0.222679
519.902152	0.224101
520.265385	0.220947
520.628560	0.222758
520.991678	0.223216
521.354739	0.221678
521.717743	0.223475
522.080690	0.223606
522.443580	0.221106
522.806413	0.221788
523.169189	0.221222
523.531908	0.220359
523.894569	0.223658
524.257174	0.223915
524.619722	0.221489
524.982213	0.222516
525.344647	0.221314
525.707025	0.222075
526.069345	0.220365
526.431608	0.222013
526.793815	0.219910
527.155964	0.224130
527.518057	0.223013
527.880093	0.224215
528.242072	0.222731
528.603995	0.224347
528.965860	0.226119
529.327669	0.225115
529.689421	0.225988
530.051117	0.226957
530.412755	0.224536
530.774337	0.226925
531.135862	0.227186
531.497331	0.226612
531.858743	0.229349
532.220098	0.226095
532.581396	0.228650
532.942638	0.229104
533.303824	0.230116
533.664953	0.230056
534.026025	0.231540
534.387040	0.229865
534.747999	0.229483
535.108902	0.228324
535.469748	0.233434
535.830537	0.231252
536.191270	0.231762
536.551947	0.231205
536.912567	0.231411
537.273131	0.233143
537.633638	0.233190
537.994089	0.233651
538.354483	0.234754
538.714821	0.231792
539.075103	0.231351
539.435328	0.232424
539.795497	0.235972
540.155609	0.232432
540.515665	0.230553
540.875665	0.236237
541.235609	0.234750
541.595496	0.234608
541.955328	0.231765
542.315102	0.234169
542.674821	0.235008
543.034483	0.234977
543.394090	0.234670
543.753640	0.236591
544.113134	0.231716
544.472571	0.234799
544.831953	0.231526
545.191278	0.236070
545.550548	0.235368
545.909761	0.232031
546.268918	0.232851
546.628019	0.231253
546.987064	0.234257
547.346053	0.236079
547.704986	0.233398
548.063863	0.233971
548.422684	0.234134
548.781449	0.235993
549.140158	0.233481
549.498811	0.236349
549.857408	0.239630
550.215949	0.234410
550.574434	0.237494
550.932864	0.235249
551.291237	0.234047
551.649555	0.235416
552.007817	0.235219
552.366022	0.235900
552.724173	0.236530
553.082267	0.236479
553.440305	0.233537
553.798288	0.237731
554.156215	0.234492
554.514086	0.235086
554.871902	0.238255
555.229661	0.237472
555.587365	0.238096
555.945014	0.240602
556.302606	0.237306
556.660143	0.239533
557.017625	0.236608
557.375050	0.238870
557.732421	0.235748
558.089735	0.238012
558.446994	0.237565
558.804197	0.236965
559.161345	0.237072
559.518437	0.240555
559.875474	0.238240
560.232455	0.237488
560.589381	0.238807
560.946251	0.238892
561.303065	0.236442
561.659825	0.237862
562.016528	0.239384
562.373177	0.242238
562.729770	0.239581
563.086307	0.241456
563.442789	0.239261
563.799216	0.242003
564.155587	0.240953
564.511904	0.241929
564.868164	0.242098
565.224370	0.241906
565.580520	0.243740
565.936615	0.243612
566.292654	0.246801
566.648638	0.243694
567.004567	0.244405
567.360441	0.245178
567.716260	0.247225
568.072023	0.244846
568.427732	0.245576
568.783385	0.248086
569.138982	0.246448
569.494525	0.245859
569.850013	0.248662
570.205445	0.247089
570.560823	0.249865
570.916145	0.251591
571.271412	0.250044
571.626625	0.251370
571.981782	0.252076
572.336884	0.252456
572.691931	0.252508
573.046923	0.253717
573.401860	0.254956
573.756743	0.256304
574.111570	0.255360
574.466342	0.255976
574.821059	0.255424
575.175722	0.258208
575.530330	0.257644
575.884882	0.257966
576.239380	0.260022
576.593823	0.260519
576.948211	0.259935
577.302544	0.263025
577.656823	0.262807
578.011047	0.262891
578.365216	0.263547
578.719330	0.265869
579.073389	0.265628
579.427394	0.266580
579.781344	0.267561
580.135239	0.268644
580.489080	0.268494
580.842866	0.271564
581.196597	0.271129
581.550273	0.269872
581.903895	0.270973
582.257463	0.269132
582.610975	0.272882
582.964434	0.271734
583.317837	0.274446
583.671186	0.274653
584.024481	0.274622
584.377721	0.277411
584.730906	0.277688
585.084037	0.277158
585.437113	0.278706
585.790135	0.278360
586.143103	0.281345
586.496016	0.282695
586.848874	0.279936
587.201679	0.280333
587.554428	0.284115
587.907124	0.283022
588.259765	0.283495
588.612352	0.284202
588.964884	0.287928
589.317362	0.287508
589.669786	0.287344
590.022155	0.285576
590.374470	0.285289
590.726731	0.287266
591.078937	0.291900
591.431090	0.288086
591.783188	0.292494
592.135232	0.293025
592.487222	0.292840
592.839157	0.290877
593.191038	0.293296
593.542866	0.295336
593.894639	0.298557
594.246358	0.296856
594.598022	0.296182
594.949633	0.299924
595.301190	0.300779
595.652692	0.300054
596.004141	0.296000
596.355535	0.304029
596.706876	0.304429
597.058162	0.306947
597.409395	0.304363
597.760573	0.302027
598.111698	0.305311
598.462768	0.305735
598.813785	0.307068
599.164748	0.308012
599.515657	0.308456
599.866511	0.312236
600.217312	0.307201
600.568060	0.312446
600.918753	0.308962
601.269392	0.309869
601.619978	0.313415
601.970510	0.310756
602.320988	0.310978
602.671412	0.308480
603.021783	0.311277
603.372100	0.312617
603.722363	0.312009
604.072572	0.313127
604.422728	0.312823
604.772830	0.314827
605.122878	0.314434
605.472872	0.314927
605.822813	0.313186
606.172701	0.316125
606.522534	0.313802
606.872314	0.313467
607.222041	0.314022
607.571714	0.312534
607.921333	0.313459
608.270899	0.313731
608.620411	0.310395
608.969870	0.314257
609.319276	0.314225
609.668627	0.314152
610.017926	0.312925
610.367171	0.311460
610.716362	0.312159
611.065500	0.312056
611.414585	0.311327
611.763616	0.311460
612.112594	0.312092
612.461518	0.311467
612.810389	0.309157
613.159207	0.311512
613.507971	0.313185
613.856682	0.308908
614.205340	0.310406
614.553945	0.307117
614.902496	0.311005
615.250994	0.309223
615.599439	0.309907
615.947830	0.309509
616.296169	0.310707
616.644454	0.310122
616.992686	0.310203
617.340864	0.307851
617.688990	0.311737
618.037063	0.307816
618.385082	0.309966
618.733048	0.306880
619.080961	0.309421
619.428821	0.308669
619.776628	0.308254
620.124382	0.310214
620.472083	0.310570
620.819731	0.309773
621.167326	0.313495
621.514868	0.313361
621.862357	0.318031
622.209793	0.317258
622.557176	0.319592
622.904506	0.320579
623.251783	0.322536
623.599007	0.325318
623.946179	0.324917
624.293297	0.326389
624.640363	0.330654
624.987376	0.330743
625.334336	0.333560
625.681243	0.335965
626.028097	0.336540
626.374899	0.337398
626.721647	0.337588
627.068343	0.341147
627.414987	0.342085
627.761577	0.344324
628.108115	0.342599
628.454600	0.347852
628.801032	0.344856
629.147412	0.347472
629.493739	0.347484
629.840014	0.350714
630.186236	0.347941
630.532405	0.353761
630.878521	0.350897
631.224585	0.353030
631.570597	0.356737
631.916556	0.355420
632.262462	0.355772
632.608316	0.357432
632.954117	0.358252
633.299866	0.359236
633.645562	0.359719
633.991206	0.364058
634.336797	0.367085
634.682336	0.369143
635.027823	0.370662
635.373257	0.371058
635.718639	0.374981
636.063968	0.374034
636.409245	0.380346
636.754470	0.379928
637.099642	0.382742
637.444762	0.386383
637.789829	0.385234
638.134845	0.388373
638.479808	0.389668
638.824719	0.389579
639.169577	0.393746
639.514383	0.392178
639.859137	0.396752
640.203839	0.396404
640.548489	0.397395
640.893086	0.398567
641.237632	0.400067
641.582125	0.398630
641.926566	0.399803
642.270955	0.400254
642.615292	0.400231
642.959576	0.399493
643.303809	0.400179
643.647990	0.399704
643.992118	0.400315
644.336195	0.403877
644.680219	0.402071
645.024192	0.403169
645.368112	0.396157
645.711981	0.395557
646.055797	0.390710
646.399562	0.392951
646.743274	0.385079
647.086935	0.382455
647.430544	0.382769
647.774101	0.381777
648.117606	0.381233
648.461059	0.381591
648.804460	0.384365
649.147810	0.389638
649.491108	0.390864
649.834354	0.392573
650.177548	0.398056
650.520690	0.403556
650.863781	0.404566
651.206820	0.404030
651.549807	0.408895
651.892742	0.412520
652.235626	0.412256
652.578458	0.413367
652.921238	0.418990
653.263967	0.417140
653.606644	0.421337
653.949269	0.420405
654.291843	0.424602
654.634365	0.421506
654.976836	0.424791
655.319255	0.424630
655.661622	0.426399
656.003938	0.426544
656.346203	0.429159
656.688416	0.427073
657.030577	0.431191
657.372687	0.432729
657.714746	0.433420
658.056753	0.430717
658.398708	0.434656
658.740612	0.435224
659.082465	0.431092
659.424266	0.432577
659.766016	0.431621
660.107715	0.434071
660.449362	0.433109
660.790958	0.433899
661.132503	0.433809
661.473996	0.431591
661.815438	0.433003
662.156829	0.432844
662.498168	0.433589
662.839456	0.434964
663.180693	0.432761
663.521879	0.432903
663.863013	0.433488
664.204097	0.432396
664.545129	0.429273
664.886110	0.429064
665.227040	0.427026
665.567918	0.429322
665.908746	0.426921
666.249522	0.427083
666.590248	0.427911
666.930922	0.426231
667.271545	0.424865
667.612118	0.424767
667.952639	0.426903
668.293109	0.425324
668.633528	0.428655
668.973896	0.428238
669.314213	0.429285
669.654480	0.430186
669.994695	0.430824
670.334859	0.431639
670.674973	0.431523
671.015035	0.431955
671.355047	0.431735
671.695008	0.432800
672.034918	0.434767
672.374777	0.433941
672.714585	0.435279
673.054342	0.434881
673.394049	0.435230
673.733705	0.432864
674.073310	0.434183
674.412864	0.437362
674.752368	0.437559
675.091820	0.437895
675.431223	0.442175
675.770574	0.442009
676.109875	0.445264
676.449125	0.445254
676.788324	0.447116
677.127473	0.452417
677.466571	0.452941
677.805619	0.453999
678.144616	0.454745
678.483562	0.457133
678.822458	0.459247
679.161303	0.460271
679.500098	0.460839
679.838842	0.463176
680.177535	0.462185
680.516179	0.460261
680.854771	0.459460
681.193314	0.452861
681.531805	0.443935
681.870247	0.432844
682.208638	0.425050
682.546978	0.424245
682.885268	0.426466
683.223508	0.432341
683.561697	0.436498
683.899836	0.438701
684.237925	0.442057
684.575963	0.445290
684.913951	0.447702
685.251889	0.443673
685.589776	0.445787
685.927614	0.447845
686.265401	0.442094
686.603137	0.443995
686.940824	0.437358
687.278460	0.435988
687.616046	0.434868
687.953582	0.429745
688.291068	0.431338
688.628504	0.427388
688.965889	0.429072
689.303224	0.433537
689.640510	0.437291
689.977745	0.443186
690.314930	0.451380
690.652065	0.456099
690.989150	0.463601
691.326185	0.469745
691.663170	0.474110
692.000105	0.481221
692.336990	0.488205
692.673825	0.491347
693.010610	0.497978
693.347345	0.503623
693.684030	0.504909
694.020665	0.509585
694.357251	0.518393
694.693786	0.517952
695.030272	0.522578
695.366707	0.526192
695.703093	0.528942
696.039429	0.527182
696.375716	0.528973
696.711952	0.531379
697.048139	0.533372
697.384276	0.535468
697.720363	0.533237
698.056400	0.532938
698.392388	0.538608
698.728326	0.541560
699.064214	0.544359
699.400053	0.545167
699.735842	0.548040
700.071581	0.551507
700.407270	0.553828
700.742910	0.556737
701.078501	0.563377
701.414042	0.563468
701.749533	0.566610
702.084974	0.575795
702.420366	0.567677
702.755709	0.575444
703.091002	0.582993
703.426246	0.576533
703.761440	0.582536
704.096584	0.587716
704.431679	0.584257
704.766725	0.586043
705.101721	0.587751
705.436668	0.583953
705.771565	0.590599
706.106413	0.588064
706.441212	0.583069
706.775961	0.581752
707.110661	0.584856
707.445311	0.580984
707.779913	0.578501
708.114465	0.576657
708.448967	0.573770
708.783421	0.565295
709.117825	0.560719
709.452180	0.560659
709.786485	0.553849
710.120742	0.543502
710.454949	0.545468
710.789107	0.537515
711.123216	0.528671
711.457275	0.530459
711.791286	0.521250
712.125247	0.520113
712.459159	0.530628
712.793023	0.523315
713.126837	0.527731
713.460602	0.528182
713.794318	0.537641
714.127985	0.536860
714.461602	0.546756
714.795171	0.549589
715.128691	0.557369
715.462162	0.564850
715.795584	0.570750
716.128957	0.573548
716.462281	0.579866
716.795556	0.583685
717.128782	0.588603
717.461960	0.598845
717.795088	0.596372
718.128167	0.602926
718.461198	0.611207
718.794180	0.612320
719.127113	0.615354
719.459997	0.618715
719.792833	0.624705
720.125619	0.626328
720.458357	0.631665
720.791046	0.631565
721.123686	0.635028
721.456278	0.641577
721.788821	0.639131
722.121315	0.643309
722.453761	0.647765
722.786158	0.645603
723.118506	0.641773
723.450805	0.649774
723.783056	0.645485
724.115259	0.643078
724.447412	0.642617
724.779518	0.644605
725.111574	0.642957
725.443582	0.638672
725.775542	0.640537
726.107453	0.631890
726.439315	0.632563
726.771129	0.630636
727.102895	0.623273
727.434612	0.617108
727.766281	0.615368
728.097901	0.614678
728.429473	0.614036
728.760996	0.613050
729.092471	0.612929
729.423897	0.616501
729.755276	0.616197
730.086606	0.616065
730.417887	0.610840
730.749120	0.601065
731.080305	0.591810
731.411442	0.587997
731.742530	0.592760
732.073570	0.592208
732.404562	0.584483
732.735506	0.585605
733.066401	0.590480
733.397249	0.598947
733.728048	0.610826
734.058798	0.623343
734.389501	0.634462
734.720156	0.644082
735.050762	0.651462
735.381320	0.652985
735.711831	0.662573
736.042293	0.667375
736.372707	0.663307
736.703073	0.667565
737.033391	0.670477
737.363661	0.666301
737.693883	0.662426
738.024056	0.661448
738.354182	0.660884
738.684260	0.650635
739.014290	0.646460
739.344272	0.647106
739.674207	0.640675
740.004093	0.640508
740.333931	0.640775
740.663722	0.640507
740.993464	0.641407
741.323159	0.644995
741.652806	0.649415
741.982405	0.654851
742.311956	0.659622
742.641460	0.661647
742.970915	0.664831
743.300323	0.673403
743.629683	0.679291
743.958996	0.681309
744.288260	0.685450
744.617477	0.691464
744.946647	0.693390
745.275768	0.698741
745.604842	0.698704
745.933869	0.708657
746.262847	0.708655
746.591778	0.702697
746.920662	0.709220
747.249498	0.715495
747.578286	0.706194
747.907027	0.701875
748.235720	0.703725
748.564365	0.697533
748.892963	0.698565
749.221514	0.701008
749.550017	0.706365
749.878473	0.705500
750.206881	0.711748
750.535242	0.713690
750.863555	0.712543
751.191821	0.714041
751.520039	0.717441
751.848210	0.722110
752.176334	0.714456
752.504411	0.714180
752.832440	0.722038
753.160421	0.725675
753.488356	0.725012
753.816243	0.723280
754.144082	0.729703
754.471875	0.733660
754.799620	0.729640
755.127318	0.729943
755.454969	0.729633
755.782572	0.729152
756.110129	0.734467
756.437638	0.737373
756.765100	0.733597
757.092515	0.731800
757.419882	0.730651
757.747203	0.736212
758.074477	0.735448
758.401703	0.732007
758.728882	0.727447
759.056014	0.727156
759.383099	0.725423
759.710138	0.726418
760.037129	0.722819
760.364073	0.717274
760.690970	0.719126
761.017820	0.724861
761.344623	0.721082
761.671379	0.711893
761.998088	0.699974
762.324751	0.677167
762.651366	0.635597
762.977935	0.567547
763.304456	0.514820
763.630931	0.506036
763.957359	0.545064
764.283740	0.589240
764.610074	0.616746
764.936362	0.648114
765.262602	0.675161
765.588796	0.696515
765.914943	0.714606
766.241044	0.733223
766.567097	0.740024
766.893104	0.749032
767.219064	0.755795
767.544978	0.762112
767.870845	0.774395
768.196665	0.779253
768.522438	0.777732
768.848165	0.779534
769.173846	0.788193
769.499479	0.792264
769.825066	0.795812
770.150607	0.799874
770.476101	0.795968
770.801548	0.797237
771.126949	0.808817
771.452303	0.812342
771.777611	0.811852
772.102872	0.810593
772.428087	0.815679
772.753256	0.819906
773.078378	0.820930
773.403453	0.830414
773.728482	0.834777
774.053465	0.827826
774.378401	0.831741
774.703291	0.840406
775.028135	0.839742
775.352932	0.841572
775.677683	0.844931
776.002388	0.844998
776.327046	0.844073
776.651658	0.847095
776.976224	0.851952
777.300743	0.851444
777.625216	0.853551
777.949643	0.855016
778.274024	0.854831
778.598359	0.856501
778.922647	0.855415
779.246889	0.855529
779.571086	0.859693
779.895236	0.862717
780.219339	0.859870
780.543397	0.856148
780.867409	0.854754
781.191374	0.856963
781.515294	0.859463
781.839167	0.858045
782.162995	0.860924
782.486776	0.858350
782.810511	0.858564
783.134201	0.862515
783.457844	0.860207
783.781441	0.862031
784.104993	0.868691
784.428498	0.868694
784.751958	0.864639
785.075372	0.866968
785.398739	0.871463
785.722061	0.867369
786.045337	0.862953
786.368568	0.867728
786.691752	0.870115
787.014891	0.855512
787.337983	0.847070
787.661030	0.840540
787.984031	0.822321
788.306987	0.809039
788.629897	0.811188
788.952760	0.814753
789.275579	0.819429
789.598351	0.834130
789.921078	0.848379
790.243759	0.850408
790.566395	0.855279
790.888984	0.862096
791.211529	0.867233
791.534027	0.870803
791.856480	0.872806
792.178888	0.877573
792.501249	0.880100
792.823566	0.881561
793.145836	0.881527
793.468062	0.883298
793.790241	0.883285
794.112375	0.881475
794.434464	0.876820
794.756507	0.876136
795.078505	0.875824
795.400457	0.870656
795.722364	0.857851
796.044226	0.851251
796.366042	0.850406
796.687812	0.854083
797.009538	0.849620
797.331218	0.852675
797.652852	0.857919
797.974442	0.862081
798.295986	0.862907
798.617484	0.865345
798.938938	0.869026
799.260346	0.874063
799.581709	0.876788
799.903026	0.878129
800.224299	0.878827
800.545526	0.882154
800.866708	0.886995
801.187845	0.889836
801.508936	0.890636
801.829983	0.889073
802.150984	0.891053
802.471940	0.896474
802.792851	0.895881
803.113717	0.896390
803.434538	0.894791
803.755314	0.896641
804.076045	0.899331
804.396731	0.897608
804.717372	0.898104
805.037967	0.900920
805.358518	0.898448
805.679024	0.895118
805.999485	0.894940
806.319901	0.895533
806.640272	0.896747
806.960598	0.894513
807.280879	0.893178
807.601115	0.891020
807.921306	0.894433
808.241453	0.894382
808.561554	0.893037
808.881611	0.893392
809.201623	0.894430
809.521590	0.895211
809.841513	0.895811
810.161390	0.895642
810.481223	0.895826
810.801011	0.900354
811.120755	0.900669
811.440453	0.901186
811.760107	0.898355
812.079716	0.899026
812.399281	0.902141
812.718801	0.904720
813.038276	0.906361
813.357707	0.905428
813.677093	0.903219
813.996434	0.906272
814.315731	0.907598
814.634983	0.907843
814.954191	0.906781
815.273354	0.903010
815.592473	0.899861
815.911547	0.900132
816.230577	0.897896
816.549562	0.894924
816.868502	0.896090
817.187399	0.890875
817.506250	0.886214
817.825058	0.887612
818.143821	0.884713
818.462539	0.879738
818.781213	0.871965
819.099843	0.859784
819.418429	0.843901
819.736970	0.826946
820.055466	0.806522
820.373919	0.781817
820.692327	0.748109
821.010691	0.712964
821.329011	0.633503
821.647286	0.516395
821.965517	0.401860
822.283704	0.358807
822.601847	0.359517
822.919945	0.395300
823.237999	0.429831
823.556010	0.477723
823.873976	0.533655
824.191897	0.585155
824.509775	0.627493
824.827609	0.674325
825.145398	0.696894
825.463144	0.700809
825.780845	0.682957
826.098502	0.664230
826.416116	0.617306
826.733685	0.572888
827.051210	0.563715
827.368692	0.579288
827.686129	0.617285
828.003522	0.670346
828.320872	0.717726
828.638177	0.763206
828.955439	0.795884
829.272656	0.818771
829.589830	0.835827
829.906960	0.852591
830.224046	0.864345
830.541088	0.874519
830.858086	0.878663
831.175041	0.886138
831.491952	0.885145
831.808819	0.881807
832.125642	0.874344
832.442421	0.859544
832.759157	0.836446
833.075849	0.790275
833.392497	0.725932
833.709101	0.685048
834.025662	0.694609
834.342179	0.726895
834.658653	0.765947
834.975083	0.802716
835.291469	0.828727
835.607811	0.851272
835.924110	0.868499
836.240366	0.885477
836.556578	0.899368
836.872746	0.906708
837.188871	0.913645
837.504952	0.917640
837.820990	0.923048
838.136984	0.926171
838.452935	0.927535
838.768842	0.929332
839.084706	0.923373
839.400526	0.897774
839.716303	0.856950
840.032037	0.833589
840.347727	0.837160
840.663373	0.855805
840.978977	0.878387
841.294537	0.900023
841.610054	0.916952
841.925527	0.924752
842.240957	0.931672
842.556344	0.939516
842.871687	0.944621
843.186987	0.948514
843.502244	0.949147
843.817458	0.951252
844.132629	0.954656
844.447756	0.960163
844.762840	0.960631
845.077881	0.959284
845.392879	0.959042
845.707833	0.961521
846.022745	0.963541
846.337613	0.964318
846.652438	0.965594
846.967221	0.963380
847.281960	0.965507
847.596656	0.967754
847.911309	0.965599
848.225919	0.966767
848.540485	0.967374
848.855009	0.967458
849.169490	0.967935
849.483928	0.968898
849.798323	0.968690
850.112675	0.970453
850.426984	0.968669
850.741251	0.968789
851.055474	0.969603
851.369654	0.968050
851.683792	0.968087
851.997887	0.969311
852.311938	0.969518
852.625947	0.969292
852.939914	0.966823
853.253837	0.968287
853.567718	0.969876
853.881555	0.969267
854.195350	0.968113
854.509103	0.968527
854.822812	0.970418
855.136479	0.970194
855.450103	0.968747
855.763685	0.967059
856.077224	0.968389
856.390720	0.970546
856.704173	0.969791
857.017584	0.967749
857.330953	0.965738
857.644278	0.966647
857.957561	0.967931
858.270802	0.967947
858.584000	0.967387
858.897155	0.966294
859.210268	0.966159
859.523339	0.967661
859.836367	0.970124
860.149352	0.971185
860.462295	0.967469
860.775195	0.968794
861.088054	0.968220
861.400869	0.969854
861.713642	0.970037
862.026373	0.969990
862.339062	0.970096
862.651708	0.967343
862.964312	0.967292
863.276873	0.968800
863.589392	0.967633
863.901869	0.964936
864.214303	0.964248
864.526696	0.963697
864.839045	0.962984
865.151353	0.961861
865.463619	0.961674
865.775842	0.962162
866.088023	0.961573
866.400162	0.961348
866.712258	0.961100
867.024313	0.961550
867.336325	0.962616
867.648296	0.962509
867.960224	0.960943
868.272110	0.961180
868.583954	0.962137
868.895755	0.962242
869.207515	0.960150
869.519233	0.958745
869.830909	0.958695
870.142542	0.962167
870.454134	0.960353
870.765684	0.959712
871.077191	0.956604
871.388657	0.956948
871.700081	0.957092
872.011463	0.957230
872.322803	0.956862
872.634101	0.955910
872.945357	0.952886
873.256571	0.952087
873.567744	0.952458
873.878874	0.952776
874.189963	0.951259
874.501010	0.949398
874.812015	0.948365
875.122979	0.949253
875.433900	0.951435
875.744780	0.952855
876.055618	0.949650
876.366415	0.948397
876.677169	0.949507
876.987882	0.950285
877.298554	0.949209
877.609183	0.945817
877.919771	0.944198
878.230317	0.940948
878.540822	0.939220
878.851285	0.933043
879.161707	0.925218
879.472087	0.912895
879.782425	0.894609
880.092722	0.860974
880.402977	0.807227
880.713191	0.745396
881.023363	0.684133
881.333494	0.648839
881.643583	0.621671
881.953631	0.621703
882.263637	0.650137
882.573602	0.689373
882.883526	0.715933
883.193408	0.740582
883.503248	0.764626
883.813048	0.792697
884.122806	0.823066
884.432522	0.846194
884.742197	0.866088
885.051831	0.878320
885.361424	0.889590
885.670975	0.901179
885.980485	0.910549
886.289954	0.917787
886.599382	0.922879
886.908768	0.926454
887.218113	0.932433
887.527417	0.938301
887.836680	0.940311
888.145901	0.941994
888.455082	0.944321
888.764221	0.948392
889.073319	0.952156
889.382376	0.951335
889.691392	0.953285
890.000366	0.950590
890.309300	0.951548
890.618193	0.951102
890.927044	0.950660
891.235855	0.950181
891.544625	0.950693
891.853353	0.951340
892.162041	0.947071
892.470687	0.940977
892.779293	0.935505
893.087858	0.931681
893.396381	0.923467
893.704864	0.910345
894.013306	0.885525
894.321707	0.858723
894.630068	0.843199
894.938387	0.837728
895.246665	0.839139
895.554903	0.852736
895.863100	0.865921
896.171256	0.883247
896.479371	0.902719
896.787446	0.916114
897.095480	0.923230
897.403473	0.925968
897.711425	0.931117
898.019336	0.938173
898.327207	0.940209
898.635038	0.943412
898.942827	0.943328
899.250576	0.946908
899.558284	0.950821
899.865952	0.952642
900.173579	0.954077
900.481165	0.954102
900.788711	0.959104
901.096216	0.959573
901.403681	0.959283
901.711105	0.961494
902.018489	0.962440
902.325832	0.960756
902.633135	0.960287
902.940397	0.954116
903.247619	0.941706
903.554800	0.915436
903.861941	0.875078
904.169041	0.838377
904.476101	0.819541
904.783121	0.820958
905.090100	0.836406
905.397039	0.859754
905.703938	0.882029
906.010796	0.902466
906.317614	0.920789
906.624391	0.932350
906.931129	0.942284
907.237826	0.951061
907.544483	0.957796
907.851099	0.961131
908.157675	0.966682
908.464211	0.969012
908.770707	0.971709
909.077163	0.973308
909.383578	0.973764
909.689954	0.973619
909.996289	0.974557
910.302584	0.977878
910.608839	0.977758
910.915054	0.977377
911.221229	0.977510
911.527363	0.976017
911.833458	0.975700
912.139513	0.976224
912.445527	0.975105
912.751502	0.972862
913.057436	0.971228
913.363331	0.968116
913.669186	0.964939
913.975000	0.959707
914.280775	0.955323
914.586510	0.946837
914.892205	0.932286
915.197859	0.910204
915.503475	0.882378
915.809050	0.862219
916.114585	0.855636
916.420081	0.853210
916.725536	0.849639
917.030952	0.858956
917.336328	0.871993
917.641665	0.887343
917.946961	0.903146
918.252218	0.915001
918.557435	0.923955
918.862612	0.934428
919.167750	0.939584
919.472848	0.943958
919.777906	0.949890
920.082925	0.956345
920.387904	0.959764
920.692843	0.960985
920.997743	0.962213
921.302603	0.966329
921.607423	0.968237
921.912204	0.970524
922.216946	0.970853
922.521647	0.971881
922.826310	0.973501
923.130932	0.976375
923.435516	0.975930
923.740059	0.977970
924.044564	0.977939
924.349028	0.979975
924.653454	0.982646
924.957840	0.985017
925.262186	0.983403
925.566493	0.983202
925.870761	0.984192
926.174989	0.985950
926.479178	0.987528
926.783328	0.987409
927.087438	0.987133
927.391509	0.987621
927.695541	0.989378
927.999533	0.988923
928.303486	0.988813
928.607400	0.990311
928.911275	0.989074
929.215110	0.990038
929.518906	0.990415
929.822663	0.989062
930.126381	0.991299
930.430060	0.990626
930.733699	0.989598
931.037299	0.989232
931.340861	0.990582
931.644383	0.989638
931.947866	0.988916
932.251309	0.990414
932.554714	0.990956
932.858080	0.990684
933.161407	0.989642
933.464694	0.989813
933.767943	0.989233
934.071153	0.990095
934.374323	0.990457
934.677455	0.990769
934.980548	0.992180
935.283602	0.990083
935.586617	0.989936
935.889593	0.989670
936.192530	0.989950
936.495428	0.989866
936.798287	0.990289
937.101108	0.990367
937.403890	0.987370
937.706632	0.987964
938.009336	0.986051
938.312002	0.984853
938.614628	0.983791
938.917216	0.982374
939.219765	0.981169
939.522275	0.982482
939.824747	0.982045
940.127179	0.982103
940.429573	0.984428
940.731929	0.983825
941.034246	0.983152
941.336524	0.984402
941.638763	0.985354
941.940964	0.985552
942.243126	0.984790
942.545250	0.986580
942.847335	0.988074
943.149381	0.987385
943.451389	0.987777
943.753359	0.987883
944.055290	0.988928
944.357182	0.989090
944.659036	0.987327
944.960851	0.988257
945.262628	0.988725
945.564367	0.989872
945.866067	0.989829
946.167729	0.989886
946.469352	0.989048
946.770937	0.987492
947.072484	0.990796
947.373992	0.988585
947.675462	0.990042
947.976893	0.989582
948.278286	0.989488
948.579641	0.990468
948.880958	0.989878
949.182236	0.990021
949.483476	0.990919
949.784678	0.990558
950.085841	0.991620
950.386967	0.990848
950.688054	0.989802
950.989103	0.991031
951.290114	0.989134
951.591087	0.988159
951.892021	0.988189
952.192917	0.988518
952.493776	0.986704
952.794596	0.988075
953.095378	0.986013
953.396122	0.987856
953.696828	0.986383
953.997496	0.989525
954.298126	0.990535
954.598718	0.990491
954.899272	0.989556
955.199788	0.990985
955.500266	0.991314
955.800706	0.992425
956.101108	0.992421
956.401472	0.992084
956.701798	0.993827
957.002087	0.993371
957.302337	0.993648
957.602550	0.995004
957.902724	0.994701
958.202861	0.995167
958.502960	0.995193
958.803022	0.993402
959.103045	0.996931
959.403031	0.995747
959.702979	0.994766
960.002889	0.995823
960.302762	0.993930
960.602596	0.995500
960.902393	0.994128
961.202153	0.997013
961.501875	0.996535
961.801559	0.994770
962.101205	0.995726
962.400814	0.995855
962.700385	0.995232
962.999918	0.995918
963.299414	0.995514
963.598873	0.994543
963.898293	0.996107
964.197677	0.996163
964.497022	0.996168
964.796331	0.997707
965.095601	0.996782
965.394835	0.995701
965.694030	0.996726
965.993189	0.997293
966.292309	0.996786
966.591393	0.998174
966.890439	0.997172
967.189447	0.996403
967.488419	0.996641
967.787353	0.995090
968.086249	0.995641
968.385108	0.996483
968.683930	0.997092
968.982714	0.997095
969.281462	0.997119
969.580172	0.995907
969.878844	0.997567
970.177480	0.996555
970.476078	0.996275
970.774639	0.996811
971.073162	0.996558
971.371649	0.996649
971.670098	0.997482
971.968510	0.996912
972.266885	0.995429
972.565223	0.996603
972.863524	0.996091
973.161788	0.996453
973.460014	0.996812
973.758204	0.993974
974.056356	0.996742
974.354471	0.994206
974.652550	0.997000
974.950591	0.996297
975.248595	0.996884
975.546563	0.996124
975.844493	0.998019
976.142386	0.995946
976.440243	0.996744
976.738062	0.996858
977.035845	0.997875
977.333590	0.997302
977.631299	0.997854
977.928971	0.997451
978.226606	0.997120
978.524204	0.995742
978.821765	0.998058
979.119290	0.995573
979.416777	0.996405
979.714228	0.998009
980.011642	0.995986
980.309020	0.995883
980.606360	0.996509
980.903664	0.997747
981.200931	0.995718
981.498162	0.994174
981.795356	0.995214
982.092513	0.993883
982.389633	0.994850
982.686717	0.990953
982.983764	0.990542
983.280775	0.991152
983.577749	0.990312
983.874686	0.990294
984.171587	0.991331
984.468451	0.993606
984.765279	0.994061
985.062070	0.994036
985.358824	0.994753
985.655543	0.994559
985.952224	0.995016
986.248869	0.995828
986.545478	0.997529
986.842050	0.998233
987.138586	0.995693
987.435086	0.996850
987.731549	0.998726
988.027975	0.997881
988.324366	0.997963
988.620719	0.997710
988.917037	0.996342
989.213318	0.997379
989.509563	0.998440
989.805772	0.998979
990.101944	0.998521
990.398080	0.997242
990.694180	0.997809
990.990244	0.997170
991.286271	0.997325
991.582262	0.997454
991.878217	0.997614
992.174136	0.998875
992.470019	0.997841
992.765865	0.998089
993.061676	0.998971
993.357450	0.997537
993.653188	0.996637
993.948890	0.997983
994.244556	0.998616
994.540186	0.996870
994.835780	0.996575
995.131337	0.998673
995.426859	0.995855
995.722345	0.996590
996.017795	0.996480
996.313208	0.996166
996.608586	0.994770
996.903928	0.996942
997.199234	0.995766
997.494504	0.997416
997.789738	0.996014
998.084936	0.995435
998.380099	0.998443
998.675225	0.997784
998.970316	0.997543
999.265371	0.998259
999.560390	0.997290
999.855373	0.998293
1000.150320	0.999202
1000.445232	0.997761
1000.740108	0.997705
1001.034948	0.998303
1001.329752	0.999627
1001.624521	0.999275
1001.919254	0.998240
1002.213951	0.998738
1002.508613	0.997069
1002.803239	0.998444
1003.097829	0.998511
1003.392384	0.999574
1003.686903	0.997747
1003.981386	0.999128
1004.275834	0.998477
1004.570246	0.999092
1004.864623	0.998836
1005.158964	1.000224
1005.453270	0.998570
1005.747540	0.996701
1006.041775	0.997560
1006.335974	0.999631
1006.630138	0.999275
1006.924266	0.998026
1007.218359	1.000282
1007.512416	0.999610
1007.806438	0.998592
1008.100425	0.999682
1008.394376	0.998569
1008.688292	0.998101
1008.982172	1.000077
1009.276017	0.999920
1009.569827	0.998879
1009.863602	0.999131
1010.157341	0.998791
1010.451045	0.998540
1010.744714	0.999317
1011.038347	0.999326
1011.331945	0.999635
1011.625508	0.997180
1011.919036	0.999600
1012.212528	0.998227
1012.505986	0.998625
1012.799408	0.998598
1013.092795	0.999427
1013.386147	0.999516
1013.679464	0.999024
1013.972745	0.999139
1014.265992	0.997718
1014.559204	0.998338
1014.852380	0.999255
1015.145521	0.997989
1015.438628	0.999470
1015.731699	0.999787
1016.024736	0.998978
1016.317737	0.998917
1016.610703	0.999669
1016.903635	1.000259
1017.196531	0.998184
1017.489393	1.000377
1017.782219	0.998286
1018.075011	0.999061
1018.367768	0.998633
1018.660490	0.998886
1018.953177	0.998886
1019.245829	0.998886
