Dividing Wavelength (nm)	Counts (n)	Blue Motor Position (mm): 0.000000	Red Motor Position (mm): 17.600000	
326.493990	1.002127
326.888308	1.002127
327.282561	1.002127
327.676750	1.000391
328.070874	0.999885
328.464933	0.999957
328.858929	1.000458
329.252859	1.000710
329.646726	0.999889
330.040528	1.001115
330.434265	1.000293
330.827938	1.002235
331.221547	1.001532
331.615091	1.001543
332.008571	1.000626
332.401986	1.000470
332.795338	1.001454
333.188625	0.998935
333.581847	1.000970
333.975006	1.000106
334.368100	0.998808
334.761129	1.000676
335.154095	1.000950
335.546996	0.998268
335.939833	0.993892
336.332606	0.993542
336.725315	0.996084
337.117960	0.997138
337.510540	0.993654
337.903056	0.995797
338.295508	0.993506
338.687896	0.994889
339.080220	0.995081
339.472480	0.994064
339.864676	0.993904
340.256807	0.995812
340.648875	0.996204
341.040879	0.995097
341.432818	0.996371
341.824694	0.994224
342.216506	0.995909
342.608253	0.995073
342.999937	0.994518
343.391557	0.995346
343.783113	0.995721
344.174605	0.994497
344.566033	0.996726
344.957397	0.994574
345.348697	0.993891
345.739934	0.994469
346.131106	0.993984
346.522215	0.993711
346.913260	0.994423
347.304241	0.994926
347.695159	0.994339
348.086012	0.993624
348.476802	0.995377
348.867528	0.994327
349.258191	0.992961
349.648789	0.995837
350.039324	0.994184
350.429796	0.995097
350.820203	0.995640
351.210548	0.993964
351.600828	0.994866
351.991045	0.995398
352.381198	0.994387
352.771288	0.993835
353.161314	0.994133
353.551276	0.995715
353.941175	0.993690
354.331010	0.993938
354.720782	0.994532
355.110490	0.994852
355.500135	0.995206
355.889717	0.994532
356.279235	0.993680
356.668689	0.993952
357.058080	0.993634
357.447408	0.994300
357.836672	0.994513
358.225873	0.995122
358.615010	0.994461
359.004084	0.995130
359.393095	0.995269
359.782043	0.994797
360.170927	0.996073
360.559748	0.995034
360.948505	0.994165
361.337199	0.994362
361.725830	0.994438
362.114398	0.993920
362.502903	0.995706
362.891344	0.995766
363.279722	0.993029
363.668037	0.995515
364.056289	0.994081
364.444478	0.996288
364.832603	0.995367
365.220665	0.994659
365.608665	0.994440
365.996601	0.993810
366.384474	0.994599
366.772284	0.994514
367.160031	0.993956
367.547715	0.993439
367.935336	0.994626
368.322893	0.994687
368.710388	0.993063
369.097820	0.994168
369.485189	0.993950
369.872495	0.992843
370.259738	0.993887
370.646918	0.995256
371.034035	0.994516
371.421090	0.994162
371.808081	0.994700
372.195010	0.994959
372.581875	0.994763
372.968678	0.994091
373.355418	0.995449
373.742096	0.993751
374.128710	0.994249
374.515262	0.993209
374.901751	0.994759
375.288177	0.994415
375.674540	0.995740
376.060841	0.993931
376.447079	0.994526
376.833254	0.994762
377.219367	0.994993
377.605417	0.995198
377.991404	0.994632
378.377329	0.994027
378.763191	0.994744
379.148991	0.995604
379.534727	0.995150
379.920402	0.995495
380.306013	0.994623
380.691563	0.994908
381.077049	0.994760
381.462474	0.995301
381.847835	0.994832
382.233134	0.995131
382.618371	0.995510
383.003545	0.995229
383.388657	0.995543
383.773706	0.995568
384.158693	0.995441
384.543618	0.994329
384.928480	0.995757
385.313280	0.995227
385.698017	0.994945
386.082692	0.995842
386.467305	0.996099
386.851856	0.994850
387.236344	0.995252
387.620770	0.994196
388.005133	0.994885
388.389435	0.996718
388.773674	0.994206
389.157851	0.994882
389.541965	0.995574
389.926018	0.994642
390.310008	0.996155
390.693936	0.994622
391.077802	0.994587
391.461606	0.994622
391.845348	0.994673
392.229027	0.996679
392.612645	0.995751
392.996200	0.996672
393.379694	0.995267
393.763125	0.996668
394.146494	0.994374
394.529801	0.994636
394.913047	0.995561
395.296230	0.995725
395.679351	0.994388
396.062410	0.994678
396.445408	0.994778
396.828343	0.994721
397.211217	0.993637
397.594028	0.995210
397.976778	0.994688
398.359466	0.994100
398.742092	0.993154
399.124656	0.993824
399.507158	0.994668
399.889598	0.993735
400.271977	0.993850
400.654294	0.993911
401.036549	0.992671
401.418742	0.993003
401.800874	0.991547
402.182944	0.990991
402.564952	0.990047
402.946898	0.989657
403.328783	0.987359
403.710606	0.985546
404.092367	0.984262
404.474067	0.982269
404.855705	0.979320
405.237282	0.978230
405.618797	0.974830
406.000250	0.971182
406.381642	0.968610
406.762972	0.964956
407.144240	0.962158
407.525447	0.958007
407.906593	0.954034
408.287677	0.948844
408.668700	0.945071
409.049661	0.938501
409.430560	0.934730
409.811399	0.929728
410.192176	0.921390
410.572891	0.917496
410.953545	0.909347
411.334138	0.905321
411.714669	0.898230
412.095139	0.894586
412.475547	0.884535
412.855894	0.878064
413.236180	0.870573
413.616405	0.864458
413.996568	0.854963
414.376670	0.848333
414.756711	0.842555
415.136691	0.835031
415.516609	0.822416
415.896466	0.813148
416.276262	0.802003
416.655997	0.795835
417.035670	0.778445
417.415283	0.766669
417.794834	0.760462
418.174324	0.754356
418.553753	0.750282
418.933121	0.731833
419.312428	0.720359
419.691674	0.713163
420.070859	0.698688
420.449983	0.694382
420.829045	0.678771
421.208047	0.676398
421.586988	0.663136
421.965867	0.654119
422.344686	0.636748
422.723444	0.638422
423.102141	0.642328
423.480777	0.615101
423.859352	0.621447
424.237866	0.597242
424.616319	0.590894
424.994712	0.577554
425.373044	0.578760
425.751314	0.561314
426.129524	0.568200
426.507673	0.548636
426.885762	0.537566
427.263789	0.535586
427.641756	0.539073
428.019662	0.525175
428.397508	0.518927
428.775292	0.518310
429.153016	0.506157
429.530679	0.507738
429.908282	0.496972
430.285824	0.503089
430.663305	0.478761
431.040726	0.494443
431.418086	0.492067
431.795385	0.481136
432.172624	0.477133
432.549802	0.475205
432.926920	0.472513
433.303977	0.468523
433.680974	0.463885
434.057910	0.460573
434.434786	0.458176
434.811601	0.458820
435.188355	0.440259
435.565050	0.447910
435.941683	0.447968
436.318257	0.431697
436.694770	0.430764
437.071222	0.428245
437.447614	0.432149
437.823946	0.437291
438.200218	0.426756
438.576429	0.435703
438.952580	0.428282
439.328670	0.424616
439.704700	0.430773
440.080670	0.431364
440.456580	0.412310
440.832429	0.419559
441.208218	0.429793
441.583947	0.419468
441.959616	0.419039
442.335224	0.423652
442.710773	0.414205
443.086261	0.412673
443.461689	0.425974
443.837057	0.415626
444.212365	0.405664
444.587612	0.412547
444.962800	0.402401
445.337927	0.403666
445.712995	0.430162
446.088002	0.392446
446.462949	0.402498
446.837837	0.407520
447.212664	0.396292
447.587431	0.388051
447.962139	0.358163
448.336786	0.317607
448.711374	0.328080
449.085901	0.371935
449.460369	0.376055
449.834776	0.379448
450.209124	0.358497
450.583412	0.351546
450.957640	0.344284
451.331808	0.355347
451.705917	0.378822
452.079965	0.383518
452.453954	0.371596
452.827883	0.378443
453.201752	0.373462
453.575562	0.385185
453.949311	0.373115
454.323001	0.379326
454.696632	0.375400
455.070202	0.367481
455.443713	0.359823
455.817164	0.354829
456.190556	0.350342
456.563888	0.347114
456.937160	0.344597
457.310373	0.362305
457.683526	0.360796
458.056619	0.366555
458.429653	0.367111
458.802628	0.370017
459.175542	0.364260
459.548398	0.347581
459.921194	0.339880
460.293930	0.340039
460.666607	0.317675
461.039224	0.305612
461.411782	0.301607
461.784280	0.300957
462.156719	0.304987
462.529099	0.309571
462.901419	0.325162
463.273680	0.330030
463.645882	0.329130
464.018024	0.335334
464.390106	0.328157
464.762130	0.313099
465.134094	0.295869
465.505999	0.265346
465.877845	0.235915
466.249631	0.222910
466.621358	0.230512
466.993026	0.244266
467.364634	0.250186
467.736184	0.259039
468.107674	0.267460
468.479105	0.266888
468.850477	0.273164
469.221790	0.280559
469.593043	0.290697
469.964238	0.295780
470.335373	0.294548
470.706449	0.292702
471.077467	0.293636
471.448425	0.255761
471.819324	0.231763
472.190164	0.231071
472.560945	0.259959
472.931667	0.281857
473.302330	0.285903
473.672934	0.297835
474.043479	0.286119
474.413965	0.287890
474.784393	0.291431
475.154761	0.286546
475.525070	0.283535
475.895321	0.289097
476.265513	0.283493
476.635645	0.278859
477.005719	0.278718
477.375734	0.275627
477.745691	0.268949
478.115588	0.265378
478.485427	0.258732
478.855207	0.245883
479.224928	0.228188
479.594591	0.216268
479.964194	0.220026
480.333739	0.221125
480.703226	0.222476
481.072653	0.220964
481.442022	0.216676
481.811333	0.213055
482.180584	0.216682
482.549777	0.221902
482.918912	0.225382
483.287988	0.225013
483.657005	0.224479
484.025964	0.230879
484.394864	0.228504
484.763706	0.229048
485.132489	0.234046
485.501213	0.234607
485.869879	0.232968
486.238487	0.236522
486.607036	0.234087
486.975527	0.238484
487.343959	0.234378
487.712333	0.233591
488.080648	0.235043
488.448905	0.234120
488.817104	0.235398
489.185244	0.229920
489.553326	0.226519
489.921350	0.216666
490.289315	0.199096
490.657222	0.194144
491.025070	0.195436
491.392861	0.197256
491.760593	0.203100
492.128267	0.208871
492.495883	0.214137
492.863440	0.220433
493.230939	0.226686
493.598380	0.228026
493.965763	0.230212
494.333088	0.232393
494.700354	0.233827
495.067563	0.233014
495.434713	0.236036
495.801805	0.234136
496.168839	0.235479
496.535815	0.237214
496.902733	0.237045
497.269593	0.238363
497.636395	0.236226
498.003139	0.236406
498.369825	0.239650
498.736453	0.236122
499.103023	0.237574
499.469535	0.237015
499.835989	0.237259
500.202385	0.238430
500.568723	0.241271
500.935003	0.236468
501.301226	0.240651
501.667390	0.235110
502.033497	0.233345
502.399546	0.236306
502.765537	0.238053
503.131470	0.236355
503.497345	0.232602
503.863163	0.241384
504.228923	0.234602
504.594625	0.233176
504.960269	0.238555
505.325856	0.233917
505.691385	0.237986
506.056856	0.234747
506.422270	0.234336
506.787625	0.236580
507.152924	0.234351
507.518164	0.234380
507.883347	0.236266
508.248472	0.238169
508.613540	0.233113
508.978550	0.235796
509.343503	0.235731
509.708398	0.233788
510.073236	0.231583
510.438016	0.231479
510.802738	0.232072
511.167403	0.231233
511.532010	0.233276
511.896561	0.228739
512.261053	0.227508
512.625488	0.229530
512.989866	0.229775
513.354186	0.230122
513.718449	0.232108
514.082655	0.228277
514.446803	0.230365
514.810894	0.228469
515.174927	0.230815
515.538904	0.230328
515.902822	0.227360
516.266684	0.229561
516.630488	0.230942
516.994235	0.229375
517.357925	0.228418
517.721558	0.226875
518.085133	0.226034
518.448651	0.226314
518.812112	0.228488
519.175516	0.227784
519.538863	0.225866
519.902152	0.227323
520.265385	0.224211
520.628560	0.225821
520.991678	0.226495
521.354739	0.225148
521.717743	0.226419
522.080690	0.226807
522.443580	0.224246
522.806413	0.225226
523.169189	0.224577
523.531908	0.223501
523.894569	0.226894
524.257174	0.226934
524.619722	0.224559
524.982213	0.225622
525.344647	0.224697
525.707025	0.225508
526.069345	0.223725
526.431608	0.225482
526.793815	0.223148
527.155964	0.227547
527.518057	0.226334
527.880093	0.227417
528.242072	0.226083
528.603995	0.227643
528.965860	0.229465
529.327669	0.228152
529.689421	0.229357
530.051117	0.230076
530.412755	0.227637
530.774337	0.230017
531.135862	0.230518
531.497331	0.229911
531.858743	0.232740
532.220098	0.229384
532.581396	0.231886
532.942638	0.232391
533.303824	0.233119
533.664953	0.233069
534.026025	0.234839
534.387040	0.232789
534.747999	0.232754
535.108902	0.231538
535.469748	0.236571
535.830537	0.234641
536.191270	0.234658
536.551947	0.234264
536.912567	0.234432
537.273131	0.236247
537.633638	0.236533
537.994089	0.236486
538.354483	0.237499
538.714821	0.234695
539.075103	0.234559
539.435328	0.235402
539.795497	0.239153
540.155609	0.235833
540.515665	0.233614
540.875665	0.239489
541.235609	0.237923
541.595496	0.237878
541.955328	0.234532
542.315102	0.237247
542.674821	0.238434
543.034483	0.238215
543.394090	0.237993
543.753640	0.239976
544.113134	0.234856
544.472571	0.238180
544.831953	0.234821
545.191278	0.238948
545.550548	0.238669
545.909761	0.235298
546.268918	0.236054
546.628019	0.234488
546.987064	0.237050
547.346053	0.239044
547.704986	0.236544
548.063863	0.237099
548.422684	0.237239
548.781449	0.239507
549.140158	0.236835
549.498811	0.239690
549.857408	0.242538
550.215949	0.237599
550.574434	0.240529
550.932864	0.238659
551.291237	0.237217
551.649555	0.238515
552.007817	0.238285
552.366022	0.239075
552.724173	0.239367
553.082267	0.239396
553.440305	0.236608
553.798288	0.241150
554.156215	0.237583
554.514086	0.238357
554.871902	0.241336
555.229661	0.240728
555.587365	0.241365
555.945014	0.244045
556.302606	0.240440
556.660143	0.243053
557.017625	0.239797
557.375050	0.241854
557.732421	0.238995
558.089735	0.240990
558.446994	0.241229
558.804197	0.240215
559.161345	0.240072
559.518437	0.243181
559.875474	0.240994
560.232455	0.240740
560.589381	0.241812
560.946251	0.241924
561.303065	0.239652
561.659825	0.240813
562.016528	0.242508
562.373177	0.245404
562.729770	0.242722
563.086307	0.244328
563.442789	0.242359
563.799216	0.245183
564.155587	0.243958
564.511904	0.245021
564.868164	0.245467
565.224370	0.244969
565.580520	0.247027
565.936615	0.246700
566.292654	0.249726
566.648638	0.246859
567.004567	0.247489
567.360441	0.248188
567.716260	0.250193
568.072023	0.247940
568.427732	0.248596
568.783385	0.251020
569.138982	0.249212
569.494525	0.248817
569.850013	0.251675
570.205445	0.250048
570.560823	0.252805
570.916145	0.254795
571.271412	0.252770
571.626625	0.254356
571.981782	0.255096
572.336884	0.255735
572.691931	0.255453
573.046923	0.256699
573.401860	0.257946
573.756743	0.259523
574.111570	0.258395
574.466342	0.259044
574.821059	0.258281
575.175722	0.261090
575.530330	0.260598
575.884882	0.261052
576.239380	0.262843
576.593823	0.263678
576.948211	0.262633
577.302544	0.266177
577.656823	0.265933
578.011047	0.266004
578.365216	0.266467
578.719330	0.268412
579.073389	0.268438
579.427394	0.269656
579.781344	0.270363
580.135239	0.271561
580.489080	0.271703
580.842866	0.274349
581.196597	0.274595
581.550273	0.273148
581.903895	0.274361
582.257463	0.271992
582.610975	0.275621
582.964434	0.274897
583.317837	0.277294
583.671186	0.277616
584.024481	0.277944
584.377721	0.280192
584.730906	0.280833
585.084037	0.279940
585.437113	0.282093
585.790135	0.281246
586.143103	0.284343
586.496016	0.285741
586.848874	0.283117
587.201679	0.283724
587.554428	0.286915
587.907124	0.285867
588.259765	0.286108
588.612352	0.286987
588.964884	0.290788
589.317362	0.290354
589.669786	0.290594
590.022155	0.288792
590.374470	0.288221
590.726731	0.290436
591.078937	0.295125
591.431090	0.291094
591.783188	0.295701
592.135232	0.295894
592.487222	0.295778
592.839157	0.294191
593.191038	0.296353
593.542866	0.298411
593.894639	0.301803
594.246358	0.299770
594.598022	0.298773
594.949633	0.302960
595.301190	0.303637
595.652692	0.302771
596.004141	0.299001
596.355535	0.307018
596.706876	0.307250
597.058162	0.309708
597.409395	0.306953
597.760573	0.304729
598.111698	0.308141
598.462768	0.308582
598.813785	0.310315
599.164748	0.310926
599.515657	0.311072
599.866511	0.314673
600.217312	0.309795
600.568060	0.315700
600.918753	0.311789
601.269392	0.312651
601.619978	0.316137
601.970510	0.313811
602.320988	0.313823
602.671412	0.311430
603.021783	0.313967
603.372100	0.315135
603.722363	0.315263
604.072572	0.315887
604.422728	0.315568
604.772830	0.317875
605.122878	0.317198
605.472872	0.318003
605.822813	0.316146
606.172701	0.318772
606.522534	0.316260
606.872314	0.315953
607.222041	0.317090
607.571714	0.315559
607.921333	0.316554
608.270899	0.316470
608.620411	0.313255
608.969870	0.317108
609.319276	0.316902
609.668627	0.316719
610.017926	0.315680
610.367171	0.314277
610.716362	0.314639
611.065500	0.315207
611.414585	0.313788
611.763616	0.314730
612.112594	0.314728
612.461518	0.314522
612.810389	0.311897
613.159207	0.314068
613.507971	0.316201
613.856682	0.311620
614.205340	0.313053
614.553945	0.310315
614.902496	0.314230
615.250994	0.312247
615.599439	0.312751
615.947830	0.312569
616.296169	0.313510
616.644454	0.312496
616.992686	0.312950
617.340864	0.310375
617.688990	0.314363
618.037063	0.310851
618.385082	0.312636
618.733048	0.309750
619.080961	0.312025
619.428821	0.311146
619.776628	0.310991
620.124382	0.313053
620.472083	0.313104
620.819731	0.312743
621.167326	0.316367
621.514868	0.316268
621.862357	0.320463
622.209793	0.319881
622.557176	0.322179
622.904506	0.323317
623.251783	0.325680
623.599007	0.328066
623.946179	0.327548
624.293297	0.329712
624.640363	0.333386
624.987376	0.333662
625.334336	0.336268
625.681243	0.338842
626.028097	0.339326
626.374899	0.340588
626.721647	0.340663
627.068343	0.343678
627.414987	0.344948
627.761577	0.346990
628.108115	0.345334
628.454600	0.350719
628.801032	0.347545
629.147412	0.349485
629.493739	0.349921
629.840014	0.353112
630.186236	0.350763
630.532405	0.356352
630.878521	0.353650
631.224585	0.355784
631.570597	0.359908
631.916556	0.357951
632.262462	0.358024
632.608316	0.360392
632.954117	0.360990
633.299866	0.361903
633.645562	0.362258
633.991206	0.366311
634.336797	0.369663
634.682336	0.371773
635.027823	0.373557
635.373257	0.373946
635.718639	0.377960
636.063968	0.376945
636.409245	0.382682
636.754470	0.383074
637.099642	0.385602
637.444762	0.388738
637.789829	0.387769
638.134845	0.391093
638.479808	0.392318
638.824719	0.392005
639.169577	0.396207
639.514383	0.394983
639.859137	0.399832
640.203839	0.399029
640.548489	0.399215
640.893086	0.400928
641.237632	0.402574
641.582125	0.401036
641.926566	0.402187
642.270955	0.402841
642.615292	0.403687
642.959576	0.402325
643.303809	0.402990
643.647990	0.402258
643.992118	0.403279
644.336195	0.406355
644.680219	0.404893
645.024192	0.405557
645.368112	0.399160
645.711981	0.397607
646.055797	0.393552
646.399562	0.395777
646.743274	0.387786
647.086935	0.385011
647.430544	0.385665
647.774101	0.383976
648.117606	0.383758
648.461059	0.384271
648.804460	0.386615
649.147810	0.391921
649.491108	0.393573
649.834354	0.395351
650.177548	0.400630
650.520690	0.405902
650.863781	0.406766
651.206820	0.406651
651.549807	0.410965
651.892742	0.415198
652.235626	0.414662
652.578458	0.414740
652.921238	0.422032
653.263967	0.419688
653.606644	0.423625
653.949269	0.423507
654.291843	0.427041
654.634365	0.423751
654.976836	0.427131
655.319255	0.427020
655.661622	0.428509
656.003938	0.428638
656.346203	0.431760
656.688416	0.430143
657.030577	0.433116
657.372687	0.434892
657.714746	0.435776
658.056753	0.432551
658.398708	0.436409
658.740612	0.437802
659.082465	0.433879
659.424266	0.434447
659.766016	0.433560
660.107715	0.436789
660.449362	0.435599
660.790958	0.436445
661.132503	0.436147
661.473996	0.434002
661.815438	0.435560
662.156829	0.435223
662.498168	0.435579
662.839456	0.437636
663.180693	0.435486
663.521879	0.435401
663.863013	0.435971
664.204097	0.434463
664.545129	0.431866
664.886110	0.431887
665.227040	0.429414
665.567918	0.431392
665.908746	0.429952
666.249522	0.429827
666.590248	0.430159
666.930922	0.428542
667.271545	0.427262
667.612118	0.427390
667.952639	0.429363
668.293109	0.428234
668.633528	0.431360
668.973896	0.430665
669.314213	0.430681
669.654480	0.432748
669.994695	0.432839
670.334859	0.433906
670.674973	0.433839
671.015035	0.434371
671.355047	0.434066
671.695008	0.435117
672.034918	0.436890
672.374777	0.436290
672.714585	0.437682
673.054342	0.437542
673.394049	0.437551
673.733705	0.435579
674.073310	0.436103
674.412864	0.439484
674.752368	0.439478
675.091820	0.439817
675.431223	0.444799
675.770574	0.444800
676.109875	0.447317
676.449125	0.447142
676.788324	0.449316
677.127473	0.454822
677.466571	0.454764
677.805619	0.456307
678.144616	0.458333
678.483562	0.459087
678.822458	0.461532
679.161303	0.462731
679.500098	0.462843
679.838842	0.465288
680.177535	0.464139
680.516179	0.463415
680.854771	0.462146
681.193314	0.455479
681.531805	0.446729
681.870247	0.435161
682.208638	0.428310
682.546978	0.427134
682.885268	0.428316
683.223508	0.434728
683.561697	0.438201
683.899836	0.441266
684.237925	0.445192
684.575963	0.447242
684.913951	0.450495
685.251889	0.446440
685.589776	0.447595
685.927614	0.450608
686.265401	0.444761
686.603137	0.445777
686.940824	0.440160
687.278460	0.438840
687.616046	0.437269
687.953582	0.432343
688.291068	0.433724
688.628504	0.429827
688.965889	0.431882
689.303224	0.435844
689.640510	0.439630
689.977745	0.445882
690.314930	0.453375
690.652065	0.458004
690.989150	0.465769
691.326185	0.471979
691.663170	0.476559
692.000105	0.483773
692.336990	0.490548
692.673825	0.493393
693.010610	0.500878
693.347345	0.505414
693.684030	0.506940
694.020665	0.511596
694.357251	0.520558
694.693786	0.520503
695.030272	0.524127
695.366707	0.528124
695.703093	0.531058
696.039429	0.529547
696.375716	0.531146
696.711952	0.533416
697.048139	0.535678
697.384276	0.537671
697.720363	0.536516
698.056400	0.534574
698.392388	0.540298
698.728326	0.543232
699.064214	0.546357
699.400053	0.546949
699.735842	0.550463
700.071581	0.553559
700.407270	0.556132
700.742910	0.559351
701.078501	0.565691
701.414042	0.565528
701.749533	0.568465
702.084974	0.578074
702.420366	0.569832
702.755709	0.577843
703.091002	0.585352
703.426246	0.578729
703.761440	0.584462
704.096584	0.589527
704.431679	0.586364
704.766725	0.588685
705.101721	0.589708
705.436668	0.586703
705.771565	0.592863
706.106413	0.590371
706.441212	0.585111
706.775961	0.583993
707.110661	0.587030
707.445311	0.583726
707.779913	0.580332
708.114465	0.578325
708.448967	0.575570
708.783421	0.568289
709.117825	0.562687
709.452180	0.562617
709.786485	0.555691
710.120742	0.545519
710.454949	0.548198
710.789107	0.539939
711.123216	0.531290
711.457275	0.532035
711.791286	0.523978
712.125247	0.522764
712.459159	0.533046
712.793023	0.525846
713.126837	0.529829
713.460602	0.530612
713.794318	0.539574
714.127985	0.538605
714.461602	0.548788
714.795171	0.551563
715.128691	0.559551
715.462162	0.567425
715.795584	0.572909
716.128957	0.575665
716.462281	0.582506
716.795556	0.586377
717.128782	0.590800
717.461960	0.600874
717.795088	0.598822
718.128167	0.604970
718.461198	0.614060
718.794180	0.614807
719.127113	0.616369
719.459997	0.620743
719.792833	0.626597
720.125619	0.628182
720.458357	0.634290
720.791046	0.634005
721.123686	0.636915
721.456278	0.644442
721.788821	0.641626
722.121315	0.645119
722.453761	0.649092
722.786158	0.647570
723.118506	0.644040
723.450805	0.651723
723.783056	0.647552
724.115259	0.645611
724.447412	0.645140
724.779518	0.646102
725.111574	0.644708
725.443582	0.641133
725.775542	0.642740
726.107453	0.635159
726.439315	0.634945
726.771129	0.632916
727.102895	0.626531
727.434612	0.619204
727.766281	0.617331
728.097901	0.616592
728.429473	0.616473
728.760996	0.615659
729.092471	0.614841
729.423897	0.618614
729.755276	0.617801
730.086606	0.617549
730.417887	0.612508
730.749120	0.603204
731.080305	0.594361
731.411442	0.590432
731.742530	0.595133
732.073570	0.594432
732.404562	0.586676
732.735506	0.588137
733.066401	0.593252
733.397249	0.601854
733.728048	0.613153
734.058798	0.625809
734.389501	0.636211
734.720156	0.645739
735.050762	0.654005
735.381320	0.655611
735.711831	0.664520
736.042293	0.669414
736.372707	0.665419
736.703073	0.669314
737.033391	0.672049
737.363661	0.667904
737.693883	0.664589
738.024056	0.662699
738.354182	0.663576
738.684260	0.653129
739.014290	0.648468
739.344272	0.649124
739.674207	0.642827
740.004093	0.641945
740.333931	0.643128
740.663722	0.642073
740.993464	0.643611
741.323159	0.647192
741.652806	0.651950
741.982405	0.656585
742.311956	0.661336
742.641460	0.664064
742.970915	0.667793
743.300323	0.674774
743.629683	0.681963
743.958996	0.682946
744.288260	0.687981
744.617477	0.694344
744.946647	0.694868
745.275768	0.700850
745.604842	0.699847
745.933869	0.710775
746.262847	0.711761
746.591778	0.704725
746.920662	0.710759
747.249498	0.717579
747.578286	0.708861
747.907027	0.703977
748.235720	0.705104
748.564365	0.699880
748.892963	0.699753
749.221514	0.703077
749.550017	0.708067
749.878473	0.708076
750.206881	0.714524
750.535242	0.715843
750.863555	0.715649
751.191821	0.716572
751.520039	0.719387
751.848210	0.724073
752.176334	0.716709
752.504411	0.716419
752.832440	0.723437
753.160421	0.727891
753.488356	0.726199
753.816243	0.724792
754.144082	0.732117
754.471875	0.735921
754.799620	0.731007
755.127318	0.732525
755.454969	0.731508
755.782572	0.732202
756.110129	0.736646
756.437638	0.738750
756.765100	0.735670
757.092515	0.733299
757.419882	0.733122
757.747203	0.737322
758.074477	0.737635
758.401703	0.734364
758.728882	0.729998
759.056014	0.728529
759.383099	0.727336
759.710138	0.728769
760.037129	0.725276
760.364073	0.719212
760.690970	0.721674
761.017820	0.727350
761.344623	0.722734
761.671379	0.713562
761.998088	0.702115
762.324751	0.678523
762.651366	0.637967
762.977935	0.571032
763.304456	0.517988
763.630931	0.508957
763.957359	0.548334
764.283740	0.592892
764.610074	0.619515
764.936362	0.650245
765.262602	0.677813
765.588796	0.699754
765.914943	0.716649
766.241044	0.735014
766.567097	0.741227
766.893104	0.750970
767.219064	0.756489
767.544978	0.764125
767.870845	0.777531
768.196665	0.781294
768.522438	0.778409
768.848165	0.780831
769.173846	0.789816
769.499479	0.794799
769.825066	0.796496
770.150607	0.803008
770.476101	0.797299
770.801548	0.799057
771.126949	0.810688
771.452303	0.812759
771.777611	0.813932
772.102872	0.812585
772.428087	0.818195
772.753256	0.821432
773.078378	0.823877
773.403453	0.832026
773.728482	0.836353
774.053465	0.830175
774.378401	0.832950
774.703291	0.842054
775.028135	0.841250
775.352932	0.843057
775.677683	0.845387
776.002388	0.846309
776.327046	0.845678
776.651658	0.849119
776.976224	0.852482
777.300743	0.853232
777.625216	0.856009
777.949643	0.856178
778.274024	0.857361
778.598359	0.858251
778.922647	0.857663
779.246889	0.857798
779.571086	0.861200
779.895236	0.865068
780.219339	0.861025
780.543397	0.858222
780.867409	0.855764
781.191374	0.858062
781.515294	0.859724
781.839167	0.858976
782.162995	0.862122
782.486776	0.859009
782.810511	0.860626
783.134201	0.863484
783.457844	0.862162
783.781441	0.863783
784.104993	0.870661
784.428498	0.870424
784.751958	0.865696
785.075372	0.868691
785.398739	0.872280
785.722061	0.868306
786.045337	0.864450
786.368568	0.869200
786.691752	0.872522
787.014891	0.857299
787.337983	0.849684
787.661030	0.840433
787.984031	0.823551
788.306987	0.810533
788.629897	0.812721
788.952760	0.816916
789.275579	0.820988
789.598351	0.836809
789.921078	0.849228
790.243759	0.850871
790.566395	0.856145
790.888984	0.863053
791.211529	0.867563
791.534027	0.871681
791.856480	0.874270
792.178888	0.879634
792.501249	0.882228
792.823566	0.881899
793.145836	0.882137
793.468062	0.885589
793.790241	0.884644
794.112375	0.882791
794.434464	0.878250
794.756507	0.878320
795.078505	0.877693
795.400457	0.871589
795.722364	0.860135
796.044226	0.852222
796.366042	0.851882
796.687812	0.855793
797.009538	0.851889
797.331218	0.854964
797.652852	0.860018
797.974442	0.863539
798.295986	0.864408
798.617484	0.866741
798.938938	0.870631
799.260346	0.875582
799.581709	0.878060
799.903026	0.880488
800.224299	0.880916
800.545526	0.884428
800.866708	0.888332
801.187845	0.893267
801.508936	0.892010
801.829983	0.890035
802.150984	0.891750
802.471940	0.898101
802.792851	0.897546
803.113717	0.898130
803.434538	0.896451
803.755314	0.898207
804.076045	0.899833
804.396731	0.899885
804.717372	0.900590
805.037967	0.902516
805.358518	0.898731
805.679024	0.896191
805.999485	0.895881
806.319901	0.897396
806.640272	0.898633
806.960598	0.897113
807.280879	0.893274
807.601115	0.891760
807.921306	0.895731
808.241453	0.896259
808.561554	0.893776
808.881611	0.893231
809.201623	0.895671
809.521590	0.895743
809.841513	0.897602
810.161390	0.897160
810.481223	0.898648
810.801011	0.901955
811.120755	0.903020
811.440453	0.902000
811.760107	0.901003
812.079716	0.901125
812.399281	0.902949
812.718801	0.906053
813.038276	0.906464
813.357707	0.907475
813.677093	0.904564
813.996434	0.907874
814.315731	0.908632
814.634983	0.908961
814.954191	0.907766
815.273354	0.905071
815.592473	0.900872
815.911547	0.901196
816.230577	0.898396
816.549562	0.896638
816.868502	0.897611
817.187399	0.893333
817.506250	0.887987
817.825058	0.890443
818.143821	0.887064
818.462539	0.881772
818.781213	0.873165
819.099843	0.862583
819.418429	0.847098
819.736970	0.829480
820.055466	0.809300
820.373919	0.783736
820.692327	0.751629
821.010691	0.716224
821.329011	0.637916
821.647286	0.523034
821.965517	0.408963
822.283704	0.366164
822.601847	0.367621
822.919945	0.402946
823.237999	0.436651
823.556010	0.483508
823.873976	0.539664
824.191897	0.590368
824.509775	0.633446
824.827609	0.678415
825.145398	0.701461
825.463144	0.703880
825.780845	0.686868
826.098502	0.667880
826.416116	0.622497
826.733685	0.577883
827.051210	0.569494
827.368692	0.583580
827.686129	0.621973
828.003522	0.675205
828.320872	0.722245
828.638177	0.766581
828.955439	0.799399
829.272656	0.821619
829.589830	0.838071
829.906960	0.854895
830.224046	0.867083
830.541088	0.877141
830.858086	0.882119
831.175041	0.887561
831.491952	0.886884
831.808819	0.882675
832.125642	0.876985
832.442421	0.862075
832.759157	0.839690
833.075849	0.793997
833.392497	0.730091
833.709101	0.689107
834.025662	0.698602
834.342179	0.729478
834.658653	0.769516
834.975083	0.805789
835.291469	0.830332
835.607811	0.854223
835.924110	0.870321
836.240366	0.887143
836.556578	0.901346
836.872746	0.909024
837.188871	0.914881
837.504952	0.920218
837.820990	0.923193
838.136984	0.925984
838.452935	0.930391
838.768842	0.931217
839.084706	0.925661
839.400526	0.898834
839.716303	0.859055
840.032037	0.835277
840.347727	0.839407
840.663373	0.858461
840.978977	0.879541
841.294537	0.901818
841.610054	0.918652
841.925527	0.925683
842.240957	0.933503
842.556344	0.940673
842.871687	0.946808
843.186987	0.949942
843.502244	0.949909
843.817458	0.951675
844.132629	0.956182
844.447756	0.961072
844.762840	0.960973
845.077881	0.959791
845.392879	0.960106
845.707833	0.962751
846.022745	0.966021
846.337613	0.965468
846.652438	0.966462
846.967221	0.964698
847.281960	0.964913
847.596656	0.967221
847.911309	0.966013
848.225919	0.968183
848.540485	0.968491
848.855009	0.969434
849.169490	0.968884
849.483928	0.969193
849.798323	0.969736
850.112675	0.969916
850.426984	0.969891
850.741251	0.970244
851.055474	0.970821
851.369654	0.968248
851.683792	0.971000
851.997887	0.969994
852.311938	0.971328
852.625947	0.970404
852.939914	0.968274
853.253837	0.969414
853.567718	0.971082
853.881555	0.970517
854.195350	0.967833
854.509103	0.970368
854.822812	0.970925
855.136479	0.970012
855.450103	0.970340
855.763685	0.968773
856.077224	0.968145
856.390720	0.971206
856.704173	0.970770
857.017584	0.967875
857.330953	0.967928
857.644278	0.968745
857.957561	0.968622
858.270802	0.968985
858.584000	0.969439
858.897155	0.967013
859.210268	0.968141
859.523339	0.967946
859.836367	0.971637
860.149352	0.971125
860.462295	0.969410
860.775195	0.970996
861.088054	0.969596
861.400869	0.970232
861.713642	0.970647
862.026373	0.969745
862.339062	0.970788
862.651708	0.967541
862.964312	0.967036
863.276873	0.969539
863.589392	0.967707
863.901869	0.966913
864.214303	0.965965
864.526696	0.964073
864.839045	0.963953
865.151353	0.962138
865.463619	0.962108
865.775842	0.963271
866.088023	0.961729
866.400162	0.961504
866.712258	0.963220
867.024313	0.963298
867.336325	0.964445
867.648296	0.963964
867.960224	0.963446
868.272110	0.962865
868.583954	0.964034
868.895755	0.964818
869.207515	0.963207
869.519233	0.960733
869.830909	0.961620
870.142542	0.963126
870.454134	0.961569
870.765684	0.961136
871.077191	0.957994
871.388657	0.959452
871.700081	0.957973
872.011463	0.958362
872.322803	0.958436
872.634101	0.956835
872.945357	0.954693
873.256571	0.953288
873.567744	0.952880
873.878874	0.953627
874.189963	0.952290
874.501010	0.951569
874.812015	0.950596
875.122979	0.952504
875.433900	0.953268
875.744780	0.955141
876.055618	0.951861
876.366415	0.951329
876.677169	0.950672
876.987882	0.952927
877.298554	0.951579
877.609183	0.947896
877.919771	0.944786
878.230317	0.943353
878.540822	0.940712
878.851285	0.936036
879.161707	0.927137
879.472087	0.915924
879.782425	0.898876
880.092722	0.864547
880.402977	0.812238
880.713191	0.751617
881.023363	0.692036
881.333494	0.658130
881.643583	0.629846
881.953631	0.629823
882.263637	0.658672
882.573602	0.697731
882.883526	0.723505
883.193408	0.748661
883.503248	0.769793
883.813048	0.798894
884.122806	0.826903
884.432522	0.850278
884.742197	0.870269
885.051831	0.881158
885.361424	0.891154
885.670975	0.903548
885.980485	0.914069
886.289954	0.920118
886.599382	0.925799
886.908768	0.928842
887.218113	0.934394
887.527417	0.939622
887.836680	0.942497
888.145901	0.943047
888.455082	0.945972
888.764221	0.949753
889.073319	0.953275
889.382376	0.953387
889.691392	0.953767
890.000366	0.952966
890.309300	0.954059
890.618193	0.952229
890.927044	0.951726
891.235855	0.951663
891.544625	0.951724
891.853353	0.952273
892.162041	0.949047
892.470687	0.943834
892.779293	0.938999
893.087858	0.934725
893.396381	0.926314
893.704864	0.913040
894.013306	0.889067
894.321707	0.862975
894.630068	0.848026
894.938387	0.843421
895.246665	0.843610
895.554903	0.857303
895.863100	0.870587
896.171256	0.887629
896.479371	0.906160
896.787446	0.918796
897.095480	0.925385
897.403473	0.929086
897.711425	0.933614
898.019336	0.940563
898.327207	0.942406
898.635038	0.945233
898.942827	0.945833
899.250576	0.948149
899.558284	0.952578
899.865952	0.953854
900.173579	0.954552
900.481165	0.956562
900.788711	0.959245
901.096216	0.961578
901.403681	0.962773
901.711105	0.964081
902.018489	0.964026
902.325832	0.962659
902.633135	0.961876
902.940397	0.957249
903.247619	0.943524
903.554800	0.918439
903.861941	0.878613
904.169041	0.843715
904.476101	0.825361
904.783121	0.826473
905.090100	0.842218
905.397039	0.865160
905.703938	0.886785
906.010796	0.906705
906.317614	0.922871
906.624391	0.934413
906.931129	0.944077
907.237826	0.951904
907.544483	0.960150
907.851099	0.963417
908.157675	0.968559
908.464211	0.970395
908.770707	0.972937
909.077163	0.974773
909.383578	0.975340
909.689954	0.975194
909.996289	0.975694
910.302584	0.979006
910.608839	0.979747
910.915054	0.978347
911.221229	0.978769
911.527363	0.976631
911.833458	0.977611
912.139513	0.977357
912.445527	0.975502
912.751502	0.975065
913.057436	0.972654
913.363331	0.971399
913.669186	0.967052
913.975000	0.962230
914.280775	0.955134
914.586510	0.949148
914.892205	0.935700
915.197859	0.914948
915.503475	0.885983
915.809050	0.867961
916.114585	0.860973
916.420081	0.859805
916.725536	0.855455
917.030952	0.863757
917.336328	0.876433
917.641665	0.891705
917.946961	0.906729
918.252218	0.918936
918.557435	0.927206
918.862612	0.937409
919.167750	0.942296
919.472848	0.947263
919.777906	0.951923
920.082925	0.957244
920.387904	0.962654
920.692843	0.962668
920.997743	0.964823
921.302603	0.967459
921.607423	0.969505
921.912204	0.972164
922.216946	0.971751
922.521647	0.973913
922.826310	0.975053
923.130932	0.977280
923.435516	0.979919
923.740059	0.979634
924.044564	0.978916
924.349028	0.981112
924.653454	0.983071
924.957840	0.985095
925.262186	0.984866
925.566493	0.984283
925.870761	0.986218
926.174989	0.987470
926.479178	0.988635
926.783328	0.989799
927.087438	0.988862
927.391509	0.988652
927.695541	0.990055
927.999533	0.990840
928.303486	0.988907
928.607400	0.991419
928.911275	0.989795
929.215110	0.991307
929.518906	0.990419
929.822663	0.989509
930.126381	0.991251
930.430060	0.991214
930.733699	0.990420
931.037299	0.991016
931.340861	0.990922
931.644383	0.990902
931.947866	0.989765
932.251309	0.990984
932.554714	0.990341
932.858080	0.991122
933.161407	0.990941
933.464694	0.991695
933.767943	0.990567
934.071153	0.990841
934.374323	0.992085
934.677455	0.992033
934.980548	0.992879
935.283602	0.991285
935.586617	0.992575
935.889593	0.991507
936.192530	0.990903
936.495428	0.992291
936.798287	0.991668
937.101108	0.991282
937.403890	0.989473
937.706632	0.989582
938.009336	0.986779
938.312002	0.986791
938.614628	0.984525
938.917216	0.984179
939.219765	0.982127
939.522275	0.983221
939.824747	0.983276
940.127179	0.983055
940.429573	0.984857
940.731929	0.984744
941.034246	0.985346
941.336524	0.985412
941.638763	0.985523
941.940964	0.986758
942.243126	0.987413
942.545250	0.987487
942.847335	0.988594
943.149381	0.989172
943.451389	0.989209
943.753359	0.989596
944.055290	0.991588
944.357182	0.990438
944.659036	0.988249
944.960851	0.990076
945.262628	0.990665
945.564367	0.990856
945.866067	0.990974
946.167729	0.990496
946.469352	0.990334
946.770937	0.988221
947.072484	0.991269
947.373992	0.989634
947.675462	0.990348
947.976893	0.989551
948.278286	0.990757
948.579641	0.992468
948.880958	0.990787
949.182236	0.991804
949.483476	0.992169
949.784678	0.990634
950.085841	0.991809
950.386967	0.991784
950.688054	0.990814
950.989103	0.991810
951.290114	0.989954
951.591087	0.990415
951.892021	0.990173
952.192917	0.989264
952.493776	0.988931
952.794596	0.988285
953.095378	0.989329
953.396122	0.988589
953.696828	0.987608
953.997496	0.989757
954.298126	0.991739
954.598718	0.991157
954.899272	0.992125
955.199788	0.991749
955.500266	0.992203
955.800706	0.993721
956.101108	0.993826
956.401472	0.993566
956.701798	0.994530
957.002087	0.994068
957.302337	0.993630
957.602550	0.996160
957.902724	0.995577
958.202861	0.995749
958.502960	0.995455
958.803022	0.993462
959.103045	0.996383
959.403031	0.995359
959.702979	0.996357
960.002889	0.996400
960.302762	0.994995
960.602596	0.996790
960.902393	0.995918
961.202153	0.997103
961.501875	0.997153
961.801559	0.995810
962.101205	0.996428
962.400814	0.995891
962.700385	0.998027
962.999918	0.996171
963.299414	0.997279
963.598873	0.995159
963.898293	0.996063
964.197677	0.996339
964.497022	0.996487
964.796331	0.998589
965.095601	0.997552
965.394835	0.997284
965.694030	0.996430
965.993189	0.997555
966.292309	0.997154
966.591393	0.997600
966.890439	0.997200
967.189447	0.997595
967.488419	0.997688
967.787353	0.996129
968.086249	0.996700
968.385108	0.997719
968.683930	0.997661
968.982714	0.997872
969.281462	0.998095
969.580172	0.997273
969.878844	0.997957
970.177480	0.997758
970.476078	0.998009
970.774639	0.996687
971.073162	0.998354
971.371649	0.996533
971.670098	0.996661
971.968510	0.998949
972.266885	0.995887
972.565223	0.996517
972.863524	0.995814
973.161788	0.997754
973.460014	0.998318
973.758204	0.995305
974.056356	0.996406
974.354471	0.995085
974.652550	0.996970
974.950591	0.998235
975.248595	0.996097
975.546563	0.997767
975.844493	0.997897
976.142386	0.996455
976.440243	0.997835
976.738062	0.997993
977.035845	0.997938
977.333590	0.997132
977.631299	0.998847
977.928971	0.997199
978.226606	0.997091
978.524204	0.995824
978.821765	0.998586
979.119290	0.997329
979.416777	0.997842
979.714228	0.997976
980.011642	0.996194
980.309020	0.998347
980.606360	0.997990
980.903664	0.998406
981.200931	0.997276
981.498162	0.994278
981.795356	0.995484
982.092513	0.993204
982.389633	0.994971
982.686717	0.991959
982.983764	0.992010
983.280775	0.990258
983.577749	0.991168
983.874686	0.992231
984.171587	0.992387
984.468451	0.994277
984.765279	0.996083
985.062070	0.994098
985.358824	0.995848
985.655543	0.995025
985.952224	0.996769
986.248869	0.997969
986.545478	0.997239
986.842050	0.999708
987.138586	0.995806
987.435086	0.998902
987.731549	0.999349
988.027975	0.999249
988.324366	0.997921
988.620719	0.997833
988.917037	0.996472
989.213318	0.999093
989.509563	0.999017
989.805772	0.998197
990.101944	0.998880
990.398080	0.997349
990.694180	0.998786
990.990244	0.997168
991.286271	0.998562
991.582262	0.998839
991.878217	0.997752
992.174136	0.999543
992.470019	1.000046
992.765865	0.998860
993.061676	0.998917
993.357450	0.997656
993.653188	0.998250
993.948890	0.998303
994.244556	0.998464
994.540186	0.998418
994.835780	0.996594
995.131337	0.998187
995.426859	0.997701
995.722345	0.997168
996.017795	0.998062
996.313208	0.997221
996.608586	0.995612
996.903928	0.996927
997.199234	0.996431
997.494504	0.997065
997.789738	0.997147
998.084936	0.996443
998.380099	0.999106
998.675225	0.998017
998.970316	0.998303
999.265371	0.999451
999.560390	0.997517
999.855373	0.999216
1000.150320	0.998678
1000.445232	0.998288
1000.740108	0.999040
1001.034948	0.997361
1001.329752	0.999438
1001.624521	0.998680
1001.919254	0.998790
1002.213951	0.998169
1002.508613	0.998326
1002.803239	0.999550
1003.097829	0.999427
1003.392384	0.998905
1003.686903	0.998729
1003.981386	0.999437
1004.275834	1.000470
1004.570246	0.999064
1004.864623	0.999490
1005.158964	0.999654
1005.453270	0.998361
1005.747540	0.998102
1006.041775	0.999017
1006.335974	0.999766
1006.630138	0.999965
1006.924266	0.999321
1007.218359	1.000450
1007.512416	0.999813
1007.806438	0.998749
1008.100425	0.999690
1008.394376	1.000071
1008.688292	1.000053
1008.982172	1.000563
1009.276017	0.999372
1009.569827	0.999309
1009.863602	0.999397
1010.157341	1.000506
1010.451045	1.000073
1010.744714	0.999140
1011.038347	0.999426
1011.331945	0.998563
1011.625508	0.998668
1011.919036	0.999525
1012.212528	0.999030
1012.505986	0.999163
1012.799408	0.999392
1013.092795	1.000507
1013.386147	0.999801
1013.679464	0.999874
1013.972745	0.998955
1014.265992	0.997871
1014.559204	0.999649
1014.852380	0.998960
1015.145521	0.998246
1015.438628	1.000025
1015.731699	0.999951
1016.024736	0.999615
1016.317737	0.999429
1016.610703	0.999371
1016.903635	1.000202
1017.196531	0.998405
1017.489393	1.000398
1017.782219	0.998101
1018.075011	1.000292
1018.367768	0.999562
1018.660490	1.000253
1018.953177	1.000253
1019.245829	1.000253
