Dividing Wavelength (nm)	Counts (n)	Blue Motor Position (mm): 0.000000	Red Motor Position (mm): 44.900000	
326.493990	1.000793
326.888308	1.000793
327.282561	1.000793
327.676750	1.000140
328.070874	0.999061
328.464933	0.999429
328.858929	0.999424
329.252859	0.999763
329.646726	0.999373
330.040528	0.999980
330.434265	0.998302
330.827938	1.000404
331.221547	0.999365
331.615091	0.999979
332.008571	1.000632
332.401986	1.000099
332.795338	1.000194
333.188625	0.998711
333.581847	1.000236
333.975006	0.999260
334.368100	0.998288
334.761129	1.000332
335.154095	1.000726
335.546996	0.999188
335.939833	0.997577
336.332606	0.998786
336.725315	0.998570
337.117960	1.000478
337.510540	0.998439
337.903056	1.000816
338.295508	0.997671
338.687896	1.000166
339.080220	0.999149
339.472480	0.998587
339.864676	0.998649
340.256807	1.000476
340.648875	0.999883
341.040879	0.999999
341.432818	0.998767
341.824694	0.999735
342.216506	1.000463
342.608253	0.998734
342.999937	0.997881
343.391557	0.998998
343.783113	0.998201
344.174605	0.998908
344.566033	0.999435
344.957397	0.998438
345.348697	0.998910
345.739934	0.998655
346.131106	0.999137
346.522215	0.997814
346.913260	0.999463
347.304241	0.998160
347.695159	0.998317
348.086012	0.998165
348.476802	0.999220
348.867528	0.999345
349.258191	0.998152
349.648789	0.999026
350.039324	0.999180
350.429796	0.999455
350.820203	0.999662
351.210548	0.998764
351.600828	0.998565
351.991045	0.999180
352.381198	0.998282
352.771288	0.999011
353.161314	1.000096
353.551276	0.999670
353.941175	0.999292
354.331010	0.998168
354.720782	0.999005
355.110490	0.999511
355.500135	0.999193
355.889717	0.999571
356.279235	0.999363
356.668689	0.998704
357.058080	0.997295
357.447408	1.000006
357.836672	0.999411
358.225873	0.999761
358.615010	0.998683
359.004084	1.000453
359.393095	0.999403
359.782043	0.999297
360.170927	1.000168
360.559748	0.999690
360.948505	0.998384
361.337199	0.999477
361.725830	0.998903
362.114398	0.999349
362.502903	0.999586
362.891344	1.000864
363.279722	0.998583
363.668037	1.000048
364.056289	0.998285
364.444478	1.001066
364.832603	0.999319
365.220665	0.999355
365.608665	0.998813
365.996601	0.999664
366.384474	0.999183
366.772284	0.999715
367.160031	0.997889
367.547715	0.999304
367.935336	1.000151
368.322893	0.999214
368.710388	0.998558
369.097820	0.999783
369.485189	0.997869
369.872495	0.997531
370.259738	0.997922
370.646918	0.998939
371.034035	1.000515
371.421090	1.000063
371.808081	0.998324
372.195010	0.999030
372.581875	0.998804
372.968678	0.999007
373.355418	0.999012
373.742096	0.998528
374.128710	1.001156
374.515262	0.998559
374.901751	0.999979
375.288177	0.999935
375.674540	1.000009
376.060841	0.998717
376.447079	1.000506
376.833254	0.999790
377.219367	0.998953
377.605417	0.999275
377.991404	0.999850
378.377329	0.998440
378.763191	0.999184
379.148991	1.000664
379.534727	0.999103
379.920402	0.999554
380.306013	0.999158
380.691563	1.000467
381.077049	0.998901
381.462474	0.999711
381.847835	0.999917
382.233134	0.998948
382.618371	0.999450
383.003545	0.999329
383.388657	0.999675
383.773706	0.999970
384.158693	0.999775
384.543618	0.999126
384.928480	1.000148
385.313280	0.999523
385.698017	1.000019
386.082692	1.000292
386.467305	0.999530
386.851856	0.999335
387.236344	0.999691
387.620770	0.999532
388.005133	1.000682
388.389435	0.999972
388.773674	1.000171
389.157851	0.999512
389.541965	0.998976
389.926018	0.999301
390.310008	1.000621
390.693936	1.000071
391.077802	0.999303
391.461606	1.000371
391.845348	1.000677
392.229027	1.001235
392.612645	1.000223
392.996200	1.000640
393.379694	0.999890
393.763125	1.001265
394.146494	1.000311
394.529801	0.999316
394.913047	1.000398
395.296230	1.000063
395.679351	0.999945
396.062410	0.999800
396.445408	0.999750
396.828343	0.999547
397.211217	0.999728
397.594028	1.000489
397.976778	0.999010
398.359466	0.999599
398.742092	0.999322
399.124656	0.999124
399.507158	0.999361
399.889598	1.000004
400.271977	0.999928
400.654294	1.000352
401.036549	0.999957
401.418742	1.000251
401.800874	0.999411
402.182944	0.999559
402.564952	0.998402
402.946898	1.000239
403.328783	0.999966
403.710606	1.000167
404.092367	0.999798
404.474067	0.999732
404.855705	0.999341
405.237282	0.999883
405.618797	0.999591
406.000250	0.999123
406.381642	1.000695
406.762972	0.999855
407.144240	1.000602
407.525447	1.000172
407.906593	0.999420
408.287677	0.999613
408.668700	1.000351
409.049661	0.998952
409.430560	1.000630
409.811399	0.999698
410.192176	0.999252
410.572891	0.999831
410.953545	0.999846
411.334138	0.998668
411.714669	1.000658
412.095139	0.999495
412.475547	1.000264
412.855894	0.999882
413.236180	1.001029
413.616405	0.999397
413.996568	1.000490
414.376670	0.999898
414.756711	0.999583
415.136691	0.999652
415.516609	0.999992
415.896466	0.999409
416.276262	0.998932
416.655997	1.000252
417.035670	0.999406
417.415283	0.999829
417.794834	1.000040
418.174324	1.000563
418.553753	1.000179
418.933121	1.000470
419.312428	1.000464
419.691674	0.999697
420.070859	1.000722
420.449983	1.000208
420.829045	1.000304
421.208047	1.000724
421.586988	1.001232
421.965867	1.000026
422.344686	1.000515
422.723444	1.000128
423.102141	0.999954
423.480777	1.000610
423.859352	1.000458
424.237866	0.999407
424.616319	1.000099
424.994712	0.999913
425.373044	0.999861
425.751314	1.000886
426.129524	0.999882
426.507673	1.000769
426.885762	1.000639
427.263789	1.000408
427.641756	0.999628
428.019662	1.000132
428.397508	0.998434
428.775292	0.999479
429.153016	1.000133
429.530679	1.000450
429.908282	1.000289
430.285824	0.999875
430.663305	1.000271
431.040726	0.999549
431.418086	1.001482
431.795385	1.000541
432.172624	0.999976
432.549802	0.999845
432.926920	1.000815
433.303977	0.999115
433.680974	1.000025
434.057910	1.000108
434.434786	1.000429
434.811601	0.999555
435.188355	0.999715
435.565050	0.999685
435.941683	0.999495
436.318257	1.000937
436.694770	0.999805
437.071222	1.000944
437.447614	1.000328
437.823946	0.999637
438.200218	1.000016
438.576429	0.999760
438.952580	1.000733
439.328670	0.999295
439.704700	1.000405
440.080670	0.999866
440.456580	1.000033
440.832429	0.999109
441.208218	1.000424
441.583947	1.000066
441.959616	1.000379
442.335224	0.999855
442.710773	1.000611
443.086261	1.000022
443.461689	0.999535
443.837057	1.000005
444.212365	1.000037
444.587612	0.999961
444.962800	0.998921
445.337927	0.999913
445.712995	1.000674
446.088002	1.000451
446.462949	1.000222
446.837837	0.999921
447.212664	1.001417
447.587431	1.000231
447.962139	1.000390
448.336786	1.000077
448.711374	1.000013
449.085901	0.999915
449.460369	1.000186
449.834776	0.999040
450.209124	0.999767
450.583412	1.000471
450.957640	1.000139
451.331808	1.000218
451.705917	1.001183
452.079965	0.999873
452.453954	1.000528
452.827883	1.000049
453.201752	1.000327
453.575562	1.000449
453.949311	1.001155
454.323001	0.999760
454.696632	0.999154
455.070202	1.000146
455.443713	0.999795
455.817164	1.000287
456.190556	1.000467
456.563888	0.999766
456.937160	1.000119
457.310373	0.999647
457.683526	1.000364
458.056619	1.000821
458.429653	1.001016
458.802628	0.999056
459.175542	1.000019
459.548398	0.999426
459.921194	0.999858
460.293930	1.000624
460.666607	0.999822
461.039224	0.998672
461.411782	0.999765
461.784280	0.999846
462.156719	1.001086
462.529099	1.000395
462.901419	1.000281
463.273680	1.000282
463.645882	1.000927
464.018024	0.999938
464.390106	1.000314
464.762130	1.000526
465.134094	1.000368
465.505999	1.001188
465.877845	1.001061
466.249631	1.000763
466.621358	0.999858
466.993026	1.000244
467.364634	0.999892
467.736184	1.000249
468.107674	0.999636
468.479105	0.999948
468.850477	1.000452
469.221790	1.000028
469.593043	1.000154
469.964238	1.000819
470.335373	1.000527
470.706449	0.999951
471.077467	1.000798
471.448425	0.999967
471.819324	1.000731
472.190164	1.000011
472.560945	1.000317
472.931667	1.000231
473.302330	0.999497
473.672934	1.000461
474.043479	1.000363
474.413965	1.000129
474.784393	1.000469
475.154761	1.000071
475.525070	0.999700
475.895321	1.000497
476.265513	0.999785
476.635645	0.999969
477.005719	1.000558
477.375734	1.000459
477.745691	1.000536
478.115588	1.000310
478.485427	1.000340
478.855207	0.999943
479.224928	1.000768
479.594591	1.000487
479.964194	1.000575
480.333739	1.000271
480.703226	1.000201
481.072653	1.000286
481.442022	1.000871
481.811333	0.999815
482.180584	1.000714
482.549777	0.999618
482.918912	1.000015
483.287988	1.000820
483.657005	0.999899
484.025964	1.000712
484.394864	1.000250
484.763706	1.000620
485.132489	1.000357
485.501213	0.999681
485.869879	1.000361
486.238487	1.001060
486.607036	1.000473
486.975527	1.000016
487.343959	1.000169
487.712333	0.999994
488.080648	1.000503
488.448905	1.000749
488.817104	1.000766
489.185244	1.000515
489.553326	1.000192
489.921350	0.999684
490.289315	1.000364
490.657222	1.000458
491.025070	1.000833
491.392861	1.001264
491.760593	1.000855
492.128267	1.000070
492.495883	0.999275
492.863440	1.000137
493.230939	1.000566
493.598380	1.000238
493.965763	1.000360
494.333088	1.000095
494.700354	0.999290
495.067563	0.999880
495.434713	1.000107
495.801805	1.000893
496.168839	1.000346
496.535815	0.999701
496.902733	1.000035
497.269593	0.999770
497.636395	1.000755
498.003139	1.000310
498.369825	1.001066
498.736453	1.000446
499.103023	0.999675
499.469535	0.999258
499.835989	0.999834
500.202385	1.000592
500.568723	1.000386
500.935003	1.000785
501.301226	1.000189
501.667390	0.999604
502.033497	1.000403
502.399546	1.000527
502.765537	0.999691
503.131470	1.000108
503.497345	0.999909
503.863163	1.000879
504.228923	1.000431
504.594625	1.000498
504.960269	1.001335
505.325856	0.999931
505.691385	1.000437
506.056856	1.000097
506.422270	1.000066
506.787625	1.000335
507.152924	1.000893
507.518164	0.999430
507.883347	1.000251
508.248472	0.999768
508.613540	1.000292
508.978550	0.999924
509.343503	0.999871
509.708398	1.000956
510.073236	1.000331
510.438016	1.000770
510.802738	1.000208
511.167403	1.000214
511.532010	0.999930
511.896561	1.000196
512.261053	1.001310
512.625488	1.000151
512.989866	1.000410
513.354186	0.999669
513.718449	1.000283
514.082655	0.999749
514.446803	0.999875
514.810894	1.001196
515.174927	0.999687
515.538904	0.999834
515.902822	1.000055
516.266684	1.000644
516.630488	1.000570
516.994235	0.999936
517.357925	1.000017
517.721558	1.000303
518.085133	0.999817
518.448651	1.001323
518.812112	1.000342
519.175516	1.000380
519.538863	1.000669
519.902152	0.999565
520.265385	1.000070
520.628560	1.000231
520.991678	1.000680
521.354739	1.000580
521.717743	1.000618
522.080690	1.000058
522.443580	1.000280
522.806413	1.000053
523.169189	1.000358
523.531908	0.999626
523.894569	1.000196
524.257174	1.001032
524.619722	1.000301
524.982213	1.000285
525.344647	1.000754
525.707025	0.999815
526.069345	1.000074
526.431608	0.999912
526.793815	1.000328
527.155964	1.000372
527.518057	1.000179
527.880093	1.000586
528.242072	1.000231
528.603995	0.999958
528.965860	1.001245
529.327669	0.999774
529.689421	1.000122
530.051117	1.000673
530.412755	0.999840
530.774337	1.000249
531.135862	1.000440
531.497331	1.000253
531.858743	1.000009
532.220098	1.000755
532.581396	1.000270
532.942638	1.000724
533.303824	1.000503
533.664953	1.000387
534.026025	0.999836
534.387040	0.999762
534.747999	1.000562
535.108902	1.000451
535.469748	0.999449
535.830537	1.000226
536.191270	0.999963
536.551947	1.000253
536.912567	1.000292
537.273131	1.000791
537.633638	0.999225
537.994089	0.999688
538.354483	1.000429
538.714821	1.000018
539.075103	1.000132
539.435328	0.999720
539.795497	0.999837
540.155609	0.999270
540.515665	1.000203
540.875665	0.999429
541.235609	0.999702
541.595496	0.999224
541.955328	0.999348
542.315102	0.999872
542.674821	0.999441
543.034483	0.999536
543.394090	0.999186
543.753640	1.000008
544.113134	1.000444
544.472571	1.000111
544.831953	1.000291
545.191278	0.999774
545.550548	1.000116
545.909761	0.998870
546.268918	0.999134
546.628019	1.000043
546.987064	0.998916
547.346053	0.999332
547.704986	0.999794
548.063863	1.000072
548.422684	0.999523
548.781449	0.999921
549.140158	0.999213
549.498811	0.999941
549.857408	0.999886
550.215949	0.998861
550.574434	0.999211
550.932864	0.999438
551.291237	0.999760
551.649555	0.999694
552.007817	0.999472
552.366022	0.999324
552.724173	0.999798
553.082267	0.999311
553.440305	0.999315
553.798288	0.999632
554.156215	0.999180
554.514086	0.999771
554.871902	0.999625
555.229661	0.999714
555.587365	0.999416
555.945014	1.000340
556.302606	0.999584
556.660143	0.999661
557.017625	0.999136
557.375050	0.999557
557.732421	0.999637
558.089735	0.999416
558.446994	1.000328
558.804197	1.000153
559.161345	0.999912
559.518437	1.000597
559.875474	0.999279
560.232455	0.998908
560.589381	0.999870
560.946251	0.999277
561.303065	0.999816
561.659825	0.999700
562.016528	0.999109
562.373177	0.999524
562.729770	0.999666
563.086307	0.999723
563.442789	0.999639
563.799216	1.000093
564.155587	0.999299
564.511904	0.999637
564.868164	0.999226
565.224370	0.999078
565.580520	0.999373
565.936615	0.999406
566.292654	0.999104
566.648638	0.999151
567.004567	0.999006
567.360441	0.999777
567.716260	0.999871
568.072023	1.000141
568.427732	0.999006
568.783385	0.999050
569.138982	0.999600
569.494525	0.999335
569.850013	0.999628
570.205445	0.999841
570.560823	0.998997
570.916145	0.998919
571.271412	0.999805
571.626625	0.999478
571.981782	0.999157
572.336884	0.999928
572.691931	0.999292
573.046923	0.998886
573.401860	0.999662
573.756743	0.999795
574.111570	1.000586
574.466342	1.000119
574.821059	1.000409
575.175722	0.999558
575.530330	1.000119
575.884882	0.999385
576.239380	1.000213
576.593823	0.999409
576.948211	0.999889
577.302544	0.999242
577.656823	0.999892
578.011047	0.999901
578.365216	0.999828
578.719330	0.999415
579.073389	1.000011
579.427394	0.999740
579.781344	0.999791
580.135239	0.999829
580.489080	0.999582
580.842866	0.999555
581.196597	0.999699
581.550273	0.998727
581.903895	0.999924
582.257463	0.999217
582.610975	0.999314
582.964434	0.999237
583.317837	1.000627
583.671186	0.999861
584.024481	0.999044
584.377721	0.999322
584.730906	0.999827
585.084037	0.999893
585.437113	0.999947
585.790135	0.999824
586.143103	0.999064
586.496016	0.999945
586.848874	0.999408
587.201679	0.999432
587.554428	0.999124
587.907124	1.000080
588.259765	0.999762
588.612352	1.000472
588.964884	1.000450
589.317362	1.000042
589.669786	1.000048
590.022155	0.999513
590.374470	1.000050
590.726731	0.999791
591.078937	0.998823
591.431090	0.999589
591.783188	0.999704
592.135232	0.999740
592.487222	0.999894
592.839157	0.999110
593.191038	0.999313
593.542866	0.999620
593.894639	1.000349
594.246358	0.999648
594.598022	0.999524
594.949633	1.000425
595.301190	0.999008
595.652692	0.999424
596.004141	0.999968
596.355535	0.999273
596.706876	0.999606
597.058162	0.999776
597.409395	1.000076
597.760573	0.999391
598.111698	0.998800
598.462768	0.999534
598.813785	0.999721
599.164748	0.999949
599.515657	0.999460
599.866511	0.999363
600.217312	0.999142
600.568060	0.999531
600.918753	0.999464
601.269392	0.999712
601.619978	0.999612
601.970510	0.999080
602.320988	0.999271
602.671412	0.998812
603.021783	0.999942
603.372100	1.000503
603.722363	1.000576
604.072572	0.999552
604.422728	0.999651
604.772830	0.999538
605.122878	0.999037
605.472872	1.000002
605.822813	0.999530
606.172701	0.999178
606.522534	0.999928
606.872314	0.999964
607.222041	0.999224
607.571714	1.000239
607.921333	0.999113
608.270899	0.999401
608.620411	0.999750
608.969870	0.999784
609.319276	0.998955
609.668627	0.999533
610.017926	0.999016
610.367171	0.999240
610.716362	0.998447
611.065500	0.999706
611.414585	0.999674
611.763616	0.999433
612.112594	0.999355
612.461518	0.999636
612.810389	0.999327
613.159207	0.999204
613.507971	0.999750
613.856682	0.999668
614.205340	0.999553
614.553945	0.998597
614.902496	0.999490
615.250994	0.999328
615.599439	0.999323
615.947830	0.999045
616.296169	0.998954
616.644454	0.998557
616.992686	0.999441
617.340864	0.998807
617.688990	0.999667
618.037063	0.999757
618.385082	0.999614
618.733048	0.999297
619.080961	0.999930
619.428821	0.999863
619.776628	0.999453
620.124382	0.998687
620.472083	0.998025
620.819731	0.999099
621.167326	0.998921
621.514868	0.998870
621.862357	0.998978
622.209793	0.999468
622.557176	0.998179
622.904506	0.999185
623.251783	0.998377
623.599007	0.999386
623.946179	0.998829
624.293297	0.998807
624.640363	0.998450
624.987376	0.997906
625.334336	0.999236
625.681243	0.999528
626.028097	0.999973
626.374899	0.999538
626.721647	0.998856
627.068343	0.999634
627.414987	0.998897
627.761577	0.998530
628.108115	0.999072
628.454600	0.999528
628.801032	0.998627
629.147412	0.999284
629.493739	0.998668
629.840014	0.998801
630.186236	0.998501
630.532405	0.998757
630.878521	0.998418
631.224585	0.998264
631.570597	0.998411
631.916556	0.999696
632.262462	0.998826
632.608316	0.998381
632.954117	0.998826
633.299866	0.998653
633.645562	0.998641
633.991206	0.998613
634.336797	0.998612
634.682336	0.998285
635.027823	0.999086
635.373257	0.998888
635.718639	0.998594
636.063968	0.998033
636.409245	0.997944
636.754470	0.998547
637.099642	0.999081
637.444762	0.998414
637.789829	0.998012
638.134845	0.997946
638.479808	0.998377
638.824719	0.998572
639.169577	0.997542
639.514383	0.997816
639.859137	0.998097
640.203839	0.998228
640.548489	0.997273
640.893086	0.997959
641.237632	0.998080
641.582125	0.997993
641.926566	0.996864
642.270955	0.997724
642.615292	0.998305
642.959576	0.997978
643.303809	0.997869
643.647990	0.997521
643.992118	0.997912
644.336195	0.998005
644.680219	0.997749
645.024192	0.997352
645.368112	0.998018
645.711981	0.997332
646.055797	0.997689
646.399562	0.997086
646.743274	0.995660
647.086935	0.997289
647.430544	0.996669
647.774101	0.996787
648.117606	0.997245
648.461059	0.996214
648.804460	0.996053
649.147810	0.996781
649.491108	0.996824
649.834354	0.996364
650.177548	0.996759
650.520690	0.996521
650.863781	0.996580
651.206820	0.997094
651.549807	0.996571
651.892742	0.995803
652.235626	0.996298
652.578458	0.995735
652.921238	0.995816
653.263967	0.996418
653.606644	0.996042
653.949269	0.994931
654.291843	0.995316
654.634365	0.994870
654.976836	0.995030
655.319255	0.994949
655.661622	0.995098
656.003938	0.994741
656.346203	0.995392
656.688416	0.995324
657.030577	0.995447
657.372687	0.994407
657.714746	0.994390
658.056753	0.994758
658.398708	0.994125
658.740612	0.994723
659.082465	0.994267
659.424266	0.993487
659.766016	0.993315
660.107715	0.992747
660.449362	0.993417
660.790958	0.993636
661.132503	0.992029
661.473996	0.993183
661.815438	0.992918
662.156829	0.992638
662.498168	0.992607
662.839456	0.991833
663.180693	0.992374
663.521879	0.992729
663.863013	0.992973
664.204097	0.992433
664.545129	0.991476
664.886110	0.991869
665.227040	0.990920
665.567918	0.990516
665.908746	0.990062
666.249522	0.989736
666.590248	0.989892
666.930922	0.990812
667.271545	0.989501
667.612118	0.989124
667.952639	0.989197
668.293109	0.987676
668.633528	0.989017
668.973896	0.988461
669.314213	0.988231
669.654480	0.988088
669.994695	0.987290
670.334859	0.987991
670.674973	0.986793
671.015035	0.987486
671.355047	0.985643
671.695008	0.985701
672.034918	0.985786
672.374777	0.985387
672.714585	0.985019
673.054342	0.985626
673.394049	0.984758
673.733705	0.984448
674.073310	0.983476
674.412864	0.984665
674.752368	0.983629
675.091820	0.983787
675.431223	0.984345
675.770574	0.982687
676.109875	0.982035
676.449125	0.983824
676.788324	0.982417
677.127473	0.982579
677.466571	0.982073
677.805619	0.982251
678.144616	0.981716
678.483562	0.981056
678.822458	0.980984
679.161303	0.982055
679.500098	0.980920
679.838842	0.981849
680.177535	0.980660
680.516179	0.980065
680.854771	0.980030
681.193314	0.978713
681.531805	0.978589
681.870247	0.976227
682.208638	0.974298
682.546978	0.974570
682.885268	0.974038
683.223508	0.974639
683.561697	0.973520
683.899836	0.974410
684.237925	0.974628
684.575963	0.972810
684.913951	0.973202
685.251889	0.972562
685.589776	0.971764
685.927614	0.972582
686.265401	0.970095
686.603137	0.969341
686.940824	0.968376
687.278460	0.968518
687.616046	0.966491
687.953582	0.965414
688.291068	0.965954
688.628504	0.964408
688.965889	0.963384
689.303224	0.964120
689.640510	0.964462
689.977745	0.963962
690.314930	0.964831
690.652065	0.964634
690.989150	0.965866
691.326185	0.965491
691.663170	0.965167
692.000105	0.965657
692.336990	0.965123
692.673825	0.965063
693.010610	0.965663
693.347345	0.965834
693.684030	0.964651
694.020665	0.965681
694.357251	0.965561
694.693786	0.965859
695.030272	0.966352
695.366707	0.964765
695.703093	0.965091
696.039429	0.963907
696.375716	0.962082
696.711952	0.962473
697.048139	0.964913
697.384276	0.963272
697.720363	0.961729
698.056400	0.960320
698.392388	0.961541
698.728326	0.962683
699.064214	0.963068
699.400053	0.962243
699.735842	0.960456
700.071581	0.961936
700.407270	0.961500
700.742910	0.960942
701.078501	0.962007
701.414042	0.959896
701.749533	0.959086
702.084974	0.962049
702.420366	0.959108
702.755709	0.958859
703.091002	0.961380
703.426246	0.958864
703.761440	0.960999
704.096584	0.960222
704.431679	0.957505
704.766725	0.958092
705.101721	0.958354
705.436668	0.956129
705.771565	0.958285
706.106413	0.957999
706.441212	0.955027
706.775961	0.953157
707.110661	0.956346
707.445311	0.955466
707.779913	0.952587
708.114465	0.952553
708.448967	0.952280
708.783421	0.949955
709.117825	0.948372
709.452180	0.948245
709.786485	0.947270
710.120742	0.945671
710.454949	0.945690
710.789107	0.944245
711.123216	0.941028
711.457275	0.942462
711.791286	0.938138
712.125247	0.936754
712.459159	0.940971
712.793023	0.941488
713.126837	0.937459
713.460602	0.936023
713.794318	0.939900
714.127985	0.937559
714.461602	0.938793
714.795171	0.939896
715.128691	0.940217
715.462162	0.939609
715.795584	0.939320
716.128957	0.940056
716.462281	0.943028
716.795556	0.942077
717.128782	0.940420
717.461960	0.942106
717.795088	0.940827
718.128167	0.941903
718.461198	0.944504
718.794180	0.944213
719.127113	0.942344
719.459997	0.942424
719.792833	0.943863
720.125619	0.944522
720.458357	0.944489
720.791046	0.943186
721.123686	0.942459
721.456278	0.944675
721.788821	0.943719
722.121315	0.942773
722.453761	0.944685
722.786158	0.941216
723.118506	0.940748
723.450805	0.944055
723.783056	0.942319
724.115259	0.939221
724.447412	0.939161
724.779518	0.940947
725.111574	0.939050
725.443582	0.938468
725.775542	0.937502
726.107453	0.935447
726.439315	0.934926
726.771129	0.935898
727.102895	0.934889
727.434612	0.930799
727.766281	0.930271
728.097901	0.931604
728.429473	0.931988
728.760996	0.929533
729.092471	0.929693
729.423897	0.929926
729.755276	0.928345
730.086606	0.929190
730.417887	0.928887
730.749120	0.925353
731.080305	0.920792
731.411442	0.920153
731.742530	0.923533
732.073570	0.921349
732.404562	0.918333
732.735506	0.918911
733.066401	0.918114
733.397249	0.921437
733.728048	0.923210
734.058798	0.923713
734.389501	0.925488
734.720156	0.928473
735.050762	0.930250
735.381320	0.927431
735.711831	0.931639
736.042293	0.931730
736.372707	0.928808
736.703073	0.929930
737.033391	0.932228
737.363661	0.929925
737.693883	0.927476
738.024056	0.927628
738.354182	0.929146
738.684260	0.925650
739.014290	0.924209
739.344272	0.924810
739.674207	0.922104
740.004093	0.922604
740.333931	0.922809
740.663722	0.920454
740.993464	0.919997
741.323159	0.921302
741.652806	0.922040
741.982405	0.921749
742.311956	0.921539
742.641460	0.922701
742.970915	0.922189
743.300323	0.923711
743.629683	0.926339
743.958996	0.926806
744.288260	0.925721
744.617477	0.926626
744.946647	0.927309
745.275768	0.926968
745.604842	0.924877
745.933869	0.930212
746.262847	0.928886
746.591778	0.924098
746.920662	0.926895
747.249498	0.930251
747.578286	0.925538
747.907027	0.924162
748.235720	0.928369
748.564365	0.923876
748.892963	0.921071
749.221514	0.922416
749.550017	0.925788
749.878473	0.923816
750.206881	0.925671
750.535242	0.925558
750.863555	0.926316
751.191821	0.924384
751.520039	0.926753
751.848210	0.928299
752.176334	0.923182
752.504411	0.921422
752.832440	0.925105
753.160421	0.928110
753.488356	0.925656
753.816243	0.922724
754.144082	0.927749
754.471875	0.928491
754.799620	0.925511
755.127318	0.926780
755.454969	0.924968
755.782572	0.923771
756.110129	0.927675
756.437638	0.927950
756.765100	0.925299
757.092515	0.924978
757.419882	0.923025
757.747203	0.926505
758.074477	0.926401
758.401703	0.924078
758.728882	0.922017
759.056014	0.920503
759.383099	0.921533
759.710138	0.923657
760.037129	0.922793
760.364073	0.917488
760.690970	0.917397
761.017820	0.921223
761.344623	0.919988
761.671379	0.916304
761.998088	0.910012
762.324751	0.903485
762.651366	0.894075
762.977935	0.877833
763.304456	0.860314
763.630931	0.850937
763.957359	0.863088
764.283740	0.877388
764.610074	0.882121
764.936362	0.888763
765.262602	0.898070
765.588796	0.905400
765.914943	0.910860
766.241044	0.917477
766.567097	0.918125
766.893104	0.920033
767.219064	0.921881
767.544978	0.923908
767.870845	0.929573
768.196665	0.931260
768.522438	0.927527
768.848165	0.926597
769.173846	0.930682
769.499479	0.933379
769.825066	0.934087
770.150607	0.935634
770.476101	0.931354
770.801548	0.931039
771.126949	0.936995
771.452303	0.937757
771.777611	0.936374
772.102872	0.935329
772.428087	0.936798
772.753256	0.937294
773.078378	0.939394
773.403453	0.942329
773.728482	0.944155
774.053465	0.939165
774.378401	0.941560
774.703291	0.945332
775.028135	0.944245
775.352932	0.945253
775.677683	0.945299
776.002388	0.944555
776.327046	0.943631
776.651658	0.946161
776.976224	0.946165
777.300743	0.945986
777.625216	0.947632
777.949643	0.947888
778.274024	0.949820
778.598359	0.947759
778.922647	0.948592
779.246889	0.947182
779.571086	0.949301
779.895236	0.949928
780.219339	0.948637
780.543397	0.946900
780.867409	0.945628
781.191374	0.947628
781.515294	0.947465
781.839167	0.946575
782.162995	0.949072
782.486776	0.947044
782.810511	0.947029
783.134201	0.948079
783.457844	0.945942
783.781441	0.946562
784.104993	0.950178
784.428498	0.951114
784.751958	0.947928
785.075372	0.948497
785.398739	0.949805
785.722061	0.949305
786.045337	0.945131
786.368568	0.948651
786.691752	0.950115
787.014891	0.942310
787.337983	0.939347
787.661030	0.939997
787.984031	0.934059
788.306987	0.927067
788.629897	0.928012
788.952760	0.927547
789.275579	0.928068
789.598351	0.934794
789.921078	0.939049
790.243759	0.939411
790.566395	0.940511
790.888984	0.944453
791.211529	0.945575
791.534027	0.946900
791.856480	0.946586
792.178888	0.950482
792.501249	0.952288
792.823566	0.950821
793.145836	0.950497
793.468062	0.951732
793.790241	0.952499
794.112375	0.950388
794.434464	0.947911
794.756507	0.948542
795.078505	0.950208
795.400457	0.947429
795.722364	0.942594
796.044226	0.938573
796.366042	0.940285
796.687812	0.941631
797.009538	0.937426
797.331218	0.938834
797.652852	0.940904
797.974442	0.942876
798.295986	0.941380
798.617484	0.942741
798.938938	0.943941
799.260346	0.946524
799.581709	0.947498
799.903026	0.948509
800.224299	0.947956
800.545526	0.950058
800.866708	0.951827
801.187845	0.954739
801.508936	0.953748
801.829983	0.951901
802.150984	0.952627
802.471940	0.956092
802.792851	0.954589
803.113717	0.955706
803.434538	0.953983
803.755314	0.954741
804.076045	0.955204
804.396731	0.955401
804.717372	0.955473
805.037967	0.956765
805.358518	0.955505
805.679024	0.953982
805.999485	0.953576
806.319901	0.955353
806.640272	0.955491
806.960598	0.954237
807.280879	0.952047
807.601115	0.952483
807.921306	0.954869
808.241453	0.954015
808.561554	0.952857
808.881611	0.953084
809.201623	0.953730
809.521590	0.952706
809.841513	0.953456
810.161390	0.952722
810.481223	0.952825
810.801011	0.954950
811.120755	0.956712
811.440453	0.954347
811.760107	0.952740
812.079716	0.951176
812.399281	0.953421
812.718801	0.955938
813.038276	0.956326
813.357707	0.955024
813.677093	0.952118
813.996434	0.955216
814.315731	0.956183
814.634983	0.956068
814.954191	0.954111
815.273354	0.953382
815.592473	0.950296
815.911547	0.951160
816.230577	0.949769
816.549562	0.949249
816.868502	0.950639
817.187399	0.947152
817.506250	0.942895
817.825058	0.945235
818.143821	0.942712
818.462539	0.938786
818.781213	0.935497
819.099843	0.929182
819.418429	0.922841
819.736970	0.915233
820.055466	0.905865
820.373919	0.889800
820.692327	0.871632
821.010691	0.856564
821.329011	0.828991
821.647286	0.795762
821.965517	0.758906
822.283704	0.743094
822.601847	0.739392
822.919945	0.744201
823.237999	0.739195
823.556010	0.748784
823.873976	0.770764
824.191897	0.792476
824.509775	0.809282
824.827609	0.833093
825.145398	0.844226
825.463144	0.846093
825.780845	0.836558
826.098502	0.830503
826.416116	0.812749
826.733685	0.796121
827.051210	0.792273
827.368692	0.792637
827.686129	0.803150
828.003522	0.827805
828.320872	0.851368
828.638177	0.874440
828.955439	0.893062
829.272656	0.902495
829.589830	0.912624
829.906960	0.920782
830.224046	0.927252
830.541088	0.932344
830.858086	0.934901
831.175041	0.938939
831.491952	0.936864
831.808819	0.934956
832.125642	0.930976
832.442421	0.921219
832.759157	0.912707
833.075849	0.890967
833.392497	0.858265
833.709101	0.834170
834.025662	0.839450
834.342179	0.854092
834.658653	0.873068
834.975083	0.892009
835.291469	0.903948
835.607811	0.916699
835.924110	0.925795
836.240366	0.935708
836.556578	0.944606
836.872746	0.947858
837.188871	0.951369
837.504952	0.955461
837.820990	0.956899
838.136984	0.958748
838.452935	0.959465
838.768842	0.961809
839.084706	0.957153
839.400526	0.943114
839.716303	0.923477
840.032037	0.912164
840.347727	0.911964
840.663373	0.921004
840.978977	0.931010
841.294537	0.944154
841.610054	0.953988
841.925527	0.957865
842.240957	0.960357
842.556344	0.966484
842.871687	0.968929
843.186987	0.972687
843.502244	0.970649
843.817458	0.971018
844.132629	0.973911
844.447756	0.977305
844.762840	0.977402
845.077881	0.976200
845.392879	0.974932
845.707833	0.978120
846.022745	0.979911
846.337613	0.979376
846.652438	0.980675
846.967221	0.980313
847.281960	0.978988
847.596656	0.980701
847.911309	0.979649
848.225919	0.981737
848.540485	0.980539
848.855009	0.982676
849.169490	0.982007
849.483928	0.982085
849.798323	0.982372
850.112675	0.983014
850.426984	0.981836
850.741251	0.982637
851.055474	0.982414
851.369654	0.980911
851.683792	0.982495
851.997887	0.983337
852.311938	0.982766
852.625947	0.982405
852.939914	0.980860
853.253837	0.982100
853.567718	0.982935
853.881555	0.982659
854.195350	0.980631
854.509103	0.981734
854.822812	0.982583
855.136479	0.981446
855.450103	0.982668
855.763685	0.980692
856.077224	0.980835
856.390720	0.982353
856.704173	0.983122
857.017584	0.981213
857.330953	0.979110
857.644278	0.981300
857.957561	0.981729
858.270802	0.980351
858.584000	0.980623
858.897155	0.979760
859.210268	0.980855
859.523339	0.980521
859.836367	0.981383
860.149352	0.982559
860.462295	0.980207
860.775195	0.981733
861.088054	0.981168
861.400869	0.980990
861.713642	0.981852
862.026373	0.982494
862.339062	0.983189
862.651708	0.979997
862.964312	0.980107
863.276873	0.982517
863.589392	0.981774
863.901869	0.979407
864.214303	0.979404
864.526696	0.978405
864.839045	0.978176
865.151353	0.976072
865.463619	0.977200
865.775842	0.977168
866.088023	0.976896
866.400162	0.977572
866.712258	0.976187
867.024313	0.976643
867.336325	0.977086
867.648296	0.978628
867.960224	0.976161
868.272110	0.975265
868.583954	0.977159
868.895755	0.976857
869.207515	0.976026
869.519233	0.974295
869.830909	0.975451
870.142542	0.976407
870.454134	0.976127
870.765684	0.975399
871.077191	0.973612
871.388657	0.974633
871.700081	0.972675
872.011463	0.973696
872.322803	0.974510
872.634101	0.973251
872.945357	0.972411
873.256571	0.971024
873.567744	0.971073
873.878874	0.970488
874.189963	0.969500
874.501010	0.969846
874.812015	0.967893
875.122979	0.969480
875.433900	0.971106
875.744780	0.972341
876.055618	0.968579
876.366415	0.967426
876.677169	0.967317
876.987882	0.969229
877.298554	0.969450
877.609183	0.966387
877.919771	0.964498
878.230317	0.962872
878.540822	0.960080
878.851285	0.956892
879.161707	0.951772
879.472087	0.943922
879.782425	0.932780
880.092722	0.911028
880.402977	0.878838
880.713191	0.851232
881.023363	0.830475
881.333494	0.819051
881.643583	0.798467
881.953631	0.789632
882.263637	0.801512
882.573602	0.822250
882.883526	0.831973
883.193408	0.843397
883.503248	0.854235
883.813048	0.870658
884.122806	0.888381
884.432522	0.903706
884.742197	0.916809
885.051831	0.922782
885.361424	0.928174
885.670975	0.937111
885.980485	0.943003
886.289954	0.946500
886.599382	0.950362
886.908768	0.953173
887.218113	0.957488
887.527417	0.960641
887.836680	0.961558
888.145901	0.962357
888.455082	0.964462
888.764221	0.967343
889.073319	0.967900
889.382376	0.968703
889.691392	0.968818
890.000366	0.967143
890.309300	0.968982
890.618193	0.969452
890.927044	0.969247
891.235855	0.968073
891.544625	0.967949
891.853353	0.968291
892.162041	0.967160
892.470687	0.962149
892.779293	0.959745
893.087858	0.956554
893.396381	0.952635
893.704864	0.944224
894.013306	0.928062
894.321707	0.911199
894.630068	0.902025
894.938387	0.898201
895.246665	0.898069
895.554903	0.904760
895.863100	0.913241
896.171256	0.924377
896.479371	0.938411
896.787446	0.946751
897.095480	0.949736
897.403473	0.952530
897.711425	0.953801
898.019336	0.960519
898.327207	0.962547
898.635038	0.963223
898.942827	0.963981
899.250576	0.965704
899.558284	0.967877
899.865952	0.969990
900.173579	0.970897
900.481165	0.970470
900.788711	0.973897
901.096216	0.974073
901.403681	0.973378
901.711105	0.976188
902.018489	0.975992
902.325832	0.974925
902.633135	0.974524
902.940397	0.970917
903.247619	0.962964
903.554800	0.947911
903.861941	0.922490
904.169041	0.900154
904.476101	0.889821
904.783121	0.888569
905.090100	0.898084
905.397039	0.910924
905.703938	0.924955
906.010796	0.937846
906.317614	0.950051
906.624391	0.956647
906.931129	0.963206
907.237826	0.968476
907.544483	0.974212
907.851099	0.975603
908.157675	0.980721
908.464211	0.980772
908.770707	0.982769
909.077163	0.983485
909.383578	0.983647
909.689954	0.984622
909.996289	0.984643
910.302584	0.986938
910.608839	0.987580
910.915054	0.986353
911.221229	0.986198
911.527363	0.984521
911.833458	0.986237
912.139513	0.985472
912.445527	0.983517
912.751502	0.983531
913.057436	0.982725
913.363331	0.980717
913.669186	0.978131
913.975000	0.975426
914.280775	0.971830
914.586510	0.967221
914.892205	0.959458
915.197859	0.945466
915.503475	0.925993
915.809050	0.913611
916.114585	0.911127
916.420081	0.910555
916.725536	0.906180
917.030952	0.910142
917.336328	0.918413
917.641665	0.929291
917.946961	0.939233
918.252218	0.947074
918.557435	0.952582
918.862612	0.959274
919.167750	0.961770
919.472848	0.965067
919.777906	0.969785
920.082925	0.973273
920.387904	0.976265
920.692843	0.976279
920.997743	0.976133
921.302603	0.979246
921.607423	0.980171
921.912204	0.982053
922.216946	0.982686
922.521647	0.983006
922.826310	0.984187
923.130932	0.985500
923.435516	0.986144
923.740059	0.987166
924.044564	0.986922
924.349028	0.987752
924.653454	0.988940
924.957840	0.991724
925.262186	0.990952
925.566493	0.989902
925.870761	0.990500
926.174989	0.992222
926.479178	0.992902
926.783328	0.993830
927.087438	0.992923
927.391509	0.993171
927.695541	0.994153
927.999533	0.994580
928.303486	0.994611
928.607400	0.996900
928.911275	0.993938
929.215110	0.994856
929.518906	0.995201
929.822663	0.994624
930.126381	0.995997
930.430060	0.994651
930.733699	0.995347
931.037299	0.993832
931.340861	0.995626
931.644383	0.994269
931.947866	0.994317
932.251309	0.995158
932.554714	0.995555
932.858080	0.995484
933.161407	0.995397
933.464694	0.995024
933.767943	0.994507
934.071153	0.995966
934.374323	0.995862
934.677455	0.994803
934.980548	0.994703
935.283602	0.994634
935.586617	0.995679
935.889593	0.994379
936.192530	0.994815
936.495428	0.995406
936.798287	0.994238
937.101108	0.994175
937.403890	0.993554
937.706632	0.994547
938.009336	0.992122
938.312002	0.992579
938.614628	0.990333
938.917216	0.989622
939.219765	0.987766
939.522275	0.990148
939.824747	0.990104
940.127179	0.989677
940.429573	0.991379
940.731929	0.989839
941.034246	0.991045
941.336524	0.991380
941.638763	0.991761
941.940964	0.991385
942.243126	0.992610
942.545250	0.992185
942.847335	0.994164
943.149381	0.993665
943.451389	0.992941
943.753359	0.992848
944.055290	0.995300
944.357182	0.995085
944.659036	0.993376
944.960851	0.994613
945.262628	0.994381
945.564367	0.994751
945.866067	0.994526
946.167729	0.994568
946.469352	0.994227
946.770937	0.993536
947.072484	0.996242
947.373992	0.994759
947.675462	0.994043
947.976893	0.993867
948.278286	0.995404
948.579641	0.996308
948.880958	0.995670
949.182236	0.995559
949.483476	0.995934
949.784678	0.993933
950.085841	0.996333
950.386967	0.995445
950.688054	0.994466
950.989103	0.996188
951.290114	0.993278
951.591087	0.994236
951.892021	0.993901
952.192917	0.993007
952.493776	0.992819
952.794596	0.993316
953.095378	0.992559
953.396122	0.993314
953.696828	0.992222
953.997496	0.993962
954.298126	0.995604
954.598718	0.994702
954.899272	0.995661
955.199788	0.993943
955.500266	0.996402
955.800706	0.997110
956.101108	0.996187
956.401472	0.998243
956.701798	0.996833
957.002087	0.996121
957.302337	0.996978
957.602550	0.997450
957.902724	0.998125
958.202861	0.998294
958.502960	0.999475
958.803022	0.996564
959.103045	0.997954
959.403031	0.997957
959.702979	0.996941
960.002889	0.998693
960.302762	0.997419
960.602596	0.998123
960.902393	0.998475
961.202153	0.999908
961.501875	0.999406
961.801559	0.998382
962.101205	0.998188
962.400814	0.998877
962.700385	0.998106
962.999918	0.999328
963.299414	0.998554
963.598873	0.998938
963.898293	0.997924
964.197677	0.998436
964.497022	0.998498
964.796331	1.000520
965.095601	0.998329
965.394835	0.998689
965.694030	0.998575
965.993189	0.999229
966.292309	0.999370
966.591393	0.999807
966.890439	1.000018
967.189447	0.998262
967.488419	0.998998
967.787353	0.998225
968.086249	0.998183
968.385108	0.998543
968.683930	0.999297
968.982714	0.998781
969.281462	0.999702
969.580172	0.999275
969.878844	0.999243
970.177480	0.998439
970.476078	0.999163
970.774639	0.999044
971.073162	0.999999
971.371649	0.997685
971.670098	0.997795
971.968510	0.999495
972.266885	0.997175
972.565223	0.997669
972.863524	0.997574
973.161788	0.998737
973.460014	0.999535
973.758204	0.997811
974.056356	0.997039
974.354471	0.996783
974.652550	0.999064
974.950591	0.998657
975.248595	0.998782
975.546563	0.999239
975.844493	1.000049
976.142386	0.997837
976.440243	0.999217
976.738062	0.999429
977.035845	1.001300
977.333590	0.998953
977.631299	0.999211
977.928971	0.997545
978.226606	0.998996
978.524204	0.997286
978.821765	1.000296
979.119290	0.997917
979.416777	0.998277
979.714228	0.999408
980.011642	0.997529
980.309020	0.999056
980.606360	0.999093
980.903664	0.998921
981.200931	0.997659
981.498162	0.997458
981.795356	0.997272
982.092513	0.997148
982.389633	0.996687
982.686717	0.994644
982.983764	0.995893
983.280775	0.994382
983.577749	0.994795
983.874686	0.995970
984.171587	0.994663
984.468451	0.996986
984.765279	0.998767
985.062070	0.997540
985.358824	0.996105
985.655543	0.997291
985.952224	0.999131
986.248869	0.999235
986.545478	0.998580
986.842050	0.999963
987.138586	0.997092
987.435086	0.998122
987.731549	0.999754
988.027975	0.999358
988.324366	0.999093
988.620719	0.998983
988.917037	0.997825
989.213318	0.999738
989.509563	1.000091
989.805772	0.999434
990.101944	0.998950
990.398080	0.999486
990.694180	0.999213
990.990244	0.998559
991.286271	1.000001
991.582262	0.999438
991.878217	0.998163
992.174136	1.000176
992.470019	0.999574
992.765865	0.999539
993.061676	0.999071
993.357450	0.999220
993.653188	0.998386
993.948890	0.999047
994.244556	0.999810
994.540186	0.999115
994.835780	0.997845
995.131337	0.999652
995.426859	0.997171
995.722345	1.000450
996.017795	0.997687
996.313208	0.997564
996.608586	0.997195
996.903928	0.998723
997.199234	0.997627
997.494504	0.997727
997.789738	0.997026
998.084936	0.999121
998.380099	0.998848
998.675225	0.999363
998.970316	1.000024
999.265371	0.999524
999.560390	0.999446
999.855373	0.999392
1000.150320	0.999787
1000.445232	1.000718
1000.740108	0.998941
1001.034948	0.999310
1001.329752	1.000303
1001.624521	0.999776
1001.919254	0.999604
1002.213951	0.998977
1002.508613	0.999556
1002.803239	1.000193
1003.097829	1.000189
1003.392384	0.999634
1003.686903	0.998296
1003.981386	1.000101
1004.275834	0.999866
1004.570246	1.000044
1004.864623	1.000127
1005.158964	1.000285
1005.453270	1.000010
1005.747540	0.998406
1006.041775	1.000377
1006.335974	1.000130
1006.630138	0.999655
1006.924266	0.999303
1007.218359	1.000646
1007.512416	1.000176
1007.806438	0.999399
1008.100425	0.999988
1008.394376	1.000249
1008.688292	0.999163
1008.982172	1.000925
1009.276017	0.999910
1009.569827	0.999620
1009.863602	0.999506
1010.157341	0.999261
1010.451045	0.998550
1010.744714	0.999646
1011.038347	0.999747
1011.331945	1.000355
1011.625508	0.999114
1011.919036	0.999023
1012.212528	0.999571
1012.505986	0.997805
1012.799408	0.999185
1013.092795	0.999676
1013.386147	1.000539
1013.679464	0.999255
1013.972745	1.000158
1014.265992	0.999295
1014.559204	0.999186
1014.852380	0.999644
1015.145521	1.000870
1015.438628	1.000209
1015.731699	0.999922
1016.024736	1.000388
1016.317737	0.999759
1016.610703	0.999449
1016.903635	1.000145
1017.196531	0.999576
1017.489393	0.999616
1017.782219	0.998786
1018.075011	0.999341
1018.367768	1.000889
1018.660490	1.000565
1018.953177	1.000565
1019.245829	1.000565
