Dividing Wavelength (nm)	Counts (n)	Blue Motor Position (mm): 0.000000	Red Motor Position (mm): 40.700000	
326.493990	1.000445
326.888308	1.000445
327.282561	1.000445
327.676750	0.999384
328.070874	0.999133
328.464933	0.999535
328.858929	0.999168
329.252859	0.999392
329.646726	0.998704
330.040528	0.999937
330.434265	0.999235
330.827938	1.000755
331.221547	1.001328
331.615091	0.999485
332.008571	0.998944
332.401986	0.999925
332.795338	1.001316
333.188625	0.998263
333.581847	1.000432
333.975006	1.000278
334.368100	0.999736
334.761129	0.998863
335.154095	1.000894
335.546996	0.999142
335.939833	0.996839
336.332606	0.998509
336.725315	0.998031
337.117960	0.999494
337.510540	0.997130
337.903056	0.998624
338.295508	0.997251
338.687896	0.997583
339.080220	0.996974
339.472480	0.998310
339.864676	0.996954
340.256807	0.997205
340.648875	0.998046
341.040879	0.998046
341.432818	0.998607
341.824694	0.997120
342.216506	0.998076
342.608253	0.998290
342.999937	0.997232
343.391557	0.998067
343.783113	0.997716
344.174605	0.997903
344.566033	0.998183
344.957397	0.996504
345.348697	0.997910
345.739934	0.996995
346.131106	0.997256
346.522215	0.996753
346.913260	0.996822
347.304241	0.998403
347.695159	0.998680
348.086012	0.998243
348.476802	0.998444
348.867528	0.997978
349.258191	0.995272
349.648789	0.997813
350.039324	0.997159
350.429796	0.998117
350.820203	0.998100
351.210548	0.999525
351.600828	0.997419
351.991045	0.998137
352.381198	0.996818
352.771288	0.996853
353.161314	0.997447
353.551276	0.999068
353.941175	0.998587
354.331010	0.997555
354.720782	0.996884
355.110490	0.997993
355.500135	0.998528
355.889717	0.997102
356.279235	0.997605
356.668689	0.997646
357.058080	0.997737
357.447408	0.998842
357.836672	0.998596
358.225873	0.998707
358.615010	0.998054
359.004084	0.998819
359.393095	0.997152
359.782043	0.997537
360.170927	0.998277
360.559748	0.999102
360.948505	0.997259
361.337199	0.997709
361.725830	0.998994
362.114398	0.998065
362.502903	0.999227
362.891344	0.998928
363.279722	0.997692
363.668037	0.997937
364.056289	0.997922
364.444478	0.999178
364.832603	0.998511
365.220665	0.997439
365.608665	0.997866
365.996601	0.998482
366.384474	0.998374
366.772284	0.997019
367.160031	0.997151
367.547715	0.997256
367.935336	0.997651
368.322893	0.998304
368.710388	0.997337
369.097820	0.998901
369.485189	0.998575
369.872495	0.997158
370.259738	0.995763
370.646918	0.998261
371.034035	0.998778
371.421090	0.996840
371.808081	0.997267
372.195010	0.999063
372.581875	0.997474
372.968678	0.997696
373.355418	0.999004
373.742096	0.997758
374.128710	0.999026
374.515262	0.997791
374.901751	0.997121
375.288177	0.997594
375.674540	0.998714
376.060841	0.997800
376.447079	0.997929
376.833254	0.998561
377.219367	0.997741
377.605417	0.998098
377.991404	0.998832
378.377329	0.997876
378.763191	0.998236
379.148991	0.998662
379.534727	0.998906
379.920402	0.998061
380.306013	0.999350
380.691563	0.998949
381.077049	0.997023
381.462474	0.997641
381.847835	0.998532
382.233134	0.998113
382.618371	0.999682
383.003545	0.997753
383.388657	0.998352
383.773706	0.999349
384.158693	0.999399
384.543618	0.998482
384.928480	0.998526
385.313280	0.998492
385.698017	0.999556
386.082692	0.999322
386.467305	0.998874
386.851856	0.998505
387.236344	0.998053
387.620770	0.997592
388.005133	0.998964
388.389435	0.999705
388.773674	0.997740
389.157851	0.999123
389.541965	0.999349
389.926018	0.997907
390.310008	0.999654
390.693936	0.998786
391.077802	0.998969
391.461606	0.999074
391.845348	0.999482
392.229027	0.999249
392.612645	0.998941
392.996200	1.000850
393.379694	0.998953
393.763125	1.000031
394.146494	0.999343
394.529801	0.999094
394.913047	1.000086
395.296230	1.000072
395.679351	0.999750
396.062410	0.999353
396.445408	0.999546
396.828343	0.999398
397.211217	0.998647
397.594028	0.999082
397.976778	0.998780
398.359466	0.998452
398.742092	0.999142
399.124656	0.999440
399.507158	1.000022
399.889598	0.999732
400.271977	1.000245
400.654294	0.999495
401.036549	0.999702
401.418742	1.000073
401.800874	0.999089
402.182944	0.998859
402.564952	0.998563
402.946898	0.999934
403.328783	0.999543
403.710606	0.999227
404.092367	0.999235
404.474067	0.999563
404.855705	0.998354
405.237282	0.999441
405.618797	0.998868
406.000250	0.998561
406.381642	0.999552
406.762972	0.999304
407.144240	1.000213
407.525447	1.000364
407.906593	0.999546
408.287677	1.000004
408.668700	1.000570
409.049661	0.998562
409.430560	0.999606
409.811399	0.998968
410.192176	0.999585
410.572891	0.999112
410.953545	0.998956
411.334138	0.997409
411.714669	0.998952
412.095139	0.999721
412.475547	1.000240
412.855894	1.000106
413.236180	0.999906
413.616405	1.000171
413.996568	1.000559
414.376670	0.999153
414.756711	0.999249
415.136691	0.999589
415.516609	0.999136
415.896466	0.999738
416.276262	0.997998
416.655997	0.999704
417.035670	0.999657
417.415283	0.999730
417.794834	0.999044
418.174324	0.999782
418.553753	1.000410
418.933121	0.998781
419.312428	0.999506
419.691674	0.998902
420.070859	1.000119
420.449983	0.999783
420.829045	0.999108
421.208047	1.000929
421.586988	1.000575
421.965867	0.999434
422.344686	1.000646
422.723444	0.999474
423.102141	0.999788
423.480777	1.000049
423.859352	0.999729
424.237866	0.999582
424.616319	1.000153
424.994712	0.999799
425.373044	1.000086
425.751314	0.999764
426.129524	0.999111
426.507673	0.999023
426.885762	1.000851
427.263789	1.000059
427.641756	0.999791
428.019662	1.000367
428.397508	0.999276
428.775292	0.998189
429.153016	0.999843
429.530679	0.999980
429.908282	1.000740
430.285824	0.999909
430.663305	0.999653
431.040726	0.999669
431.418086	1.000868
431.795385	0.999655
432.172624	0.999382
432.549802	1.000617
432.926920	1.000170
433.303977	0.999534
433.680974	1.000570
434.057910	0.999613
434.434786	1.000621
434.811601	0.999929
435.188355	0.999692
435.565050	0.999685
435.941683	1.000022
436.318257	1.001191
436.694770	0.999432
437.071222	1.000778
437.447614	1.000912
437.823946	1.000104
438.200218	1.000009
438.576429	1.000521
438.952580	1.000738
439.328670	0.999991
439.704700	1.000404
440.080670	1.000922
440.456580	0.999905
440.832429	0.999264
441.208218	1.000496
441.583947	0.999781
441.959616	0.999912
442.335224	0.999279
442.710773	1.001122
443.086261	0.999449
443.461689	1.000275
443.837057	0.999620
444.212365	0.999984
444.587612	0.999714
444.962800	0.999629
445.337927	0.999979
445.712995	1.000492
446.088002	1.000702
446.462949	1.000212
446.837837	1.000067
447.212664	1.000461
447.587431	1.000471
447.962139	0.999586
448.336786	1.000029
448.711374	1.000330
449.085901	0.999573
449.460369	1.000001
449.834776	0.999879
450.209124	0.999583
450.583412	0.999918
450.957640	0.999515
451.331808	1.000140
451.705917	1.000652
452.079965	1.000221
452.453954	1.000054
452.827883	0.999642
453.201752	1.000884
453.575562	1.000409
453.949311	1.000211
454.323001	0.999865
454.696632	1.000342
455.070202	0.999792
455.443713	1.000198
455.817164	1.000356
456.190556	1.000076
456.563888	0.999940
456.937160	1.001037
457.310373	0.999723
457.683526	1.000146
458.056619	0.999652
458.429653	0.999856
458.802628	0.999482
459.175542	1.000186
459.548398	0.999578
459.921194	0.999711
460.293930	0.999927
460.666607	0.999044
461.039224	0.999098
461.411782	0.999579
461.784280	0.999892
462.156719	1.000393
462.529099	0.999948
462.901419	1.000405
463.273680	0.999983
463.645882	0.999776
464.018024	1.000405
464.390106	0.999930
464.762130	1.001209
465.134094	1.000039
465.505999	1.000326
465.877845	1.000381
466.249631	1.001077
466.621358	1.000788
466.993026	1.000300
467.364634	0.999682
467.736184	1.000188
468.107674	0.999704
468.479105	0.999791
468.850477	1.000462
469.221790	1.000857
469.593043	1.000466
469.964238	1.001057
470.335373	0.999602
470.706449	0.999405
471.077467	1.000016
471.448425	0.999214
471.819324	1.000988
472.190164	1.000046
472.560945	0.999997
472.931667	0.999818
473.302330	0.999080
473.672934	1.000390
474.043479	1.000362
474.413965	0.999963
474.784393	1.000810
475.154761	1.000412
475.525070	0.999966
475.895321	0.999991
476.265513	1.000519
476.635645	0.999837
477.005719	1.000397
477.375734	0.999685
477.745691	1.000673
478.115588	1.000666
478.485427	1.000450
478.855207	0.999441
479.224928	0.999686
479.594591	1.000289
479.964194	1.000496
480.333739	1.000257
480.703226	1.000157
481.072653	1.001297
481.442022	1.000812
481.811333	0.999718
482.180584	1.000758
482.549777	1.000279
482.918912	1.000616
483.287988	1.000070
483.657005	0.999974
484.025964	1.000529
484.394864	1.000665
484.763706	1.000569
485.132489	1.000830
485.501213	1.000106
485.869879	1.000739
486.238487	0.999941
486.607036	1.000579
486.975527	1.000046
487.343959	0.999644
487.712333	0.999598
488.080648	1.000437
488.448905	1.000888
488.817104	1.000795
489.185244	1.000629
489.553326	1.000069
489.921350	0.999961
490.289315	1.000378
490.657222	1.001120
491.025070	1.001044
491.392861	1.001047
491.760593	1.000811
492.128267	1.000861
492.495883	1.000340
492.863440	1.000704
493.230939	1.000658
493.598380	1.000217
493.965763	1.000600
494.333088	1.000535
494.700354	1.000052
495.067563	0.999737
495.434713	1.000122
495.801805	1.001090
496.168839	0.999689
496.535815	0.999930
496.902733	0.999984
497.269593	0.999717
497.636395	1.000349
498.003139	1.000129
498.369825	1.000844
498.736453	0.999800
499.103023	0.999928
499.469535	0.999899
499.835989	1.000182
500.202385	1.000748
500.568723	1.000271
500.935003	1.000290
501.301226	1.000944
501.667390	1.000365
502.033497	1.000210
502.399546	1.000988
502.765537	0.999823
503.131470	0.999891
503.497345	0.999577
503.863163	1.000660
504.228923	1.000738
504.594625	1.000126
504.960269	1.000833
505.325856	1.000139
505.691385	0.999888
506.056856	0.999963
506.422270	0.999527
506.787625	1.000478
507.152924	0.999659
507.518164	1.000120
507.883347	0.999968
508.248472	0.999839
508.613540	1.000135
508.978550	1.000242
509.343503	1.000153
509.708398	1.000492
510.073236	1.000192
510.438016	1.000540
510.802738	1.000369
511.167403	0.999899
511.532010	1.000349
511.896561	1.000312
512.261053	1.001449
512.625488	0.999827
512.989866	1.000425
513.354186	0.999885
513.718449	1.000017
514.082655	1.000526
514.446803	1.000472
514.810894	1.000682
515.174927	1.000203
515.538904	1.000092
515.902822	0.999721
516.266684	1.000349
516.630488	1.000936
516.994235	0.999691
517.357925	0.999858
517.721558	1.000012
518.085133	0.999654
518.448651	1.000295
518.812112	0.999896
519.175516	0.999711
519.538863	1.000168
519.902152	0.999404
520.265385	0.999603
520.628560	0.999915
520.991678	1.000274
521.354739	1.000136
521.717743	1.000262
522.080690	1.000022
522.443580	0.999589
522.806413	0.999996
523.169189	0.999288
523.531908	0.998967
523.894569	0.999141
524.257174	0.999519
524.619722	0.999679
524.982213	0.999685
525.344647	0.999955
525.707025	0.999033
526.069345	0.998803
526.431608	0.999410
526.793815	0.999758
527.155964	0.999882
527.518057	0.999526
527.880093	0.999780
528.242072	0.999626
528.603995	0.999230
528.965860	1.000349
529.327669	0.999341
529.689421	0.998886
530.051117	1.000223
530.412755	0.999265
530.774337	0.999384
531.135862	0.999333
531.497331	0.999493
531.858743	0.998880
532.220098	0.999487
532.581396	1.000141
532.942638	0.999760
533.303824	0.999343
533.664953	0.999154
534.026025	0.999198
534.387040	0.999042
534.747999	0.999661
535.108902	0.998959
535.469748	0.998511
535.830537	0.998756
536.191270	0.998210
536.551947	0.998657
536.912567	0.998790
537.273131	0.999540
537.633638	0.998466
537.994089	0.998606
538.354483	0.998583
538.714821	0.998628
539.075103	0.998549
539.435328	0.998964
539.795497	0.998798
540.155609	0.998713
540.515665	0.998775
540.875665	0.998179
541.235609	0.998212
541.595496	0.998046
541.955328	0.997886
542.315102	0.998852
542.674821	0.998349
543.034483	0.998315
543.394090	0.997774
543.753640	0.998778
544.113134	0.998434
544.472571	0.999022
544.831953	0.998611
545.191278	0.998021
545.550548	0.998933
545.909761	0.998430
546.268918	0.998378
546.628019	0.999228
546.987064	0.998305
547.346053	0.998089
547.704986	0.998531
548.063863	0.998542
548.422684	0.998329
548.781449	0.998498
549.140158	0.997533
549.498811	0.998181
549.857408	0.997549
550.215949	0.998199
550.574434	0.997657
550.932864	0.997880
551.291237	0.998515
551.649555	0.998559
552.007817	0.997735
552.366022	0.997250
552.724173	0.998453
553.082267	0.998141
553.440305	0.998369
553.798288	0.998431
554.156215	0.997654
554.514086	0.998379
554.871902	0.997693
555.229661	0.997394
555.587365	0.997942
555.945014	0.998967
556.302606	0.998013
556.660143	0.997910
557.017625	0.997572
557.375050	0.997644
557.732421	0.997526
558.089735	0.998538
558.446994	0.998052
558.804197	0.998315
559.161345	0.998043
559.518437	0.998564
559.875474	0.997158
560.232455	0.997665
560.589381	0.997772
560.946251	0.997554
561.303065	0.997652
561.659825	0.997466
562.016528	0.997029
562.373177	0.998383
562.729770	0.997514
563.086307	0.998008
563.442789	0.997859
563.799216	0.997571
564.155587	0.996834
564.511904	0.996854
564.868164	0.997205
565.224370	0.996483
565.580520	0.997154
565.936615	0.997225
566.292654	0.996674
566.648638	0.996940
567.004567	0.996369
567.360441	0.997294
567.716260	0.998034
568.072023	0.996853
568.427732	0.996871
568.783385	0.996759
569.138982	0.996483
569.494525	0.996701
569.850013	0.995864
570.205445	0.996025
570.560823	0.995999
570.916145	0.996037
571.271412	0.996399
571.626625	0.995509
571.981782	0.996029
572.336884	0.996774
572.691931	0.995842
573.046923	0.995138
573.401860	0.995240
573.756743	0.995301
574.111570	0.995269
574.466342	0.995112
574.821059	0.995300
575.175722	0.994378
575.530330	0.995004
575.884882	0.994681
576.239380	0.994462
576.593823	0.994715
576.948211	0.994061
577.302544	0.993933
577.656823	0.993779
578.011047	0.993484
578.365216	0.993140
578.719330	0.992738
579.073389	0.993486
579.427394	0.992720
579.781344	0.992414
580.135239	0.992779
580.489080	0.991858
580.842866	0.991797
581.196597	0.991739
581.550273	0.991100
581.903895	0.991027
582.257463	0.990277
582.610975	0.990040
582.964434	0.990110
583.317837	0.990180
583.671186	0.989918
584.024481	0.988637
584.377721	0.989053
584.730906	0.988363
585.084037	0.988130
585.437113	0.987808
585.790135	0.987508
586.143103	0.986530
586.496016	0.987097
586.848874	0.985904
587.201679	0.985518
587.554428	0.985367
587.907124	0.985106
588.259765	0.983730
588.612352	0.985256
588.964884	0.984449
589.317362	0.983333
589.669786	0.982401
590.022155	0.982003
590.374470	0.981060
590.726731	0.981121
591.078937	0.980056
591.431090	0.979670
591.783188	0.979367
592.135232	0.979224
592.487222	0.978789
592.839157	0.977965
593.191038	0.977742
593.542866	0.976932
593.894639	0.976620
594.246358	0.975322
594.598022	0.974497
594.949633	0.974164
595.301190	0.973004
595.652692	0.973265
596.004141	0.972581
596.355535	0.971851
596.706876	0.970513
597.058162	0.969533
597.409395	0.969502
597.760573	0.968274
598.111698	0.968159
598.462768	0.965603
598.813785	0.965630
599.164748	0.965135
599.515657	0.964454
599.866511	0.962891
600.217312	0.962499
600.568060	0.961141
600.918753	0.960876
601.269392	0.959280
601.619978	0.958348
601.970510	0.956877
602.320988	0.956486
602.671412	0.954729
603.021783	0.953845
603.372100	0.954276
603.722363	0.951895
604.072572	0.950692
604.422728	0.949823
604.772830	0.947876
605.122878	0.946967
605.472872	0.946241
605.822813	0.944333
606.172701	0.943588
606.522534	0.942348
606.872314	0.940932
607.222041	0.938733
607.571714	0.938902
607.921333	0.936512
608.270899	0.935775
608.620411	0.933345
608.969870	0.932158
609.319276	0.930948
609.668627	0.929709
610.017926	0.927316
610.367171	0.925386
610.716362	0.924812
611.065500	0.922484
611.414585	0.920519
611.763616	0.919366
612.112594	0.917129
612.461518	0.914750
612.810389	0.913827
613.159207	0.912241
613.507971	0.909953
613.856682	0.908024
614.205340	0.906904
614.553945	0.903662
614.902496	0.902883
615.250994	0.900343
615.599439	0.899082
615.947830	0.896775
616.296169	0.895171
616.644454	0.892498
616.992686	0.891360
617.340864	0.888039
617.688990	0.887004
618.037063	0.884621
618.385082	0.882096
618.733048	0.879182
619.080961	0.878036
619.428821	0.875632
619.776628	0.872692
620.124382	0.871264
620.472083	0.868212
620.819731	0.868015
621.167326	0.866106
621.514868	0.864371
621.862357	0.863591
622.209793	0.862329
622.557176	0.859590
622.904506	0.858661
623.251783	0.857623
623.599007	0.856853
623.946179	0.854772
624.293297	0.852657
624.640363	0.852992
624.987376	0.849286
625.334336	0.849297
625.681243	0.846777
626.028097	0.845930
626.374899	0.843934
626.721647	0.841073
627.068343	0.840229
627.414987	0.838003
627.761577	0.836358
628.108115	0.833901
628.454600	0.833558
628.801032	0.828743
629.147412	0.828236
629.493739	0.825348
629.840014	0.823962
630.186236	0.821671
630.532405	0.820667
630.878521	0.817601
631.224585	0.816172
631.570597	0.814848
631.916556	0.811546
632.262462	0.810299
632.608316	0.807852
632.954117	0.805187
633.299866	0.804419
633.645562	0.801416
633.991206	0.801680
634.336797	0.800537
634.682336	0.799670
635.027823	0.797072
635.373257	0.796427
635.718639	0.795096
636.063968	0.792341
636.409245	0.793245
636.754470	0.790975
637.099642	0.790115
637.444762	0.788364
637.789829	0.785271
638.134845	0.784837
638.479808	0.783276
638.824719	0.781773
639.169577	0.780786
639.514383	0.777305
639.859137	0.776925
640.203839	0.775288
640.548489	0.772316
640.893086	0.771964
641.237632	0.770314
641.582125	0.766828
641.926566	0.765372
642.270955	0.764353
642.615292	0.762398
642.959576	0.758565
643.303809	0.757918
643.647990	0.754862
643.992118	0.752988
644.336195	0.753852
644.680219	0.749575
645.024192	0.748927
645.368112	0.743732
645.711981	0.741937
646.055797	0.736725
646.399562	0.736118
646.743274	0.729495
647.086935	0.726880
647.430544	0.724739
647.774101	0.721347
648.117606	0.720353
648.461059	0.718044
648.804460	0.716012
649.147810	0.717532
649.491108	0.716019
649.834354	0.714434
650.177548	0.715185
650.520690	0.715050
650.863781	0.713980
651.206820	0.711121
651.549807	0.712008
651.892742	0.711810
652.235626	0.709406
652.578458	0.707274
652.921238	0.708651
653.263967	0.706200
653.606644	0.706757
653.949269	0.703602
654.291843	0.704075
654.634365	0.700727
654.976836	0.699773
655.319255	0.699175
655.661622	0.697378
656.003938	0.694933
656.346203	0.695722
656.688416	0.692235
657.030577	0.691953
657.372687	0.691652
657.714746	0.690142
658.056753	0.686955
658.398708	0.686316
658.740612	0.686797
659.082465	0.681419
659.424266	0.681491
659.766016	0.677672
660.107715	0.677660
660.449362	0.675312
660.790958	0.673941
661.132503	0.672248
661.473996	0.669153
661.815438	0.669070
662.156829	0.666324
662.498168	0.665304
662.839456	0.665046
663.180693	0.661741
663.521879	0.660415
663.863013	0.659217
664.204097	0.655784
664.545129	0.653567
664.886110	0.650873
665.227040	0.646963
665.567918	0.649081
665.908746	0.644838
666.249522	0.642996
666.590248	0.642748
666.930922	0.640210
667.271545	0.637612
667.612118	0.635845
667.952639	0.635534
668.293109	0.631869
668.633528	0.633090
668.973896	0.630908
669.314213	0.629717
669.654480	0.628758
669.994695	0.627747
670.334859	0.626460
670.674973	0.623823
671.015035	0.623210
671.355047	0.620793
671.695008	0.620274
672.034918	0.620856
672.374777	0.618618
672.714585	0.617256
673.054342	0.617082
673.394049	0.614857
673.733705	0.611787
674.073310	0.610014
674.412864	0.611993
674.752368	0.610591
675.091820	0.608695
675.431223	0.610594
675.770574	0.608275
676.109875	0.609790
676.449125	0.606839
676.788324	0.607652
677.127473	0.610451
677.466571	0.608260
677.805619	0.607534
678.144616	0.606815
678.483562	0.606287
678.822458	0.607147
679.161303	0.606971
679.500098	0.604930
679.838842	0.606304
680.177535	0.604686
680.516179	0.602263
680.854771	0.599975
681.193314	0.594210
681.531805	0.587451
681.870247	0.577907
682.208638	0.572001
682.546978	0.569502
682.885268	0.569220
683.223508	0.571767
683.561697	0.574056
683.899836	0.574259
684.237925	0.576201
684.575963	0.577173
684.913951	0.579193
685.251889	0.574215
685.589776	0.576006
685.927614	0.577643
686.265401	0.571537
686.603137	0.572121
686.940824	0.566418
687.278460	0.564772
687.616046	0.563725
687.953582	0.560450
688.291068	0.560577
688.628504	0.555847
688.965889	0.556509
689.303224	0.558826
689.640510	0.560702
689.977745	0.563592
690.314930	0.568280
690.652065	0.570441
690.989150	0.575323
691.326185	0.578158
691.663170	0.580478
692.000105	0.584648
692.336990	0.588806
692.673825	0.589226
693.010610	0.594120
693.347345	0.598873
693.684030	0.597763
694.020665	0.600045
694.357251	0.607162
694.693786	0.605973
695.030272	0.608547
695.366707	0.610138
695.703093	0.612819
696.039429	0.608826
696.375716	0.609185
696.711952	0.611714
697.048139	0.612507
697.384276	0.613925
697.720363	0.612208
698.056400	0.610407
698.392388	0.614500
698.728326	0.616972
699.064214	0.618293
699.400053	0.618052
699.735842	0.619634
700.071581	0.620729
700.407270	0.622312
700.742910	0.623303
701.078501	0.628440
701.414042	0.628142
701.749533	0.629277
702.084974	0.637235
702.420366	0.629466
702.755709	0.635644
703.091002	0.641192
703.426246	0.634247
703.761440	0.639408
704.096584	0.643404
704.431679	0.639652
704.766725	0.641249
705.101721	0.641864
705.436668	0.637233
705.771565	0.643344
706.106413	0.639973
706.441212	0.634721
706.775961	0.633512
707.110661	0.635778
707.445311	0.632484
707.779913	0.629785
708.114465	0.627501
708.448967	0.624287
708.783421	0.616901
709.117825	0.611784
709.452180	0.612066
709.786485	0.606476
710.120742	0.597484
710.454949	0.599298
710.789107	0.593112
711.123216	0.584829
711.457275	0.586847
711.791286	0.578804
712.125247	0.577334
712.459159	0.587057
712.793023	0.579899
713.126837	0.582101
713.460602	0.581516
713.794318	0.589745
714.127985	0.587280
714.461602	0.595559
714.795171	0.597262
715.128691	0.603343
715.462162	0.609180
715.795584	0.613553
716.128957	0.615851
716.462281	0.621452
716.795556	0.624209
717.128782	0.627596
717.461960	0.636333
717.795088	0.634402
718.128167	0.639325
718.461198	0.647099
718.794180	0.647592
719.127113	0.649679
719.459997	0.652031
719.792833	0.657635
720.125619	0.658686
720.458357	0.664013
720.791046	0.663604
721.123686	0.665690
721.456278	0.672460
721.788821	0.669918
722.121315	0.672938
722.453761	0.677442
722.786158	0.674198
723.118506	0.670861
723.450805	0.678748
723.783056	0.674102
724.115259	0.671561
724.447412	0.670849
724.779518	0.672263
725.111574	0.670689
725.443582	0.667045
725.775542	0.668560
726.107453	0.660985
726.439315	0.660772
726.771129	0.659790
727.102895	0.653642
727.434612	0.646166
727.766281	0.644829
728.097901	0.643874
728.429473	0.643472
728.760996	0.641123
729.092471	0.641167
729.423897	0.644635
729.755276	0.643755
730.086606	0.642777
730.417887	0.637805
730.749120	0.628598
731.080305	0.619792
731.411442	0.615782
731.742530	0.620349
732.073570	0.618958
732.404562	0.611671
732.735506	0.612927
733.066401	0.617610
733.397249	0.625223
733.728048	0.635469
734.058798	0.646636
734.389501	0.657034
734.720156	0.666208
735.050762	0.673175
735.381320	0.673712
735.711831	0.682113
736.042293	0.687490
736.372707	0.683020
736.703073	0.687685
737.033391	0.689765
737.363661	0.685883
737.693883	0.680819
738.024056	0.681345
738.354182	0.681362
738.684260	0.671403
739.014290	0.667083
739.344272	0.668349
739.674207	0.662406
740.004093	0.661267
740.333931	0.661450
740.663722	0.661568
740.993464	0.662250
741.323159	0.665038
741.652806	0.669666
741.982405	0.674571
742.311956	0.678046
742.641460	0.679887
742.970915	0.683656
743.300323	0.690085
743.629683	0.696658
743.958996	0.698658
744.288260	0.701807
744.617477	0.708158
744.946647	0.709252
745.275768	0.713389
745.604842	0.713916
745.933869	0.723515
746.262847	0.723478
746.591778	0.717813
746.920662	0.723870
747.249498	0.728928
747.578286	0.720292
747.907027	0.716781
748.235720	0.718329
748.564365	0.712163
748.892963	0.712510
749.221514	0.715376
749.550017	0.720132
749.878473	0.720146
750.206881	0.726858
750.535242	0.726480
750.863555	0.726830
751.191821	0.728212
751.520039	0.731076
751.848210	0.735732
752.176334	0.728434
752.504411	0.726860
752.832440	0.735264
753.160421	0.738776
753.488356	0.736883
753.816243	0.734304
754.144082	0.742733
754.471875	0.745603
754.799620	0.740751
755.127318	0.743630
755.454969	0.742573
755.782572	0.742161
756.110129	0.747177
756.437638	0.749334
756.765100	0.745890
757.092515	0.743738
757.419882	0.742902
757.747203	0.747832
758.074477	0.748131
758.401703	0.744770
758.728882	0.739836
759.056014	0.738707
759.383099	0.738556
759.710138	0.740042
760.037129	0.736019
760.364073	0.728751
760.690970	0.731465
761.017820	0.737230
761.344623	0.733217
761.671379	0.724271
761.998088	0.712051
762.324751	0.690610
762.651366	0.650342
762.977935	0.585930
763.304456	0.535143
763.630931	0.525270
763.957359	0.562996
764.283740	0.606578
764.610074	0.633122
764.936362	0.662225
765.262602	0.688836
765.588796	0.708476
765.914943	0.726704
766.241044	0.743988
766.567097	0.750545
766.893104	0.759531
767.219064	0.765846
767.544978	0.772562
767.870845	0.784845
768.196665	0.788811
768.522438	0.786879
768.848165	0.787482
769.173846	0.796621
769.499479	0.802010
769.825066	0.803573
770.150607	0.809569
770.476101	0.805300
770.801548	0.805998
771.126949	0.816773
771.452303	0.820660
771.777611	0.820171
772.102872	0.818478
772.428087	0.824544
772.753256	0.827192
773.078378	0.829986
773.403453	0.837815
773.728482	0.841701
774.053465	0.835627
774.378401	0.838886
774.703291	0.847875
775.028135	0.847657
775.352932	0.847982
775.677683	0.850969
776.002388	0.851776
776.327046	0.850410
776.651658	0.854014
776.976224	0.857867
777.300743	0.857764
777.625216	0.859821
777.949643	0.861702
778.274024	0.862117
778.598359	0.862680
778.922647	0.861357
779.246889	0.862342
779.571086	0.866632
779.895236	0.869539
780.219339	0.864882
780.543397	0.863821
780.867409	0.860656
781.191374	0.864173
781.515294	0.865244
781.839167	0.864250
782.162995	0.867637
782.486776	0.864277
782.810511	0.865177
783.134201	0.868479
783.457844	0.865809
783.781441	0.869003
784.104993	0.875736
784.428498	0.874783
784.751958	0.870713
785.075372	0.873033
785.398739	0.876940
785.722061	0.873937
786.045337	0.869420
786.368568	0.874523
786.691752	0.876596
787.014891	0.861805
787.337983	0.853821
787.661030	0.846774
787.984031	0.828699
788.306987	0.816748
788.629897	0.818651
788.952760	0.822439
789.275579	0.826709
789.598351	0.841966
789.921078	0.855724
790.243759	0.856180
790.566395	0.861493
790.888984	0.868497
791.211529	0.872532
791.534027	0.876548
791.856480	0.878348
792.178888	0.884207
792.501249	0.886067
792.823566	0.887229
793.145836	0.887481
793.468062	0.889008
793.790241	0.889794
794.112375	0.887378
794.434464	0.883089
794.756507	0.882660
795.078505	0.881144
795.400457	0.876839
795.722364	0.864375
796.044226	0.858321
796.366042	0.857903
796.687812	0.860664
797.009538	0.856694
797.331218	0.859800
797.652852	0.864378
797.974442	0.869126
798.295986	0.868777
798.617484	0.871468
798.938938	0.875449
799.260346	0.880228
799.581709	0.882989
799.903026	0.884909
800.224299	0.885277
800.545526	0.888598
800.866708	0.892802
801.187845	0.897938
801.508936	0.895559
801.829983	0.894181
802.150984	0.895685
802.471940	0.901433
802.792851	0.901091
803.113717	0.903566
803.434538	0.900890
803.755314	0.902392
804.076045	0.904021
804.396731	0.903773
804.717372	0.904225
805.037967	0.905983
805.358518	0.903266
805.679024	0.900239
805.999485	0.900934
806.319901	0.902051
806.640272	0.902768
806.960598	0.901189
807.280879	0.897007
807.601115	0.896175
807.921306	0.900020
808.241453	0.900634
808.561554	0.897802
808.881611	0.896624
809.201623	0.900732
809.521590	0.901038
809.841513	0.900680
810.161390	0.899906
810.481223	0.902834
810.801011	0.905686
811.120755	0.906905
811.440453	0.905821
811.760107	0.905041
812.079716	0.904383
812.399281	0.908430
812.718801	0.909822
813.038276	0.910939
813.357707	0.910726
813.677093	0.908330
813.996434	0.911051
814.315731	0.911644
814.634983	0.913406
814.954191	0.911358
815.273354	0.909111
815.592473	0.905077
815.911547	0.906111
816.230577	0.903556
816.549562	0.900679
816.868502	0.901452
817.187399	0.897326
817.506250	0.892372
817.825058	0.894014
818.143821	0.891656
818.462539	0.886283
818.781213	0.877927
819.099843	0.866772
819.418429	0.852206
819.736970	0.835535
820.055466	0.817132
820.373919	0.792533
820.692327	0.760019
821.010691	0.726044
821.329011	0.651427
821.647286	0.539861
821.965517	0.428591
822.283704	0.386652
822.601847	0.388355
822.919945	0.423508
823.237999	0.455782
823.556010	0.501100
823.873976	0.555112
824.191897	0.604459
824.509775	0.646384
824.827609	0.690094
825.145398	0.712683
825.463144	0.714266
825.780845	0.697674
826.098502	0.679477
826.416116	0.635444
826.733685	0.592693
827.051210	0.584416
827.368692	0.598630
827.686129	0.635233
828.003522	0.685946
828.320872	0.731831
828.638177	0.775630
828.955439	0.806263
829.272656	0.828074
829.589830	0.845364
829.906960	0.860309
830.224046	0.872633
830.541088	0.882779
830.858086	0.886445
831.175041	0.893436
831.491952	0.891460
831.808819	0.888503
832.125642	0.882456
832.442421	0.867779
832.759157	0.847014
833.075849	0.801314
833.392497	0.739842
833.709101	0.699930
834.025662	0.709116
834.342179	0.740071
834.658653	0.779511
834.975083	0.813383
835.291469	0.839030
835.607811	0.860200
835.924110	0.875402
836.240366	0.892396
836.556578	0.905560
836.872746	0.911689
837.188871	0.919681
837.504952	0.924811
837.820990	0.927727
838.136984	0.931174
838.452935	0.934202
838.768842	0.936156
839.084706	0.928336
839.400526	0.904037
839.716303	0.863941
840.032037	0.843911
840.347727	0.847408
840.663373	0.865041
840.978977	0.885686
841.294537	0.906993
841.610054	0.923653
841.925527	0.929916
842.240957	0.937504
842.556344	0.943599
842.871687	0.950674
843.186987	0.953065
843.502244	0.953294
843.817458	0.955463
844.132629	0.958589
844.447756	0.962773
844.762840	0.962835
845.077881	0.962238
845.392879	0.963501
845.707833	0.965783
846.022745	0.968059
846.337613	0.967755
846.652438	0.968647
846.967221	0.967149
847.281960	0.967554
847.596656	0.970164
847.911309	0.969444
848.225919	0.970695
848.540485	0.971336
848.855009	0.971146
849.169490	0.971158
849.483928	0.972182
849.798323	0.972199
850.112675	0.972622
850.426984	0.972368
850.741251	0.972364
851.055474	0.972662
851.369654	0.970174
851.683792	0.972908
851.997887	0.973107
852.311938	0.973199
852.625947	0.973497
852.939914	0.971101
853.253837	0.972493
853.567718	0.973450
853.881555	0.973213
854.195350	0.971509
854.509103	0.972805
854.822812	0.972672
855.136479	0.973300
855.450103	0.972499
855.763685	0.971839
856.077224	0.971205
856.390720	0.973037
856.704173	0.973330
857.017584	0.971033
857.330953	0.969639
857.644278	0.970835
857.957561	0.972306
858.270802	0.971339
858.584000	0.970652
858.897155	0.969819
859.210268	0.969902
859.523339	0.971660
859.836367	0.972263
860.149352	0.973532
860.462295	0.971193
860.775195	0.973508
861.088054	0.971629
861.400869	0.973199
861.713642	0.974388
862.026373	0.973431
862.339062	0.974762
862.651708	0.970415
862.964312	0.970675
863.276873	0.972401
863.589392	0.971055
863.901869	0.969604
864.214303	0.968237
864.526696	0.967440
864.839045	0.965832
865.151353	0.964975
865.463619	0.965860
865.775842	0.966448
866.088023	0.965103
866.400162	0.966341
866.712258	0.966058
867.024313	0.966741
867.336325	0.967617
867.648296	0.966949
867.960224	0.965973
868.272110	0.964000
868.583954	0.967641
868.895755	0.967089
869.207515	0.964945
869.519233	0.963142
869.830909	0.965814
870.142542	0.965853
870.454134	0.965357
870.765684	0.964617
871.077191	0.961718
871.388657	0.963238
871.700081	0.962267
872.011463	0.961423
872.322803	0.961363
872.634101	0.960403
872.945357	0.958400
873.256571	0.957056
873.567744	0.956849
873.878874	0.957031
874.189963	0.956420
874.501010	0.954374
874.812015	0.953593
875.122979	0.955369
875.433900	0.957373
875.744780	0.957891
876.055618	0.954709
876.366415	0.954856
876.677169	0.954600
876.987882	0.956430
877.298554	0.955464
877.609183	0.952695
877.919771	0.949823
878.230317	0.948559
878.540822	0.944731
878.851285	0.939759
879.161707	0.932733
879.472087	0.921150
879.782425	0.905784
880.092722	0.873024
880.402977	0.824423
880.713191	0.766376
881.023363	0.710303
881.333494	0.677991
881.643583	0.650365
881.953631	0.648964
882.263637	0.678476
882.573602	0.716562
882.883526	0.739863
883.193408	0.762846
883.503248	0.784022
883.813048	0.810637
884.122806	0.838529
884.432522	0.861279
884.742197	0.880635
885.051831	0.890172
885.361424	0.898707
885.670975	0.910448
885.980485	0.919744
886.289954	0.925247
886.599382	0.929407
886.908768	0.933956
887.218113	0.940147
887.527417	0.944754
887.836680	0.946781
888.145901	0.948320
888.455082	0.951404
888.764221	0.955731
889.073319	0.957368
889.382376	0.957190
889.691392	0.957663
890.000366	0.956996
890.309300	0.958248
890.618193	0.958356
890.927044	0.956618
891.235855	0.955909
891.544625	0.955588
891.853353	0.957307
892.162041	0.954607
892.470687	0.947386
892.779293	0.943760
893.087858	0.940529
893.396381	0.931999
893.704864	0.919652
894.013306	0.897784
894.321707	0.872579
894.630068	0.858875
894.938387	0.854878
895.246665	0.855534
895.554903	0.867208
895.863100	0.879932
896.171256	0.894835
896.479371	0.914479
896.787446	0.927765
897.095480	0.932081
897.403473	0.934018
897.711425	0.937500
898.019336	0.946010
898.327207	0.949382
898.635038	0.950540
898.942827	0.950053
899.250576	0.953671
899.558284	0.957188
899.865952	0.958585
900.173579	0.959950
900.481165	0.959245
900.788711	0.964006
901.096216	0.964450
901.403681	0.965342
901.711105	0.967774
902.018489	0.967541
902.325832	0.967046
902.633135	0.967332
902.940397	0.960547
903.247619	0.948861
903.554800	0.925421
903.861941	0.887990
904.169041	0.854645
904.476101	0.839431
904.783121	0.839304
905.090100	0.855475
905.397039	0.875937
905.703938	0.895703
906.010796	0.912843
906.317614	0.929609
906.624391	0.940750
906.931129	0.949110
907.237826	0.957156
907.544483	0.962994
907.851099	0.967271
908.157675	0.972219
908.464211	0.973733
908.770707	0.976538
909.077163	0.978710
909.383578	0.977306
909.689954	0.977669
909.996289	0.979488
910.302584	0.981945
910.608839	0.983468
910.915054	0.982866
911.221229	0.981082
911.527363	0.980943
911.833458	0.980037
912.139513	0.980297
912.445527	0.979210
912.751502	0.978276
913.057436	0.976605
913.363331	0.973974
913.669186	0.970976
913.975000	0.965661
914.280775	0.960252
914.586510	0.954315
914.892205	0.941589
915.197859	0.921859
915.503475	0.896380
915.809050	0.879137
916.114585	0.874488
916.420081	0.872336
916.725536	0.868846
917.030952	0.875928
917.336328	0.887656
917.641665	0.903398
917.946961	0.916328
918.252218	0.927802
918.557435	0.933965
918.862612	0.943412
919.167750	0.949045
919.472848	0.951844
919.777906	0.958241
920.082925	0.963327
920.387904	0.966784
920.692843	0.967406
920.997743	0.967760
921.302603	0.972182
921.607423	0.973460
921.912204	0.974787
922.216946	0.976947
922.521647	0.977953
922.826310	0.978612
923.130932	0.980961
923.435516	0.981360
923.740059	0.984167
924.044564	0.982345
924.349028	0.984053
924.653454	0.986869
924.957840	0.988889
925.262186	0.986974
925.566493	0.986283
925.870761	0.987764
926.174989	0.989673
926.479178	0.991077
926.783328	0.992737
927.087438	0.991137
927.391509	0.989964
927.695541	0.992978
927.999533	0.991691
928.303486	0.991813
928.607400	0.994304
928.911275	0.991823
929.215110	0.992818
929.518906	0.992185
929.822663	0.992759
930.126381	0.992961
930.430060	0.993798
930.733699	0.991900
931.037299	0.991994
931.340861	0.993807
931.644383	0.993543
931.947866	0.992323
932.251309	0.991808
932.554714	0.993204
932.858080	0.992734
933.161407	0.992854
933.464694	0.993162
933.767943	0.992120
934.071153	0.994249
934.374323	0.993718
934.677455	0.992725
934.980548	0.993070
935.283602	0.993169
935.586617	0.993433
935.889593	0.992101
936.192530	0.992949
936.495428	0.992592
936.798287	0.993651
937.101108	0.992507
937.403890	0.991790
937.706632	0.991218
938.009336	0.989227
938.312002	0.989062
938.614628	0.987576
938.917216	0.986821
939.219765	0.985455
939.522275	0.986768
939.824747	0.987109
940.127179	0.986465
940.429573	0.988408
940.731929	0.986600
941.034246	0.986954
941.336524	0.989175
941.638763	0.988583
941.940964	0.989897
942.243126	0.990200
942.545250	0.989945
942.847335	0.991999
943.149381	0.990773
943.451389	0.991726
943.753359	0.990762
944.055290	0.994060
944.357182	0.991727
944.659036	0.990688
944.960851	0.992252
945.262628	0.992532
945.564367	0.993653
945.866067	0.992048
946.167729	0.993833
946.469352	0.992930
946.770937	0.990399
947.072484	0.993202
947.373992	0.992253
947.675462	0.992717
947.976893	0.993214
948.278286	0.992706
948.579641	0.994598
948.880958	0.992710
949.182236	0.992532
949.483476	0.994174
949.784678	0.992942
950.085841	0.992926
950.386967	0.993045
950.688054	0.993831
950.989103	0.992718
951.290114	0.992432
951.591087	0.992702
951.892021	0.991296
952.192917	0.992085
952.493776	0.990201
952.794596	0.991475
953.095378	0.990607
953.396122	0.991296
953.696828	0.990792
953.997496	0.992562
954.298126	0.992134
954.598718	0.992379
954.899272	0.993135
955.199788	0.992181
955.500266	0.993286
955.800706	0.995741
956.101108	0.994355
956.401472	0.996713
956.701798	0.995595
957.002087	0.995253
957.302337	0.994862
957.602550	0.996595
957.902724	0.996449
958.202861	0.996816
958.502960	0.997070
958.803022	0.995375
959.103045	0.997677
959.403031	0.997806
959.702979	0.996766
960.002889	0.997852
960.302762	0.996236
960.602596	0.997446
960.902393	0.997445
961.202153	0.998581
961.501875	0.999489
961.801559	0.997330
962.101205	0.997953
962.400814	0.997545
962.700385	0.997241
962.999918	0.997897
963.299414	0.997662
963.598873	0.996228
963.898293	0.997574
964.197677	0.997761
964.497022	0.999382
964.796331	0.999986
965.095601	0.997952
965.394835	0.999115
965.694030	0.998554
965.993189	0.998445
966.292309	0.997621
966.591393	0.998936
966.890439	0.998462
967.189447	0.998047
967.488419	0.998939
967.787353	0.998188
968.086249	0.997734
968.385108	0.998258
968.683930	0.998467
968.982714	0.998266
969.281462	0.998248
969.580172	0.997593
969.878844	0.998716
970.177480	0.998214
970.476078	0.998497
970.774639	0.997615
971.073162	0.999245
971.371649	0.998703
971.670098	0.998499
971.968510	0.999137
972.266885	0.997284
972.565223	0.997321
972.863524	0.998875
973.161788	0.997535
973.460014	0.998671
973.758204	0.996959
974.056356	0.997257
974.354471	0.995832
974.652550	0.997749
974.950591	0.997614
975.248595	0.997276
975.546563	0.996866
975.844493	0.999398
976.142386	0.997933
976.440243	0.998177
976.738062	0.999620
977.035845	0.998860
977.333590	0.998044
977.631299	0.999279
977.928971	0.998701
978.226606	0.997878
978.524204	0.997318
978.821765	0.999687
979.119290	0.998612
979.416777	0.998132
979.714228	0.998587
980.011642	0.997180
980.309020	0.997825
980.606360	0.997666
980.903664	0.999198
981.200931	0.998409
981.498162	0.996713
981.795356	0.995456
982.092513	0.995695
982.389633	0.996806
982.686717	0.992439
982.983764	0.992749
983.280775	0.992156
983.577749	0.992612
983.874686	0.993100
984.171587	0.992862
984.468451	0.996667
984.765279	0.995971
985.062070	0.995227
985.358824	0.996802
985.655543	0.996493
985.952224	0.997531
986.248869	0.997546
986.545478	0.998318
986.842050	0.999046
987.138586	0.996739
987.435086	0.999072
987.731549	0.998414
988.027975	0.998850
988.324366	0.998436
988.620719	0.998612
988.917037	0.997383
989.213318	1.000160
989.509563	0.999712
989.805772	0.999788
990.101944	1.001034
990.398080	0.998352
990.694180	0.999133
990.990244	0.998408
991.286271	0.999351
991.582262	0.999229
991.878217	0.999254
992.174136	0.999541
992.470019	0.999967
992.765865	0.999474
993.061676	0.999213
993.357450	0.998937
993.653188	0.998660
993.948890	0.999600
994.244556	0.998632
994.540186	0.998739
994.835780	0.997947
995.131337	0.998352
995.426859	0.997716
995.722345	0.997766
996.017795	0.997867
996.313208	0.996698
996.608586	0.997052
996.903928	0.997595
997.199234	0.997647
997.494504	0.997389
997.789738	0.997636
998.084936	0.997942
998.380099	0.998454
998.675225	0.997945
998.970316	0.999433
999.265371	1.000377
999.560390	0.999658
999.855373	0.998841
1000.150320	0.998872
1000.445232	0.999201
1000.740108	0.998771
1001.034948	0.998895
1001.329752	1.000788
1001.624521	0.999996
1001.919254	0.997521
1002.213951	0.997874
1002.508613	0.999061
1002.803239	1.000350
1003.097829	0.999440
1003.392384	0.999662
1003.686903	0.999530
1003.981386	0.999385
1004.275834	1.000280
1004.570246	0.999943
1004.864623	0.999279
1005.158964	1.000392
1005.453270	0.999284
1005.747540	0.999052
1006.041775	0.998964
1006.335974	1.000134
1006.630138	0.999735
1006.924266	1.000446
1007.218359	1.000436
1007.512416	0.999039
1007.806438	0.999305
1008.100425	0.999468
1008.394376	0.999470
1008.688292	0.999777
1008.982172	1.001400
1009.276017	1.000074
1009.569827	0.998150
1009.863602	0.999872
1010.157341	1.000556
1010.451045	0.999162
1010.744714	0.999625
1011.038347	0.999385
1011.331945	1.000277
1011.625508	0.998776
1011.919036	0.999752
1012.212528	1.000001
1012.505986	0.999364
1012.799408	0.999235
1013.092795	1.000020
1013.386147	0.999843
1013.679464	1.000900
1013.972745	0.998589
1014.265992	0.998734
1014.559204	0.999889
1014.852380	0.999655
1015.145521	0.999790
1015.438628	1.000325
1015.731699	0.999783
1016.024736	0.999912
1016.317737	0.998693
1016.610703	1.000230
1016.903635	1.000885
1017.196531	0.999316
1017.489393	0.999826
1017.782219	1.000437
1018.075011	0.999595
1018.367768	0.999615
1018.660490	1.000254
1018.953177	1.000254
1019.245829	1.000254
