Dividing Wavelength (nm)	Counts (n)	Blue Motor Position (mm): 0.000000	Red Motor Position (mm): 32.800000	
326.493990	1.001590
326.888308	1.001590
327.282561	1.001590
327.676750	1.000704
328.070874	1.000017
328.464933	1.000462
328.858929	0.998469
329.252859	0.999924
329.646726	0.997893
330.040528	1.000993
330.434265	0.998965
330.827938	1.001555
331.221547	1.000510
331.615091	1.000072
332.008571	1.000553
332.401986	1.000009
332.795338	1.000108
333.188625	0.999357
333.581847	1.000399
333.975006	1.000138
334.368100	0.999999
334.761129	1.000939
335.154095	1.000741
335.546996	0.998885
335.939833	0.994994
336.332606	0.995529
336.725315	0.997722
337.117960	0.997069
337.510540	0.997987
337.903056	0.996337
338.295508	0.995018
338.687896	0.996254
339.080220	0.995974
339.472480	0.996912
339.864676	0.996392
340.256807	0.996227
340.648875	0.997505
341.040879	0.996611
341.432818	0.994956
341.824694	0.996312
342.216506	0.996866
342.608253	0.995771
342.999937	0.995163
343.391557	0.995830
343.783113	0.995224
344.174605	0.996705
344.566033	0.996942
344.957397	0.995618
345.348697	0.995478
345.739934	0.995606
346.131106	0.995864
346.522215	0.996153
346.913260	0.996045
347.304241	0.996178
347.695159	0.995692
348.086012	0.995882
348.476802	0.996594
348.867528	0.995453
349.258191	0.995171
349.648789	0.996882
350.039324	0.995359
350.429796	0.996119
350.820203	0.997350
351.210548	0.996142
351.600828	0.996306
351.991045	0.996490
352.381198	0.994904
352.771288	0.996965
353.161314	0.995647
353.551276	0.997599
353.941175	0.996434
354.331010	0.996171
354.720782	0.997157
355.110490	0.995356
355.500135	0.996904
355.889717	0.996011
356.279235	0.995434
356.668689	0.995871
357.058080	0.995757
357.447408	0.997202
357.836672	0.996071
358.225873	0.997143
358.615010	0.996769
359.004084	0.997912
359.393095	0.996107
359.782043	0.995986
360.170927	0.996854
360.559748	0.996891
360.948505	0.995654
361.337199	0.996712
361.725830	0.997344
362.114398	0.996015
362.502903	0.997198
362.891344	0.996953
363.279722	0.995320
363.668037	0.996639
364.056289	0.995607
364.444478	0.997369
364.832603	0.996581
365.220665	0.996175
365.608665	0.996520
365.996601	0.996156
366.384474	0.996474
366.772284	0.996299
367.160031	0.994901
367.547715	0.995269
367.935336	0.996091
368.322893	0.996155
368.710388	0.995518
369.097820	0.996407
369.485189	0.996556
369.872495	0.995842
370.259738	0.993311
370.646918	0.996825
371.034035	0.997168
371.421090	0.997131
371.808081	0.996228
372.195010	0.997461
372.581875	0.996832
372.968678	0.997135
373.355418	0.996819
373.742096	0.995857
374.128710	0.996705
374.515262	0.995997
374.901751	0.997523
375.288177	0.997048
375.674540	0.997404
376.060841	0.995216
376.447079	0.997677
376.833254	0.995947
377.219367	0.997113
377.605417	0.997226
377.991404	0.997359
378.377329	0.996500
378.763191	0.996391
379.148991	0.997233
379.534727	0.998118
379.920402	0.997212
380.306013	0.998613
380.691563	0.998479
381.077049	0.996929
381.462474	0.997318
381.847835	0.998153
382.233134	0.997535
382.618371	0.998163
383.003545	0.997698
383.388657	0.996843
383.773706	0.998105
384.158693	0.998162
384.543618	0.997913
384.928480	0.998537
385.313280	0.997568
385.698017	0.998415
386.082692	0.998893
386.467305	0.997638
386.851856	0.998343
387.236344	0.997561
387.620770	0.996842
388.005133	0.997813
388.389435	0.998647
388.773674	0.998665
389.157851	0.998215
389.541965	0.997995
389.926018	0.997547
390.310008	0.998494
390.693936	0.997316
391.077802	0.998088
391.461606	0.998613
391.845348	0.997537
392.229027	0.999010
392.612645	0.998464
392.996200	0.998837
393.379694	0.998113
393.763125	0.999978
394.146494	0.998395
394.529801	0.998796
394.913047	0.998693
395.296230	0.998615
395.679351	0.998338
396.062410	0.998250
396.445408	0.998960
396.828343	0.998031
397.211217	0.998055
397.594028	0.999066
397.976778	0.997823
398.359466	0.998739
398.742092	0.997996
399.124656	0.997772
399.507158	0.998842
399.889598	0.998522
400.271977	0.999039
400.654294	0.998900
401.036549	0.998939
401.418742	0.998289
401.800874	0.998178
402.182944	0.998230
402.564952	0.998119
402.946898	1.000157
403.328783	0.998892
403.710606	0.998687
404.092367	0.998973
404.474067	0.999053
404.855705	0.998383
405.237282	0.998980
405.618797	0.998305
406.000250	0.997905
406.381642	0.998703
406.762972	0.998810
407.144240	1.000078
407.525447	0.999196
407.906593	0.999321
408.287677	0.999213
408.668700	0.998541
409.049661	0.997869
409.430560	0.999289
409.811399	0.998187
410.192176	0.998776
410.572891	0.998430
410.953545	0.999265
411.334138	0.997633
411.714669	0.998941
412.095139	0.998761
412.475547	0.998566
412.855894	0.999466
413.236180	0.999243
413.616405	0.999227
413.996568	0.999529
414.376670	0.999296
414.756711	0.998170
415.136691	0.998580
415.516609	0.998823
415.896466	0.998056
416.276262	0.997818
416.655997	0.998227
417.035670	0.998574
417.415283	0.998826
417.794834	0.998669
418.174324	0.998496
418.553753	0.999240
418.933121	0.999182
419.312428	0.998248
419.691674	0.998240
420.070859	1.000117
420.449983	0.999558
420.829045	0.999195
421.208047	0.999394
421.586988	0.999601
421.965867	0.999226
422.344686	0.999996
422.723444	0.999183
423.102141	0.998741
423.480777	0.999037
423.859352	0.999033
424.237866	0.998374
424.616319	0.999369
424.994712	0.999106
425.373044	0.999557
425.751314	0.999098
426.129524	0.998110
426.507673	0.999557
426.885762	0.999251
427.263789	0.999472
427.641756	0.998266
428.019662	1.000342
428.397508	0.998728
428.775292	0.998573
429.153016	0.999030
429.530679	0.999558
429.908282	1.000608
430.285824	0.998743
430.663305	0.998612
431.040726	0.998419
431.418086	1.000264
431.795385	0.999732
432.172624	0.998460
432.549802	0.999439
432.926920	0.999175
433.303977	0.999327
433.680974	0.999107
434.057910	0.998679
434.434786	0.999830
434.811601	0.999035
435.188355	0.998662
435.565050	0.998750
435.941683	0.999667
436.318257	0.999786
436.694770	0.999041
437.071222	0.999928
437.447614	0.999747
437.823946	0.998935
438.200218	0.999272
438.576429	0.999341
438.952580	1.000058
439.328670	0.998436
439.704700	0.999785
440.080670	0.999466
440.456580	0.999365
440.832429	0.998705
441.208218	0.998936
441.583947	0.999243
441.959616	0.999219
442.335224	0.999654
442.710773	1.000748
443.086261	0.998487
443.461689	0.998986
443.837057	0.998168
444.212365	0.999612
444.587612	0.999165
444.962800	0.999551
445.337927	0.998728
445.712995	0.999859
446.088002	1.000246
446.462949	0.999100
446.837837	0.999011
447.212664	0.999316
447.587431	0.999264
447.962139	0.999469
448.336786	0.999416
448.711374	0.999424
449.085901	0.999086
449.460369	1.000558
449.834776	0.998923
450.209124	0.999337
450.583412	0.998836
450.957640	0.998924
451.331808	0.999738
451.705917	0.999676
452.079965	0.998353
452.453954	0.999181
452.827883	0.999286
453.201752	0.999667
453.575562	0.999684
453.949311	0.999914
454.323001	0.999299
454.696632	0.998800
455.070202	0.999369
455.443713	0.998740
455.817164	0.999499
456.190556	0.999194
456.563888	0.999809
456.937160	0.999141
457.310373	0.998582
457.683526	0.999490
458.056619	0.998448
458.429653	0.999144
458.802628	0.998745
459.175542	0.999183
459.548398	0.998982
459.921194	0.999433
460.293930	0.999584
460.666607	0.999014
461.039224	0.998046
461.411782	0.999004
461.784280	0.998252
462.156719	0.999295
462.529099	0.999064
462.901419	0.999227
463.273680	0.999538
463.645882	0.999293
464.018024	0.999513
464.390106	0.998426
464.762130	0.999988
465.134094	0.999099
465.505999	0.999582
465.877845	0.998731
466.249631	1.000266
466.621358	0.999623
466.993026	0.999087
467.364634	0.999373
467.736184	0.999892
468.107674	0.999022
468.479105	0.999079
468.850477	0.999258
469.221790	0.998569
469.593043	0.999861
469.964238	0.999502
470.335373	0.999374
470.706449	0.999455
471.077467	0.999462
471.448425	0.999094
471.819324	0.999333
472.190164	0.998795
472.560945	0.999521
472.931667	0.998848
473.302330	0.998633
473.672934	0.999374
474.043479	0.999682
474.413965	0.998598
474.784393	0.999054
475.154761	0.998939
475.525070	0.997931
475.895321	0.999918
476.265513	0.999146
476.635645	0.999112
477.005719	0.998641
477.375734	0.999122
477.745691	0.999240
478.115588	0.998649
478.485427	0.999049
478.855207	0.998352
479.224928	0.998818
479.594591	0.998591
479.964194	0.998396
480.333739	0.998232
480.703226	0.998444
481.072653	0.998709
481.442022	0.998787
481.811333	0.997430
482.180584	0.997764
482.549777	0.996903
482.918912	0.997205
483.287988	0.996762
483.657005	0.996504
484.025964	0.996249
484.394864	0.996978
484.763706	0.996126
485.132489	0.996017
485.501213	0.994782
485.869879	0.994744
486.238487	0.994871
486.607036	0.994468
486.975527	0.992955
487.343959	0.993054
487.712333	0.992273
488.080648	0.992037
488.448905	0.991207
488.817104	0.991303
489.185244	0.990619
489.553326	0.989355
489.921350	0.988056
490.289315	0.985808
490.657222	0.986233
491.025070	0.984578
491.392861	0.984656
491.760593	0.983966
492.128267	0.982444
492.495883	0.982036
492.863440	0.981050
493.230939	0.980326
493.598380	0.978902
493.965763	0.977298
494.333088	0.976925
494.700354	0.975193
495.067563	0.974418
495.434713	0.971865
495.801805	0.971311
496.168839	0.969214
496.535815	0.966803
496.902733	0.966188
497.269593	0.963164
497.636395	0.963079
498.003139	0.959978
498.369825	0.958576
498.736453	0.955928
499.103023	0.953766
499.469535	0.951948
499.835989	0.950035
500.202385	0.947980
500.568723	0.945788
500.935003	0.942961
501.301226	0.939772
501.667390	0.937386
502.033497	0.934719
502.399546	0.933022
502.765537	0.928539
503.131470	0.926255
503.497345	0.922390
503.863163	0.921739
504.228923	0.917255
504.594625	0.914246
504.960269	0.911616
505.325856	0.907098
505.691385	0.903395
506.056856	0.900797
506.422270	0.895998
506.787625	0.892899
507.152924	0.888530
507.518164	0.885596
507.883347	0.881050
508.248472	0.876967
508.613540	0.872731
508.978550	0.867968
509.343503	0.863963
509.708398	0.859693
510.073236	0.854599
510.438016	0.850967
510.802738	0.845536
511.167403	0.840657
511.532010	0.835543
511.896561	0.830885
512.261053	0.825952
512.625488	0.821094
512.989866	0.816024
513.354186	0.810833
513.718449	0.806035
514.082655	0.800598
514.446803	0.795596
514.810894	0.789687
515.174927	0.784101
515.538904	0.779434
515.902822	0.773103
516.266684	0.768743
516.630488	0.763851
516.994235	0.757689
517.357925	0.750217
517.721558	0.745001
518.085133	0.738137
518.448651	0.733833
518.812112	0.727853
519.175516	0.721431
519.538863	0.715430
519.902152	0.710259
520.265385	0.701980
520.628560	0.698112
520.991678	0.691688
521.354739	0.686062
521.717743	0.680988
522.080690	0.675098
522.443580	0.666526
522.806413	0.661935
523.169189	0.656298
523.531908	0.648923
523.894569	0.644656
524.257174	0.638907
524.619722	0.631023
524.982213	0.627453
525.344647	0.619062
525.707025	0.614009
526.069345	0.607544
526.431608	0.601417
526.793815	0.595141
527.155964	0.591193
527.518057	0.585256
527.880093	0.580082
528.242072	0.573624
528.603995	0.567917
528.965860	0.563506
529.327669	0.557320
529.689421	0.552405
530.051117	0.547243
530.412755	0.539056
530.774337	0.536764
531.135862	0.530179
531.497331	0.525038
531.858743	0.520248
532.220098	0.513222
532.581396	0.510101
532.942638	0.505305
533.303824	0.500748
533.664953	0.494133
534.026025	0.490310
534.387040	0.483716
534.747999	0.479261
535.108902	0.473330
535.469748	0.472023
535.830537	0.465445
536.191270	0.461189
536.551947	0.455254
536.912567	0.451158
537.273131	0.447900
537.633638	0.443122
537.994089	0.438479
538.354483	0.435280
538.714821	0.428765
539.075103	0.424397
539.435328	0.419969
539.795497	0.419316
540.155609	0.411539
540.515665	0.406311
540.875665	0.406543
541.235609	0.401122
541.595496	0.397307
541.955328	0.389858
542.315102	0.388740
542.674821	0.385922
543.034483	0.381576
543.394090	0.378045
543.753640	0.376011
544.113134	0.367812
544.472571	0.367706
544.831953	0.361319
545.191278	0.361406
545.550548	0.357515
545.909761	0.351862
546.268918	0.349488
546.628019	0.344834
546.987064	0.343752
547.346053	0.342873
547.704986	0.337773
548.063863	0.335394
548.422684	0.332856
548.781449	0.331696
549.140158	0.326806
549.498811	0.326642
549.857408	0.327312
550.215949	0.319823
550.574434	0.320065
550.932864	0.315735
551.291237	0.312368
551.649555	0.310699
552.007817	0.308861
552.366022	0.307479
552.724173	0.305676
553.082267	0.303924
553.440305	0.298634
553.798288	0.301626
554.156215	0.295539
554.514086	0.294878
554.871902	0.295777
555.229661	0.293646
555.587365	0.292302
555.945014	0.293480
556.302606	0.288516
556.660143	0.289842
557.017625	0.284466
557.375050	0.285368
557.732421	0.280917
558.089735	0.281450
558.446994	0.280373
558.804197	0.278190
559.161345	0.276804
559.518437	0.279098
559.875474	0.275236
560.232455	0.273678
560.589381	0.273960
560.946251	0.272451
561.303065	0.269447
561.659825	0.269581
562.016528	0.270181
562.373177	0.272072
562.729770	0.268426
563.086307	0.269529
563.442789	0.266800
563.799216	0.268467
564.155587	0.266338
564.511904	0.266710
564.868164	0.266279
565.224370	0.265266
565.580520	0.266481
565.936615	0.265848
566.292654	0.267776
566.648638	0.264598
567.004567	0.264995
567.360441	0.264827
567.716260	0.266426
568.072023	0.263831
568.427732	0.264073
568.783385	0.265944
569.138982	0.263608
569.494525	0.262646
569.850013	0.265227
570.205445	0.263572
570.560823	0.265692
570.916145	0.267062
571.271412	0.265123
571.626625	0.266201
571.981782	0.266690
572.336884	0.267092
572.691931	0.266674
573.046923	0.267667
573.401860	0.268329
573.756743	0.269931
574.111570	0.268777
574.466342	0.268905
574.821059	0.267971
575.175722	0.270538
575.530330	0.270101
575.884882	0.270233
576.239380	0.271703
576.593823	0.272114
576.948211	0.271636
577.302544	0.274944
577.656823	0.274025
578.011047	0.273923
578.365216	0.274598
578.719330	0.276779
579.073389	0.276413
579.427394	0.277562
579.781344	0.277973
580.135239	0.279459
580.489080	0.278843
580.842866	0.281785
581.196597	0.281492
581.550273	0.279813
581.903895	0.281010
582.257463	0.279078
582.610975	0.282492
582.964434	0.281831
583.317837	0.284250
583.671186	0.284411
584.024481	0.284310
584.377721	0.286824
584.730906	0.287070
585.084037	0.286572
585.437113	0.288179
585.790135	0.287736
586.143103	0.290333
586.496016	0.291759
586.848874	0.289140
587.201679	0.289491
587.554428	0.293039
587.907124	0.291702
588.259765	0.291984
588.612352	0.292853
588.964884	0.296645
589.317362	0.296080
589.669786	0.295903
590.022155	0.294553
590.374470	0.293905
590.726731	0.296128
591.078937	0.300291
591.431090	0.296813
591.783188	0.300973
592.135232	0.301221
592.487222	0.301119
592.839157	0.299363
593.191038	0.301356
593.542866	0.303433
593.894639	0.307046
594.246358	0.304971
594.598022	0.304528
594.949633	0.308132
595.301190	0.308986
595.652692	0.308062
596.004141	0.304098
596.355535	0.312152
596.706876	0.312664
597.058162	0.314917
597.409395	0.311878
597.760573	0.309922
598.111698	0.313014
598.462768	0.313681
598.813785	0.315025
599.164748	0.316298
599.515657	0.316795
599.866511	0.319947
600.217312	0.315042
600.568060	0.320609
600.918753	0.316894
601.269392	0.317697
601.619978	0.320738
601.970510	0.318146
602.320988	0.318352
602.671412	0.316513
603.021783	0.318805
603.372100	0.320173
603.722363	0.319736
604.072572	0.320819
604.422728	0.320559
604.772830	0.322223
605.122878	0.322243
605.472872	0.322662
605.822813	0.320764
606.172701	0.323665
606.522534	0.320968
606.872314	0.320903
607.222041	0.321824
607.571714	0.320131
607.921333	0.321275
608.270899	0.320971
608.620411	0.318025
608.969870	0.321634
609.319276	0.321762
609.668627	0.321836
610.017926	0.320115
610.367171	0.318765
610.716362	0.319506
611.065500	0.319652
611.414585	0.318257
611.763616	0.319230
612.112594	0.319507
612.461518	0.319053
612.810389	0.316254
613.159207	0.319054
613.507971	0.320739
613.856682	0.316306
614.205340	0.318198
614.553945	0.314778
614.902496	0.318765
615.250994	0.316814
615.599439	0.317573
615.947830	0.316929
616.296169	0.317941
616.644454	0.317466
616.992686	0.317555
617.340864	0.315200
617.688990	0.318771
618.037063	0.315393
618.385082	0.317454
618.733048	0.314180
619.080961	0.316742
619.428821	0.315872
619.776628	0.315254
620.124382	0.317689
620.472083	0.317316
620.819731	0.317168
621.167326	0.321006
621.514868	0.320564
621.862357	0.325089
622.209793	0.324532
622.557176	0.326671
622.904506	0.328118
623.251783	0.330055
623.599007	0.332344
623.946179	0.332048
624.293297	0.333900
624.640363	0.337739
624.987376	0.338116
625.334336	0.341080
625.681243	0.343019
626.028097	0.343708
626.374899	0.344733
626.721647	0.344896
627.068343	0.348496
627.414987	0.349283
627.761577	0.351281
628.108115	0.349304
628.454600	0.355005
628.801032	0.351709
629.147412	0.353949
629.493739	0.354114
629.840014	0.357499
630.186236	0.354964
630.532405	0.360846
630.878521	0.358122
631.224585	0.360187
631.570597	0.363794
631.916556	0.362259
632.262462	0.362155
632.608316	0.364516
632.954117	0.365348
633.299866	0.366111
633.645562	0.366685
633.991206	0.370915
634.336797	0.374272
634.682336	0.376218
635.027823	0.377626
635.373257	0.378163
635.718639	0.382153
636.063968	0.380936
636.409245	0.386765
636.754470	0.387423
637.099642	0.389462
637.444762	0.393256
637.789829	0.392049
638.134845	0.395536
638.479808	0.396522
638.824719	0.396177
639.169577	0.400118
639.514383	0.398900
639.859137	0.403325
640.203839	0.403290
640.548489	0.403454
640.893086	0.404755
641.237632	0.406870
641.582125	0.405163
641.926566	0.406685
642.270955	0.406705
642.615292	0.407220
642.959576	0.406255
643.303809	0.406726
643.647990	0.406660
643.992118	0.407038
644.336195	0.410468
644.680219	0.408754
645.024192	0.409363
645.368112	0.403126
645.711981	0.402001
646.055797	0.396935
646.399562	0.399755
646.743274	0.391833
647.086935	0.389093
647.430544	0.389287
647.774101	0.388418
648.117606	0.388010
648.461059	0.388338
648.804460	0.390652
649.147810	0.396210
649.491108	0.397915
649.834354	0.399501
650.177548	0.404735
650.520690	0.409965
650.863781	0.411192
651.206820	0.410612
651.549807	0.415431
651.892742	0.418917
652.235626	0.418490
652.578458	0.419643
652.921238	0.426356
653.263967	0.423022
653.606644	0.427923
653.949269	0.426556
654.291843	0.431213
654.634365	0.427837
654.976836	0.430956
655.319255	0.431130
655.661622	0.433218
656.003938	0.432937
656.346203	0.435810
656.688416	0.433431
657.030577	0.436717
657.372687	0.438408
657.714746	0.439579
658.056753	0.437037
658.398708	0.440287
658.740612	0.441412
659.082465	0.437835
659.424266	0.438481
659.766016	0.437811
660.107715	0.440797
660.449362	0.439484
660.790958	0.440233
661.132503	0.440599
661.473996	0.438621
661.815438	0.439115
662.156829	0.439269
662.498168	0.440094
662.839456	0.441279
663.180693	0.439232
663.521879	0.438990
663.863013	0.440282
664.204097	0.438949
664.545129	0.435547
664.886110	0.436447
665.227040	0.433526
665.567918	0.436009
665.908746	0.433686
666.249522	0.433784
666.590248	0.434570
666.930922	0.432823
667.271545	0.432061
667.612118	0.431692
667.952639	0.433913
668.293109	0.431531
668.633528	0.434581
668.973896	0.434875
669.314213	0.435051
669.654480	0.436884
669.994695	0.436938
670.334859	0.437907
670.674973	0.437988
671.015035	0.438297
671.355047	0.438147
671.695008	0.439588
672.034918	0.441044
672.374777	0.440347
672.714585	0.441410
673.054342	0.441613
673.394049	0.441574
673.733705	0.439343
674.073310	0.440520
674.412864	0.443954
674.752368	0.444455
675.091820	0.443905
675.431223	0.448644
675.770574	0.448792
676.109875	0.451325
676.449125	0.451257
676.788324	0.453723
677.127473	0.459221
677.466571	0.458879
677.805619	0.460431
678.144616	0.461722
678.483562	0.463452
678.822458	0.465789
679.161303	0.467078
679.500098	0.467191
679.838842	0.469244
680.177535	0.467901
680.516179	0.467108
680.854771	0.466483
681.193314	0.459774
681.531805	0.450559
681.870247	0.439580
682.208638	0.431982
682.546978	0.431110
682.885268	0.432678
683.223508	0.438661
683.561697	0.442267
683.899836	0.444899
684.237925	0.449156
684.575963	0.451237
684.913951	0.453918
685.251889	0.449751
685.589776	0.451879
685.927614	0.453891
686.265401	0.448918
686.603137	0.450303
686.940824	0.444597
687.278460	0.441981
687.616046	0.441772
687.953582	0.436393
688.291068	0.437903
688.628504	0.434366
688.965889	0.436130
689.303224	0.440108
689.640510	0.443786
689.977745	0.449797
690.314930	0.457365
690.652065	0.461953
690.989150	0.469923
691.326185	0.476355
691.663170	0.480506
692.000105	0.487617
692.336990	0.494886
692.673825	0.497188
693.010610	0.504218
693.347345	0.509653
693.684030	0.511487
694.020665	0.516162
694.357251	0.524489
694.693786	0.524132
695.030272	0.528539
695.366707	0.531755
695.703093	0.535244
696.039429	0.532652
696.375716	0.534350
696.711952	0.537586
697.048139	0.539644
697.384276	0.541443
697.720363	0.539442
698.056400	0.538548
698.392388	0.544059
698.728326	0.547462
699.064214	0.550008
699.400053	0.550672
699.735842	0.554197
700.071581	0.557123
700.407270	0.559893
700.742910	0.562830
701.078501	0.568809
701.414042	0.569676
701.749533	0.572219
702.084974	0.581294
702.420366	0.573401
702.755709	0.580569
703.091002	0.589217
703.426246	0.582497
703.761440	0.587907
704.096584	0.593725
704.431679	0.590605
704.766725	0.592223
705.101721	0.593546
705.436668	0.588844
705.771565	0.596283
706.106413	0.594106
706.441212	0.588602
706.775961	0.587440
707.110661	0.590110
707.445311	0.587159
707.779913	0.584030
708.114465	0.582261
708.448967	0.579519
708.783421	0.571435
709.117825	0.565811
709.452180	0.565530
709.786485	0.559809
710.120742	0.549818
710.454949	0.552257
710.789107	0.544193
711.123216	0.535171
711.457275	0.536613
711.791286	0.527645
712.125247	0.526542
712.459159	0.536939
712.793023	0.529979
713.126837	0.534249
713.460602	0.534665
713.794318	0.544281
714.127985	0.542409
714.461602	0.553149
714.795171	0.555694
715.128691	0.563587
715.462162	0.570597
715.795584	0.576411
716.128957	0.579332
716.462281	0.586263
716.795556	0.589988
717.128782	0.594419
717.461960	0.603817
717.795088	0.602200
718.128167	0.609007
718.461198	0.617565
718.794180	0.617903
719.127113	0.620764
719.459997	0.624148
719.792833	0.630567
720.125619	0.632165
720.458357	0.638342
720.791046	0.637491
721.123686	0.640874
721.456278	0.646949
721.788821	0.644576
722.121315	0.648788
722.453761	0.652878
722.786158	0.651031
723.118506	0.647524
723.450805	0.655327
723.783056	0.651518
724.115259	0.648303
724.447412	0.648254
724.779518	0.649163
725.111574	0.648959
725.443582	0.644247
725.775542	0.645948
726.107453	0.638110
726.439315	0.638578
726.771129	0.636134
727.102895	0.629453
727.434612	0.623003
727.766281	0.621609
728.097901	0.620839
728.429473	0.619949
728.760996	0.619091
729.092471	0.618322
729.423897	0.622322
729.755276	0.621152
730.086606	0.621834
730.417887	0.615790
730.749120	0.606530
731.080305	0.597960
731.411442	0.594220
731.742530	0.598967
732.073570	0.598146
732.404562	0.590271
732.735506	0.591988
733.066401	0.596736
733.397249	0.605264
733.728048	0.616793
734.058798	0.629471
734.389501	0.639877
734.720156	0.649686
735.050762	0.657434
735.381320	0.658658
735.711831	0.667630
736.042293	0.672209
736.372707	0.668319
736.703073	0.672768
737.033391	0.675448
737.363661	0.672304
737.693883	0.667437
738.024056	0.666254
738.354182	0.666185
738.684260	0.656078
739.014290	0.652213
739.344272	0.653536
739.674207	0.646763
740.004093	0.645947
740.333931	0.646562
740.663722	0.646293
740.993464	0.646994
741.323159	0.650897
741.652806	0.655525
741.982405	0.660587
742.311956	0.664697
742.641460	0.667205
742.970915	0.670467
743.300323	0.678716
743.629683	0.685183
743.958996	0.686372
744.288260	0.691185
744.617477	0.696132
744.946647	0.698992
745.275768	0.703052
745.604842	0.703602
745.933869	0.714118
746.262847	0.713735
746.591778	0.707968
746.920662	0.713818
747.249498	0.721055
747.578286	0.711138
747.907027	0.708007
748.235720	0.709278
748.564365	0.703595
748.892963	0.703367
749.221514	0.706452
749.550017	0.711002
749.878473	0.710131
750.206881	0.716750
750.535242	0.718759
750.863555	0.718326
751.191821	0.719015
751.520039	0.722741
751.848210	0.727789
752.176334	0.720113
752.504411	0.719028
752.832440	0.727816
753.160421	0.730731
753.488356	0.728476
753.816243	0.726401
754.144082	0.735569
754.471875	0.738533
754.799620	0.733965
755.127318	0.735886
755.454969	0.735512
755.782572	0.735480
756.110129	0.740056
756.437638	0.742053
756.765100	0.738419
757.092515	0.736984
757.419882	0.735433
757.747203	0.740597
758.074477	0.739703
758.401703	0.737652
758.728882	0.732634
759.056014	0.731418
759.383099	0.730831
759.710138	0.731787
760.037129	0.727949
760.364073	0.722583
760.690970	0.724590
761.017820	0.730180
761.344623	0.726135
761.671379	0.717176
761.998088	0.705218
762.324751	0.682961
762.651366	0.641783
762.977935	0.574908
763.304456	0.523707
763.630931	0.514075
763.957359	0.553250
764.283740	0.597906
764.610074	0.624251
764.936362	0.654372
765.262602	0.681151
765.588796	0.701737
765.914943	0.719847
766.241044	0.737567
766.567097	0.744338
766.893104	0.754196
767.219064	0.761177
767.544978	0.766772
767.870845	0.780611
768.196665	0.784149
768.522438	0.782669
768.848165	0.783271
769.173846	0.791503
769.499479	0.796843
769.825066	0.799571
770.150607	0.805652
770.476101	0.800123
770.801548	0.801178
771.126949	0.813084
771.452303	0.816090
771.777611	0.815560
772.102872	0.815103
772.428087	0.820252
772.753256	0.824090
773.078378	0.824408
773.403453	0.834062
773.728482	0.838796
774.053465	0.831694
774.378401	0.835099
774.703291	0.844166
775.028135	0.843638
775.352932	0.845013
775.677683	0.848152
776.002388	0.849487
776.327046	0.847875
776.651658	0.851460
776.976224	0.855506
777.300743	0.855141
777.625216	0.856714
777.949643	0.859613
778.274024	0.858698
778.598359	0.860657
778.922647	0.859450
779.246889	0.859530
779.571086	0.863525
779.895236	0.866448
780.219339	0.863160
780.543397	0.859548
780.867409	0.858547
781.191374	0.860981
781.515294	0.862816
781.839167	0.861092
782.162995	0.865484
782.486776	0.862325
782.810511	0.861368
783.134201	0.865768
783.457844	0.863439
783.781441	0.866232
784.104993	0.871682
784.428498	0.872425
784.751958	0.867467
785.075372	0.870952
785.398739	0.874757
785.722061	0.870896
786.045337	0.866690
786.368568	0.872076
786.691752	0.872984
787.014891	0.858965
787.337983	0.850988
787.661030	0.844297
787.984031	0.825452
788.306987	0.813796
788.629897	0.815172
788.952760	0.819744
789.275579	0.823939
789.598351	0.837846
789.921078	0.851911
790.243759	0.854011
790.566395	0.858806
790.888984	0.865795
791.211529	0.870982
791.534027	0.874019
791.856480	0.876399
792.178888	0.880815
792.501249	0.883737
792.823566	0.884457
793.145836	0.885238
793.468062	0.887038
793.790241	0.886590
794.112375	0.885312
794.434464	0.880298
794.756507	0.880178
795.078505	0.879069
795.400457	0.873803
795.722364	0.862573
796.044226	0.854819
796.366042	0.855011
796.687812	0.857061
797.009538	0.854300
797.331218	0.856176
797.652852	0.861970
797.974442	0.866505
798.295986	0.866234
798.617484	0.868228
798.938938	0.872611
799.260346	0.877509
799.581709	0.879748
799.903026	0.882206
800.224299	0.883335
800.545526	0.886278
800.866708	0.890475
801.187845	0.894419
801.508936	0.893939
801.829983	0.892656
802.150984	0.894435
802.471940	0.899265
802.792851	0.898394
803.113717	0.900002
803.434538	0.897372
803.755314	0.899898
804.076045	0.900960
804.396731	0.902722
804.717372	0.901094
805.037967	0.902954
805.358518	0.901452
805.679024	0.899045
805.999485	0.898388
806.319901	0.898522
806.640272	0.900736
806.960598	0.898998
807.280879	0.896991
807.601115	0.894572
807.921306	0.897651
808.241453	0.897917
808.561554	0.895880
808.881611	0.895467
809.201623	0.897602
809.521590	0.898341
809.841513	0.898653
810.161390	0.898314
810.481223	0.899357
810.801011	0.903135
811.120755	0.905551
811.440453	0.903280
811.760107	0.902672
812.079716	0.902554
812.399281	0.905672
812.718801	0.908404
813.038276	0.909827
813.357707	0.907969
813.677093	0.905839
813.996434	0.908309
814.315731	0.910824
814.634983	0.910853
814.954191	0.910070
815.273354	0.906672
815.592473	0.902991
815.911547	0.902453
816.230577	0.902120
816.549562	0.898075
816.868502	0.900159
817.187399	0.895130
817.506250	0.889674
817.825058	0.892475
818.143821	0.889466
818.462539	0.882949
818.781213	0.875186
819.099843	0.864471
819.418429	0.848997
819.736970	0.833088
820.055466	0.813506
820.373919	0.788429
820.692327	0.755963
821.010691	0.722284
821.329011	0.646102
821.647286	0.532825
821.965517	0.420562
822.283704	0.378383
822.601847	0.380072
822.919945	0.415375
823.237999	0.448411
823.556010	0.494280
823.873976	0.549818
824.191897	0.598807
824.509775	0.641166
824.827609	0.684951
825.145398	0.707114
825.463144	0.710696
825.780845	0.693644
826.098502	0.675637
826.416116	0.630027
826.733685	0.586557
827.051210	0.579128
827.368692	0.593436
827.686129	0.629723
828.003522	0.681957
828.320872	0.728888
828.638177	0.771763
828.955439	0.803394
829.272656	0.825794
829.589830	0.842161
829.906960	0.857581
830.224046	0.869442
830.541088	0.879686
830.858086	0.884479
831.175041	0.889790
831.491952	0.889004
831.808819	0.886002
832.125642	0.879335
832.442421	0.864888
832.759157	0.843770
833.075849	0.798654
833.392497	0.735597
833.709101	0.695200
834.025662	0.705143
834.342179	0.736281
834.658653	0.774560
834.975083	0.809346
835.291469	0.836614
835.607811	0.857933
835.924110	0.874233
836.240366	0.889515
836.556578	0.903721
836.872746	0.911323
837.188871	0.916941
837.504952	0.922376
837.820990	0.925560
838.136984	0.928071
838.452935	0.931838
838.768842	0.933029
839.084706	0.925996
839.400526	0.901126
839.716303	0.861883
840.032037	0.841251
840.347727	0.843980
840.663373	0.862431
840.978977	0.882466
841.294537	0.904489
841.610054	0.921620
841.925527	0.927452
842.240957	0.935016
842.556344	0.941721
842.871687	0.946865
843.186987	0.951710
843.502244	0.952200
843.817458	0.953812
844.132629	0.957308
844.447756	0.961665
844.762840	0.961640
845.077881	0.961854
845.392879	0.960989
845.707833	0.964148
846.022745	0.965309
846.337613	0.965762
846.652438	0.967817
846.967221	0.965315
847.281960	0.966438
847.596656	0.968751
847.911309	0.967446
848.225919	0.969229
848.540485	0.969803
848.855009	0.970745
849.169490	0.969653
849.483928	0.968963
849.798323	0.970379
850.112675	0.971365
850.426984	0.970643
850.741251	0.970522
851.055474	0.971575
851.369654	0.969363
851.683792	0.970479
851.997887	0.971369
852.311938	0.971320
852.625947	0.970599
852.939914	0.968350
853.253837	0.970373
853.567718	0.971792
853.881555	0.971385
854.195350	0.968546
854.509103	0.970889
854.822812	0.970780
855.136479	0.970904
855.450103	0.971392
855.763685	0.969536
856.077224	0.969781
856.390720	0.971155
856.704173	0.971613
857.017584	0.970010
857.330953	0.967921
857.644278	0.969549
857.957561	0.970660
858.270802	0.970171
858.584000	0.968181
858.897155	0.968139
859.210268	0.969460
859.523339	0.968988
859.836367	0.970690
860.149352	0.970760
860.462295	0.970546
860.775195	0.970329
861.088054	0.970999
861.400869	0.970667
861.713642	0.971935
862.026373	0.971072
862.339062	0.972713
862.651708	0.969664
862.964312	0.968485
863.276873	0.971549
863.589392	0.969202
863.901869	0.968039
864.214303	0.965534
864.526696	0.964927
864.839045	0.965753
865.151353	0.963766
865.463619	0.963989
865.775842	0.964073
866.088023	0.962629
866.400162	0.963628
866.712258	0.964294
867.024313	0.964694
867.336325	0.964708
867.648296	0.965677
867.960224	0.964396
868.272110	0.962865
868.583954	0.965411
868.895755	0.965628
869.207515	0.963745
869.519233	0.960175
869.830909	0.962334
870.142542	0.963891
870.454134	0.962723
870.765684	0.961893
871.077191	0.958880
871.388657	0.960078
871.700081	0.959060
872.011463	0.960776
872.322803	0.960433
872.634101	0.958724
872.945357	0.956255
873.256571	0.954352
873.567744	0.954972
873.878874	0.955316
874.189963	0.953366
874.501010	0.953469
874.812015	0.952061
875.122979	0.952729
875.433900	0.955168
875.744780	0.955749
876.055618	0.952194
876.366415	0.952643
876.677169	0.951905
876.987882	0.953800
877.298554	0.953963
877.609183	0.949635
877.919771	0.947698
878.230317	0.945532
878.540822	0.942555
878.851285	0.938613
879.161707	0.930209
879.472087	0.919203
879.782425	0.903442
880.092722	0.869961
880.402977	0.819888
880.713191	0.761184
881.023363	0.703959
881.333494	0.671437
881.643583	0.643279
881.953631	0.643197
882.263637	0.671471
882.573602	0.710712
882.883526	0.735704
883.193408	0.757029
883.503248	0.779038
883.813048	0.806467
884.122806	0.835196
884.432522	0.856511
884.742197	0.875781
885.051831	0.886385
885.361424	0.896959
885.670975	0.907717
885.980485	0.917068
886.289954	0.922648
886.599382	0.928339
886.908768	0.931951
887.218113	0.937399
887.527417	0.941987
887.836680	0.944692
888.145901	0.947031
888.455082	0.949099
888.764221	0.953838
889.073319	0.954979
889.382376	0.956495
889.691392	0.955121
890.000366	0.954484
890.309300	0.956172
890.618193	0.956485
890.927044	0.953698
891.235855	0.953842
891.544625	0.953254
891.853353	0.954816
892.162041	0.952724
892.470687	0.945620
892.779293	0.940100
893.087858	0.937309
893.396381	0.930427
893.704864	0.917557
894.013306	0.893796
894.321707	0.869095
894.630068	0.853758
894.938387	0.850354
895.246665	0.851095
895.554903	0.863166
895.863100	0.876043
896.171256	0.891952
896.479371	0.911618
896.787446	0.923286
897.095480	0.928547
897.403473	0.932109
897.711425	0.935127
898.019336	0.942531
898.327207	0.946609
898.635038	0.947745
898.942827	0.949015
899.250576	0.951146
899.558284	0.954432
899.865952	0.956074
900.173579	0.958020
900.481165	0.958452
900.788711	0.961614
901.096216	0.963539
901.403681	0.962918
901.711105	0.964792
902.018489	0.965064
902.325832	0.965654
902.633135	0.964454
902.940397	0.958557
903.247619	0.946179
903.554800	0.922448
903.861941	0.885204
904.169041	0.851271
904.476101	0.834240
904.783121	0.835607
905.090100	0.850922
905.397039	0.871202
905.703938	0.890867
906.010796	0.909326
906.317614	0.926337
906.624391	0.937865
906.931129	0.946107
907.237826	0.955047
907.544483	0.962885
907.851099	0.965757
908.157675	0.969039
908.464211	0.971575
908.770707	0.973966
909.077163	0.975869
909.383578	0.976391
909.689954	0.976198
909.996289	0.976606
910.302584	0.979786
910.608839	0.980042
910.915054	0.979375
911.221229	0.979828
911.527363	0.978282
911.833458	0.978634
912.139513	0.978716
912.445527	0.975074
912.751502	0.975218
913.057436	0.974469
913.363331	0.972133
913.669186	0.967905
913.975000	0.963224
914.280775	0.958518
914.586510	0.951279
914.892205	0.939306
915.197859	0.917966
915.503475	0.892940
915.809050	0.874106
916.114585	0.870296
916.420081	0.866785
916.725536	0.865183
917.030952	0.871916
917.336328	0.883731
917.641665	0.898688
917.946961	0.913690
918.252218	0.924542
918.557435	0.932461
918.862612	0.940711
919.167750	0.945788
919.472848	0.949868
919.777906	0.955998
920.082925	0.961797
920.387904	0.964303
920.692843	0.965613
920.997743	0.966182
921.302603	0.969606
921.607423	0.970678
921.912204	0.973935
922.216946	0.972702
922.521647	0.975363
922.826310	0.978203
923.130932	0.979181
923.435516	0.978930
923.740059	0.981281
924.044564	0.978968
924.349028	0.981755
924.653454	0.982881
924.957840	0.985456
925.262186	0.985954
925.566493	0.984810
925.870761	0.985398
926.174989	0.987211
926.479178	0.989714
926.783328	0.989670
927.087438	0.990530
927.391509	0.988740
927.695541	0.991082
927.999533	0.990816
928.303486	0.989790
928.607400	0.993044
928.911275	0.989969
929.215110	0.990489
929.518906	0.990497
929.822663	0.990470
930.126381	0.991907
930.430060	0.990944
930.733699	0.990019
931.037299	0.990248
931.340861	0.991179
931.644383	0.990325
931.947866	0.990197
932.251309	0.991547
932.554714	0.990599
932.858080	0.991533
933.161407	0.991228
933.464694	0.991117
933.767943	0.989533
934.071153	0.992601
934.374323	0.992975
934.677455	0.993097
934.980548	0.992339
935.283602	0.991295
935.586617	0.992393
935.889593	0.990510
936.192530	0.991721
936.495428	0.992054
936.798287	0.992216
937.101108	0.991420
937.403890	0.989856
937.706632	0.989874
938.009336	0.987791
938.312002	0.987086
938.614628	0.985219
938.917216	0.984251
939.219765	0.982772
939.522275	0.984037
939.824747	0.984936
940.127179	0.984608
940.429573	0.985458
940.731929	0.985948
941.034246	0.986067
941.336524	0.987289
941.638763	0.987546
941.940964	0.987859
942.243126	0.987119
942.545250	0.988320
942.847335	0.989185
943.149381	0.990018
943.451389	0.988995
943.753359	0.989326
944.055290	0.991758
944.357182	0.991336
944.659036	0.989468
944.960851	0.990402
945.262628	0.990501
945.564367	0.991770
945.866067	0.990358
946.167729	0.991010
946.469352	0.990275
946.770937	0.990044
947.072484	0.992176
947.373992	0.991338
947.675462	0.992144
947.976893	0.990304
948.278286	0.991133
948.579641	0.992398
948.880958	0.991776
949.182236	0.991087
949.483476	0.992819
949.784678	0.989981
950.085841	0.993498
950.386967	0.991342
950.688054	0.992202
950.989103	0.991033
951.290114	0.990571
951.591087	0.991804
951.892021	0.990854
952.192917	0.989859
952.493776	0.989071
952.794596	0.988935
953.095378	0.988983
953.396122	0.988935
953.696828	0.988832
953.997496	0.991075
954.298126	0.991209
954.598718	0.991615
954.899272	0.992558
955.199788	0.990375
955.500266	0.992164
955.800706	0.993799
956.101108	0.994258
956.401472	0.993384
956.701798	0.994420
957.002087	0.993909
957.302337	0.993776
957.602550	0.996600
957.902724	0.995124
958.202861	0.995069
958.502960	0.996280
958.803022	0.993966
959.103045	0.996156
959.403031	0.996878
959.702979	0.995072
960.002889	0.995518
960.302762	0.994607
960.602596	0.995965
960.902393	0.995376
961.202153	0.996710
961.501875	0.996538
961.801559	0.996550
962.101205	0.996488
962.400814	0.996615
962.700385	0.996951
962.999918	0.997872
963.299414	0.996752
963.598873	0.996725
963.898293	0.995756
964.197677	0.994969
964.497022	0.996754
964.796331	0.998386
965.095601	0.997189
965.394835	0.996756
965.694030	0.997276
965.993189	0.997675
966.292309	0.996653
966.591393	0.997891
966.890439	0.997617
967.189447	0.996690
967.488419	0.997134
967.787353	0.997419
968.086249	0.996910
968.385108	0.996488
968.683930	0.997265
968.982714	0.997867
969.281462	0.997751
969.580172	0.996353
969.878844	0.998507
970.177480	0.996921
970.476078	0.997744
970.774639	0.996781
971.073162	0.997601
971.371649	0.996758
971.670098	0.996782
971.968510	0.997121
972.266885	0.995982
972.565223	0.996785
972.863524	0.997566
973.161788	0.996388
973.460014	0.997889
973.758204	0.996748
974.056356	0.995252
974.354471	0.994263
974.652550	0.995849
974.950591	0.996116
975.248595	0.996295
975.546563	0.996767
975.844493	0.999008
976.142386	0.996821
976.440243	0.997391
976.738062	0.997995
977.035845	0.998278
977.333590	0.996204
977.631299	0.997788
977.928971	0.997448
978.226606	0.996668
978.524204	0.996496
978.821765	0.999194
979.119290	0.995973
979.416777	0.996885
979.714228	0.997886
980.011642	0.997074
980.309020	0.997606
980.606360	0.997730
980.903664	0.998218
981.200931	0.996929
981.498162	0.995436
981.795356	0.996088
982.092513	0.994929
982.389633	0.995387
982.686717	0.991494
982.983764	0.992576
983.280775	0.991702
983.577749	0.991508
983.874686	0.991957
984.171587	0.992658
984.468451	0.994972
984.765279	0.994806
985.062070	0.994354
985.358824	0.996042
985.655543	0.995310
985.952224	0.997638
986.248869	0.996339
986.545478	0.997272
986.842050	0.998344
987.138586	0.995816
987.435086	0.997427
987.731549	0.999312
988.027975	0.998361
988.324366	0.997792
988.620719	0.997543
988.917037	0.996958
989.213318	0.997991
989.509563	0.999624
989.805772	0.998722
990.101944	0.998031
990.398080	0.998105
990.694180	0.998573
990.990244	0.998576
991.286271	0.997928
991.582262	0.998120
991.878217	0.997855
992.174136	0.998375
992.470019	0.999007
992.765865	0.998160
993.061676	0.998245
993.357450	0.998237
993.653188	0.997643
993.948890	0.998057
994.244556	0.998169
994.540186	0.996760
994.835780	0.997191
995.131337	0.997944
995.426859	0.997712
995.722345	0.997758
996.017795	0.996554
996.313208	0.995669
996.608586	0.996662
996.903928	0.997344
997.199234	0.996828
997.494504	0.996990
997.789738	0.996595
998.084936	0.996950
998.380099	0.998394
998.675225	0.998919
998.970316	0.998324
999.265371	0.998092
999.560390	0.998153
999.855373	0.999307
1000.150320	0.997209
1000.445232	0.997468
1000.740108	0.998825
1001.034948	0.996980
1001.329752	0.998730
1001.624521	0.999650
1001.919254	0.998216
1002.213951	0.999158
1002.508613	0.998233
1002.803239	0.999128
1003.097829	0.998209
1003.392384	0.998396
1003.686903	0.998168
1003.981386	0.998417
1004.275834	1.000393
1004.570246	0.997738
1004.864623	0.998692
1005.158964	0.998838
1005.453270	0.998376
1005.747540	0.997315
1006.041775	0.998618
1006.335974	0.998717
1006.630138	0.999556
1006.924266	1.000144
1007.218359	0.999940
1007.512416	0.999177
1007.806438	0.999736
1008.100425	0.999002
1008.394376	0.999205
1008.688292	0.998857
1008.982172	1.000500
1009.276017	0.999372
1009.569827	0.998528
1009.863602	0.999232
1010.157341	1.000095
1010.451045	0.999814
1010.744714	0.999560
1011.038347	0.999962
1011.331945	0.999152
1011.625508	0.998223
1011.919036	0.999070
1012.212528	0.998572
1012.505986	0.998594
1012.799408	0.999551
1013.092795	0.999190
1013.386147	0.999562
1013.679464	0.999578
1013.972745	0.997806
1014.265992	0.998553
1014.559204	0.998381
1014.852380	0.999427
1015.145521	0.999924
1015.438628	0.999162
1015.731699	0.998918
1016.024736	0.999400
1016.317737	0.999990
1016.610703	0.998682
1016.903635	0.999926
1017.196531	1.000100
1017.489393	0.999508
1017.782219	0.998117
1018.075011	0.997950
1018.367768	0.999802
1018.660490	0.998536
1018.953177	0.998536
1019.245829	0.998536
