Dividing Wavelength (nm)	Counts (n)	Blue Motor Position (mm): 0.000000	Red Motor Position (mm): 29.400000	
326.493990	1.000405
326.888308	1.000405
327.282561	1.000405
327.676750	1.000565
328.070874	0.999139
328.464933	1.000465
328.858929	0.999857
329.252859	0.999362
329.646726	0.999364
330.040528	1.000547
330.434265	0.999410
330.827938	1.000373
331.221547	1.001140
331.615091	1.000145
332.008571	1.000210
332.401986	1.000420
332.795338	1.000443
333.188625	0.999048
333.581847	1.000775
333.975006	0.999683
334.368100	0.999828
334.761129	1.000858
335.154095	1.000175
335.546996	0.997900
335.939833	0.994679
336.332606	0.995062
336.725315	0.995385
337.117960	0.997300
337.510540	0.995132
337.903056	0.994880
338.295508	0.994165
338.687896	0.993671
339.080220	0.996090
339.472480	0.995637
339.864676	0.995493
340.256807	0.994820
340.648875	0.995768
341.040879	0.994731
341.432818	0.995601
341.824694	0.994384
342.216506	0.996084
342.608253	0.996252
342.999937	0.996162
343.391557	0.995875
343.783113	0.994578
344.174605	0.995565
344.566033	0.995055
344.957397	0.994435
345.348697	0.995218
345.739934	0.995942
346.131106	0.994935
346.522215	0.995014
346.913260	0.995357
347.304241	0.994543
347.695159	0.995302
348.086012	0.994962
348.476802	0.994980
348.867528	0.995551
349.258191	0.994604
349.648789	0.995002
350.039324	0.995227
350.429796	0.995862
350.820203	0.995887
351.210548	0.995183
351.600828	0.995997
351.991045	0.994962
352.381198	0.994838
352.771288	0.996267
353.161314	0.995062
353.551276	0.995050
353.941175	0.995888
354.331010	0.994015
354.720782	0.995271
355.110490	0.994497
355.500135	0.995079
355.889717	0.996119
356.279235	0.995109
356.668689	0.994872
357.058080	0.993621
357.447408	0.994992
357.836672	0.995367
358.225873	0.995623
358.615010	0.994461
359.004084	0.996900
359.393095	0.995209
359.782043	0.995276
360.170927	0.996377
360.559748	0.995686
360.948505	0.994330
361.337199	0.995074
361.725830	0.996947
362.114398	0.994528
362.502903	0.995376
362.891344	0.996996
363.279722	0.995014
363.668037	0.996722
364.056289	0.994664
364.444478	0.996763
364.832603	0.996358
365.220665	0.994978
365.608665	0.995494
365.996601	0.994895
366.384474	0.995721
366.772284	0.994497
367.160031	0.995431
367.547715	0.993672
367.935336	0.994768
368.322893	0.995682
368.710388	0.995123
369.097820	0.995054
369.485189	0.995598
369.872495	0.994677
370.259738	0.994218
370.646918	0.996395
371.034035	0.996164
371.421090	0.996613
371.808081	0.994963
372.195010	0.995568
372.581875	0.996108
372.968678	0.995624
373.355418	0.995403
373.742096	0.995252
374.128710	0.996369
374.515262	0.995135
374.901751	0.996581
375.288177	0.995337
375.674540	0.997088
376.060841	0.995042
376.447079	0.997086
376.833254	0.996282
377.219367	0.995704
377.605417	0.996205
377.991404	0.995797
378.377329	0.995708
378.763191	0.996983
379.148991	0.996705
379.534727	0.995884
379.920402	0.995696
380.306013	0.996857
380.691563	0.996679
381.077049	0.996469
381.462474	0.996914
381.847835	0.996177
382.233134	0.995789
382.618371	0.996015
383.003545	0.996322
383.388657	0.996191
383.773706	0.997489
384.158693	0.996844
384.543618	0.997092
384.928480	0.997741
385.313280	0.996736
385.698017	0.997277
386.082692	0.997746
386.467305	0.996881
386.851856	0.996481
387.236344	0.996819
387.620770	0.995371
388.005133	0.997591
388.389435	0.997575
388.773674	0.996711
389.157851	0.996872
389.541965	0.998800
389.926018	0.996295
390.310008	0.997277
390.693936	0.996537
391.077802	0.997072
391.461606	0.996699
391.845348	0.997374
392.229027	0.998898
392.612645	0.996899
392.996200	0.998619
393.379694	0.997104
393.763125	0.998336
394.146494	0.997826
394.529801	0.997320
394.913047	0.998040
395.296230	0.997210
395.679351	0.997854
396.062410	0.998503
396.445408	0.996954
396.828343	0.996557
397.211217	0.997573
397.594028	0.997358
397.976778	0.997492
398.359466	0.996508
398.742092	0.995937
399.124656	0.996757
399.507158	0.996919
399.889598	0.997259
400.271977	0.997347
400.654294	0.997608
401.036549	0.997942
401.418742	0.998100
401.800874	0.996755
402.182944	0.996555
402.564952	0.997256
402.946898	0.998241
403.328783	0.997675
403.710606	0.997160
404.092367	0.996598
404.474067	0.997930
404.855705	0.997128
405.237282	0.997151
405.618797	0.997043
406.000250	0.997040
406.381642	0.997906
406.762972	0.997744
407.144240	0.998486
407.525447	0.997298
407.906593	0.997717
408.287677	0.997765
408.668700	0.998226
409.049661	0.996489
409.430560	0.997520
409.811399	0.997274
410.192176	0.996962
410.572891	0.997300
410.953545	0.997520
411.334138	0.996786
411.714669	0.998075
412.095139	0.997499
412.475547	0.998609
412.855894	0.998276
413.236180	0.998339
413.616405	0.997990
413.996568	0.997967
414.376670	0.997187
414.756711	0.996545
415.136691	0.997627
415.516609	0.997722
415.896466	0.998268
416.276262	0.996398
416.655997	0.998076
417.035670	0.996342
417.415283	0.997386
417.794834	0.997285
418.174324	0.997999
418.553753	0.998419
418.933121	0.997683
419.312428	0.998325
419.691674	0.996980
420.070859	0.997785
420.449983	0.998022
420.829045	0.997727
421.208047	0.998056
421.586988	0.997876
421.965867	0.998029
422.344686	0.998204
422.723444	0.998237
423.102141	0.997782
423.480777	0.998017
423.859352	0.997377
424.237866	0.997969
424.616319	0.998403
424.994712	0.998116
425.373044	0.998732
425.751314	0.998485
426.129524	0.997860
426.507673	0.998567
426.885762	0.999424
427.263789	0.998524
427.641756	0.998218
428.019662	0.998404
428.397508	0.996907
428.775292	0.997269
429.153016	0.997890
429.530679	0.997813
429.908282	0.998578
430.285824	0.997797
430.663305	0.998089
431.040726	0.997153
431.418086	0.999048
431.795385	0.997393
432.172624	0.996973
432.549802	0.998676
432.926920	0.998351
433.303977	0.997431
433.680974	0.997838
434.057910	0.998189
434.434786	0.998476
434.811601	0.997965
435.188355	0.997728
435.565050	0.996956
435.941683	0.998118
436.318257	0.998304
436.694770	0.997246
437.071222	0.997776
437.447614	0.997560
437.823946	0.998244
438.200218	0.997615
438.576429	0.998172
438.952580	0.997904
439.328670	0.996621
439.704700	0.997835
440.080670	0.997835
440.456580	0.997739
440.832429	0.997106
441.208218	0.997428
441.583947	0.997753
441.959616	0.997310
442.335224	0.997131
442.710773	0.998956
443.086261	0.997434
443.461689	0.997989
443.837057	0.997505
444.212365	0.997559
444.587612	0.997462
444.962800	0.997866
445.337927	0.997358
445.712995	0.997379
446.088002	0.998241
446.462949	0.997862
446.837837	0.997785
447.212664	0.998139
447.587431	0.998107
447.962139	0.997371
448.336786	0.998471
448.711374	0.997918
449.085901	0.997264
449.460369	0.997253
449.834776	0.997057
450.209124	0.997635
450.583412	0.997865
450.957640	0.996923
451.331808	0.997537
451.705917	0.997049
452.079965	0.996610
452.453954	0.996762
452.827883	0.996582
453.201752	0.996437
453.575562	0.997532
453.949311	0.997605
454.323001	0.996873
454.696632	0.996506
455.070202	0.996491
455.443713	0.996012
455.817164	0.996652
456.190556	0.995672
456.563888	0.996062
456.937160	0.995460
457.310373	0.995077
457.683526	0.995232
458.056619	0.994797
458.429653	0.994806
458.802628	0.993760
459.175542	0.994372
459.548398	0.993517
459.921194	0.993162
460.293930	0.992925
460.666607	0.991138
461.039224	0.989877
461.411782	0.990520
461.784280	0.988933
462.156719	0.989607
462.529099	0.988858
462.901419	0.988389
463.273680	0.986725
463.645882	0.986773
464.018024	0.986162
464.390106	0.984920
464.762130	0.984237
465.134094	0.981340
465.505999	0.978524
465.877845	0.975168
466.249631	0.974677
466.621358	0.973802
466.993026	0.973033
467.364634	0.971529
467.736184	0.970695
468.107674	0.968928
468.479105	0.966014
468.850477	0.965878
469.221790	0.963690
469.593043	0.962720
469.964238	0.960534
470.335373	0.957538
470.706449	0.956007
471.077467	0.953534
471.448425	0.946976
471.819324	0.942242
472.190164	0.939763
472.560945	0.939521
472.931667	0.937992
473.302330	0.934876
473.672934	0.933267
474.043479	0.928493
474.413965	0.925545
474.784393	0.921238
475.154761	0.917756
475.525070	0.912439
475.895321	0.910214
476.265513	0.905118
476.635645	0.900961
477.005719	0.895438
477.375734	0.890681
477.745691	0.885256
478.115588	0.879816
478.485427	0.873908
478.855207	0.865315
479.224928	0.854129
479.594591	0.847558
479.964194	0.843636
480.333739	0.839868
480.703226	0.832687
481.072653	0.827797
481.442022	0.818341
481.811333	0.810570
482.180584	0.806715
482.549777	0.800499
482.918912	0.794745
483.287988	0.788042
483.657005	0.781806
484.025964	0.777078
484.394864	0.769453
484.763706	0.762345
485.132489	0.757582
485.501213	0.750286
485.869879	0.743173
486.238487	0.735775
486.607036	0.729577
486.975527	0.721163
487.343959	0.714223
487.712333	0.705700
488.080648	0.699336
488.448905	0.690041
488.817104	0.683888
489.185244	0.674185
489.553326	0.664344
489.921350	0.652675
490.289315	0.634947
490.657222	0.626708
491.025070	0.618881
491.392861	0.613183
491.760593	0.608243
492.128267	0.603038
492.495883	0.597765
492.863440	0.593280
493.230939	0.588571
493.598380	0.581699
493.965763	0.575037
494.333088	0.569898
494.700354	0.562008
495.067563	0.555540
495.434713	0.549284
495.801805	0.541561
496.168839	0.534784
496.535815	0.528001
496.902733	0.522073
497.269593	0.514944
497.636395	0.507950
498.003139	0.500288
498.369825	0.496394
498.736453	0.486343
499.103023	0.481426
499.469535	0.474165
499.835989	0.468450
500.202385	0.461908
500.568723	0.457937
500.935003	0.449647
501.301226	0.444878
501.667390	0.435909
502.033497	0.428043
502.399546	0.424893
502.765537	0.419662
503.131470	0.412863
503.497345	0.403870
503.863163	0.406268
504.228923	0.394368
504.594625	0.388371
504.960269	0.387592
505.325856	0.378578
505.691385	0.377265
506.056856	0.369703
506.422270	0.364587
506.787625	0.362472
507.152924	0.355210
507.518164	0.351591
507.883347	0.348349
508.248472	0.346232
508.613540	0.337769
508.978550	0.335858
509.343503	0.332439
509.708398	0.326799
510.073236	0.320976
510.438016	0.317520
510.802738	0.314657
511.167403	0.310675
511.532010	0.308832
511.896561	0.301911
512.261053	0.297631
512.625488	0.296401
512.989866	0.293937
513.354186	0.291394
513.718449	0.290409
514.082655	0.284418
514.446803	0.283909
514.810894	0.279424
515.174927	0.279556
515.538904	0.276923
515.902822	0.271833
516.266684	0.272036
516.630488	0.271289
516.994235	0.268255
517.357925	0.265280
517.721558	0.261853
518.085133	0.259694
518.448651	0.258373
518.812112	0.258751
519.175516	0.256929
519.538863	0.253405
519.902152	0.253570
520.265385	0.249049
520.628560	0.249646
520.991678	0.248564
521.354739	0.246786
521.717743	0.246900
522.080690	0.246580
522.443580	0.242896
522.806413	0.242948
523.169189	0.241344
523.531908	0.239684
523.894569	0.242384
524.257174	0.241569
524.619722	0.238632
524.982213	0.239434
525.344647	0.237625
525.707025	0.238016
526.069345	0.235417
526.431608	0.236590
526.793815	0.234208
527.155964	0.237884
527.518057	0.236499
527.880093	0.237292
528.242072	0.235432
528.603995	0.237015
528.965860	0.238315
529.327669	0.236836
529.689421	0.237743
530.051117	0.238222
530.412755	0.235617
530.774337	0.237591
531.135862	0.237856
531.497331	0.236839
531.858743	0.239869
532.220098	0.236250
532.581396	0.238460
532.942638	0.239025
533.303824	0.239885
533.664953	0.239382
534.026025	0.241202
534.387040	0.238978
534.747999	0.238639
535.108902	0.237335
535.469748	0.242113
535.830537	0.239970
536.191270	0.240286
536.551947	0.239762
536.912567	0.239889
537.273131	0.241483
537.633638	0.241372
537.994089	0.241602
538.354483	0.242995
538.714821	0.239741
539.075103	0.239398
539.435328	0.240239
539.795497	0.243709
540.155609	0.240366
540.515665	0.238326
540.875665	0.244101
541.235609	0.242483
541.595496	0.242474
541.955328	0.238886
542.315102	0.241337
542.674821	0.242523
543.034483	0.242219
543.394090	0.242110
543.753640	0.243971
544.113134	0.238946
544.472571	0.242346
544.831953	0.239000
545.191278	0.243200
545.550548	0.242679
545.909761	0.239320
546.268918	0.240111
546.628019	0.238508
546.987064	0.241068
547.346053	0.243101
547.704986	0.240391
548.063863	0.240969
548.422684	0.241402
548.781449	0.243038
549.140158	0.240590
549.498811	0.243427
549.857408	0.246638
550.215949	0.241174
550.574434	0.244325
550.932864	0.242450
551.291237	0.241103
551.649555	0.242270
552.007817	0.241914
552.366022	0.242539
552.724173	0.243192
553.082267	0.242932
553.440305	0.240448
553.798288	0.244626
554.156215	0.241278
554.514086	0.241970
554.871902	0.244936
555.229661	0.244287
555.587365	0.244815
555.945014	0.247394
556.302606	0.244254
556.660143	0.246769
557.017625	0.243096
557.375050	0.245415
557.732421	0.242337
558.089735	0.244374
558.446994	0.244220
558.804197	0.243812
559.161345	0.243589
559.518437	0.247095
559.875474	0.244628
560.232455	0.244224
560.589381	0.245150
560.946251	0.245327
561.303065	0.243047
561.659825	0.244329
562.016528	0.245900
562.373177	0.248842
562.729770	0.246059
563.086307	0.248140
563.442789	0.245910
563.799216	0.248911
564.155587	0.247514
564.511904	0.248623
564.868164	0.248549
565.224370	0.248626
565.580520	0.250249
565.936615	0.250202
566.292654	0.252992
566.648638	0.249982
567.004567	0.251105
567.360441	0.251655
567.716260	0.253883
568.072023	0.251594
568.427732	0.252303
568.783385	0.255032
569.138982	0.252801
569.494525	0.252407
569.850013	0.255258
570.205445	0.253623
570.560823	0.256375
570.916145	0.258197
571.271412	0.256195
571.626625	0.257867
571.981782	0.258229
572.336884	0.259152
572.691931	0.258887
573.046923	0.259997
573.401860	0.261520
573.756743	0.263009
574.111570	0.261886
574.466342	0.262539
574.821059	0.261885
575.175722	0.264395
575.530330	0.264179
575.884882	0.264420
576.239380	0.266481
576.593823	0.266947
576.948211	0.266348
577.302544	0.269578
577.656823	0.269294
578.011047	0.269168
578.365216	0.269797
578.719330	0.272070
579.073389	0.271689
579.427394	0.273179
579.781344	0.274005
580.135239	0.275378
580.489080	0.275087
580.842866	0.277830
581.196597	0.277993
581.550273	0.276476
581.903895	0.277352
582.257463	0.275413
582.610975	0.279381
582.964434	0.278206
583.317837	0.280839
583.671186	0.281076
584.024481	0.281440
584.377721	0.283849
584.730906	0.284252
585.084037	0.283477
585.437113	0.285456
585.790135	0.285225
586.143103	0.287912
586.496016	0.288870
586.848874	0.286573
587.201679	0.287218
587.554428	0.290544
587.907124	0.289228
588.259765	0.289752
588.612352	0.290376
588.964884	0.294167
589.317362	0.294104
589.669786	0.293810
590.022155	0.292224
590.374470	0.291637
590.726731	0.293682
591.078937	0.298438
591.431090	0.294913
591.783188	0.298970
592.135232	0.299128
592.487222	0.299555
592.839157	0.297329
593.191038	0.299702
593.542866	0.302000
593.894639	0.305029
594.246358	0.303126
594.598022	0.302839
594.949633	0.306289
595.301190	0.306819
595.652692	0.306156
596.004141	0.302448
596.355535	0.310476
596.706876	0.311086
597.058162	0.313151
597.409395	0.310727
597.760573	0.308469
598.111698	0.311506
598.462768	0.312463
598.813785	0.313352
599.164748	0.314318
599.515657	0.314916
599.866511	0.317960
600.217312	0.313241
600.568060	0.318834
600.918753	0.315343
601.269392	0.315742
601.619978	0.319707
601.970510	0.317038
602.320988	0.317188
602.671412	0.314896
603.021783	0.317259
603.372100	0.318895
603.722363	0.318333
604.072572	0.319209
604.422728	0.318904
604.772830	0.321029
605.122878	0.320672
605.472872	0.321226
605.822813	0.319492
606.172701	0.322140
606.522534	0.319339
606.872314	0.319515
607.222041	0.320347
607.571714	0.318747
607.921333	0.320119
608.270899	0.320134
608.620411	0.316788
608.969870	0.320639
609.319276	0.320389
609.668627	0.320434
610.017926	0.318940
610.367171	0.317640
610.716362	0.318202
611.065500	0.318294
611.414585	0.317329
611.763616	0.317956
612.112594	0.318562
612.461518	0.317903
612.810389	0.315271
613.159207	0.317690
613.507971	0.319701
613.856682	0.315278
614.205340	0.317202
614.553945	0.313667
614.902496	0.317773
615.250994	0.315559
615.599439	0.316427
615.947830	0.315801
616.296169	0.316826
616.644454	0.315860
616.992686	0.316532
617.340864	0.314127
617.688990	0.317714
618.037063	0.314473
618.385082	0.316437
618.733048	0.313117
619.080961	0.315505
619.428821	0.315055
619.776628	0.314709
620.124382	0.316468
620.472083	0.316786
620.819731	0.315997
621.167326	0.319880
621.514868	0.319786
621.862357	0.323998
622.209793	0.323707
622.557176	0.325925
622.904506	0.327006
623.251783	0.329055
623.599007	0.331637
623.946179	0.330902
624.293297	0.333085
624.640363	0.336867
624.987376	0.337432
625.334336	0.339863
625.681243	0.342310
626.028097	0.342500
626.374899	0.343890
626.721647	0.344144
627.068343	0.347234
627.414987	0.348260
627.761577	0.350316
628.108115	0.348578
628.454600	0.353966
628.801032	0.351086
629.147412	0.353351
629.493739	0.353804
629.840014	0.356821
630.186236	0.354409
630.532405	0.359858
630.878521	0.356966
631.224585	0.359124
631.570597	0.362705
631.916556	0.361255
632.262462	0.361591
632.608316	0.363420
632.954117	0.364405
633.299866	0.365237
633.645562	0.365502
633.991206	0.369548
634.336797	0.373268
634.682336	0.375022
635.027823	0.377055
635.373257	0.377485
635.718639	0.381012
636.063968	0.379844
636.409245	0.386432
636.754470	0.386593
637.099642	0.388756
637.444762	0.392086
637.789829	0.391423
638.134845	0.394681
638.479808	0.395707
638.824719	0.395395
639.169577	0.399045
639.514383	0.397873
639.859137	0.402749
640.203839	0.402316
640.548489	0.402748
640.893086	0.404415
641.237632	0.405809
641.582125	0.404308
641.926566	0.406032
642.270955	0.405835
642.615292	0.405843
642.959576	0.405177
643.303809	0.405863
643.647990	0.405529
643.992118	0.406607
644.336195	0.409715
644.680219	0.407833
645.024192	0.408750
645.368112	0.401940
645.711981	0.401159
646.055797	0.396555
646.399562	0.398976
646.743274	0.391062
647.086935	0.388891
647.430544	0.388926
647.774101	0.387378
648.117606	0.387282
648.461059	0.387728
648.804460	0.390047
649.147810	0.395277
649.491108	0.397288
649.834354	0.398209
650.177548	0.404094
650.520690	0.408712
650.863781	0.410329
651.206820	0.409537
651.549807	0.414631
651.892742	0.418309
652.235626	0.417465
652.578458	0.418649
652.921238	0.424761
653.263967	0.422883
653.606644	0.427068
653.949269	0.426013
654.291843	0.429982
654.634365	0.427052
654.976836	0.430445
655.319255	0.430298
655.661622	0.431973
656.003938	0.431993
656.346203	0.434476
656.688416	0.432717
657.030577	0.436233
657.372687	0.438483
657.714746	0.438939
658.056753	0.436110
658.398708	0.439741
658.740612	0.440878
659.082465	0.436980
659.424266	0.437456
659.766016	0.437078
660.107715	0.439837
660.449362	0.438606
660.790958	0.439401
661.132503	0.439729
661.473996	0.437303
661.815438	0.438205
662.156829	0.438359
662.498168	0.439453
662.839456	0.440954
663.180693	0.437874
663.521879	0.437801
663.863013	0.438791
664.204097	0.438070
664.545129	0.434984
664.886110	0.435061
665.227040	0.432070
665.567918	0.435165
665.908746	0.433514
666.249522	0.432260
666.590248	0.433564
666.930922	0.432087
667.271545	0.430724
667.612118	0.430723
667.952639	0.432597
668.293109	0.431040
668.633528	0.434100
668.973896	0.433984
669.314213	0.434353
669.654480	0.435999
669.994695	0.436059
670.334859	0.436793
670.674973	0.437388
671.015035	0.437302
671.355047	0.437412
671.695008	0.438376
672.034918	0.440021
672.374777	0.439482
672.714585	0.440823
673.054342	0.440561
673.394049	0.440825
673.733705	0.438639
674.073310	0.439638
674.412864	0.442632
674.752368	0.443323
675.091820	0.443652
675.431223	0.447462
675.770574	0.448011
676.109875	0.450811
676.449125	0.450965
676.788324	0.452464
677.127473	0.458117
677.466571	0.458231
677.805619	0.459739
678.144616	0.460774
678.483562	0.461830
678.822458	0.464857
679.161303	0.465980
679.500098	0.465768
679.838842	0.467764
680.177535	0.467299
680.516179	0.466225
680.854771	0.465675
681.193314	0.459213
681.531805	0.449772
681.870247	0.438263
682.208638	0.431494
682.546978	0.430094
682.885268	0.431911
683.223508	0.437957
683.561697	0.441736
683.899836	0.444534
684.237925	0.448059
684.575963	0.450032
684.913951	0.453334
685.251889	0.449272
685.589776	0.450990
685.927614	0.453833
686.265401	0.447951
686.603137	0.448764
686.940824	0.443376
687.278460	0.441727
687.616046	0.440835
687.953582	0.435577
688.291068	0.437286
688.628504	0.433265
688.965889	0.435736
689.303224	0.439656
689.640510	0.443302
689.977745	0.448961
690.314930	0.456580
690.652065	0.461645
690.989150	0.468735
691.326185	0.475026
691.663170	0.479681
692.000105	0.487282
692.336990	0.493938
692.673825	0.495999
693.010610	0.503607
693.347345	0.508550
693.684030	0.510216
694.020665	0.515192
694.357251	0.523580
694.693786	0.523550
695.030272	0.527506
695.366707	0.530851
695.703093	0.534517
696.039429	0.532374
696.375716	0.533833
696.711952	0.536355
697.048139	0.538527
697.384276	0.540711
697.720363	0.538846
698.056400	0.537671
698.392388	0.543992
698.728326	0.546477
699.064214	0.548942
699.400053	0.549732
699.735842	0.552891
700.071581	0.556899
700.407270	0.559471
700.742910	0.561360
701.078501	0.568056
701.414042	0.568354
701.749533	0.571828
702.084974	0.579956
702.420366	0.572146
702.755709	0.580031
703.091002	0.587905
703.426246	0.581744
703.761440	0.586634
704.096584	0.591712
704.431679	0.588448
704.766725	0.590925
705.101721	0.592927
705.436668	0.588424
705.771565	0.596106
706.106413	0.592399
706.441212	0.587330
706.775961	0.586466
707.110661	0.589058
707.445311	0.586189
707.779913	0.583274
708.114465	0.581563
708.448967	0.578180
708.783421	0.570287
709.117825	0.565069
709.452180	0.565255
709.786485	0.558614
710.120742	0.548537
710.454949	0.551294
710.789107	0.543533
711.123216	0.533736
711.457275	0.535260
711.791286	0.526067
712.125247	0.525803
712.459159	0.536970
712.793023	0.528877
713.126837	0.533570
713.460602	0.533187
713.794318	0.543036
714.127985	0.541746
714.461602	0.551875
714.795171	0.554810
715.128691	0.562615
715.462162	0.570132
715.795584	0.575994
716.128957	0.578038
716.462281	0.585292
716.795556	0.589132
717.128782	0.593064
717.461960	0.603876
717.795088	0.601582
718.128167	0.607602
718.461198	0.616701
718.794180	0.616911
719.127113	0.619583
719.459997	0.623159
719.792833	0.629695
720.125619	0.631375
720.458357	0.637080
720.791046	0.636270
721.123686	0.639471
721.456278	0.646165
721.788821	0.644494
722.121315	0.648268
722.453761	0.652838
722.786158	0.650311
723.118506	0.646426
723.450805	0.654559
723.783056	0.650286
724.115259	0.647831
724.447412	0.646941
724.779518	0.648318
725.111574	0.647717
725.443582	0.643829
725.775542	0.644744
726.107453	0.637518
726.439315	0.637585
726.771129	0.635946
727.102895	0.628939
727.434612	0.622569
727.766281	0.620886
728.097901	0.619508
728.429473	0.618467
728.760996	0.617446
729.092471	0.617468
729.423897	0.621579
729.755276	0.620533
730.086606	0.620731
730.417887	0.614994
730.749120	0.605743
731.080305	0.597030
731.411442	0.593022
731.742530	0.597703
732.073570	0.597037
732.404562	0.589505
732.735506	0.590967
733.066401	0.595570
733.397249	0.604909
733.728048	0.615829
734.058798	0.628599
734.389501	0.639806
734.720156	0.648522
735.050762	0.656901
735.381320	0.657631
735.711831	0.666875
736.042293	0.671738
736.372707	0.667198
736.703073	0.671920
737.033391	0.673971
737.363661	0.671311
737.693883	0.666997
738.024056	0.665515
738.354182	0.666367
738.684260	0.655664
739.014290	0.651714
739.344272	0.652603
739.674207	0.645750
740.004093	0.644841
740.333931	0.645774
740.663722	0.645608
740.993464	0.646145
741.323159	0.649379
741.652806	0.655488
741.982405	0.658672
742.311956	0.663845
742.641460	0.666215
742.970915	0.669775
743.300323	0.676802
743.629683	0.684124
743.958996	0.685875
744.288260	0.690189
744.617477	0.696403
744.946647	0.698070
745.275768	0.703151
745.604842	0.702784
745.933869	0.712955
746.262847	0.713265
746.591778	0.707182
746.920662	0.712886
747.249498	0.719543
747.578286	0.710884
747.907027	0.706736
748.235720	0.707549
748.564365	0.701931
748.892963	0.701810
749.221514	0.705698
749.550017	0.710078
749.878473	0.710296
750.206881	0.716411
750.535242	0.717784
750.863555	0.717057
751.191821	0.718030
751.520039	0.721597
751.848210	0.726629
752.176334	0.719197
752.504411	0.718172
752.832440	0.726262
753.160421	0.730751
753.488356	0.728369
753.816243	0.726177
754.144082	0.733923
754.471875	0.737291
754.799620	0.732128
755.127318	0.735338
755.454969	0.734185
755.782572	0.734395
756.110129	0.738630
756.437638	0.741316
756.765100	0.737333
757.092515	0.736149
757.419882	0.734755
757.747203	0.740165
758.074477	0.739155
758.401703	0.737885
758.728882	0.731929
759.056014	0.730730
759.383099	0.729644
759.710138	0.731067
760.037129	0.727477
760.364073	0.720632
760.690970	0.724141
761.017820	0.729424
761.344623	0.724974
761.671379	0.716075
761.998088	0.704440
762.324751	0.682498
762.651366	0.640676
762.977935	0.574502
763.304456	0.522610
763.630931	0.512662
763.957359	0.551692
764.283740	0.596249
764.610074	0.622527
764.936362	0.654570
765.262602	0.680295
765.588796	0.701156
765.914943	0.719240
766.241044	0.736186
766.567097	0.744087
766.893104	0.752855
767.219064	0.759889
767.544978	0.765674
767.870845	0.779939
768.196665	0.783260
768.522438	0.781921
768.848165	0.782554
769.173846	0.791071
769.499479	0.795750
769.825066	0.799172
770.150607	0.805056
770.476101	0.798364
770.801548	0.800772
771.126949	0.812403
771.452303	0.816185
771.777611	0.814488
772.102872	0.814707
772.428087	0.818201
772.753256	0.822761
773.078378	0.825059
773.403453	0.833563
773.728482	0.837438
774.053465	0.831557
774.378401	0.834498
774.703291	0.842814
775.028135	0.842491
775.352932	0.843728
775.677683	0.847087
776.002388	0.847470
776.327046	0.846958
776.651658	0.849960
776.976224	0.854787
777.300743	0.853331
777.625216	0.856068
777.949643	0.858163
778.274024	0.858558
778.598359	0.859470
778.922647	0.858311
779.246889	0.859367
779.571086	0.862397
779.895236	0.865208
780.219339	0.862925
780.543397	0.858570
780.867409	0.857161
781.191374	0.861109
781.515294	0.861423
781.839167	0.860175
782.162995	0.863502
782.486776	0.860686
782.810511	0.861178
783.134201	0.865128
783.457844	0.863457
783.781441	0.865642
784.104993	0.871970
784.428498	0.872506
784.751958	0.867201
785.075372	0.870109
785.398739	0.874503
785.722061	0.870501
786.045337	0.865675
786.368568	0.870536
786.691752	0.873029
787.014891	0.858480
787.337983	0.849379
787.661030	0.842432
787.984031	0.825589
788.306987	0.811876
788.629897	0.813735
788.952760	0.817810
789.275579	0.822986
789.598351	0.838276
789.921078	0.851539
790.243759	0.852782
790.566395	0.857986
790.888984	0.864833
791.211529	0.869943
791.534027	0.873746
791.856480	0.875188
792.178888	0.881043
792.501249	0.882851
792.823566	0.883580
793.145836	0.884342
793.468062	0.885926
793.790241	0.885803
794.112375	0.884516
794.434464	0.879085
794.756507	0.878570
795.078505	0.878526
795.400457	0.873113
795.722364	0.861566
796.044226	0.854885
796.366042	0.852689
796.687812	0.856758
797.009538	0.852205
797.331218	0.856973
797.652852	0.860367
797.974442	0.865683
798.295986	0.865349
798.617484	0.868262
798.938938	0.872362
799.260346	0.876628
799.581709	0.878792
799.903026	0.880674
800.224299	0.881224
800.545526	0.885570
800.866708	0.890316
801.187845	0.894197
801.508936	0.892522
801.829983	0.890390
802.150984	0.893524
802.471940	0.899094
802.792851	0.898215
803.113717	0.899584
803.434538	0.897510
803.755314	0.900437
804.076045	0.901453
804.396731	0.900986
804.717372	0.901031
805.037967	0.902837
805.358518	0.900869
805.679024	0.897134
805.999485	0.898313
806.319901	0.897446
806.640272	0.899638
806.960598	0.897236
807.280879	0.895172
807.601115	0.893739
807.921306	0.897786
808.241453	0.897335
808.561554	0.894789
808.881611	0.895079
809.201623	0.897305
809.521590	0.897200
809.841513	0.897786
810.161390	0.897603
810.481223	0.899228
810.801011	0.902552
811.120755	0.904380
811.440453	0.903370
811.760107	0.901099
812.079716	0.901603
812.399281	0.904432
812.718801	0.907009
813.038276	0.908310
813.357707	0.906945
813.677093	0.904181
813.996434	0.907353
814.315731	0.909188
814.634983	0.910544
814.954191	0.909099
815.273354	0.906882
815.592473	0.902031
815.911547	0.902902
816.230577	0.900430
816.549562	0.897236
816.868502	0.898373
817.187399	0.894734
817.506250	0.889325
817.825058	0.891514
818.143821	0.887309
818.462539	0.883097
818.781213	0.875485
819.099843	0.864056
819.418429	0.848603
819.736970	0.832103
820.055466	0.813470
820.373919	0.786712
820.692327	0.754800
821.010691	0.720921
821.329011	0.644145
821.647286	0.530895
821.965517	0.417525
822.283704	0.375496
822.601847	0.377424
822.919945	0.412996
823.237999	0.445489
823.556010	0.491622
823.873976	0.546944
824.191897	0.596505
824.509775	0.639039
824.827609	0.683854
825.145398	0.705751
825.463144	0.708762
825.780845	0.692193
826.098502	0.672695
826.416116	0.627919
826.733685	0.584928
827.051210	0.576648
827.368692	0.591045
827.686129	0.627904
828.003522	0.679765
828.320872	0.727265
828.638177	0.770736
828.955439	0.802100
829.272656	0.823791
829.589830	0.840386
829.906960	0.856955
830.224046	0.868859
830.541088	0.879419
830.858086	0.883041
831.175041	0.889341
831.491952	0.888133
831.808819	0.884781
832.125642	0.878670
832.442421	0.863062
832.759157	0.842930
833.075849	0.796997
833.392497	0.733840
833.709101	0.693732
834.025662	0.702561
834.342179	0.734737
834.658653	0.773702
834.975083	0.809006
835.291469	0.834596
835.607811	0.856627
835.924110	0.872370
836.240366	0.890692
836.556578	0.902670
836.872746	0.911562
837.188871	0.915955
837.504952	0.922762
837.820990	0.923384
838.136984	0.928753
838.452935	0.930799
838.768842	0.933267
839.084706	0.926369
839.400526	0.900776
839.716303	0.860918
840.032037	0.839395
840.347727	0.844183
840.663373	0.861703
840.978977	0.881511
841.294537	0.903667
841.610054	0.918798
841.925527	0.926827
842.240957	0.933549
842.556344	0.940981
842.871687	0.947091
843.186987	0.950918
843.502244	0.951934
843.817458	0.952253
844.132629	0.956725
844.447756	0.960963
844.762840	0.961240
845.077881	0.959691
845.392879	0.960755
845.707833	0.963019
846.022745	0.965428
846.337613	0.965558
846.652438	0.966646
846.967221	0.964517
847.281960	0.966178
847.596656	0.968139
847.911309	0.965734
848.225919	0.966985
848.540485	0.968765
848.855009	0.969324
849.169490	0.968944
849.483928	0.969098
849.798323	0.970366
850.112675	0.970342
850.426984	0.970185
850.741251	0.970919
851.055474	0.970662
851.369654	0.968260
851.683792	0.970545
851.997887	0.970371
852.311938	0.970792
852.625947	0.970866
852.939914	0.969089
853.253837	0.970556
853.567718	0.971772
853.881555	0.971838
854.195350	0.969158
854.509103	0.970242
854.822812	0.971504
855.136479	0.970714
855.450103	0.970577
855.763685	0.969327
856.077224	0.968951
856.390720	0.970851
856.704173	0.971617
857.017584	0.969249
857.330953	0.967151
857.644278	0.968760
857.957561	0.969081
858.270802	0.969153
858.584000	0.968969
858.897155	0.967161
859.210268	0.968244
859.523339	0.968586
859.836367	0.970707
860.149352	0.970692
860.462295	0.969405
860.775195	0.970543
861.088054	0.969635
861.400869	0.969609
861.713642	0.970867
862.026373	0.971150
862.339062	0.971521
862.651708	0.968005
862.964312	0.969182
863.276873	0.970504
863.589392	0.968754
863.901869	0.966894
864.214303	0.965841
864.526696	0.965753
864.839045	0.964862
865.151353	0.962267
865.463619	0.963732
865.775842	0.963648
866.088023	0.962473
866.400162	0.962874
866.712258	0.963683
867.024313	0.962073
867.336325	0.964182
867.648296	0.963973
867.960224	0.963562
868.272110	0.962674
868.583954	0.964407
868.895755	0.965515
869.207515	0.961883
869.519233	0.960271
869.830909	0.961214
870.142542	0.963203
870.454134	0.962776
870.765684	0.961080
871.077191	0.959754
871.388657	0.960315
871.700081	0.959535
872.011463	0.959104
872.322803	0.959024
872.634101	0.958516
872.945357	0.955455
873.256571	0.953850
873.567744	0.955152
873.878874	0.954268
874.189963	0.952390
874.501010	0.953175
874.812015	0.950520
875.122979	0.952730
875.433900	0.955166
875.744780	0.955300
876.055618	0.951321
876.366415	0.951102
876.677169	0.951852
876.987882	0.951941
877.298554	0.953077
877.609183	0.948366
877.919771	0.946698
878.230317	0.943438
878.540822	0.942581
878.851285	0.937454
879.161707	0.929268
879.472087	0.916895
879.782425	0.900693
880.092722	0.868259
880.402977	0.817156
880.713191	0.758776
881.023363	0.700773
881.333494	0.667603
881.643583	0.639415
881.953631	0.638691
882.263637	0.668275
882.573602	0.707323
882.883526	0.732559
883.193408	0.754705
883.503248	0.776333
883.813048	0.803432
884.122806	0.832743
884.432522	0.855354
884.742197	0.875448
885.051831	0.883844
885.361424	0.893783
885.670975	0.905955
885.980485	0.916315
886.289954	0.922604
886.599382	0.926162
886.908768	0.930784
887.218113	0.935828
887.527417	0.940393
887.836680	0.943868
888.145901	0.945198
888.455082	0.947680
888.764221	0.952306
889.073319	0.952884
889.382376	0.954574
889.691392	0.955166
890.000366	0.953402
890.309300	0.955061
890.618193	0.954345
890.927044	0.952525
891.235855	0.952999
891.544625	0.952037
891.853353	0.953708
892.162041	0.951054
892.470687	0.944627
892.779293	0.939371
893.087858	0.936843
893.396381	0.929823
893.704864	0.914885
894.013306	0.892681
894.321707	0.866363
894.630068	0.852285
894.938387	0.848097
895.246665	0.848523
895.554903	0.861671
895.863100	0.874515
896.171256	0.890675
896.479371	0.909305
896.787446	0.922179
897.095480	0.928408
897.403473	0.929931
897.711425	0.935343
898.019336	0.941289
898.327207	0.944737
898.635038	0.947095
898.942827	0.947031
899.250576	0.949639
899.558284	0.954255
899.865952	0.956348
900.173579	0.957223
900.481165	0.956407
900.788711	0.960319
901.096216	0.962762
901.403681	0.963068
901.711105	0.964622
902.018489	0.965876
902.325832	0.964053
902.633135	0.962349
902.940397	0.956935
903.247619	0.944831
903.554800	0.920640
903.861941	0.882865
904.169041	0.848319
904.476101	0.832477
904.783121	0.833122
905.090100	0.848967
905.397039	0.868235
905.703938	0.889859
906.010796	0.908723
906.317614	0.925689
906.624391	0.936764
906.931129	0.946098
907.237826	0.953274
907.544483	0.960361
907.851099	0.963080
908.157675	0.968994
908.464211	0.971266
908.770707	0.974589
909.077163	0.975252
909.383578	0.975953
909.689954	0.975798
909.996289	0.977154
910.302584	0.978648
910.608839	0.980777
910.915054	0.978441
911.221229	0.977963
911.527363	0.977480
911.833458	0.978423
912.139513	0.977797
912.445527	0.976056
912.751502	0.974981
913.057436	0.973128
913.363331	0.970587
913.669186	0.966680
913.975000	0.961784
914.280775	0.957009
914.586510	0.950016
914.892205	0.937619
915.197859	0.917298
915.503475	0.890814
915.809050	0.872121
916.114585	0.867336
916.420081	0.865374
916.725536	0.861749
917.030952	0.869015
917.336328	0.881459
917.641665	0.896524
917.946961	0.910675
918.252218	0.922473
918.557435	0.930596
918.862612	0.939773
919.167750	0.944080
919.472848	0.949967
919.777906	0.954469
920.082925	0.959985
920.387904	0.964380
920.692843	0.964276
920.997743	0.965399
921.302603	0.968652
921.607423	0.971289
921.912204	0.972870
922.216946	0.973589
922.521647	0.974105
922.826310	0.975280
923.130932	0.977614
923.435516	0.979056
923.740059	0.979901
924.044564	0.979073
924.349028	0.980742
924.653454	0.984122
924.957840	0.985461
925.262186	0.984960
925.566493	0.984857
925.870761	0.985313
926.174989	0.986532
926.479178	0.989085
926.783328	0.988811
927.087438	0.988425
927.391509	0.988255
927.695541	0.990881
927.999533	0.989326
928.303486	0.989512
928.607400	0.992132
928.911275	0.990315
929.215110	0.991126
929.518906	0.990850
929.822663	0.988831
930.126381	0.991909
930.430060	0.991206
930.733699	0.991545
931.037299	0.990192
931.340861	0.991544
931.644383	0.990529
931.947866	0.989331
932.251309	0.990715
932.554714	0.991384
932.858080	0.989589
933.161407	0.990356
933.464694	0.991778
933.767943	0.990446
934.071153	0.991903
934.374323	0.992250
934.677455	0.991546
934.980548	0.992128
935.283602	0.991308
935.586617	0.992332
935.889593	0.990978
936.192530	0.991164
936.495428	0.991749
936.798287	0.990285
937.101108	0.991822
937.403890	0.989332
937.706632	0.988865
938.009336	0.986663
938.312002	0.986335
938.614628	0.985995
938.917216	0.983525
939.219765	0.983392
939.522275	0.983837
939.824747	0.983737
940.127179	0.984100
940.429573	0.984656
940.731929	0.984344
941.034246	0.985275
941.336524	0.986280
941.638763	0.987394
941.940964	0.986096
942.243126	0.987894
942.545250	0.988216
942.847335	0.988449
943.149381	0.987531
943.451389	0.987859
943.753359	0.987447
944.055290	0.991282
944.357182	0.990243
944.659036	0.988253
944.960851	0.989864
945.262628	0.990746
945.564367	0.991059
945.866067	0.991297
946.167729	0.991143
946.469352	0.990125
946.770937	0.988710
947.072484	0.991480
947.373992	0.990340
947.675462	0.991698
947.976893	0.991212
948.278286	0.989774
948.579641	0.991429
948.880958	0.990574
949.182236	0.990725
949.483476	0.990617
949.784678	0.991309
950.085841	0.990855
950.386967	0.991499
950.688054	0.991662
950.989103	0.991090
951.290114	0.988676
951.591087	0.990465
951.892021	0.990314
952.192917	0.989755
952.493776	0.987937
952.794596	0.989683
953.095378	0.987469
953.396122	0.988823
953.696828	0.987600
953.997496	0.989686
954.298126	0.991391
954.598718	0.990349
954.899272	0.991543
955.199788	0.990884
955.500266	0.992219
955.800706	0.993217
956.101108	0.993622
956.401472	0.993803
956.701798	0.993914
957.002087	0.994882
957.302337	0.992801
957.602550	0.995536
957.902724	0.995287
958.202861	0.995243
958.502960	0.995788
958.803022	0.993702
959.103045	0.996869
959.403031	0.995202
959.702979	0.996227
960.002889	0.995081
960.302762	0.995609
960.602596	0.996704
960.902393	0.994766
961.202153	0.996972
961.501875	0.995816
961.801559	0.996294
962.101205	0.995815
962.400814	0.995863
962.700385	0.996863
962.999918	0.996492
963.299414	0.997156
963.598873	0.995149
963.898293	0.996617
964.197677	0.995622
964.497022	0.996581
964.796331	0.997358
965.095601	0.996107
965.394835	0.996224
965.694030	0.996223
965.993189	0.996174
966.292309	0.995401
966.591393	0.997924
966.890439	0.996931
967.189447	0.997413
967.488419	0.997656
967.787353	0.995564
968.086249	0.995913
968.385108	0.996749
968.683930	0.996142
968.982714	0.997349
969.281462	0.997487
969.580172	0.996528
969.878844	0.997241
970.177480	0.996760
970.476078	0.996826
970.774639	0.996941
971.073162	0.997481
971.371649	0.996573
971.670098	0.995678
971.968510	0.996830
972.266885	0.995667
972.565223	0.996759
972.863524	0.996579
973.161788	0.995208
973.460014	0.997915
973.758204	0.994676
974.056356	0.996373
974.354471	0.993265
974.652550	0.996465
974.950591	0.996051
975.248595	0.996440
975.546563	0.996144
975.844493	0.996697
976.142386	0.997152
976.440243	0.996395
976.738062	0.997515
977.035845	0.998209
977.333590	0.997069
977.631299	0.998120
977.928971	0.996996
978.226606	0.997179
978.524204	0.995776
978.821765	0.997724
979.119290	0.996925
979.416777	0.997528
979.714228	0.997843
980.011642	0.996566
980.309020	0.997130
980.606360	0.997083
980.903664	0.997436
981.200931	0.996436
981.498162	0.994615
981.795356	0.994375
982.092513	0.994815
982.389633	0.995294
982.686717	0.991984
982.983764	0.991430
983.280775	0.990936
983.577749	0.991959
983.874686	0.992960
984.171587	0.991345
984.468451	0.993852
984.765279	0.994850
985.062070	0.993785
985.358824	0.995370
985.655543	0.995132
985.952224	0.996533
986.248869	0.996711
986.545478	0.996473
986.842050	0.998507
987.138586	0.995768
987.435086	0.996983
987.731549	0.998267
988.027975	0.997002
988.324366	0.996971
988.620719	0.997214
988.917037	0.995748
989.213318	0.998872
989.509563	0.998771
989.805772	0.997979
990.101944	0.999411
990.398080	0.997481
990.694180	0.998503
990.990244	0.997617
991.286271	0.998590
991.582262	0.997433
991.878217	0.997598
992.174136	0.998167
992.470019	0.998520
992.765865	0.998703
993.061676	0.997463
993.357450	0.998406
993.653188	0.996830
993.948890	0.996950
994.244556	0.997361
994.540186	0.997458
994.835780	0.996741
995.131337	0.997224
995.426859	0.997203
995.722345	0.997577
996.017795	0.996067
996.313208	0.996421
996.608586	0.996036
996.903928	0.995220
997.199234	0.994836
997.494504	0.996184
997.789738	0.996784
998.084936	0.996661
998.380099	0.998098
998.675225	0.997086
998.970316	0.997942
999.265371	0.997023
999.560390	0.997566
999.855373	0.998890
1000.150320	0.998150
1000.445232	0.998293
1000.740108	0.998007
1001.034948	0.997718
1001.329752	0.998173
1001.624521	0.998358
1001.919254	0.997958
1002.213951	0.997929
1002.508613	0.997497
1002.803239	0.998926
1003.097829	0.999275
1003.392384	1.000035
1003.686903	0.997681
1003.981386	0.998149
1004.275834	0.999308
1004.570246	0.997762
1004.864623	0.998489
1005.158964	0.999484
1005.453270	0.997421
1005.747540	0.997872
1006.041775	0.997855
1006.335974	0.999943
1006.630138	0.999272
1006.924266	0.999038
1007.218359	0.999953
1007.512416	0.999471
1007.806438	1.000055
1008.100425	0.999002
1008.394376	1.000203
1008.688292	0.998323
1008.982172	1.000525
1009.276017	0.998953
1009.569827	0.998979
1009.863602	0.999292
1010.157341	0.999764
1010.451045	0.999404
1010.744714	0.998874
1011.038347	0.998679
1011.331945	0.998355
1011.625508	0.996971
1011.919036	0.999150
1012.212528	0.998346
1012.505986	0.997275
1012.799408	0.999240
1013.092795	0.999944
1013.386147	0.998654
1013.679464	0.999595
1013.972745	0.996895
1014.265992	0.997165
1014.559204	0.998356
1014.852380	0.999078
1015.145521	0.999049
1015.438628	0.998437
1015.731699	0.999217
1016.024736	0.999096
1016.317737	0.998526
1016.610703	0.998961
1016.903635	0.999710
1017.196531	0.998710
1017.489393	0.999563
1017.782219	0.997208
1018.075011	0.998724
1018.367768	0.997647
1018.660490	1.000002
1018.953177	1.000002
1019.245829	1.000002
