Dividing Wavelength (nm)	Counts (n)	Blue Motor Position (mm): 0.000000	Red Motor Position (mm): 3.600000	
326.493990	1.000986
326.888308	1.000986
327.282561	1.000986
327.676750	1.000994
328.070874	0.999962
328.464933	1.000456
328.858929	0.999035
329.252859	0.999270
329.646726	0.999785
330.040528	1.000973
330.434265	1.000286
330.827938	1.001315
331.221547	1.000850
331.615091	1.000668
332.008571	1.000188
332.401986	1.000937
332.795338	1.001209
333.188625	0.999361
333.581847	1.000404
333.975006	0.999064
334.368100	1.000512
334.761129	1.001161
335.154095	1.001552
335.546996	0.998360
335.939833	0.993354
336.332606	0.993063
336.725315	0.995160
337.117960	0.995066
337.510540	0.994621
337.903056	0.994924
338.295508	0.992479
338.687896	0.993665
339.080220	0.994077
339.472480	0.993993
339.864676	0.993646
340.256807	0.994298
340.648875	0.995480
341.040879	0.993786
341.432818	0.994157
341.824694	0.993496
342.216506	0.994563
342.608253	0.994236
342.999937	0.993508
343.391557	0.994169
343.783113	0.993852
344.174605	0.994129
344.566033	0.994150
344.957397	0.992813
345.348697	0.993590
345.739934	0.993102
346.131106	0.993601
346.522215	0.992953
346.913260	0.993733
347.304241	0.993677
347.695159	0.994435
348.086012	0.992623
348.476802	0.993700
348.867528	0.992748
349.258191	0.992677
349.648789	0.995047
350.039324	0.993664
350.429796	0.994011
350.820203	0.993539
351.210548	0.994000
351.600828	0.992890
351.991045	0.992235
352.381198	0.993361
352.771288	0.993128
353.161314	0.993621
353.551276	0.993511
353.941175	0.993999
354.331010	0.993239
354.720782	0.992336
355.110490	0.992464
355.500135	0.994024
355.889717	0.992484
356.279235	0.993249
356.668689	0.993246
357.058080	0.993104
357.447408	0.993950
357.836672	0.993216
358.225873	0.993956
358.615010	0.993558
359.004084	0.993086
359.393095	0.993124
359.782043	0.992892
360.170927	0.994116
360.559748	0.993052
360.948505	0.992105
361.337199	0.993218
361.725830	0.991981
362.114398	0.992674
362.502903	0.991680
362.891344	0.993193
363.279722	0.990425
363.668037	0.993300
364.056289	0.991959
364.444478	0.992808
364.832603	0.991987
365.220665	0.991545
365.608665	0.991607
365.996601	0.990715
366.384474	0.991375
366.772284	0.991404
367.160031	0.989996
367.547715	0.989774
367.935336	0.989968
368.322893	0.988470
368.710388	0.988434
369.097820	0.987026
369.485189	0.985985
369.872495	0.983374
370.259738	0.979505
370.646918	0.980811
371.034035	0.977522
371.421090	0.973635
371.808081	0.970014
372.195010	0.967808
372.581875	0.963607
372.968678	0.958804
373.355418	0.955278
373.742096	0.948845
374.128710	0.946004
374.515262	0.939705
374.901751	0.935073
375.288177	0.930095
375.674540	0.923386
376.060841	0.917296
376.447079	0.910834
376.833254	0.902836
377.219367	0.897788
377.605417	0.886790
377.991404	0.884456
378.377329	0.875725
378.763191	0.870118
379.148991	0.862474
379.534727	0.853781
379.920402	0.846480
380.306013	0.842384
380.691563	0.829908
381.077049	0.822352
381.462474	0.817555
381.847835	0.806913
382.233134	0.800763
382.618371	0.800786
383.003545	0.784545
383.388657	0.781694
383.773706	0.775175
384.158693	0.769965
384.543618	0.763076
384.928480	0.754618
385.313280	0.743424
385.698017	0.744370
386.082692	0.733097
386.467305	0.731021
386.851856	0.724593
387.236344	0.719519
387.620770	0.712743
388.005133	0.707841
388.389435	0.703096
388.773674	0.700529
389.157851	0.692723
389.541965	0.689487
389.926018	0.696085
390.310008	0.682749
390.693936	0.679220
391.077802	0.671663
391.461606	0.673885
391.845348	0.662613
392.229027	0.663639
392.612645	0.660389
392.996200	0.647857
393.379694	0.641058
393.763125	0.631180
394.146494	0.635393
394.529801	0.626745
394.913047	0.618422
395.296230	0.624186
395.679351	0.615608
396.062410	0.612698
396.445408	0.615072
396.828343	0.610063
397.211217	0.605139
397.594028	0.618249
397.976778	0.607302
398.359466	0.604415
398.742092	0.599292
399.124656	0.612396
399.507158	0.600422
399.889598	0.596749
400.271977	0.588977
400.654294	0.592963
401.036549	0.591594
401.418742	0.596434
401.800874	0.581115
402.182944	0.579175
402.564952	0.570576
402.946898	0.572199
403.328783	0.572219
403.710606	0.583494
404.092367	0.558932
404.474067	0.563930
404.855705	0.562295
405.237282	0.572647
405.618797	0.557636
406.000250	0.553123
406.381642	0.543736
406.762972	0.548510
407.144240	0.547540
407.525447	0.547434
407.906593	0.539920
408.287677	0.535972
408.668700	0.544473
409.049661	0.537603
409.430560	0.532687
409.811399	0.541736
410.192176	0.523414
410.572891	0.529629
410.953545	0.519012
411.334138	0.531864
411.714669	0.525355
412.095139	0.535881
412.475547	0.521038
412.855894	0.523278
413.236180	0.522586
413.616405	0.527486
413.996568	0.517939
414.376670	0.524297
414.756711	0.529006
415.136691	0.525961
415.516609	0.517592
415.896466	0.512938
416.276262	0.509509
416.655997	0.511507
417.035670	0.492856
417.415283	0.484555
417.794834	0.488867
418.174324	0.494241
418.553753	0.504298
418.933121	0.486225
419.312428	0.479396
419.691674	0.485031
420.070859	0.473920
420.449983	0.481954
420.829045	0.471566
421.208047	0.480195
421.586988	0.473720
421.965867	0.472583
422.344686	0.460995
422.723444	0.474151
423.102141	0.490642
423.480777	0.463696
423.859352	0.483790
424.237866	0.460888
424.616319	0.462102
424.994712	0.452916
425.373044	0.463761
425.751314	0.451181
426.129524	0.467682
426.507673	0.451652
426.885762	0.445876
427.263789	0.450626
427.641756	0.459714
428.019662	0.450774
428.397508	0.449274
428.775292	0.453710
429.153016	0.445883
429.530679	0.452230
429.908282	0.445719
430.285824	0.455947
430.663305	0.434143
431.040726	0.454571
431.418086	0.455221
431.795385	0.447108
432.172624	0.445203
432.549802	0.446546
432.926920	0.445448
433.303977	0.444447
433.680974	0.441947
434.057910	0.440545
434.434786	0.439878
434.811601	0.442078
435.188355	0.424668
435.565050	0.434092
435.941683	0.435211
436.318257	0.419905
436.694770	0.420138
437.071222	0.418536
437.447614	0.422757
437.823946	0.429158
438.200218	0.418216
438.576429	0.428266
438.952580	0.421863
439.328670	0.418238
439.704700	0.423940
440.080670	0.425608
440.456580	0.406670
440.832429	0.415016
441.208218	0.426049
441.583947	0.414753
441.959616	0.415074
442.335224	0.419497
442.710773	0.410670
443.086261	0.408266
443.461689	0.422581
443.837057	0.412602
444.212365	0.402232
444.587612	0.409428
444.962800	0.399245
445.337927	0.400679
445.712995	0.427290
446.088002	0.389502
446.462949	0.399697
446.837837	0.404083
447.212664	0.393526
447.587431	0.384684
447.962139	0.355583
448.336786	0.314698
448.711374	0.324668
449.085901	0.368593
449.460369	0.373202
449.834776	0.376796
450.209124	0.355802
450.583412	0.348485
450.957640	0.341498
451.331808	0.352420
451.705917	0.376156
452.079965	0.380728
452.453954	0.369188
452.827883	0.375696
453.201752	0.370953
453.575562	0.382149
453.949311	0.370774
454.323001	0.376648
454.696632	0.372272
455.070202	0.365472
455.443713	0.356634
455.817164	0.352272
456.190556	0.348042
456.563888	0.344635
456.937160	0.342234
457.310373	0.359390
457.683526	0.357894
458.056619	0.363419
458.429653	0.364520
458.802628	0.367756
459.175542	0.362180
459.548398	0.344821
459.921194	0.337494
460.293930	0.337112
460.666607	0.314738
461.039224	0.303013
461.411782	0.298664
461.784280	0.297871
462.156719	0.302124
462.529099	0.306551
462.901419	0.322310
463.273680	0.326881
463.645882	0.326425
464.018024	0.332372
464.390106	0.325212
464.762130	0.309918
465.134094	0.292878
465.505999	0.262019
465.877845	0.232481
466.249631	0.219521
466.621358	0.227214
466.993026	0.240781
467.364634	0.246978
467.736184	0.255790
468.107674	0.264388
468.479105	0.263658
468.850477	0.270251
469.221790	0.277144
469.593043	0.287541
469.964238	0.292206
470.335373	0.291431
470.706449	0.289797
471.077467	0.290310
471.448425	0.252477
471.819324	0.228002
472.190164	0.227541
472.560945	0.256280
472.931667	0.278585
473.302330	0.282701
473.672934	0.294484
474.043479	0.282845
474.413965	0.284347
474.784393	0.287961
475.154761	0.283022
475.525070	0.280061
475.895321	0.285941
476.265513	0.280069
476.635645	0.275381
477.005719	0.275263
477.375734	0.271931
477.745691	0.265240
478.115588	0.261720
478.485427	0.255331
478.855207	0.242180
479.224928	0.224875
479.594591	0.212546
479.964194	0.216197
480.333739	0.217350
480.703226	0.219188
481.072653	0.217427
481.442022	0.212993
481.811333	0.209437
482.180584	0.213040
482.549777	0.218082
482.918912	0.221542
483.287988	0.221294
483.657005	0.220987
484.025964	0.227526
484.394864	0.224685
484.763706	0.225402
485.132489	0.230366
485.501213	0.231339
485.869879	0.229793
486.238487	0.233032
486.607036	0.230580
486.975527	0.235055
487.343959	0.231163
487.712333	0.230153
488.080648	0.231798
488.448905	0.230665
488.817104	0.232213
489.185244	0.226613
489.553326	0.223548
489.921350	0.213414
490.289315	0.196027
490.657222	0.190891
491.025070	0.192264
491.392861	0.193929
491.760593	0.199819
492.128267	0.205311
492.495883	0.211014
492.863440	0.217221
493.230939	0.223399
493.598380	0.225090
493.965763	0.226816
494.333088	0.229496
494.700354	0.230698
495.067563	0.229773
495.434713	0.232983
495.801805	0.230634
496.168839	0.232697
496.535815	0.233565
496.902733	0.233869
497.269593	0.235317
497.636395	0.233241
498.003139	0.233530
498.369825	0.236503
498.736453	0.232940
499.103023	0.234448
499.469535	0.233638
499.835989	0.234154
500.202385	0.234811
500.568723	0.238223
500.935003	0.233490
501.301226	0.237326
501.667390	0.232172
502.033497	0.230242
502.399546	0.233007
502.765537	0.234667
503.131470	0.233223
503.497345	0.229469
503.863163	0.238218
504.228923	0.231283
504.594625	0.230194
504.960269	0.235170
505.325856	0.230726
505.691385	0.234941
506.056856	0.231904
506.422270	0.231010
506.787625	0.233692
507.152924	0.230828
507.518164	0.231782
507.883347	0.233287
508.248472	0.234760
508.613540	0.229902
508.978550	0.232462
509.343503	0.232965
509.708398	0.230612
510.073236	0.228182
510.438016	0.228162
510.802738	0.229185
511.167403	0.227965
511.532010	0.229957
511.896561	0.225409
512.261053	0.224239
512.625488	0.226232
512.989866	0.226772
513.354186	0.226802
513.718449	0.228765
514.082655	0.225201
514.446803	0.227197
514.810894	0.224880
515.174927	0.227506
515.538904	0.227063
515.902822	0.223837
516.266684	0.226432
516.630488	0.227325
516.994235	0.226097
517.357925	0.224985
517.721558	0.223530
518.085133	0.222971
518.448651	0.222956
518.812112	0.225275
519.175516	0.224950
519.538863	0.222535
519.902152	0.224221
520.265385	0.220854
520.628560	0.222742
520.991678	0.223181
521.354739	0.222111
521.717743	0.223345
522.080690	0.224006
522.443580	0.221044
522.806413	0.222060
523.169189	0.221383
523.531908	0.220401
523.894569	0.223887
524.257174	0.223782
524.619722	0.221589
524.982213	0.222563
525.344647	0.221478
525.707025	0.222300
526.069345	0.220519
526.431608	0.222074
526.793815	0.220007
527.155964	0.223960
527.518057	0.223129
527.880093	0.224177
528.242072	0.222562
528.603995	0.224521
528.965860	0.226487
529.327669	0.224927
529.689421	0.225957
530.051117	0.226741
530.412755	0.224497
530.774337	0.227040
531.135862	0.227225
531.497331	0.226557
531.858743	0.229459
532.220098	0.226470
532.581396	0.228785
532.942638	0.229276
533.303824	0.230205
533.664953	0.229967
534.026025	0.231670
534.387040	0.229756
534.747999	0.230124
535.108902	0.228670
535.469748	0.233502
535.830537	0.231453
536.191270	0.231732
536.551947	0.231313
536.912567	0.231459
537.273131	0.232786
537.633638	0.233137
537.994089	0.233555
538.354483	0.234704
538.714821	0.231589
539.075103	0.231163
539.435328	0.231871
539.795497	0.235822
540.155609	0.232505
540.515665	0.230669
540.875665	0.236475
541.235609	0.234913
541.595496	0.234797
541.955328	0.231303
542.315102	0.234049
542.674821	0.234904
543.034483	0.235233
543.394090	0.234609
543.753640	0.236809
544.113134	0.231589
544.472571	0.234936
544.831953	0.231796
545.191278	0.236003
545.550548	0.235632
545.909761	0.232469
546.268918	0.232997
546.628019	0.231564
546.987064	0.234018
547.346053	0.235860
547.704986	0.233726
548.063863	0.233965
548.422684	0.234141
548.781449	0.236260
549.140158	0.233481
549.498811	0.236637
549.857408	0.239642
550.215949	0.234465
550.574434	0.237326
550.932864	0.235360
551.291237	0.234269
551.649555	0.235548
552.007817	0.235214
552.366022	0.236046
552.724173	0.236244
553.082267	0.236530
553.440305	0.233403
553.798288	0.237796
554.156215	0.234366
554.514086	0.235215
554.871902	0.238394
555.229661	0.237392
555.587365	0.238003
555.945014	0.240490
556.302606	0.237327
556.660143	0.240222
557.017625	0.236032
557.375050	0.238990
557.732421	0.235792
558.089735	0.237920
558.446994	0.237846
558.804197	0.237029
559.161345	0.236838
559.518437	0.240448
559.875474	0.237934
560.232455	0.237616
560.589381	0.238765
560.946251	0.238772
561.303065	0.236214
561.659825	0.237941
562.016528	0.239203
562.373177	0.242245
562.729770	0.239336
563.086307	0.241585
563.442789	0.239249
563.799216	0.242158
564.155587	0.240942
564.511904	0.242457
564.868164	0.242208
565.224370	0.241956
565.580520	0.243561
565.936615	0.243656
566.292654	0.246689
566.648638	0.243520
567.004567	0.244449
567.360441	0.245234
567.716260	0.247324
568.072023	0.244984
568.427732	0.245751
568.783385	0.248205
569.138982	0.246452
569.494525	0.245957
569.850013	0.248683
570.205445	0.246936
570.560823	0.249272
570.916145	0.251774
571.271412	0.250060
571.626625	0.251214
571.981782	0.252059
572.336884	0.252596
572.691931	0.252464
573.046923	0.253819
573.401860	0.255126
573.756743	0.256676
574.111570	0.255697
574.466342	0.255953
574.821059	0.254992
575.175722	0.257897
575.530330	0.257780
575.884882	0.257753
576.239380	0.260042
576.593823	0.260449
576.948211	0.259992
577.302544	0.263085
577.656823	0.262818
578.011047	0.262841
578.365216	0.263430
578.719330	0.265523
579.073389	0.265382
579.427394	0.266928
579.781344	0.267374
580.135239	0.269068
580.489080	0.268284
580.842866	0.271765
581.196597	0.271446
581.550273	0.269987
581.903895	0.271027
582.257463	0.269099
582.610975	0.272817
582.964434	0.272041
583.317837	0.274272
583.671186	0.274923
584.024481	0.275109
584.377721	0.277353
584.730906	0.277952
585.084037	0.277054
585.437113	0.278986
585.790135	0.278511
586.143103	0.281557
586.496016	0.282623
586.848874	0.279823
587.201679	0.280746
587.554428	0.284071
587.907124	0.282900
588.259765	0.283369
588.612352	0.283975
588.964884	0.288032
589.317362	0.287557
589.669786	0.287567
590.022155	0.285816
590.374470	0.285472
590.726731	0.287422
591.078937	0.292212
591.431090	0.288181
591.783188	0.292826
592.135232	0.292788
592.487222	0.292706
592.839157	0.291241
593.191038	0.293264
593.542866	0.295226
593.894639	0.298971
594.246358	0.296580
594.598022	0.296455
594.949633	0.299919
595.301190	0.300889
595.652692	0.299911
596.004141	0.296110
596.355535	0.303932
596.706876	0.304510
597.058162	0.306938
597.409395	0.303979
597.760573	0.302361
598.111698	0.305164
598.462768	0.306052
598.813785	0.306957
599.164748	0.308131
599.515657	0.308812
599.866511	0.312110
600.217312	0.306951
600.568060	0.313185
600.918753	0.308813
601.269392	0.309769
601.619978	0.313296
601.970510	0.310866
602.320988	0.310863
602.671412	0.308891
603.021783	0.311065
603.372100	0.312511
603.722363	0.312110
604.072572	0.313244
604.422728	0.312817
604.772830	0.314874
605.122878	0.314617
605.472872	0.315009
605.822813	0.313138
606.172701	0.316358
606.522534	0.313184
606.872314	0.313089
607.222041	0.314388
607.571714	0.312822
607.921333	0.313897
608.270899	0.313921
608.620411	0.310497
608.969870	0.314371
609.319276	0.314387
609.668627	0.314201
610.017926	0.312719
610.367171	0.311516
610.716362	0.312134
611.065500	0.312286
611.414585	0.311318
611.763616	0.311544
612.112594	0.312191
612.461518	0.311744
612.810389	0.309167
613.159207	0.311521
613.507971	0.313426
613.856682	0.309054
614.205340	0.310672
614.553945	0.307310
614.902496	0.311307
615.250994	0.309436
615.599439	0.310235
615.947830	0.309609
616.296169	0.310719
616.644454	0.310054
616.992686	0.309928
617.340864	0.307820
617.688990	0.311363
618.037063	0.307915
618.385082	0.310108
618.733048	0.306982
619.080961	0.309103
619.428821	0.308340
619.776628	0.308202
620.124382	0.310028
620.472083	0.310322
620.819731	0.309897
621.167326	0.313512
621.514868	0.313723
621.862357	0.317856
622.209793	0.317393
622.557176	0.319447
622.904506	0.320737
623.251783	0.322779
623.599007	0.325682
623.946179	0.324842
624.293297	0.326881
624.640363	0.330592
624.987376	0.331248
625.334336	0.333830
625.681243	0.336078
626.028097	0.336572
626.374899	0.338027
626.721647	0.337654
627.068343	0.341295
627.414987	0.342284
627.761577	0.344100
628.108115	0.342698
628.454600	0.347684
628.801032	0.345251
629.147412	0.347169
629.493739	0.347259
629.840014	0.350778
630.186236	0.347864
630.532405	0.353664
630.878521	0.350831
631.224585	0.353314
631.570597	0.356657
631.916556	0.355646
632.262462	0.355608
632.608316	0.357402
632.954117	0.358367
633.299866	0.359108
633.645562	0.359508
633.991206	0.363823
634.336797	0.366993
634.682336	0.368978
635.027823	0.370904
635.373257	0.371671
635.718639	0.375120
636.063968	0.374027
636.409245	0.380081
636.754470	0.380389
637.099642	0.382826
637.444762	0.386364
637.789829	0.385449
638.134845	0.389195
638.479808	0.389737
638.824719	0.389138
639.169577	0.393277
639.514383	0.392452
639.859137	0.396979
640.203839	0.396765
640.548489	0.397110
640.893086	0.398476
641.237632	0.400012
641.582125	0.398588
641.926566	0.400104
642.270955	0.400287
642.615292	0.401127
642.959576	0.399928
643.303809	0.400274
643.647990	0.399992
643.992118	0.400017
644.336195	0.404201
644.680219	0.402286
645.024192	0.402799
645.368112	0.396743
645.711981	0.395498
646.055797	0.391391
646.399562	0.393554
646.743274	0.385204
647.086935	0.382592
647.430544	0.382738
647.774101	0.382242
648.117606	0.381733
648.461059	0.381814
648.804460	0.384550
649.147810	0.389198
649.491108	0.391396
649.834354	0.392832
650.177548	0.398160
650.520690	0.403468
650.863781	0.404858
651.206820	0.404056
651.549807	0.408371
651.892742	0.412690
652.235626	0.412092
652.578458	0.413501
652.921238	0.419472
653.263967	0.416751
653.606644	0.421239
653.949269	0.420372
654.291843	0.424273
654.634365	0.421592
654.976836	0.424827
655.319255	0.424494
655.661622	0.426433
656.003938	0.426796
656.346203	0.429379
656.688416	0.427256
657.030577	0.430620
657.372687	0.432801
657.714746	0.433778
658.056753	0.430514
658.398708	0.434777
658.740612	0.434742
659.082465	0.431582
659.424266	0.432009
659.766016	0.431246
660.107715	0.434020
660.449362	0.432927
660.790958	0.433646
661.132503	0.433975
661.473996	0.431834
661.815438	0.432760
662.156829	0.432927
662.498168	0.434131
662.839456	0.435365
663.180693	0.433013
663.521879	0.433037
663.863013	0.433210
664.204097	0.432218
664.545129	0.428972
664.886110	0.429664
665.227040	0.427194
665.567918	0.429896
665.908746	0.427274
666.249522	0.426950
666.590248	0.428192
666.930922	0.426427
667.271545	0.424980
667.612118	0.425706
667.952639	0.427192
668.293109	0.425727
668.633528	0.428244
668.973896	0.428137
669.314213	0.428869
669.654480	0.430650
669.994695	0.430823
670.334859	0.431501
670.674973	0.431868
671.015035	0.431503
671.355047	0.432038
671.695008	0.432623
672.034918	0.434598
672.374777	0.433759
672.714585	0.434959
673.054342	0.435037
673.394049	0.435363
673.733705	0.432944
674.073310	0.434272
674.412864	0.437031
674.752368	0.437808
675.091820	0.437839
675.431223	0.441934
675.770574	0.442269
676.109875	0.445299
676.449125	0.445308
676.788324	0.447807
677.127473	0.452364
677.466571	0.452464
677.805619	0.454337
678.144616	0.455101
678.483562	0.457013
678.822458	0.459456
679.161303	0.460434
679.500098	0.460951
679.838842	0.463059
680.177535	0.462015
680.516179	0.460766
680.854771	0.459784
681.193314	0.453055
681.531805	0.444640
681.870247	0.433002
682.208638	0.425800
682.546978	0.424408
682.885268	0.426477
683.223508	0.432663
683.561697	0.436529
683.899836	0.439198
684.237925	0.442618
684.575963	0.444908
684.913951	0.448079
685.251889	0.443673
685.589776	0.445229
685.927614	0.447944
686.265401	0.442798
686.603137	0.443270
686.940824	0.437360
687.278460	0.436492
687.616046	0.434926
687.953582	0.430003
688.291068	0.431390
688.628504	0.427521
688.965889	0.429462
689.303224	0.433561
689.640510	0.437341
689.977745	0.443399
690.314930	0.450685
690.652065	0.455750
690.989150	0.463822
691.326185	0.469835
691.663170	0.474757
692.000105	0.481224
692.336990	0.488606
692.673825	0.490699
693.010610	0.497863
693.347345	0.503362
693.684030	0.505826
694.020665	0.509947
694.357251	0.518827
694.693786	0.518181
695.030272	0.522409
695.366707	0.526033
695.703093	0.529363
696.039429	0.527677
696.375716	0.529413
696.711952	0.531126
697.048139	0.533330
697.384276	0.536080
697.720363	0.534224
698.056400	0.532950
698.392388	0.538913
698.728326	0.541311
699.064214	0.544611
699.400053	0.544324
699.735842	0.548711
700.071581	0.551791
700.407270	0.554787
700.742910	0.556571
701.078501	0.563320
701.414042	0.563826
701.749533	0.566670
702.084974	0.575639
702.420366	0.567134
702.755709	0.575510
703.091002	0.583209
703.426246	0.576923
703.761440	0.582487
704.096584	0.587767
704.431679	0.584630
704.766725	0.586662
705.101721	0.588407
705.436668	0.584011
705.771565	0.591543
706.106413	0.588053
706.441212	0.583089
706.775961	0.581711
707.110661	0.584923
707.445311	0.581360
707.779913	0.578474
708.114465	0.577565
708.448967	0.573525
708.783421	0.565552
709.117825	0.560312
709.452180	0.560524
709.786485	0.553474
710.120742	0.544066
710.454949	0.545344
710.789107	0.538150
711.123216	0.528831
711.457275	0.530542
711.791286	0.521243
712.125247	0.520727
712.459159	0.531191
712.793023	0.523169
713.126837	0.528453
713.460602	0.528627
713.794318	0.537984
714.127985	0.536651
714.461602	0.546344
714.795171	0.549366
715.128691	0.557499
715.462162	0.565253
715.795584	0.570137
716.128957	0.574025
716.462281	0.580198
716.795556	0.583967
717.128782	0.589405
717.461960	0.598585
717.795088	0.596982
718.128167	0.602710
718.461198	0.612030
718.794180	0.612483
719.127113	0.615652
719.459997	0.619194
719.792833	0.625070
720.125619	0.626193
720.458357	0.631787
720.791046	0.632408
721.123686	0.635043
721.456278	0.642660
721.788821	0.639655
722.121315	0.643011
722.453761	0.648439
722.786158	0.645912
723.118506	0.642457
723.450805	0.650364
723.783056	0.645581
724.115259	0.643124
724.447412	0.643248
724.779518	0.644017
725.111574	0.643136
725.443582	0.638812
725.775542	0.642108
726.107453	0.632882
726.439315	0.632994
726.771129	0.631042
727.102895	0.624611
727.434612	0.617813
727.766281	0.615403
728.097901	0.614850
728.429473	0.614376
728.760996	0.612550
729.092471	0.612747
729.423897	0.616913
729.755276	0.615935
730.086606	0.616055
730.417887	0.609863
730.749120	0.601290
731.080305	0.592201
731.411442	0.588114
731.742530	0.592338
732.073570	0.592131
732.404562	0.584523
732.735506	0.585453
733.066401	0.590414
733.397249	0.600096
733.728048	0.611002
734.058798	0.624581
734.389501	0.634603
734.720156	0.644427
735.050762	0.652368
735.381320	0.653893
735.711831	0.662789
736.042293	0.667757
736.372707	0.662971
736.703073	0.667666
737.033391	0.670519
737.363661	0.666501
737.693883	0.662345
738.024056	0.661474
738.354182	0.661256
738.684260	0.650860
739.014290	0.646527
739.344272	0.647417
739.674207	0.641616
740.004093	0.641109
740.333931	0.641240
740.663722	0.640759
740.993464	0.641129
741.323159	0.645490
741.652806	0.650238
741.982405	0.655027
742.311956	0.659669
742.641460	0.662045
742.970915	0.665911
743.300323	0.673560
743.629683	0.679927
743.958996	0.681794
744.288260	0.685576
744.617477	0.692201
744.946647	0.692990
745.275768	0.698459
745.604842	0.698857
745.933869	0.708621
746.262847	0.709268
746.591778	0.702535
746.920662	0.708147
747.249498	0.715695
747.578286	0.707053
747.907027	0.702241
748.235720	0.703130
748.564365	0.698663
748.892963	0.697195
749.221514	0.700737
749.550017	0.705764
749.878473	0.705575
750.206881	0.712318
750.535242	0.714552
750.863555	0.712654
751.191821	0.714792
751.520039	0.718388
751.848210	0.722371
752.176334	0.715238
752.504411	0.714198
752.832440	0.722175
753.160421	0.726556
753.488356	0.724850
753.816243	0.721932
754.144082	0.730227
754.471875	0.733928
754.799620	0.729362
755.127318	0.730609
755.454969	0.730711
755.782572	0.729898
756.110129	0.734373
756.437638	0.737309
756.765100	0.733288
757.092515	0.732357
757.419882	0.730422
757.747203	0.736226
758.074477	0.734426
758.401703	0.732381
758.728882	0.727766
759.056014	0.726618
759.383099	0.725319
759.710138	0.727022
760.037129	0.723411
760.364073	0.716444
760.690970	0.720032
761.017820	0.724697
761.344623	0.721251
761.671379	0.711440
761.998088	0.699876
762.324751	0.677494
762.651366	0.635109
762.977935	0.568021
763.304456	0.515102
763.630931	0.506039
763.957359	0.545113
764.283740	0.590103
764.610074	0.616730
764.936362	0.648225
765.262602	0.675193
765.588796	0.696355
765.914943	0.714673
766.241044	0.732708
766.567097	0.739414
766.893104	0.749604
767.219064	0.755113
767.544978	0.762293
767.870845	0.776289
768.196665	0.779026
768.522438	0.777245
768.848165	0.779177
769.173846	0.787872
769.499479	0.791966
769.825066	0.795925
770.150607	0.801862
770.476101	0.795530
770.801548	0.797417
771.126949	0.808660
771.452303	0.811598
771.777611	0.811702
772.102872	0.811155
772.428087	0.816418
772.753256	0.820039
773.078378	0.821920
773.403453	0.830737
773.728482	0.834405
774.053465	0.828625
774.378401	0.832619
774.703291	0.841173
775.028135	0.839510
775.352932	0.841735
775.677683	0.844395
776.002388	0.845387
776.327046	0.844474
776.651658	0.847592
776.976224	0.849980
777.300743	0.850435
777.625216	0.854081
777.949643	0.855834
778.274024	0.855083
778.598359	0.857067
778.922647	0.855988
779.246889	0.856434
779.571086	0.859634
779.895236	0.863061
780.219339	0.859097
780.543397	0.856382
780.867409	0.855677
781.191374	0.857421
781.515294	0.858552
781.839167	0.857196
782.162995	0.861323
782.486776	0.858284
782.810511	0.859208
783.134201	0.862183
783.457844	0.859325
783.781441	0.862742
784.104993	0.869450
784.428498	0.870415
784.751958	0.865893
785.075372	0.867821
785.398739	0.871085
785.722061	0.867127
786.045337	0.862525
786.368568	0.868072
786.691752	0.870398
787.014891	0.855762
787.337983	0.847141
787.661030	0.838937
787.984031	0.821580
788.306987	0.809486
788.629897	0.811449
788.952760	0.815075
789.275579	0.818897
789.598351	0.834254
789.921078	0.847637
790.243759	0.848928
790.566395	0.855918
790.888984	0.861712
791.211529	0.867937
791.534027	0.870565
791.856480	0.872648
792.178888	0.877258
792.501249	0.880039
792.823566	0.880913
793.145836	0.881232
793.468062	0.883908
793.790241	0.882738
794.112375	0.882389
794.434464	0.876336
794.756507	0.876679
795.078505	0.875888
795.400457	0.870240
795.722364	0.858274
796.044226	0.851080
796.366042	0.850842
796.687812	0.853410
797.009538	0.849383
797.331218	0.853402
797.652852	0.858195
797.974442	0.862894
798.295986	0.861747
798.617484	0.865502
798.938938	0.869684
799.260346	0.874989
799.581709	0.876478
799.903026	0.878450
800.224299	0.879293
800.545526	0.883098
800.866708	0.888082
801.187845	0.892048
801.508936	0.890525
801.829983	0.888904
802.150984	0.891972
802.471940	0.896034
802.792851	0.895479
803.113717	0.895168
803.434538	0.894304
803.755314	0.897551
804.076045	0.898050
804.396731	0.899056
804.717372	0.898508
805.037967	0.900306
805.358518	0.897799
805.679024	0.895809
805.999485	0.895007
806.319901	0.895471
806.640272	0.897298
806.960598	0.895347
807.280879	0.891806
807.601115	0.891167
807.921306	0.894957
808.241453	0.895304
808.561554	0.892420
808.881611	0.892777
809.201623	0.895054
809.521590	0.894613
809.841513	0.895663
810.161390	0.894853
810.481223	0.896477
810.801011	0.901075
811.120755	0.901495
811.440453	0.901100
811.760107	0.899193
812.079716	0.899307
812.399281	0.902786
812.718801	0.905004
813.038276	0.905704
813.357707	0.905027
813.677093	0.902982
813.996434	0.906774
814.315731	0.907218
814.634983	0.908371
814.954191	0.906465
815.273354	0.904386
815.592473	0.900223
815.911547	0.900815
816.230577	0.898590
816.549562	0.894795
816.868502	0.894921
817.187399	0.892196
817.506250	0.887051
817.825058	0.888352
818.143821	0.885282
818.462539	0.878992
818.781213	0.872338
819.099843	0.859850
819.418429	0.843378
819.736970	0.827123
820.055466	0.806884
820.373919	0.781523
820.692327	0.748063
821.010691	0.712785
821.329011	0.634253
821.647286	0.516471
821.965517	0.401854
822.283704	0.358679
822.601847	0.359247
822.919945	0.395614
823.237999	0.429828
823.556010	0.477242
823.873976	0.533675
824.191897	0.585951
824.509775	0.628207
824.827609	0.674391
825.145398	0.696675
825.463144	0.700595
825.780845	0.683127
826.098502	0.663502
826.416116	0.617609
826.733685	0.573267
827.051210	0.563211
827.368692	0.579080
827.686129	0.617283
828.003522	0.670475
828.320872	0.718165
828.638177	0.763671
828.955439	0.796544
829.272656	0.818776
829.589830	0.836181
829.906960	0.852250
830.224046	0.864210
830.541088	0.875239
830.858086	0.879883
831.175041	0.886771
831.491952	0.885004
831.808819	0.881281
832.125642	0.874676
832.442421	0.860737
832.759157	0.836896
833.075849	0.790642
833.392497	0.727368
833.709101	0.684847
834.025662	0.694840
834.342179	0.725972
834.658653	0.765377
834.975083	0.802310
835.291469	0.828632
835.607811	0.852364
835.924110	0.868650
836.240366	0.884631
836.556578	0.899451
836.872746	0.907066
837.188871	0.914220
837.504952	0.918967
837.820990	0.922088
838.136984	0.925425
838.452935	0.928951
838.768842	0.930728
839.084706	0.924220
839.400526	0.897675
839.716303	0.856580
840.032037	0.833907
840.347727	0.836903
840.663373	0.857256
840.978977	0.877971
841.294537	0.900302
841.610054	0.917044
841.925527	0.924438
842.240957	0.931672
842.556344	0.938521
842.871687	0.945856
843.186987	0.949546
843.502244	0.949370
843.817458	0.951714
844.132629	0.954928
844.447756	0.959489
844.762840	0.960081
845.077881	0.959562
845.392879	0.958517
845.707833	0.962578
846.022745	0.964030
846.337613	0.964117
846.652438	0.965758
846.967221	0.964010
847.281960	0.964455
847.596656	0.967169
847.911309	0.965528
848.225919	0.966716
848.540485	0.967798
848.855009	0.968804
849.169490	0.968292
849.483928	0.969198
849.798323	0.968599
850.112675	0.969702
850.426984	0.968991
850.741251	0.968920
851.055474	0.970306
851.369654	0.968048
851.683792	0.969186
851.997887	0.969570
852.311938	0.970390
852.625947	0.970272
852.939914	0.967556
853.253837	0.968208
853.567718	0.971464
853.881555	0.971260
854.195350	0.967847
854.509103	0.969361
854.822812	0.969626
855.136479	0.969522
855.450103	0.969385
855.763685	0.968518
856.077224	0.968252
856.390720	0.970408
856.704173	0.969636
857.017584	0.967809
857.330953	0.966244
857.644278	0.968498
857.957561	0.968640
858.270802	0.968262
858.584000	0.967091
858.897155	0.966862
859.210268	0.967555
859.523339	0.967947
859.836367	0.970292
860.149352	0.970102
860.462295	0.969162
860.775195	0.969197
861.088054	0.969064
861.400869	0.969383
861.713642	0.970211
862.026373	0.970224
862.339062	0.970116
862.651708	0.968697
862.964312	0.966827
863.276873	0.969111
863.589392	0.967276
863.901869	0.967114
864.214303	0.964141
864.526696	0.963937
864.839045	0.962989
865.151353	0.961443
865.463619	0.961806
865.775842	0.961136
866.088023	0.961361
866.400162	0.962181
866.712258	0.961247
867.024313	0.962714
867.336325	0.962233
867.648296	0.961688
867.960224	0.961464
868.272110	0.961838
868.583954	0.962800
868.895755	0.962040
869.207515	0.961010
869.519233	0.958915
869.830909	0.960059
870.142542	0.961218
870.454134	0.960411
870.765684	0.958958
871.077191	0.958649
871.388657	0.959554
871.700081	0.957048
872.011463	0.957477
872.322803	0.956669
872.634101	0.955796
872.945357	0.952917
873.256571	0.952320
873.567744	0.952959
873.878874	0.952577
874.189963	0.950885
874.501010	0.950339
874.812015	0.948105
875.122979	0.950066
875.433900	0.952983
875.744780	0.952418
876.055618	0.950596
876.366415	0.950324
876.677169	0.948443
876.987882	0.950417
877.298554	0.950414
877.609183	0.946773
877.919771	0.943716
878.230317	0.942538
878.540822	0.938647
878.851285	0.933508
879.161707	0.925020
879.472087	0.912664
879.782425	0.896290
880.092722	0.860989
880.402977	0.808066
880.713191	0.745684
881.023363	0.684722
881.333494	0.649752
881.643583	0.621901
881.953631	0.621066
882.263637	0.650305
882.573602	0.689517
882.883526	0.717655
883.193408	0.740944
883.503248	0.764490
883.813048	0.793043
884.122806	0.822340
884.432522	0.846521
884.742197	0.866232
885.051831	0.878118
885.361424	0.888848
885.670975	0.901139
885.980485	0.911596
886.289954	0.917824
886.599382	0.922844
886.908768	0.927515
887.218113	0.931685
887.527417	0.938869
887.836680	0.940153
888.145901	0.943103
888.455082	0.945734
888.764221	0.948844
889.073319	0.951369
889.382376	0.950986
889.691392	0.951259
890.000366	0.951395
890.309300	0.952855
890.618193	0.951434
890.927044	0.949436
891.235855	0.950518
891.544625	0.949904
891.853353	0.951290
892.162041	0.948964
892.470687	0.942121
892.779293	0.936186
893.087858	0.931020
893.396381	0.923888
893.704864	0.910010
894.013306	0.886046
894.321707	0.859018
894.630068	0.843519
894.938387	0.838151
895.246665	0.839127
895.554903	0.853873
895.863100	0.866225
896.171256	0.884930
896.479371	0.903467
896.787446	0.917524
897.095480	0.922466
897.403473	0.926788
897.711425	0.929952
898.019336	0.938488
898.327207	0.941704
898.635038	0.943747
898.942827	0.944164
899.250576	0.947600
899.558284	0.950385
899.865952	0.952331
900.173579	0.953948
900.481165	0.955385
900.788711	0.958076
901.096216	0.960124
901.403681	0.960717
901.711105	0.962442
902.018489	0.962795
902.325832	0.961514
902.633135	0.960437
902.940397	0.955396
903.247619	0.941418
903.554800	0.915370
903.861941	0.874951
904.169041	0.837450
904.476101	0.820097
904.783121	0.820381
905.090100	0.836971
905.397039	0.859554
905.703938	0.882126
906.010796	0.902617
906.317614	0.919909
906.624391	0.932861
906.931129	0.941827
907.237826	0.950820
907.544483	0.958033
907.851099	0.960958
908.157675	0.966313
908.464211	0.969826
908.770707	0.971851
909.077163	0.973708
909.383578	0.974693
909.689954	0.973482
909.996289	0.975541
910.302584	0.977554
910.608839	0.978950
910.915054	0.977777
911.221229	0.977432
911.527363	0.976418
911.833458	0.976607
912.139513	0.975637
912.445527	0.973864
912.751502	0.973026
913.057436	0.970837
913.363331	0.969386
913.669186	0.964458
913.975000	0.959503
914.280775	0.953200
914.586510	0.946660
914.892205	0.932287
915.197859	0.911515
915.503475	0.882231
915.809050	0.862805
916.114585	0.855750
916.420081	0.852804
916.725536	0.849555
917.030952	0.858432
917.336328	0.872673
917.641665	0.887720
917.946961	0.902848
918.252218	0.915253
918.557435	0.924916
918.862612	0.933924
919.167750	0.939684
919.472848	0.945202
919.777906	0.950714
920.082925	0.956840
920.387904	0.960256
920.692843	0.961439
920.997743	0.963230
921.302603	0.965942
921.607423	0.968929
921.912204	0.970259
922.216946	0.970624
922.521647	0.972836
922.826310	0.973727
923.130932	0.975148
923.435516	0.976838
923.740059	0.978271
924.044564	0.977441
924.349028	0.979122
924.653454	0.983178
924.957840	0.983729
925.262186	0.984908
925.566493	0.983223
925.870761	0.983858
926.174989	0.985727
926.479178	0.987458
926.783328	0.987911
927.087438	0.988835
927.391509	0.987247
927.695541	0.990297
927.999533	0.988379
928.303486	0.989153
928.607400	0.990880
928.911275	0.989156
929.215110	0.990123
929.518906	0.990776
929.822663	0.989689
930.126381	0.990920
930.430060	0.990496
930.733699	0.990117
931.037299	0.989746
931.340861	0.990265
931.644383	0.989044
931.947866	0.989865
932.251309	0.990273
932.554714	0.990118
932.858080	0.990141
933.161407	0.989895
933.464694	0.990728
933.767943	0.988894
934.071153	0.991110
934.374323	0.992189
934.677455	0.990823
934.980548	0.991717
935.283602	0.990672
935.586617	0.990050
935.889593	0.991253
936.192530	0.990543
936.495428	0.990972
936.798287	0.991110
937.101108	0.989746
937.403890	0.989434
937.706632	0.988810
938.009336	0.986708
938.312002	0.985605
938.614628	0.984214
938.917216	0.982670
939.219765	0.981372
939.522275	0.982182
939.824747	0.982779
940.127179	0.982995
940.429573	0.983605
940.731929	0.984014
941.034246	0.983668
941.336524	0.984906
941.638763	0.986061
941.940964	0.985728
942.243126	0.986447
942.545250	0.986437
942.847335	0.988198
943.149381	0.988007
943.451389	0.987747
943.753359	0.987671
944.055290	0.990564
944.357182	0.990249
944.659036	0.988738
944.960851	0.989255
945.262628	0.989940
945.564367	0.990774
945.866067	0.989147
946.167729	0.990210
946.469352	0.990631
946.770937	0.988054
947.072484	0.990677
947.373992	0.990572
947.675462	0.990371
947.976893	0.989566
948.278286	0.989680
948.579641	0.991660
948.880958	0.989600
949.182236	0.991031
949.483476	0.992395
949.784678	0.990905
950.085841	0.990894
950.386967	0.990310
950.688054	0.989712
950.989103	0.990872
951.290114	0.988592
951.591087	0.990103
951.892021	0.989725
952.192917	0.989715
952.493776	0.988582
952.794596	0.988220
953.095378	0.987314
953.396122	0.988285
953.696828	0.987342
953.997496	0.988941
954.298126	0.989806
954.598718	0.991033
954.899272	0.991707
955.199788	0.990316
955.500266	0.992398
955.800706	0.993142
956.101108	0.993328
956.401472	0.993878
956.701798	0.993622
957.002087	0.993268
957.302337	0.993508
957.602550	0.995703
957.902724	0.995085
958.202861	0.994941
958.502960	0.995524
958.803022	0.993320
959.103045	0.996939
959.403031	0.996112
959.702979	0.994659
960.002889	0.995082
960.302762	0.995052
960.602596	0.996883
960.902393	0.995535
961.202153	0.997161
961.501875	0.997205
961.801559	0.995452
962.101205	0.995731
962.400814	0.996939
962.700385	0.997223
962.999918	0.995258
963.299414	0.996226
963.598873	0.995130
963.898293	0.996490
964.197677	0.995750
964.497022	0.996301
964.796331	0.998515
965.095601	0.996160
965.394835	0.997218
965.694030	0.997146
965.993189	0.997597
966.292309	0.996515
966.591393	0.998169
966.890439	0.997766
967.189447	0.996367
967.488419	0.996950
967.787353	0.995569
968.086249	0.996506
968.385108	0.998422
968.683930	0.997681
968.982714	0.997887
969.281462	0.998059
969.580172	0.996273
969.878844	0.997118
970.177480	0.997413
970.476078	0.997132
970.774639	0.997122
971.073162	0.997592
971.371649	0.996284
971.670098	0.995897
971.968510	0.997176
972.266885	0.995565
972.565223	0.996191
972.863524	0.996469
973.161788	0.996222
973.460014	0.998180
973.758204	0.995934
974.056356	0.996490
974.354471	0.995392
974.652550	0.995502
974.950591	0.996398
975.248595	0.997685
975.546563	0.996920
975.844493	0.998270
976.142386	0.997153
976.440243	0.996588
976.738062	0.997500
977.035845	0.998038
977.333590	0.996884
977.631299	0.997400
977.928971	0.996677
978.226606	0.997211
978.524204	0.996141
978.821765	0.998224
979.119290	0.997042
979.416777	0.997604
979.714228	0.997902
980.011642	0.996809
980.309020	0.997510
980.606360	0.997193
980.903664	0.998316
981.200931	0.996006
981.498162	0.995091
981.795356	0.995247
982.092513	0.995070
982.389633	0.994656
982.686717	0.992032
982.983764	0.991631
983.280775	0.990560
983.577749	0.990642
983.874686	0.992296
984.171587	0.991089
984.468451	0.994837
984.765279	0.994715
985.062070	0.994137
985.358824	0.995454
985.655543	0.995400
985.952224	0.996772
986.248869	0.996538
986.545478	0.998203
986.842050	0.998347
987.138586	0.996763
987.435086	0.997369
987.731549	0.998914
988.027975	0.997884
988.324366	0.997885
988.620719	0.998755
988.917037	0.995666
989.213318	0.999287
989.509563	0.997857
989.805772	1.000178
990.101944	0.998311
990.398080	0.998157
990.694180	0.999315
990.990244	0.997987
991.286271	0.997540
991.582262	0.998750
991.878217	0.998191
992.174136	0.998800
992.470019	0.998559
992.765865	0.998351
993.061676	0.998623
993.357450	0.998829
993.653188	0.997632
993.948890	0.997774
994.244556	0.997938
994.540186	0.997221
994.835780	0.997433
995.131337	0.998618
995.426859	0.995398
995.722345	0.997433
996.017795	0.996081
996.313208	0.996373
996.608586	0.996051
996.903928	0.997213
997.199234	0.996231
997.494504	0.997003
997.789738	0.996668
998.084936	0.997443
998.380099	0.998254
998.675225	0.997749
998.970316	0.999177
999.265371	0.997986
999.560390	0.999362
999.855373	0.998779
1000.150320	0.998579
1000.445232	0.997333
1000.740108	0.998910
1001.034948	0.997254
1001.329752	0.999317
1001.624521	0.998749
1001.919254	0.998322
1002.213951	0.998137
1002.508613	0.997550
1002.803239	1.000528
1003.097829	0.999549
1003.392384	0.999100
1003.686903	0.998777
1003.981386	0.998614
1004.275834	0.999975
1004.570246	0.998470
1004.864623	1.000626
1005.158964	1.000303
1005.453270	0.999601
1005.747540	0.995852
1006.041775	0.999188
1006.335974	0.999953
1006.630138	0.999603
1006.924266	1.000196
1007.218359	1.001139
1007.512416	0.998480
1007.806438	0.999764
1008.100425	0.999203
1008.394376	0.999509
1008.688292	0.999372
1008.982172	1.000622
1009.276017	0.999355
1009.569827	0.998933
1009.863602	0.999345
1010.157341	0.999861
1010.451045	0.998358
1010.744714	0.999358
1011.038347	0.998931
1011.331945	0.998581
1011.625508	0.997377
1011.919036	0.999075
1012.212528	0.998548
1012.505986	0.999487
1012.799408	0.999331
1013.092795	0.999646
1013.386147	0.999310
1013.679464	0.999940
1013.972745	0.997759
1014.265992	0.997676
1014.559204	0.999125
1014.852380	1.000021
1015.145521	1.000160
1015.438628	0.999711
1015.731699	0.998678
1016.024736	0.999417
1016.317737	0.999245
1016.610703	0.999504
1016.903635	0.999051
1017.196531	0.998469
1017.489393	1.000366
1017.782219	0.999990
1018.075011	0.998894
1018.367768	0.998460
1018.660490	0.999507
1018.953177	0.999507
1019.245829	0.999507
