Dividing Wavelength (nm)	Counts (n)	Blue Motor Position (mm): 0.000000	Red Motor Position (mm): 1.100000	
326.493990	1.001254
326.888308	1.001254
327.282561	1.001254
327.676750	1.001169
328.070874	0.999417
328.464933	1.000904
328.858929	0.999404
329.252859	1.000234
329.646726	0.998661
330.040528	1.001071
330.434265	0.998615
330.827938	0.999267
331.221547	1.000504
331.615091	0.999230
332.008571	1.000075
332.401986	1.001077
332.795338	1.001297
333.188625	0.998333
333.581847	0.999585
333.975006	0.999080
334.368100	0.998138
334.761129	1.000257
335.154095	1.000687
335.546996	0.997974
335.939833	0.991954
336.332606	0.993489
336.725315	0.993527
337.117960	0.994889
337.510540	0.993052
337.903056	0.993875
338.295508	0.992438
338.687896	0.994199
339.080220	0.994132
339.472480	0.993620
339.864676	0.993186
340.256807	0.994560
340.648875	0.994519
341.040879	0.995075
341.432818	0.993506
341.824694	0.992940
342.216506	0.993620
342.608253	0.993441
342.999937	0.993543
343.391557	0.993156
343.783113	0.992679
344.174605	0.993422
344.566033	0.995291
344.957397	0.991958
345.348697	0.994004
345.739934	0.993701
346.131106	0.992901
346.522215	0.993348
346.913260	0.992821
347.304241	0.994410
347.695159	0.992168
348.086012	0.992375
348.476802	0.992641
348.867528	0.992784
349.258191	0.991857
349.648789	0.993967
350.039324	0.992366
350.429796	0.993970
350.820203	0.992667
351.210548	0.993189
351.600828	0.993101
351.991045	0.992456
352.381198	0.991096
352.771288	0.993149
353.161314	0.992973
353.551276	0.994058
353.941175	0.993332
354.331010	0.990891
354.720782	0.993139
355.110490	0.992082
355.500135	0.992457
355.889717	0.992788
356.279235	0.992656
356.668689	0.992011
357.058080	0.993013
357.447408	0.993597
357.836672	0.993179
358.225873	0.992707
358.615010	0.992534
359.004084	0.992797
359.393095	0.992753
359.782043	0.991927
360.170927	0.993475
360.559748	0.992500
360.948505	0.992366
361.337199	0.992147
361.725830	0.993063
362.114398	0.991515
362.502903	0.992301
362.891344	0.992882
363.279722	0.990473
363.668037	0.993182
364.056289	0.991979
364.444478	0.992601
364.832603	0.992949
365.220665	0.991006
365.608665	0.992392
365.996601	0.991146
366.384474	0.991726
366.772284	0.990113
367.160031	0.989984
367.547715	0.988937
367.935336	0.987355
368.322893	0.987805
368.710388	0.984414
369.097820	0.985059
369.485189	0.983117
369.872495	0.979240
370.259738	0.975754
370.646918	0.976125
371.034035	0.974342
371.421090	0.968796
371.808081	0.964526
372.195010	0.962486
372.581875	0.957042
372.968678	0.951917
373.355418	0.949004
373.742096	0.942206
374.128710	0.937599
374.515262	0.931626
374.901751	0.927628
375.288177	0.922539
375.674540	0.916332
376.060841	0.909027
376.447079	0.903179
376.833254	0.895487
377.219367	0.890615
377.605417	0.879371
377.991404	0.877007
378.377329	0.869549
378.763191	0.864968
379.148991	0.855428
379.534727	0.847573
379.920402	0.839954
380.306013	0.836594
380.691563	0.824025
381.077049	0.816571
381.462474	0.812770
381.847835	0.802790
382.233134	0.796515
382.618371	0.797017
383.003545	0.780354
383.388657	0.778407
383.773706	0.771645
384.158693	0.766465
384.543618	0.760753
384.928480	0.753434
385.313280	0.742193
385.698017	0.743504
386.082692	0.732045
386.467305	0.730761
386.851856	0.723159
387.236344	0.718723
387.620770	0.712543
388.005133	0.708140
388.389435	0.703376
388.773674	0.699604
389.157851	0.691431
389.541965	0.689143
389.926018	0.695703
390.310008	0.682028
390.693936	0.678246
391.077802	0.671258
391.461606	0.673387
391.845348	0.662489
392.229027	0.663963
392.612645	0.660692
392.996200	0.648226
393.379694	0.639963
393.763125	0.631100
394.146494	0.635084
394.529801	0.625710
394.913047	0.618049
395.296230	0.623514
395.679351	0.615297
396.062410	0.612116
396.445408	0.614770
396.828343	0.609622
397.211217	0.604581
397.594028	0.618072
397.976778	0.606945
398.359466	0.603867
398.742092	0.598455
399.124656	0.611191
399.507158	0.600320
399.889598	0.596351
400.271977	0.588016
400.654294	0.592716
401.036549	0.590697
401.418742	0.595192
401.800874	0.581446
402.182944	0.578703
402.564952	0.569532
402.946898	0.571541
403.328783	0.572510
403.710606	0.583544
404.092367	0.558710
404.474067	0.563206
404.855705	0.561398
405.237282	0.571600
405.618797	0.557466
406.000250	0.552362
406.381642	0.544198
406.762972	0.548710
407.144240	0.547234
407.525447	0.547754
407.906593	0.540053
408.287677	0.535485
408.668700	0.543835
409.049661	0.537363
409.430560	0.533044
409.811399	0.541418
410.192176	0.523387
410.572891	0.530080
410.953545	0.518917
411.334138	0.531388
411.714669	0.524542
412.095139	0.536511
412.475547	0.520226
412.855894	0.522605
413.236180	0.522192
413.616405	0.527547
413.996568	0.518128
414.376670	0.523127
414.756711	0.528837
415.136691	0.525389
415.516609	0.517190
415.896466	0.513068
416.276262	0.509779
416.655997	0.510145
417.035670	0.492441
417.415283	0.484327
417.794834	0.489188
418.174324	0.493691
418.553753	0.503785
418.933121	0.485597
419.312428	0.480119
419.691674	0.485030
420.070859	0.474245
420.449983	0.481436
420.829045	0.471119
421.208047	0.479513
421.586988	0.473865
421.965867	0.471958
422.344686	0.461113
422.723444	0.473460
423.102141	0.490188
423.480777	0.463652
423.859352	0.483565
424.237866	0.460686
424.616319	0.461084
424.994712	0.452629
425.373044	0.463417
425.751314	0.450854
426.129524	0.466699
426.507673	0.451713
426.885762	0.444933
427.263789	0.450393
427.641756	0.459892
428.019662	0.450475
428.397508	0.449485
428.775292	0.453398
429.153016	0.445664
429.530679	0.452486
429.908282	0.445064
430.285824	0.455011
430.663305	0.433802
431.040726	0.454759
431.418086	0.455307
431.795385	0.446474
432.172624	0.444800
432.549802	0.445771
432.926920	0.444434
433.303977	0.444287
433.680974	0.441225
434.057910	0.440251
434.434786	0.439590
434.811601	0.442041
435.188355	0.424661
435.565050	0.433368
435.941683	0.434940
436.318257	0.419625
436.694770	0.419743
437.071222	0.418150
437.447614	0.422416
437.823946	0.429044
438.200218	0.418821
438.576429	0.427462
438.952580	0.421299
439.328670	0.417967
439.704700	0.424765
440.080670	0.425293
440.456580	0.406577
440.832429	0.414182
441.208218	0.425504
441.583947	0.414636
441.959616	0.414424
442.335224	0.419769
442.710773	0.409905
443.086261	0.408274
443.461689	0.422283
443.837057	0.411882
444.212365	0.402244
444.587612	0.408985
444.962800	0.399063
445.337927	0.400802
445.712995	0.427051
446.088002	0.389385
446.462949	0.399593
446.837837	0.403728
447.212664	0.393207
447.587431	0.384519
447.962139	0.354914
448.336786	0.314775
448.711374	0.324570
449.085901	0.368311
449.460369	0.372859
449.834776	0.376305
450.209124	0.355910
450.583412	0.348534
450.957640	0.341382
451.331808	0.352332
451.705917	0.376253
452.079965	0.380761
452.453954	0.369291
452.827883	0.375563
453.201752	0.370483
453.575562	0.382205
453.949311	0.370273
454.323001	0.376601
454.696632	0.372531
455.070202	0.365231
455.443713	0.356841
455.817164	0.351816
456.190556	0.347742
456.563888	0.344473
456.937160	0.341650
457.310373	0.359009
457.683526	0.357649
458.056619	0.363296
458.429653	0.364247
458.802628	0.367712
459.175542	0.362090
459.548398	0.344519
459.921194	0.336854
460.293930	0.337102
460.666607	0.314501
461.039224	0.302781
461.411782	0.298716
461.784280	0.297785
462.156719	0.302019
462.529099	0.306316
462.901419	0.322155
463.273680	0.326757
463.645882	0.326125
464.018024	0.332100
464.390106	0.325258
464.762130	0.309828
465.134094	0.292704
465.505999	0.261951
465.877845	0.232240
466.249631	0.219437
466.621358	0.226741
466.993026	0.240916
467.364634	0.246802
467.736184	0.255793
468.107674	0.264475
468.479105	0.263308
468.850477	0.270104
469.221790	0.277269
469.593043	0.287246
469.964238	0.291891
470.335373	0.291210
470.706449	0.289822
471.077467	0.290246
471.448425	0.252221
471.819324	0.227876
472.190164	0.227230
472.560945	0.255945
472.931667	0.278255
473.302330	0.282436
473.672934	0.294322
474.043479	0.282382
474.413965	0.284403
474.784393	0.287824
475.154761	0.282793
475.525070	0.280067
475.895321	0.285793
476.265513	0.279763
476.635645	0.275169
477.005719	0.275370
477.375734	0.271823
477.745691	0.264873
478.115588	0.261643
478.485427	0.255020
478.855207	0.242198
479.224928	0.224517
479.594591	0.212695
479.964194	0.216357
480.333739	0.217330
480.703226	0.218725
481.072653	0.217256
481.442022	0.212987
481.811333	0.209379
482.180584	0.212915
482.549777	0.218122
482.918912	0.221581
483.287988	0.221072
483.657005	0.220718
484.025964	0.227286
484.394864	0.224542
484.763706	0.225193
485.132489	0.230406
485.501213	0.230898
485.869879	0.229114
486.238487	0.232709
486.607036	0.230404
486.975527	0.235182
487.343959	0.230847
487.712333	0.230058
488.080648	0.231354
488.448905	0.230683
488.817104	0.232026
489.185244	0.226534
489.553326	0.223433
489.921350	0.213168
490.289315	0.195740
490.657222	0.190831
491.025070	0.192019
491.392861	0.193872
491.760593	0.199663
492.128267	0.205469
492.495883	0.210947
492.863440	0.216979
493.230939	0.223186
493.598380	0.224764
493.965763	0.227130
494.333088	0.229189
494.700354	0.230754
495.067563	0.229781
495.434713	0.233109
495.801805	0.230708
496.168839	0.232051
496.535815	0.233678
496.902733	0.233602
497.269593	0.235220
497.636395	0.233034
498.003139	0.233182
498.369825	0.236251
498.736453	0.232796
499.103023	0.234291
499.469535	0.233617
499.835989	0.233775
500.202385	0.234948
500.568723	0.238155
500.935003	0.233225
501.301226	0.237401
501.667390	0.231893
502.033497	0.229935
502.399546	0.233182
502.765537	0.234735
503.131470	0.232954
503.497345	0.229389
503.863163	0.238412
504.228923	0.231012
504.594625	0.229846
504.960269	0.235144
505.325856	0.230493
505.691385	0.234808
506.056856	0.231396
506.422270	0.231004
506.787625	0.233364
507.152924	0.230751
507.518164	0.231341
507.883347	0.233031
508.248472	0.234670
508.613540	0.229792
508.978550	0.232360
509.343503	0.232814
509.708398	0.230354
510.073236	0.227750
510.438016	0.228063
510.802738	0.228698
511.167403	0.227601
511.532010	0.229981
511.896561	0.225360
512.261053	0.224145
512.625488	0.226285
512.989866	0.226522
513.354186	0.227192
513.718449	0.228606
514.082655	0.225171
514.446803	0.227196
514.810894	0.224908
515.174927	0.226994
515.538904	0.226877
515.902822	0.224145
516.266684	0.226195
516.630488	0.227628
516.994235	0.226016
517.357925	0.224836
517.721558	0.223411
518.085133	0.222735
518.448651	0.222930
518.812112	0.225280
519.175516	0.224613
519.538863	0.222675
519.902152	0.223820
520.265385	0.220994
520.628560	0.222601
520.991678	0.222944
521.354739	0.222155
521.717743	0.223324
522.080690	0.223479
522.443580	0.220896
522.806413	0.221679
523.169189	0.220953
523.531908	0.220222
523.894569	0.223543
524.257174	0.223591
524.619722	0.221217
524.982213	0.222442
525.344647	0.221285
525.707025	0.222368
526.069345	0.220183
526.431608	0.222159
526.793815	0.219878
527.155964	0.224075
527.518057	0.223019
527.880093	0.223775
528.242072	0.222523
528.603995	0.224376
528.965860	0.226099
529.327669	0.224831
529.689421	0.226024
530.051117	0.226923
530.412755	0.224262
530.774337	0.226786
531.135862	0.226910
531.497331	0.226444
531.858743	0.229250
532.220098	0.225886
532.581396	0.228731
532.942638	0.229117
533.303824	0.230153
533.664953	0.230030
534.026025	0.231414
534.387040	0.229326
534.747999	0.229369
535.108902	0.228332
535.469748	0.233049
535.830537	0.231241
536.191270	0.231652
536.551947	0.231365
536.912567	0.231077
537.273131	0.233272
537.633638	0.233054
537.994089	0.233489
538.354483	0.234481
538.714821	0.231684
539.075103	0.231232
539.435328	0.231955
539.795497	0.235689
540.155609	0.232309
540.515665	0.230685
540.875665	0.236222
541.235609	0.234631
541.595496	0.234881
541.955328	0.231317
542.315102	0.234107
542.674821	0.234841
543.034483	0.234981
543.394090	0.234508
543.753640	0.236722
544.113134	0.231687
544.472571	0.234548
544.831953	0.231674
545.191278	0.235919
545.550548	0.234993
545.909761	0.232060
546.268918	0.232743
546.628019	0.231129
546.987064	0.233808
547.346053	0.235936
547.704986	0.233560
548.063863	0.233885
548.422684	0.234226
548.781449	0.236013
549.140158	0.233323
549.498811	0.236461
549.857408	0.239358
550.215949	0.234383
550.574434	0.237437
550.932864	0.235282
551.291237	0.233961
551.649555	0.235364
552.007817	0.234972
552.366022	0.235881
552.724173	0.236301
553.082267	0.236352
553.440305	0.233645
553.798288	0.237775
554.156215	0.234358
554.514086	0.235041
554.871902	0.238124
555.229661	0.237711
555.587365	0.237957
555.945014	0.240694
556.302606	0.237457
556.660143	0.239842
557.017625	0.236354
557.375050	0.238381
557.732421	0.235885
558.089735	0.237711
558.446994	0.238024
558.804197	0.237051
559.161345	0.237103
559.518437	0.240309
559.875474	0.237914
560.232455	0.237424
560.589381	0.238469
560.946251	0.238823
561.303065	0.236317
561.659825	0.237892
562.016528	0.239176
562.373177	0.242008
562.729770	0.239216
563.086307	0.241518
563.442789	0.239180
563.799216	0.242203
564.155587	0.240883
564.511904	0.241672
564.868164	0.242153
565.224370	0.241892
565.580520	0.243623
565.936615	0.243134
566.292654	0.246490
566.648638	0.243293
567.004567	0.244212
567.360441	0.244954
567.716260	0.247003
568.072023	0.244752
568.427732	0.245681
568.783385	0.247988
569.138982	0.246323
569.494525	0.245328
569.850013	0.248389
570.205445	0.246828
570.560823	0.249406
570.916145	0.251854
571.271412	0.249863
571.626625	0.251256
571.981782	0.251630
572.336884	0.252454
572.691931	0.252305
573.046923	0.253649
573.401860	0.255046
573.756743	0.256688
574.111570	0.255385
574.466342	0.255991
574.821059	0.254857
575.175722	0.257632
575.530330	0.257508
575.884882	0.257495
576.239380	0.259753
576.593823	0.260700
576.948211	0.260088
577.302544	0.263185
577.656823	0.262607
578.011047	0.262800
578.365216	0.263514
578.719330	0.265481
579.073389	0.265353
579.427394	0.266800
579.781344	0.267307
580.135239	0.269000
580.489080	0.268592
580.842866	0.271040
581.196597	0.271034
581.550273	0.269986
581.903895	0.270937
582.257463	0.269112
582.610975	0.272507
582.964434	0.271952
583.317837	0.274487
583.671186	0.274443
584.024481	0.274897
584.377721	0.276930
584.730906	0.277808
585.084037	0.277344
585.437113	0.278809
585.790135	0.278240
586.143103	0.281182
586.496016	0.282480
586.848874	0.279910
587.201679	0.280659
587.554428	0.284109
587.907124	0.282613
588.259765	0.282953
588.612352	0.284060
588.964884	0.287359
589.317362	0.287515
589.669786	0.287071
590.022155	0.285564
590.374470	0.285001
590.726731	0.287198
591.078937	0.291729
591.431090	0.288346
591.783188	0.292600
592.135232	0.292754
592.487222	0.292930
592.839157	0.290753
593.191038	0.293645
593.542866	0.295039
593.894639	0.298838
594.246358	0.296963
594.598022	0.296172
594.949633	0.299889
595.301190	0.300345
595.652692	0.299601
596.004141	0.296077
596.355535	0.304052
596.706876	0.304140
597.058162	0.307182
597.409395	0.304175
597.760573	0.301843
598.111698	0.305332
598.462768	0.305477
598.813785	0.306938
599.164748	0.308122
599.515657	0.308573
599.866511	0.311803
600.217312	0.306887
600.568060	0.312732
600.918753	0.308867
601.269392	0.309779
601.619978	0.313345
601.970510	0.310671
602.320988	0.310981
602.671412	0.308335
603.021783	0.310910
603.372100	0.312504
603.722363	0.312162
604.072572	0.312864
604.422728	0.312471
604.772830	0.314687
605.122878	0.314306
605.472872	0.314666
605.822813	0.313440
606.172701	0.315988
606.522534	0.312906
606.872314	0.313037
607.222041	0.313990
607.571714	0.312395
607.921333	0.313680
608.270899	0.313565
608.620411	0.310470
608.969870	0.314071
609.319276	0.314132
609.668627	0.314137
610.017926	0.312764
610.367171	0.311454
610.716362	0.311767
611.065500	0.312125
611.414585	0.311013
611.763616	0.311704
612.112594	0.311804
612.461518	0.311458
612.810389	0.308701
613.159207	0.311592
613.507971	0.313188
613.856682	0.308807
614.205340	0.310507
614.553945	0.307225
614.902496	0.311422
615.250994	0.309154
615.599439	0.309706
615.947830	0.309310
616.296169	0.310353
616.644454	0.309934
616.992686	0.309915
617.340864	0.307627
617.688990	0.311615
618.037063	0.308087
618.385082	0.309803
618.733048	0.306898
619.080961	0.308970
619.428821	0.308691
619.776628	0.307980
620.124382	0.310166
620.472083	0.309785
620.819731	0.309706
621.167326	0.313451
621.514868	0.313277
621.862357	0.317707
622.209793	0.316675
622.557176	0.319231
622.904506	0.320711
623.251783	0.323158
623.599007	0.325161
623.946179	0.324597
624.293297	0.326699
624.640363	0.330588
624.987376	0.331126
625.334336	0.333506
625.681243	0.335930
626.028097	0.336660
626.374899	0.337303
626.721647	0.337753
627.068343	0.341088
627.414987	0.341946
627.761577	0.344038
628.108115	0.342087
628.454600	0.347763
628.801032	0.344765
629.147412	0.347136
629.493739	0.347371
629.840014	0.350496
630.186236	0.347771
630.532405	0.353113
630.878521	0.351037
631.224585	0.353328
631.570597	0.356759
631.916556	0.355174
632.262462	0.355311
632.608316	0.357927
632.954117	0.357819
633.299866	0.359272
633.645562	0.359655
633.991206	0.363958
634.336797	0.366888
634.682336	0.368963
635.027823	0.370642
635.373257	0.371281
635.718639	0.374796
636.063968	0.373795
636.409245	0.379982
636.754470	0.380716
637.099642	0.382869
637.444762	0.386399
637.789829	0.385111
638.134845	0.388463
638.479808	0.389665
638.824719	0.389530
639.169577	0.393411
639.514383	0.392055
639.859137	0.396560
640.203839	0.396571
640.548489	0.397173
640.893086	0.397944
641.237632	0.399935
641.582125	0.397738
641.926566	0.400182
642.270955	0.400036
642.615292	0.400602
642.959576	0.399364
643.303809	0.399995
643.647990	0.399644
643.992118	0.400249
644.336195	0.403720
644.680219	0.402137
645.024192	0.402765
645.368112	0.396387
645.711981	0.395555
646.055797	0.390696
646.399562	0.393197
646.743274	0.385011
647.086935	0.382125
647.430544	0.382402
647.774101	0.381598
648.117606	0.381266
648.461059	0.381804
648.804460	0.384206
649.147810	0.389021
649.491108	0.391291
649.834354	0.392661
650.177548	0.398465
650.520690	0.403278
650.863781	0.404827
651.206820	0.403931
651.549807	0.408585
651.892742	0.412208
652.235626	0.411869
652.578458	0.413413
652.921238	0.419549
653.263967	0.416766
653.606644	0.420832
653.949269	0.420541
654.291843	0.424809
654.634365	0.421306
654.976836	0.424550
655.319255	0.424535
655.661622	0.426173
656.003938	0.426055
656.346203	0.429052
656.688416	0.427126
657.030577	0.430830
657.372687	0.432404
657.714746	0.433148
658.056753	0.430047
658.398708	0.433945
658.740612	0.435249
659.082465	0.431217
659.424266	0.431689
659.766016	0.431090
660.107715	0.433997
660.449362	0.432745
660.790958	0.433610
661.132503	0.433389
661.473996	0.431830
661.815438	0.432503
662.156829	0.432574
662.498168	0.433639
662.839456	0.435397
663.180693	0.432677
663.521879	0.432810
663.863013	0.433461
664.204097	0.432245
664.545129	0.428877
664.886110	0.429289
665.227040	0.426113
665.567918	0.429651
665.908746	0.427061
666.249522	0.426862
666.590248	0.428066
666.930922	0.426568
667.271545	0.424607
667.612118	0.425174
667.952639	0.427056
668.293109	0.425304
668.633528	0.428436
668.973896	0.427929
669.314213	0.427875
669.654480	0.429804
669.994695	0.430794
670.334859	0.430815
670.674973	0.431574
671.015035	0.431403
671.355047	0.431407
671.695008	0.432918
672.034918	0.434538
672.374777	0.433459
672.714585	0.435221
673.054342	0.434798
673.394049	0.435123
673.733705	0.432707
674.073310	0.433498
674.412864	0.436846
674.752368	0.437307
675.091820	0.437703
675.431223	0.442299
675.770574	0.441711
676.109875	0.444729
676.449125	0.444854
676.788324	0.446722
677.127473	0.452724
677.466571	0.452094
677.805619	0.454238
678.144616	0.454970
678.483562	0.456806
678.822458	0.459641
679.161303	0.460183
679.500098	0.460656
679.838842	0.462347
680.177535	0.462076
680.516179	0.460529
680.854771	0.459078
681.193314	0.452734
681.531805	0.443729
681.870247	0.433141
682.208638	0.425721
682.546978	0.424428
682.885268	0.426174
683.223508	0.432409
683.561697	0.435727
683.899836	0.439098
684.237925	0.442425
684.575963	0.444620
684.913951	0.447696
685.251889	0.443837
685.589776	0.445658
685.927614	0.447794
686.265401	0.442147
686.603137	0.443124
686.940824	0.437705
687.278460	0.435425
687.616046	0.435326
687.953582	0.429681
688.291068	0.431226
688.628504	0.426970
688.965889	0.429187
689.303224	0.433335
689.640510	0.437227
689.977745	0.442928
690.314930	0.450745
690.652065	0.455894
690.989150	0.462691
691.326185	0.469780
691.663170	0.474306
692.000105	0.481355
692.336990	0.488211
692.673825	0.490809
693.010610	0.498081
693.347345	0.503035
693.684030	0.504677
694.020665	0.509709
694.357251	0.518561
694.693786	0.518183
695.030272	0.521732
695.366707	0.525323
695.703093	0.528827
696.039429	0.527149
696.375716	0.528373
696.711952	0.531202
697.048139	0.533550
697.384276	0.535482
697.720363	0.533463
698.056400	0.532772
698.392388	0.538336
698.728326	0.541264
699.064214	0.543762
699.400053	0.544919
699.735842	0.548720
700.071581	0.551393
700.407270	0.553486
700.742910	0.556745
701.078501	0.563144
701.414042	0.563373
701.749533	0.566252
702.084974	0.575163
702.420366	0.567626
702.755709	0.575453
703.091002	0.583397
703.426246	0.576206
703.761440	0.582290
704.096584	0.587616
704.431679	0.584353
704.766725	0.586296
705.101721	0.588130
705.436668	0.583997
705.771565	0.591187
706.106413	0.587156
706.441212	0.583021
706.775961	0.581517
707.110661	0.584875
707.445311	0.580644
707.779913	0.578056
708.114465	0.576848
708.448967	0.573421
708.783421	0.565754
709.117825	0.559439
709.452180	0.560301
709.786485	0.553625
710.120742	0.543143
710.454949	0.545252
710.789107	0.537341
711.123216	0.528930
711.457275	0.530477
711.791286	0.520689
712.125247	0.520243
712.459159	0.530905
712.793023	0.523145
713.126837	0.527795
713.460602	0.527835
713.794318	0.537028
714.127985	0.535775
714.461602	0.546461
714.795171	0.549150
715.128691	0.557691
715.462162	0.564888
715.795584	0.570776
716.128957	0.572821
716.462281	0.579911
716.795556	0.584162
717.128782	0.588437
717.461960	0.597867
717.795088	0.596302
718.128167	0.602588
718.461198	0.611666
718.794180	0.611793
719.127113	0.614927
719.459997	0.618993
719.792833	0.624644
720.125619	0.626250
720.458357	0.631951
720.791046	0.631760
721.123686	0.635426
721.456278	0.641641
721.788821	0.639191
722.121315	0.643772
722.453761	0.647898
722.786158	0.645274
723.118506	0.642704
723.450805	0.649847
723.783056	0.645818
724.115259	0.642339
724.447412	0.643202
724.779518	0.643487
725.111574	0.642679
725.443582	0.638265
725.775542	0.641150
726.107453	0.632320
726.439315	0.632910
726.771129	0.630270
727.102895	0.624160
727.434612	0.616934
727.766281	0.614534
728.097901	0.613804
728.429473	0.614066
728.760996	0.613084
729.092471	0.612726
729.423897	0.616014
729.755276	0.615981
730.086606	0.615532
730.417887	0.610038
730.749120	0.601104
731.080305	0.591737
731.411442	0.587926
731.742530	0.592288
732.073570	0.591427
732.404562	0.584053
732.735506	0.585743
733.066401	0.590489
733.397249	0.599591
733.728048	0.610709
734.058798	0.624159
734.389501	0.633644
734.720156	0.644367
735.050762	0.651208
735.381320	0.652694
735.711831	0.662317
736.042293	0.666926
736.372707	0.662650
736.703073	0.667401
737.033391	0.670650
737.363661	0.666390
737.693883	0.662089
738.024056	0.660924
738.354182	0.661129
738.684260	0.650369
739.014290	0.647060
739.344272	0.647457
739.674207	0.640843
740.004093	0.639708
740.333931	0.640367
740.663722	0.640045
740.993464	0.641058
741.323159	0.644689
741.652806	0.649267
741.982405	0.654788
742.311956	0.658486
742.641460	0.661385
742.970915	0.665250
743.300323	0.672907
743.629683	0.679389
743.958996	0.681130
744.288260	0.685416
744.617477	0.691235
744.946647	0.692751
745.275768	0.698749
745.604842	0.698609
745.933869	0.708358
746.262847	0.708762
746.591778	0.702943
746.920662	0.708381
747.249498	0.715110
747.578286	0.705680
747.907027	0.702054
748.235720	0.702948
748.564365	0.697461
748.892963	0.698062
749.221514	0.700525
749.550017	0.705551
749.878473	0.705618
750.206881	0.712079
750.535242	0.713070
750.863555	0.713536
751.191821	0.713871
751.520039	0.717606
751.848210	0.722062
752.176334	0.714484
752.504411	0.714933
752.832440	0.722086
753.160421	0.726245
753.488356	0.724013
753.816243	0.722174
754.144082	0.728944
754.471875	0.733669
754.799620	0.729080
755.127318	0.729884
755.454969	0.730116
755.782572	0.729583
756.110129	0.734635
756.437638	0.737473
756.765100	0.733515
757.092515	0.731661
757.419882	0.730815
757.747203	0.734973
758.074477	0.734566
758.401703	0.732559
758.728882	0.728083
759.056014	0.726448
759.383099	0.726138
759.710138	0.726716
760.037129	0.723654
760.364073	0.717210
760.690970	0.719639
761.017820	0.724778
761.344623	0.720313
761.671379	0.711451
761.998088	0.699697
762.324751	0.677124
762.651366	0.634549
762.977935	0.566508
763.304456	0.514502
763.630931	0.505761
763.957359	0.544286
764.283740	0.589680
764.610074	0.617282
764.936362	0.648482
765.262602	0.675055
765.588796	0.696230
765.914943	0.714377
766.241044	0.732629
766.567097	0.739272
766.893104	0.749422
767.219064	0.754944
767.544978	0.761516
767.870845	0.775767
768.196665	0.779145
768.522438	0.776920
768.848165	0.778971
769.173846	0.787367
769.499479	0.791830
769.825066	0.795148
770.150607	0.801098
770.476101	0.795294
770.801548	0.796927
771.126949	0.809225
771.452303	0.811930
771.777611	0.812076
772.102872	0.810391
772.428087	0.815795
772.753256	0.819417
773.078378	0.821791
773.403453	0.829673
773.728482	0.835308
774.053465	0.827980
774.378401	0.832364
774.703291	0.840331
775.028135	0.840106
775.352932	0.841168
775.677683	0.844097
776.002388	0.844695
776.327046	0.843507
776.651658	0.847699
776.976224	0.850571
777.300743	0.851816
777.625216	0.852666
777.949643	0.855268
778.274024	0.855944
778.598359	0.856825
778.922647	0.854979
779.246889	0.855799
779.571086	0.859487
779.895236	0.862441
780.219339	0.859748
780.543397	0.855746
780.867409	0.855246
781.191374	0.856573
781.515294	0.859252
781.839167	0.857176
782.162995	0.860118
782.486776	0.858645
782.810511	0.858120
783.134201	0.861792
783.457844	0.860696
783.781441	0.862904
784.104993	0.869085
784.428498	0.868164
784.751958	0.863933
785.075372	0.866212
785.398739	0.869931
785.722061	0.867039
786.045337	0.862588
786.368568	0.867413
786.691752	0.869592
787.014891	0.855454
787.337983	0.846855
787.661030	0.838464
787.984031	0.820883
788.306987	0.809432
788.629897	0.810625
788.952760	0.814641
789.275579	0.819551
789.598351	0.833826
789.921078	0.848157
790.243759	0.849618
790.566395	0.855465
790.888984	0.862152
791.211529	0.866276
791.534027	0.869233
791.856480	0.872301
792.178888	0.878433
792.501249	0.880053
792.823566	0.881040
793.145836	0.881920
793.468062	0.883476
793.790241	0.883923
794.112375	0.881242
794.434464	0.876259
794.756507	0.875763
795.078505	0.875056
795.400457	0.870672
795.722364	0.857751
796.044226	0.851047
796.366042	0.850487
796.687812	0.853938
797.009538	0.849805
797.331218	0.853197
797.652852	0.858380
797.974442	0.862716
798.295986	0.861841
798.617484	0.864857
798.938938	0.869285
799.260346	0.873125
799.581709	0.876664
799.903026	0.878906
800.224299	0.879454
800.545526	0.883589
800.866708	0.885607
801.187845	0.890433
801.508936	0.890084
801.829983	0.888391
802.150984	0.890602
802.471940	0.895565
802.792851	0.895448
803.113717	0.896938
803.434538	0.895334
803.755314	0.897250
804.076045	0.898471
804.396731	0.899005
804.717372	0.898448
805.037967	0.900936
805.358518	0.898500
805.679024	0.894991
805.999485	0.894853
806.319901	0.895543
806.640272	0.896837
806.960598	0.895274
807.280879	0.891633
807.601115	0.891898
807.921306	0.894099
808.241453	0.893839
808.561554	0.891880
808.881611	0.892307
809.201623	0.893658
809.521590	0.894550
809.841513	0.894790
810.161390	0.893964
810.481223	0.897280
810.801011	0.899548
811.120755	0.901181
811.440453	0.900412
811.760107	0.897928
812.079716	0.898517
812.399281	0.902805
812.718801	0.905047
813.038276	0.906753
813.357707	0.905011
813.677093	0.902227
813.996434	0.905612
814.315731	0.907385
814.634983	0.908268
814.954191	0.906356
815.273354	0.903599
815.592473	0.900288
815.911547	0.900335
816.230577	0.896991
816.549562	0.894608
816.868502	0.895892
817.187399	0.891822
817.506250	0.885625
817.825058	0.887675
818.143821	0.883705
818.462539	0.879737
818.781213	0.871338
819.099843	0.859855
819.418429	0.843716
819.736970	0.826468
820.055466	0.806501
820.373919	0.780476
820.692327	0.747280
821.010691	0.712728
821.329011	0.633324
821.647286	0.516510
821.965517	0.401655
822.283704	0.358505
822.601847	0.359088
822.919945	0.395119
823.237999	0.429755
823.556010	0.477013
823.873976	0.533709
824.191897	0.584781
824.509775	0.628294
824.827609	0.674038
825.145398	0.697397
825.463144	0.699255
825.780845	0.682454
826.098502	0.663800
826.416116	0.617457
826.733685	0.572539
827.051210	0.564310
827.368692	0.578894
827.686129	0.616390
828.003522	0.670629
828.320872	0.718549
828.638177	0.763037
828.955439	0.796456
829.272656	0.818676
829.589830	0.835477
829.906960	0.852032
830.224046	0.864365
830.541088	0.874772
830.858086	0.879369
831.175041	0.884898
831.491952	0.884935
831.808819	0.880604
832.125642	0.874516
832.442421	0.859627
832.759157	0.837491
833.075849	0.790122
833.392497	0.725828
833.709101	0.684859
834.025662	0.694614
834.342179	0.726143
834.658653	0.766341
834.975083	0.802006
835.291469	0.828662
835.607811	0.851885
835.924110	0.868355
836.240366	0.885528
836.556578	0.898589
836.872746	0.906337
837.188871	0.912744
837.504952	0.918555
837.820990	0.922369
838.136984	0.925443
838.452935	0.929563
838.768842	0.929884
839.084706	0.923711
839.400526	0.896893
839.716303	0.855843
840.032037	0.832966
840.347727	0.837140
840.663373	0.855601
840.978977	0.878113
841.294537	0.901096
841.610054	0.916894
841.925527	0.923756
842.240957	0.931831
842.556344	0.938629
842.871687	0.944253
843.186987	0.948133
843.502244	0.948044
843.817458	0.951076
844.132629	0.955482
844.447756	0.959459
844.762840	0.959756
845.077881	0.958563
845.392879	0.959186
845.707833	0.962424
846.022745	0.963041
846.337613	0.965229
846.652438	0.965542
846.967221	0.964208
847.281960	0.964108
847.596656	0.966884
847.911309	0.964520
848.225919	0.967339
848.540485	0.968174
848.855009	0.968446
849.169490	0.968254
849.483928	0.968786
849.798323	0.968462
850.112675	0.969200
850.426984	0.968661
850.741251	0.969060
851.055474	0.969379
851.369654	0.967834
851.683792	0.969156
851.997887	0.968688
852.311938	0.970727
852.625947	0.969081
852.939914	0.967509
853.253837	0.968754
853.567718	0.970339
853.881555	0.969778
854.195350	0.967155
854.509103	0.968505
854.822812	0.968223
855.136479	0.969223
855.450103	0.969271
855.763685	0.968410
856.077224	0.968091
856.390720	0.969289
856.704173	0.969751
857.017584	0.967782
857.330953	0.966407
857.644278	0.966782
857.957561	0.968860
858.270802	0.967714
858.584000	0.966553
858.897155	0.965789
859.210268	0.966986
859.523339	0.968614
859.836367	0.969787
860.149352	0.969439
860.462295	0.967168
860.775195	0.968810
861.088054	0.967709
861.400869	0.969280
861.713642	0.969353
862.026373	0.968819
862.339062	0.970718
862.651708	0.967158
862.964312	0.966717
863.276873	0.967860
863.589392	0.966714
863.901869	0.964230
864.214303	0.964292
864.526696	0.963434
864.839045	0.962663
865.151353	0.960713
865.463619	0.960927
865.775842	0.961393
866.088023	0.960622
866.400162	0.961507
866.712258	0.961885
867.024313	0.961711
867.336325	0.963185
867.648296	0.961900
867.960224	0.961515
868.272110	0.961339
868.583954	0.962288
868.895755	0.963316
869.207515	0.960598
869.519233	0.958127
869.830909	0.961275
870.142542	0.962517
870.454134	0.959650
870.765684	0.960325
871.077191	0.957202
871.388657	0.957435
871.700081	0.957751
872.011463	0.957232
872.322803	0.956409
872.634101	0.955363
872.945357	0.954633
873.256571	0.952489
873.567744	0.951403
873.878874	0.952004
874.189963	0.950839
874.501010	0.949985
874.812015	0.948468
875.122979	0.951016
875.433900	0.951782
875.744780	0.952796
876.055618	0.949506
876.366415	0.948500
876.677169	0.948443
876.987882	0.950485
877.298554	0.949269
877.609183	0.946481
877.919771	0.942979
878.230317	0.940935
878.540822	0.937866
878.851285	0.933241
879.161707	0.924683
879.472087	0.912485
879.782425	0.894953
880.092722	0.861012
880.402977	0.807428
880.713191	0.744681
881.023363	0.684904
881.333494	0.649261
881.643583	0.621627
881.953631	0.621147
882.263637	0.649813
882.573602	0.688932
882.883526	0.716349
883.193408	0.740331
883.503248	0.765258
883.813048	0.792879
884.122806	0.821987
884.432522	0.846205
884.742197	0.865782
885.051831	0.878231
885.361424	0.888012
885.670975	0.900494
885.980485	0.910661
886.289954	0.917408
886.599382	0.922180
886.908768	0.926671
887.218113	0.932568
887.527417	0.938098
887.836680	0.939918
888.145901	0.941344
888.455082	0.944664
888.764221	0.949779
889.073319	0.950318
889.382376	0.951159
889.691392	0.951658
890.000366	0.950538
890.309300	0.952680
890.618193	0.951042
890.927044	0.950443
891.235855	0.949943
891.544625	0.950600
891.853353	0.950231
892.162041	0.948124
892.470687	0.941232
892.779293	0.935856
893.087858	0.932131
893.396381	0.924067
893.704864	0.910737
894.013306	0.886188
894.321707	0.858551
894.630068	0.843722
894.938387	0.838034
895.246665	0.840124
895.554903	0.852124
895.863100	0.866535
896.171256	0.883853
896.479371	0.903384
896.787446	0.916366
897.095480	0.922528
897.403473	0.925786
897.711425	0.930518
898.019336	0.938346
898.327207	0.940963
898.635038	0.943382
898.942827	0.944289
899.250576	0.946236
899.558284	0.949793
899.865952	0.952517
900.173579	0.953675
900.481165	0.954049
900.788711	0.958583
901.096216	0.959393
901.403681	0.959369
901.711105	0.961984
902.018489	0.961645
902.325832	0.961750
902.633135	0.959904
902.940397	0.954408
903.247619	0.942405
903.554800	0.915276
903.861941	0.874275
904.169041	0.837125
904.476101	0.819422
904.783121	0.820498
905.090100	0.836419
905.397039	0.859900
905.703938	0.882137
906.010796	0.902772
906.317614	0.921010
906.624391	0.932138
906.931129	0.942093
907.237826	0.949986
907.544483	0.957651
907.851099	0.960942
908.157675	0.965988
908.464211	0.968630
908.770707	0.971049
909.077163	0.973046
909.383578	0.973030
909.689954	0.974918
909.996289	0.974543
910.302584	0.977138
910.608839	0.978563
910.915054	0.977210
911.221229	0.976845
911.527363	0.976158
911.833458	0.975837
912.139513	0.975634
912.445527	0.973504
912.751502	0.971920
913.057436	0.971443
913.363331	0.969297
913.669186	0.964878
913.975000	0.960195
914.280775	0.953443
914.586510	0.946747
914.892205	0.931859
915.197859	0.909963
915.503475	0.882824
915.809050	0.861397
916.114585	0.855604
916.420081	0.852342
916.725536	0.849197
917.030952	0.857609
917.336328	0.872071
917.641665	0.887130
917.946961	0.903273
918.252218	0.914839
918.557435	0.925431
918.862612	0.933617
919.167750	0.940041
919.472848	0.944920
919.777906	0.950624
920.082925	0.956201
920.387904	0.959835
920.692843	0.962694
920.997743	0.962323
921.302603	0.965970
921.607423	0.967380
921.912204	0.970419
922.216946	0.970889
922.521647	0.971965
922.826310	0.973745
923.130932	0.974756
923.435516	0.976752
923.740059	0.978757
924.044564	0.978365
924.349028	0.979788
924.653454	0.981872
924.957840	0.984524
925.262186	0.984113
925.566493	0.983410
925.870761	0.984342
926.174989	0.986542
926.479178	0.988075
926.783328	0.988262
927.087438	0.988378
927.391509	0.987737
927.695541	0.989386
927.999533	0.988534
928.303486	0.989006
928.607400	0.991362
928.911275	0.989080
929.215110	0.989322
929.518906	0.990175
929.822663	0.989217
930.126381	0.990276
930.430060	0.989660
930.733699	0.990065
931.037299	0.989208
931.340861	0.990509
931.644383	0.990114
931.947866	0.988634
932.251309	0.990435
932.554714	0.989933
932.858080	0.989827
933.161407	0.988749
933.464694	0.990230
933.767943	0.988229
934.071153	0.990480
934.374323	0.991754
934.677455	0.989412
934.980548	0.991491
935.283602	0.990553
935.586617	0.989819
935.889593	0.991409
936.192530	0.990906
936.495428	0.990392
936.798287	0.989500
937.101108	0.990176
937.403890	0.988941
937.706632	0.988496
938.009336	0.986607
938.312002	0.985761
938.614628	0.984413
938.917216	0.983504
939.219765	0.980928
939.522275	0.981940
939.824747	0.983586
940.127179	0.982499
940.429573	0.984395
940.731929	0.983378
941.034246	0.983863
941.336524	0.984894
941.638763	0.985510
941.940964	0.986138
942.243126	0.986843
942.545250	0.986705
942.847335	0.987165
943.149381	0.987310
943.451389	0.988003
943.753359	0.987695
944.055290	0.989176
944.357182	0.989176
944.659036	0.988027
944.960851	0.989080
945.262628	0.989321
945.564367	0.990482
945.866067	0.989908
946.167729	0.989170
946.469352	0.988591
946.770937	0.987360
947.072484	0.989570
947.373992	0.989118
947.675462	0.989429
947.976893	0.989309
948.278286	0.989479
948.579641	0.991514
948.880958	0.989075
949.182236	0.990684
949.483476	0.990768
949.784678	0.991020
950.085841	0.990809
950.386967	0.989930
950.688054	0.988882
950.989103	0.990610
951.290114	0.989116
951.591087	0.989229
951.892021	0.987778
952.192917	0.987865
952.493776	0.987535
952.794596	0.986989
953.095378	0.987312
953.396122	0.987246
953.696828	0.986459
953.997496	0.989195
954.298126	0.990131
954.598718	0.989433
954.899272	0.990315
955.199788	0.990169
955.500266	0.990593
955.800706	0.992240
956.101108	0.993214
956.401472	0.993915
956.701798	0.993458
957.002087	0.992386
957.302337	0.993077
957.602550	0.995034
957.902724	0.995151
958.202861	0.994760
958.502960	0.995287
958.803022	0.994263
959.103045	0.995496
959.403031	0.995733
959.702979	0.995424
960.002889	0.995007
960.302762	0.994003
960.602596	0.995704
960.902393	0.994792
961.202153	0.996587
961.501875	0.995363
961.801559	0.995422
962.101205	0.996216
962.400814	0.996035
962.700385	0.996617
962.999918	0.996431
963.299414	0.996206
963.598873	0.996018
963.898293	0.995539
964.197677	0.996187
964.497022	0.996365
964.796331	0.996731
965.095601	0.997194
965.394835	0.996889
965.694030	0.997135
965.993189	0.996900
966.292309	0.996277
966.591393	0.996800
966.890439	0.995960
967.189447	0.995884
967.488419	0.996644
967.787353	0.995613
968.086249	0.996146
968.385108	0.994924
968.683930	0.997317
968.982714	0.997320
969.281462	0.997906
969.580172	0.996397
969.878844	0.997303
970.177480	0.996420
970.476078	0.997421
970.774639	0.997036
971.073162	0.997218
971.371649	0.996429
971.670098	0.996560
971.968510	0.997131
972.266885	0.995179
972.565223	0.996999
972.863524	0.996039
973.161788	0.995667
973.460014	0.995941
973.758204	0.995160
974.056356	0.996621
974.354471	0.994503
974.652550	0.994768
974.950591	0.995910
975.248595	0.995966
975.546563	0.996713
975.844493	0.999183
976.142386	0.995629
976.440243	0.997770
976.738062	0.996486
977.035845	0.998071
977.333590	0.997323
977.631299	0.997459
977.928971	0.996589
978.226606	0.995545
978.524204	0.996950
978.821765	0.998116
979.119290	0.995431
979.416777	0.996828
979.714228	0.996151
980.011642	0.994997
980.309020	0.996717
980.606360	0.997124
980.903664	0.998633
981.200931	0.996226
981.498162	0.994437
981.795356	0.994888
982.092513	0.993061
982.389633	0.994025
982.686717	0.990795
982.983764	0.990086
983.280775	0.990152
983.577749	0.989488
983.874686	0.991544
984.171587	0.990659
984.468451	0.993335
984.765279	0.994252
985.062070	0.994177
985.358824	0.994743
985.655543	0.994979
985.952224	0.996247
986.248869	0.996358
986.545478	0.996746
986.842050	0.997910
987.138586	0.995233
987.435086	0.997779
987.731549	0.998565
988.027975	0.997942
988.324366	0.997770
988.620719	0.997776
988.917037	0.995428
989.213318	0.998498
989.509563	0.998418
989.805772	0.998956
990.101944	0.999025
990.398080	0.996819
990.694180	0.998863
990.990244	0.997469
991.286271	0.997973
991.582262	0.998229
991.878217	0.997648
992.174136	0.997534
992.470019	0.998387
992.765865	0.998464
993.061676	0.997588
993.357450	0.997426
993.653188	0.995856
993.948890	0.998617
994.244556	0.998223
994.540186	0.997456
994.835780	0.995522
995.131337	0.996881
995.426859	0.996420
995.722345	0.996648
996.017795	0.997090
996.313208	0.994988
996.608586	0.996145
996.903928	0.995668
997.199234	0.995689
997.494504	0.997271
997.789738	0.995852
998.084936	0.997125
998.380099	0.997232
998.675225	0.997111
998.970316	0.997385
999.265371	0.997571
999.560390	0.997639
999.855373	0.998770
1000.150320	0.997667
1000.445232	0.998200
1000.740108	0.998003
1001.034948	0.998239
1001.329752	0.998309
1001.624521	0.998577
1001.919254	0.997664
1002.213951	0.997784
1002.508613	0.997744
1002.803239	0.999106
1003.097829	0.999202
1003.392384	0.998616
1003.686903	0.998295
1003.981386	0.999144
1004.275834	0.998102
1004.570246	0.999031
1004.864623	0.999183
1005.158964	0.999990
1005.453270	0.998612
1005.747540	0.996844
1006.041775	0.997316
1006.335974	0.999893
1006.630138	0.998841
1006.924266	0.999949
1007.218359	0.999948
1007.512416	0.999566
1007.806438	0.999775
1008.100425	0.998531
1008.394376	0.998735
1008.688292	0.998726
1008.982172	0.999195
1009.276017	0.998733
1009.569827	0.999524
1009.863602	0.997974
1010.157341	0.998981
1010.451045	0.999286
1010.744714	0.998455
1011.038347	0.999192
1011.331945	0.999165
1011.625508	0.997356
1011.919036	0.998788
1012.212528	0.998862
1012.505986	0.998227
1012.799408	0.998760
1013.092795	0.998641
1013.386147	0.998773
1013.679464	0.998651
1013.972745	0.998136
1014.265992	0.996984
1014.559204	0.998897
1014.852380	0.998883
1015.145521	0.999409
1015.438628	0.999086
1015.731699	0.998599
1016.024736	0.998948
1016.317737	0.999079
1016.610703	0.999195
1016.903635	0.999932
1017.196531	0.998962
1017.489393	0.999328
1017.782219	0.999009
1018.075011	0.998474
1018.367768	0.998975
1018.660490	0.998065
1018.953177	0.998065
1019.245829	0.998065
