Dividing Wavelength (nm)	Counts (n)	Blue Motor Position (mm): 0.000000	Red Motor Position (mm): 39.100000	
326.493990	1.000714
326.888308	1.000714
327.282561	1.000714
327.676750	0.999868
328.070874	0.999670
328.464933	1.000007
328.858929	1.000394
329.252859	1.001226
329.646726	0.999926
330.040528	1.001057
330.434265	1.000126
330.827938	1.001680
331.221547	1.001016
331.615091	1.000111
332.008571	0.999814
332.401986	1.001650
332.795338	1.000776
333.188625	0.998215
333.581847	1.001078
333.975006	1.000189
334.368100	0.999733
334.761129	0.999988
335.154095	1.000437
335.546996	0.999351
335.939833	0.996358
336.332606	0.996712
336.725315	0.998977
337.117960	0.998904
337.510540	0.997548
337.903056	0.998684
338.295508	0.996702
338.687896	0.997370
339.080220	0.998240
339.472480	0.998414
339.864676	0.997182
340.256807	0.997817
340.648875	0.998600
341.040879	0.997327
341.432818	0.997461
341.824694	0.998171
342.216506	0.998784
342.608253	0.998385
342.999937	0.998101
343.391557	0.996877
343.783113	0.997465
344.174605	0.996523
344.566033	0.999458
344.957397	0.996393
345.348697	0.997236
345.739934	0.998218
346.131106	0.998344
346.522215	0.997478
346.913260	0.997222
347.304241	0.998059
347.695159	0.997624
348.086012	0.997929
348.476802	0.997273
348.867528	0.998271
349.258191	0.997171
349.648789	0.997762
350.039324	0.998723
350.429796	0.997167
350.820203	0.999176
351.210548	0.998363
351.600828	0.997738
351.991045	0.997398
352.381198	0.996739
352.771288	0.996564
353.161314	0.997607
353.551276	0.998891
353.941175	0.997601
354.331010	0.997805
354.720782	0.999102
355.110490	0.997982
355.500135	0.998749
355.889717	0.997621
356.279235	0.997820
356.668689	0.996620
357.058080	0.997802
357.447408	0.998218
357.836672	0.998811
358.225873	0.998335
358.615010	0.998455
359.004084	0.998669
359.393095	0.997514
359.782043	0.997974
360.170927	0.997211
360.559748	0.998549
360.948505	0.996580
361.337199	0.998248
361.725830	0.998035
362.114398	0.998119
362.502903	0.998507
362.891344	0.998400
363.279722	0.997436
363.668037	0.999443
364.056289	0.997838
364.444478	0.998403
364.832603	0.998356
365.220665	0.998203
365.608665	0.998627
365.996601	0.998059
366.384474	0.998017
366.772284	0.997907
367.160031	0.997195
367.547715	0.997066
367.935336	0.998633
368.322893	0.996628
368.710388	0.996769
369.097820	0.998676
369.485189	0.997473
369.872495	0.998044
370.259738	0.995747
370.646918	0.998345
371.034035	0.999504
371.421090	0.997686
371.808081	0.997038
372.195010	0.999306
372.581875	0.997820
372.968678	0.997510
373.355418	0.998144
373.742096	0.997854
374.128710	0.998394
374.515262	0.997896
374.901751	0.997615
375.288177	0.998255
375.674540	0.998135
376.060841	0.997883
376.447079	0.998692
376.833254	0.997919
377.219367	0.997793
377.605417	0.998017
377.991404	0.997354
378.377329	0.997605
378.763191	0.997608
379.148991	0.998022
379.534727	0.997575
379.920402	0.997602
380.306013	0.998748
380.691563	0.998697
381.077049	0.997720
381.462474	0.998110
381.847835	0.997864
382.233134	0.997804
382.618371	0.998308
383.003545	0.998343
383.388657	0.997481
383.773706	0.998857
384.158693	0.998786
384.543618	0.998538
384.928480	0.998903
385.313280	0.997444
385.698017	1.000231
386.082692	0.999098
386.467305	0.998592
386.851856	0.998262
387.236344	0.997552
387.620770	0.997938
388.005133	0.998820
388.389435	0.999051
388.773674	0.999117
389.157851	0.999052
389.541965	0.998766
389.926018	0.998443
390.310008	0.998205
390.693936	0.998934
391.077802	0.998645
391.461606	0.998303
391.845348	0.999369
392.229027	0.999560
392.612645	0.999054
392.996200	0.999687
393.379694	0.997976
393.763125	0.999532
394.146494	0.999623
394.529801	0.998390
394.913047	0.999269
395.296230	0.998726
395.679351	0.998602
396.062410	0.998633
396.445408	0.999556
396.828343	0.998857
397.211217	0.998808
397.594028	1.000098
397.976778	0.998106
398.359466	0.999200
398.742092	0.998176
399.124656	0.998746
399.507158	0.998799
399.889598	0.999006
400.271977	0.999117
400.654294	0.998830
401.036549	0.999295
401.418742	0.999999
401.800874	0.998087
402.182944	0.999432
402.564952	0.998029
402.946898	1.000512
403.328783	0.999667
403.710606	0.998905
404.092367	0.999758
404.474067	0.999102
404.855705	0.999257
405.237282	0.999369
405.618797	0.998771
406.000250	0.998045
406.381642	0.998990
406.762972	0.998898
407.144240	1.000152
407.525447	0.999227
407.906593	0.998272
408.287677	0.999677
408.668700	0.999114
409.049661	0.998735
409.430560	0.999639
409.811399	0.999091
410.192176	0.999333
410.572891	0.998775
410.953545	0.998380
411.334138	0.998681
411.714669	0.999638
412.095139	0.998394
412.475547	1.000337
412.855894	0.999462
413.236180	0.999840
413.616405	0.999407
413.996568	0.999964
414.376670	0.999897
414.756711	0.998631
415.136691	0.999310
415.516609	1.000023
415.896466	0.998396
416.276262	0.998452
416.655997	0.998952
417.035670	0.999410
417.415283	0.999050
417.794834	0.999879
418.174324	0.999496
418.553753	0.999282
418.933121	0.998951
419.312428	0.999150
419.691674	0.998688
420.070859	1.000019
420.449983	0.999567
420.829045	0.998965
421.208047	0.999428
421.586988	1.001097
421.965867	0.999738
422.344686	0.999717
422.723444	0.999976
423.102141	0.999309
423.480777	1.000916
423.859352	0.999279
424.237866	0.999487
424.616319	0.999354
424.994712	0.999380
425.373044	1.000211
425.751314	0.999674
426.129524	0.999473
426.507673	0.999334
426.885762	1.000318
427.263789	0.999800
427.641756	0.999945
428.019662	0.999972
428.397508	0.999127
428.775292	0.999281
429.153016	0.999366
429.530679	1.000612
429.908282	1.000159
430.285824	0.999149
430.663305	0.999453
431.040726	0.999323
431.418086	0.999717
431.795385	0.999809
432.172624	0.999452
432.549802	0.999480
432.926920	1.000419
433.303977	0.999034
433.680974	0.999322
434.057910	0.999719
434.434786	1.000035
434.811601	0.998999
435.188355	0.999206
435.565050	0.998822
435.941683	0.999272
436.318257	1.000306
436.694770	0.999473
437.071222	0.999910
437.447614	1.000321
437.823946	1.000186
438.200218	0.999503
438.576429	0.999344
438.952580	0.999851
439.328670	0.998837
439.704700	1.000341
440.080670	1.000334
440.456580	1.000257
440.832429	0.999093
441.208218	1.000077
441.583947	0.999642
441.959616	1.000518
442.335224	0.999560
442.710773	1.001511
443.086261	0.999160
443.461689	0.999585
443.837057	0.999259
444.212365	0.999361
444.587612	0.999129
444.962800	0.999503
445.337927	0.999708
445.712995	0.999462
446.088002	1.000087
446.462949	0.999622
446.837837	1.000220
447.212664	1.000237
447.587431	1.000572
447.962139	0.999415
448.336786	1.000124
448.711374	0.999521
449.085901	0.999361
449.460369	1.000909
449.834776	0.999753
450.209124	1.000021
450.583412	0.999565
450.957640	0.999830
451.331808	0.999933
451.705917	0.999467
452.079965	0.999804
452.453954	0.999803
452.827883	0.999695
453.201752	1.000703
453.575562	1.000390
453.949311	1.000595
454.323001	1.000078
454.696632	0.999339
455.070202	1.000371
455.443713	0.999205
455.817164	1.000080
456.190556	0.999777
456.563888	1.000028
456.937160	1.000835
457.310373	0.999074
457.683526	0.999951
458.056619	0.999069
458.429653	1.000070
458.802628	0.998794
459.175542	0.999516
459.548398	1.000190
459.921194	1.000121
460.293930	0.999929
460.666607	0.999397
461.039224	0.998271
461.411782	1.000291
461.784280	0.998985
462.156719	1.000264
462.529099	1.000310
462.901419	0.999771
463.273680	0.999981
463.645882	1.000303
464.018024	1.000521
464.390106	0.999362
464.762130	1.000320
465.134094	0.999950
465.505999	1.000702
465.877845	1.000140
466.249631	1.000356
466.621358	1.000172
466.993026	0.999843
467.364634	1.000119
467.736184	1.000125
468.107674	0.999546
468.479105	0.999807
468.850477	1.000293
469.221790	1.000152
469.593043	1.000558
469.964238	1.000974
470.335373	1.000685
470.706449	0.999569
471.077467	1.000207
471.448425	1.000581
471.819324	1.000806
472.190164	0.999910
472.560945	1.000732
472.931667	0.999775
473.302330	0.999451
473.672934	1.000490
474.043479	1.000241
474.413965	1.000359
474.784393	1.000267
475.154761	0.999723
475.525070	0.999360
475.895321	1.000297
476.265513	1.000339
476.635645	0.999676
477.005719	1.000587
477.375734	0.999107
477.745691	0.999952
478.115588	0.999964
478.485427	1.000848
478.855207	0.999556
479.224928	1.000355
479.594591	1.000417
479.964194	1.000126
480.333739	1.000621
480.703226	1.000357
481.072653	1.000338
481.442022	1.000642
481.811333	0.999670
482.180584	1.000592
482.549777	0.999879
482.918912	1.000140
483.287988	1.000499
483.657005	1.000056
484.025964	1.000945
484.394864	1.000474
484.763706	1.000477
485.132489	0.999918
485.501213	1.000521
485.869879	1.000653
486.238487	1.000115
486.607036	1.000965
486.975527	1.000092
487.343959	0.999421
487.712333	0.999948
488.080648	0.999890
488.448905	1.000090
488.817104	1.000082
489.185244	0.999766
489.553326	1.000044
489.921350	1.000207
490.289315	1.000382
490.657222	1.000392
491.025070	1.000370
491.392861	1.000939
491.760593	1.000879
492.128267	0.999676
492.495883	1.000177
492.863440	0.999832
493.230939	1.000027
493.598380	1.000037
493.965763	0.999787
494.333088	1.000202
494.700354	0.999579
495.067563	1.000171
495.434713	0.999874
495.801805	1.000298
496.168839	0.999807
496.535815	1.000122
496.902733	1.000030
497.269593	0.999419
497.636395	1.000182
498.003139	1.000470
498.369825	1.000936
498.736453	1.000150
499.103023	0.999464
499.469535	0.999398
499.835989	1.000213
500.202385	1.000227
500.568723	0.999824
500.935003	1.000250
501.301226	0.999824
501.667390	0.999898
502.033497	0.999900
502.399546	1.000489
502.765537	0.999299
503.131470	1.000014
503.497345	0.999503
503.863163	1.000808
504.228923	0.999993
504.594625	1.000135
504.960269	1.000217
505.325856	1.000414
505.691385	0.999817
506.056856	0.999639
506.422270	0.999939
506.787625	0.999690
507.152924	0.999933
507.518164	0.999592
507.883347	0.999815
508.248472	0.998796
508.613540	1.000014
508.978550	0.999987
509.343503	0.998982
509.708398	0.999881
510.073236	0.999836
510.438016	1.000137
510.802738	0.999734
511.167403	0.999517
511.532010	0.999804
511.896561	0.999915
512.261053	1.000416
512.625488	0.999695
512.989866	0.999534
513.354186	0.999198
513.718449	0.999807
514.082655	0.999864
514.446803	0.999667
514.810894	0.999533
515.174927	0.999761
515.538904	0.999402
515.902822	0.999169
516.266684	1.000203
516.630488	0.999931
516.994235	0.998925
517.357925	0.999029
517.721558	0.999430
518.085133	0.998820
518.448651	1.000462
518.812112	0.999972
519.175516	0.999540
519.538863	0.999381
519.902152	0.999516
520.265385	0.999058
520.628560	0.999108
520.991678	0.999292
521.354739	0.999609
521.717743	0.998984
522.080690	0.998517
522.443580	0.998767
522.806413	0.998640
523.169189	0.998420
523.531908	0.998278
523.894569	0.999174
524.257174	0.999332
524.619722	0.998961
524.982213	0.999134
525.344647	0.999126
525.707025	0.998525
526.069345	0.998508
526.431608	0.999144
526.793815	0.999163
527.155964	0.998389
527.518057	0.998869
527.880093	0.998409
528.242072	0.998775
528.603995	0.998369
528.965860	0.999311
529.327669	0.998406
529.689421	0.997757
530.051117	0.998812
530.412755	0.998442
530.774337	0.998931
531.135862	0.998353
531.497331	0.998792
531.858743	0.999082
532.220098	0.998968
532.581396	0.998424
532.942638	0.998858
533.303824	0.998626
533.664953	0.998718
534.026025	0.998111
534.387040	0.997469
534.747999	0.998048
535.108902	0.998272
535.469748	0.997605
535.830537	0.998232
536.191270	0.997525
536.551947	0.998012
536.912567	0.998106
537.273131	0.998233
537.633638	0.997116
537.994089	0.997467
538.354483	0.997780
538.714821	0.997797
539.075103	0.997474
539.435328	0.997879
539.795497	0.996990
540.155609	0.997483
540.515665	0.997403
540.875665	0.997096
541.235609	0.997461
541.595496	0.997064
541.955328	0.996216
542.315102	0.997318
542.674821	0.996551
543.034483	0.996909
543.394090	0.996506
543.753640	0.997409
544.113134	0.996584
544.472571	0.997208
544.831953	0.997321
545.191278	0.997165
545.550548	0.996533
545.909761	0.996460
546.268918	0.996507
546.628019	0.996231
546.987064	0.996488
547.346053	0.995800
547.704986	0.996182
548.063863	0.995886
548.422684	0.995889
548.781449	0.996150
549.140158	0.995163
549.498811	0.995122
549.857408	0.995561
550.215949	0.995649
550.574434	0.995011
550.932864	0.994538
551.291237	0.994908
551.649555	0.994567
552.007817	0.994586
552.366022	0.993958
552.724173	0.994444
553.082267	0.994146
553.440305	0.993921
553.798288	0.993517
554.156215	0.993542
554.514086	0.993128
554.871902	0.992973
555.229661	0.992571
555.587365	0.992602
555.945014	0.993094
556.302606	0.991733
556.660143	0.991524
557.017625	0.990640
557.375050	0.990794
557.732421	0.990530
558.089735	0.991005
558.446994	0.990564
558.804197	0.989671
559.161345	0.989921
559.518437	0.989799
559.875474	0.988614
560.232455	0.988663
560.589381	0.988087
560.946251	0.986904
561.303065	0.987185
561.659825	0.986947
562.016528	0.985769
562.373177	0.986370
562.729770	0.984692
563.086307	0.984830
563.442789	0.984557
563.799216	0.983239
564.155587	0.982842
564.511904	0.982387
564.868164	0.981858
565.224370	0.981265
565.580520	0.980990
565.936615	0.980424
566.292654	0.979237
566.648638	0.979071
567.004567	0.977615
567.360441	0.977714
567.716260	0.977755
568.072023	0.976252
568.427732	0.975461
568.783385	0.974868
569.138982	0.974114
569.494525	0.972505
569.850013	0.972452
570.205445	0.970964
570.560823	0.970612
570.916145	0.969243
571.271412	0.968775
571.626625	0.967449
571.981782	0.966931
572.336884	0.966095
572.691931	0.964911
573.046923	0.963092
573.401860	0.962571
573.756743	0.961157
574.111570	0.960574
574.466342	0.960208
574.821059	0.957581
575.175722	0.956729
575.530330	0.955934
575.884882	0.954762
576.239380	0.953867
576.593823	0.953222
576.948211	0.950913
577.302544	0.950260
577.656823	0.947488
578.011047	0.946614
578.365216	0.944770
578.719330	0.944047
579.073389	0.942151
579.427394	0.941430
579.781344	0.940746
580.135239	0.938294
580.489080	0.936598
580.842866	0.934976
581.196597	0.932633
581.550273	0.931315
581.903895	0.929697
582.257463	0.927712
582.610975	0.925586
582.964434	0.924550
583.317837	0.922794
583.671186	0.921022
584.024481	0.918598
584.377721	0.917608
584.730906	0.915262
585.084037	0.912715
585.437113	0.911819
585.790135	0.909392
586.143103	0.907003
586.496016	0.906260
586.848874	0.903431
587.201679	0.900917
587.554428	0.899615
587.907124	0.895973
588.259765	0.894350
588.612352	0.892103
588.964884	0.890367
589.317362	0.887659
589.669786	0.885289
590.022155	0.883727
590.374470	0.881073
590.726731	0.879636
591.078937	0.876984
591.431090	0.873981
591.783188	0.872463
592.135232	0.870087
592.487222	0.868614
592.839157	0.865058
593.191038	0.863614
593.542866	0.860993
593.894639	0.860087
594.246358	0.856585
594.598022	0.853533
594.949633	0.852147
595.301190	0.849329
595.652692	0.847263
596.004141	0.843676
596.355535	0.843076
596.706876	0.840358
597.058162	0.838152
597.409395	0.835766
597.760573	0.831979
598.111698	0.830310
598.462768	0.827506
598.813785	0.826312
599.164748	0.823045
599.515657	0.821130
599.866511	0.818330
600.217312	0.815460
600.568060	0.814160
600.918753	0.809937
601.269392	0.808203
601.619978	0.805533
601.970510	0.802172
602.320988	0.800555
602.671412	0.796198
603.021783	0.795032
603.372100	0.792949
603.722363	0.789459
604.072572	0.786761
604.422728	0.784913
604.772830	0.781991
605.122878	0.778448
605.472872	0.777094
605.822813	0.773053
606.172701	0.771341
606.522534	0.767808
606.872314	0.764400
607.222041	0.762295
607.571714	0.758974
607.921333	0.755850
608.270899	0.752731
608.620411	0.749059
608.969870	0.747933
609.319276	0.745024
609.668627	0.741824
610.017926	0.737905
610.367171	0.733684
610.716362	0.731270
611.065500	0.728494
611.414585	0.724920
611.763616	0.723376
612.112594	0.719621
612.461518	0.716192
612.810389	0.712712
613.159207	0.710484
613.507971	0.708752
613.856682	0.703067
614.205340	0.702133
614.553945	0.696863
614.902496	0.695004
615.250994	0.692276
615.599439	0.689634
615.947830	0.685716
616.296169	0.683895
616.644454	0.680917
616.992686	0.677977
617.340864	0.673545
617.688990	0.672904
618.037063	0.668537
618.385082	0.666369
618.733048	0.661719
619.080961	0.660483
619.428821	0.657782
619.776628	0.653780
620.124382	0.652253
620.472083	0.648829
620.819731	0.646786
621.167326	0.645935
621.514868	0.643180
621.862357	0.642704
622.209793	0.640162
622.557176	0.637428
622.904506	0.635477
623.251783	0.634617
623.599007	0.632616
623.946179	0.630187
624.293297	0.627763
624.640363	0.627827
624.987376	0.624930
625.334336	0.624782
625.681243	0.622397
626.028097	0.620706
626.374899	0.619066
626.721647	0.615697
627.068343	0.615772
627.414987	0.613501
627.761577	0.612317
628.108115	0.608941
628.454600	0.609455
628.801032	0.604055
629.147412	0.604482
629.493739	0.601352
629.840014	0.600755
630.186236	0.597057
630.532405	0.597966
630.878521	0.593873
631.224585	0.593271
631.570597	0.593605
631.916556	0.589419
632.262462	0.588070
632.608316	0.586658
632.954117	0.585031
633.299866	0.583877
633.645562	0.581179
633.991206	0.581931
634.336797	0.582129
634.682336	0.580869
635.027823	0.579317
635.373257	0.578481
635.718639	0.577584
636.063968	0.574358
636.409245	0.577147
636.754470	0.574854
637.099642	0.574787
637.444762	0.574257
637.789829	0.571601
638.134845	0.572768
638.479808	0.570598
638.824719	0.568117
639.169577	0.569211
639.514383	0.565577
639.859137	0.567181
640.203839	0.566107
640.548489	0.563021
640.893086	0.563356
641.237632	0.562410
641.582125	0.558542
641.926566	0.557963
642.270955	0.556586
642.615292	0.555319
642.959576	0.552933
643.303809	0.551761
643.647990	0.549297
643.992118	0.548008
644.336195	0.549767
644.680219	0.545576
645.024192	0.545487
645.368112	0.538582
645.711981	0.536364
646.055797	0.531182
646.399562	0.531995
646.743274	0.523540
647.086935	0.520879
647.430544	0.519944
647.774101	0.516765
648.117606	0.515650
648.461059	0.514155
648.804460	0.514277
649.147810	0.517330
649.491108	0.516342
649.834354	0.515712
650.177548	0.518641
650.520690	0.521433
650.863781	0.520441
651.206820	0.518111
651.549807	0.521360
651.892742	0.522519
652.235626	0.520541
652.578458	0.519482
652.921238	0.523927
653.263967	0.520732
653.606644	0.522575
653.949269	0.521170
654.291843	0.523462
654.634365	0.518812
654.976836	0.520549
655.319255	0.519627
655.661622	0.519675
656.003938	0.518130
656.346203	0.520193
656.688416	0.516435
657.030577	0.518202
657.372687	0.519020
657.714746	0.518448
658.056753	0.514521
658.398708	0.517177
658.740612	0.517016
659.082465	0.512734
659.424266	0.512416
659.766016	0.510609
660.107715	0.511739
660.449362	0.509918
660.790958	0.509685
661.132503	0.508617
661.473996	0.505601
661.815438	0.505660
662.156829	0.505324
662.498168	0.504690
662.839456	0.505155
663.180693	0.501970
663.521879	0.500926
663.863013	0.500829
664.204097	0.499268
664.545129	0.495046
664.886110	0.494640
665.227040	0.491206
665.567918	0.492725
665.908746	0.490339
666.249522	0.489125
666.590248	0.489539
666.930922	0.487351
667.271545	0.485425
667.612118	0.484880
667.952639	0.485423
668.293109	0.482911
668.633528	0.484931
668.973896	0.483836
669.314213	0.483426
669.654480	0.484113
669.994695	0.484072
670.334859	0.483313
670.674973	0.483064
671.015035	0.482569
671.355047	0.481494
671.695008	0.482080
672.034918	0.483571
672.374777	0.481761
672.714585	0.482800
673.054342	0.482349
673.394049	0.481875
673.733705	0.478750
674.073310	0.479280
674.412864	0.481473
674.752368	0.481109
675.091820	0.481072
675.431223	0.484555
675.770574	0.483535
676.109875	0.485850
676.449125	0.485041
676.788324	0.486936
677.127473	0.491590
677.466571	0.490338
677.805619	0.491035
678.144616	0.491987
678.483562	0.492820
678.822458	0.494812
679.161303	0.495350
679.500098	0.494832
679.838842	0.496363
680.177535	0.495585
680.516179	0.493698
680.854771	0.492546
681.193314	0.486195
681.531805	0.477426
681.870247	0.466366
682.208638	0.459062
682.546978	0.458003
682.885268	0.458904
683.223508	0.463979
683.561697	0.467284
683.899836	0.469593
684.237925	0.472781
684.575963	0.475012
684.913951	0.477140
685.251889	0.473118
685.589776	0.475129
685.927614	0.476958
686.265401	0.471400
686.603137	0.472227
686.940824	0.466432
687.278460	0.464876
687.616046	0.464088
687.953582	0.458973
688.291068	0.460282
688.628504	0.456174
688.965889	0.458157
689.303224	0.461471
689.640510	0.464557
689.977745	0.469542
690.314930	0.476966
690.652065	0.480869
690.989150	0.487683
691.326185	0.494001
691.663170	0.497719
692.000105	0.504076
692.336990	0.510574
692.673825	0.512815
693.010610	0.519126
693.347345	0.523899
693.684030	0.525413
694.020665	0.530072
694.357251	0.537635
694.693786	0.537369
695.030272	0.541542
695.366707	0.544715
695.703093	0.547610
696.039429	0.545306
696.375716	0.546306
696.711952	0.549214
697.048139	0.551566
697.384276	0.553333
697.720363	0.550657
698.056400	0.550016
698.392388	0.555410
698.728326	0.558388
699.064214	0.560891
699.400053	0.561131
699.735842	0.564074
700.071581	0.567072
700.407270	0.569423
700.742910	0.571373
701.078501	0.578048
701.414042	0.578022
701.749533	0.581283
702.084974	0.590238
702.420366	0.581785
702.755709	0.589037
703.091002	0.596462
703.426246	0.589883
703.761440	0.596103
704.096584	0.600406
704.431679	0.597319
704.766725	0.599521
705.101721	0.600788
705.436668	0.597090
705.771565	0.603495
706.106413	0.600602
706.441212	0.595137
706.775961	0.594031
707.110661	0.596749
707.445311	0.593703
707.779913	0.590545
708.114465	0.589065
708.448967	0.585476
708.783421	0.577914
709.117825	0.571787
709.452180	0.572717
709.786485	0.566584
710.120742	0.556491
710.454949	0.558406
710.789107	0.551328
711.123216	0.542006
711.457275	0.543379
711.791286	0.533884
712.125247	0.533046
712.459159	0.543762
712.793023	0.536672
713.126837	0.539592
713.460602	0.540575
713.794318	0.550629
714.127985	0.548477
714.461602	0.558109
714.795171	0.561388
715.128691	0.569086
715.462162	0.576463
715.795584	0.582035
716.128957	0.584193
716.462281	0.591300
716.795556	0.594109
717.128782	0.599709
717.461960	0.608921
717.795088	0.607088
718.128167	0.612819
718.461198	0.621517
718.794180	0.622905
719.127113	0.624645
719.459997	0.628826
719.792833	0.634598
720.125619	0.636216
720.458357	0.641287
720.791046	0.640138
721.123686	0.644129
721.456278	0.651134
721.788821	0.648071
722.121315	0.652387
722.453761	0.655862
722.786158	0.654287
723.118506	0.651273
723.450805	0.659272
723.783056	0.655660
724.115259	0.652150
724.447412	0.651059
724.779518	0.653733
725.111574	0.651892
725.443582	0.647538
725.775542	0.649900
726.107453	0.642278
726.439315	0.641572
726.771129	0.640257
727.102895	0.633620
727.434612	0.626856
727.766281	0.625159
728.097901	0.624343
728.429473	0.623093
728.760996	0.622670
729.092471	0.621629
729.423897	0.625897
729.755276	0.625842
730.086606	0.625866
730.417887	0.619821
730.749120	0.610592
731.080305	0.601740
731.411442	0.597042
731.742530	0.602014
732.073570	0.601992
732.404562	0.593752
732.735506	0.595642
733.066401	0.599777
733.397249	0.609081
733.728048	0.620004
734.058798	0.631860
734.389501	0.642415
734.720156	0.652324
735.050762	0.660340
735.381320	0.661267
735.711831	0.670687
736.042293	0.674857
736.372707	0.670811
736.703073	0.676075
737.033391	0.678384
737.363661	0.675038
737.693883	0.670491
738.024056	0.669502
738.354182	0.669308
738.684260	0.658941
739.014290	0.655356
739.344272	0.656625
739.674207	0.649217
740.004093	0.648636
740.333931	0.649433
740.663722	0.648970
740.993464	0.649304
741.323159	0.653415
741.652806	0.658613
741.982405	0.662572
742.311956	0.667392
742.641460	0.668953
742.970915	0.673326
743.300323	0.681616
743.629683	0.687463
743.958996	0.688784
744.288260	0.693121
744.617477	0.699628
744.946647	0.701687
745.275768	0.706942
745.604842	0.705422
745.933869	0.715936
746.262847	0.717077
746.591778	0.710406
746.920662	0.716241
747.249498	0.722589
747.578286	0.714157
747.907027	0.709416
748.235720	0.711381
748.564365	0.706090
748.892963	0.705875
749.221514	0.708628
749.550017	0.713640
749.878473	0.713054
750.206881	0.719677
750.535242	0.721569
750.863555	0.720726
751.191821	0.720848
751.520039	0.724793
751.848210	0.730224
752.176334	0.722049
752.504411	0.721678
752.832440	0.728720
753.160421	0.733448
753.488356	0.731027
753.816243	0.728686
754.144082	0.736991
754.471875	0.740632
754.799620	0.736091
755.127318	0.738275
755.454969	0.737367
755.782572	0.736975
756.110129	0.741096
756.437638	0.743966
756.765100	0.741300
757.092515	0.738568
757.419882	0.737603
757.747203	0.743243
758.074477	0.742836
758.401703	0.740167
758.728882	0.734685
759.056014	0.733807
759.383099	0.732115
759.710138	0.734024
760.037129	0.730261
760.364073	0.724351
760.690970	0.726833
761.017820	0.732224
761.344623	0.728664
761.671379	0.719728
761.998088	0.707246
762.324751	0.685413
762.651366	0.644537
762.977935	0.578013
763.304456	0.526500
763.630931	0.517305
763.957359	0.555449
764.283740	0.600079
764.610074	0.626693
764.936362	0.657252
765.262602	0.683644
765.588796	0.704652
765.914943	0.722112
766.241044	0.739967
766.567097	0.745810
766.893104	0.755847
767.219064	0.762473
767.544978	0.769237
767.870845	0.781364
768.196665	0.785952
768.522438	0.784063
768.848165	0.783851
769.173846	0.793729
769.499479	0.797850
769.825066	0.801551
770.150607	0.806785
770.476101	0.803437
770.801548	0.802551
771.126949	0.814684
771.452303	0.818560
771.777611	0.817937
772.102872	0.816825
772.428087	0.822196
772.753256	0.825360
773.078378	0.826826
773.403453	0.835830
773.728482	0.839996
774.053465	0.834206
774.378401	0.837205
774.703291	0.845136
775.028135	0.844749
775.352932	0.846650
775.677683	0.849016
776.002388	0.850318
776.327046	0.849447
776.651658	0.851942
776.976224	0.855852
777.300743	0.856797
777.625216	0.858726
777.949643	0.860490
778.274024	0.861111
778.598359	0.862202
778.922647	0.859791
779.246889	0.860912
779.571086	0.864890
779.895236	0.867628
780.219339	0.865119
780.543397	0.861730
780.867409	0.860238
781.191374	0.862940
781.515294	0.863859
781.839167	0.862821
782.162995	0.866724
782.486776	0.863105
782.810511	0.864280
783.134201	0.868098
783.457844	0.865511
783.781441	0.867738
784.104993	0.874473
784.428498	0.874479
784.751958	0.869491
785.075372	0.871714
785.398739	0.876066
785.722061	0.872263
786.045337	0.867789
786.368568	0.873220
786.691752	0.875335
787.014891	0.861116
787.337983	0.852646
787.661030	0.845382
787.984031	0.827549
788.306987	0.814838
788.629897	0.816993
788.952760	0.822031
789.275579	0.826150
789.598351	0.840230
789.921078	0.853849
790.243759	0.855482
790.566395	0.860379
790.888984	0.867407
791.211529	0.872367
791.534027	0.875995
791.856480	0.878314
792.178888	0.883156
792.501249	0.885283
792.823566	0.885221
793.145836	0.886694
793.468062	0.888417
793.790241	0.887369
794.112375	0.886152
794.434464	0.880573
794.756507	0.881981
795.078505	0.880643
795.400457	0.875170
795.722364	0.863715
796.044226	0.855953
796.366042	0.856184
796.687812	0.859042
797.009538	0.855636
797.331218	0.858289
797.652852	0.863918
797.974442	0.868464
798.295986	0.867530
798.617484	0.870789
798.938938	0.875337
799.260346	0.880605
799.581709	0.880811
799.903026	0.883835
800.224299	0.883769
800.545526	0.888427
800.866708	0.891786
801.187845	0.896515
801.508936	0.894931
801.829983	0.894444
802.150984	0.895687
802.471940	0.901022
802.792851	0.900398
803.113717	0.901461
803.434538	0.899190
803.755314	0.901963
804.076045	0.903429
804.396731	0.902815
804.717372	0.902357
805.037967	0.904316
805.358518	0.902423
805.679024	0.899447
805.999485	0.899505
806.319901	0.900693
806.640272	0.900977
806.960598	0.900226
807.280879	0.896636
807.601115	0.895810
807.921306	0.898947
808.241453	0.899818
808.561554	0.897301
808.881611	0.897158
809.201623	0.899702
809.521590	0.899812
809.841513	0.900525
810.161390	0.900142
810.481223	0.900659
810.801011	0.905062
811.120755	0.906965
811.440453	0.904601
811.760107	0.903426
812.079716	0.903724
812.399281	0.907754
812.718801	0.909631
813.038276	0.910584
813.357707	0.909444
813.677093	0.907153
813.996434	0.910885
814.315731	0.912431
814.634983	0.913401
814.954191	0.911670
815.273354	0.908427
815.592473	0.904179
815.911547	0.905817
816.230577	0.902838
816.549562	0.900381
816.868502	0.901279
817.187399	0.897186
817.506250	0.890958
817.825058	0.893879
818.143821	0.890365
818.462539	0.885549
818.781213	0.876993
819.099843	0.866023
819.418429	0.851686
819.736970	0.834610
820.055466	0.815668
820.373919	0.790683
820.692327	0.758320
821.010691	0.724699
821.329011	0.649613
821.647286	0.536646
821.965517	0.424664
822.283704	0.382203
822.601847	0.384195
822.919945	0.419709
823.237999	0.452358
823.556010	0.497634
823.873976	0.552668
824.191897	0.602117
824.509775	0.643645
824.827609	0.687847
825.145398	0.710139
825.463144	0.712924
825.780845	0.696399
826.098502	0.677476
826.416116	0.633574
826.733685	0.589818
827.051210	0.582416
827.368692	0.596547
827.686129	0.631700
828.003522	0.684959
828.320872	0.731238
828.638177	0.774410
828.955439	0.806083
829.272656	0.827651
829.589830	0.844450
829.906960	0.858745
830.224046	0.870655
830.541088	0.881555
830.858086	0.885991
831.175041	0.891390
831.491952	0.891657
831.808819	0.887601
832.125642	0.881082
832.442421	0.866430
832.759157	0.845882
833.075849	0.801018
833.392497	0.738065
833.709101	0.698377
834.025662	0.708076
834.342179	0.738653
834.658653	0.776911
834.975083	0.812988
835.291469	0.838751
835.607811	0.859263
835.924110	0.875037
836.240366	0.892368
836.556578	0.904991
836.872746	0.912708
837.188871	0.918691
837.504952	0.922869
837.820990	0.926775
838.136984	0.930801
838.452935	0.933334
838.768842	0.934315
839.084706	0.927968
839.400526	0.902833
839.716303	0.865013
840.032037	0.842591
840.347727	0.845434
840.663373	0.863977
840.978977	0.884235
841.294537	0.905954
841.610054	0.922585
841.925527	0.930018
842.240957	0.936183
842.556344	0.943870
842.871687	0.950037
843.186987	0.952380
843.502244	0.953262
843.817458	0.955465
844.132629	0.957992
844.447756	0.962968
844.762840	0.963524
845.077881	0.961846
845.392879	0.963201
845.707833	0.965642
846.022745	0.967077
846.337613	0.967261
846.652438	0.969198
846.967221	0.967628
847.281960	0.967573
847.596656	0.970424
847.911309	0.967539
848.225919	0.970512
848.540485	0.972000
848.855009	0.971172
849.169490	0.971454
849.483928	0.972343
849.798323	0.972525
850.112675	0.972494
850.426984	0.972618
850.741251	0.973160
851.055474	0.971953
851.369654	0.970421
851.683792	0.971757
851.997887	0.971915
852.311938	0.973362
852.625947	0.972941
852.939914	0.970350
853.253837	0.972513
853.567718	0.973013
853.881555	0.973134
854.195350	0.971425
854.509103	0.972428
854.822812	0.973083
855.136479	0.972232
855.450103	0.973180
855.763685	0.970746
856.077224	0.971058
856.390720	0.972453
856.704173	0.973211
857.017584	0.971301
857.330953	0.970024
857.644278	0.971361
857.957561	0.971590
858.270802	0.971715
858.584000	0.971321
858.897155	0.969622
859.210268	0.969951
859.523339	0.970410
859.836367	0.972643
860.149352	0.974232
860.462295	0.972276
860.775195	0.972389
861.088054	0.972502
861.400869	0.972528
861.713642	0.973440
862.026373	0.973247
862.339062	0.974449
862.651708	0.969789
862.964312	0.969440
863.276873	0.972180
863.589392	0.971164
863.901869	0.969139
864.214303	0.967701
864.526696	0.966853
864.839045	0.966633
865.151353	0.964161
865.463619	0.965278
865.775842	0.964815
866.088023	0.965297
866.400162	0.965741
866.712258	0.966025
867.024313	0.965204
867.336325	0.966428
867.648296	0.966739
867.960224	0.965787
868.272110	0.964684
868.583954	0.965976
868.895755	0.966445
869.207515	0.965189
869.519233	0.962109
869.830909	0.963848
870.142542	0.964745
870.454134	0.965456
870.765684	0.964292
871.077191	0.961685
871.388657	0.962312
871.700081	0.961642
872.011463	0.961989
872.322803	0.960519
872.634101	0.960689
872.945357	0.958947
873.256571	0.957754
873.567744	0.956702
873.878874	0.957834
874.189963	0.956730
874.501010	0.955084
874.812015	0.953025
875.122979	0.954256
875.433900	0.957660
875.744780	0.958050
876.055618	0.954194
876.366415	0.953804
876.677169	0.953418
876.987882	0.955685
877.298554	0.955027
877.609183	0.952626
877.919771	0.949476
878.230317	0.947292
878.540822	0.945001
878.851285	0.939479
879.161707	0.931974
879.472087	0.921114
879.782425	0.905714
880.092722	0.873322
880.402977	0.822032
880.713191	0.764497
881.023363	0.708013
881.333494	0.675623
881.643583	0.648012
881.953631	0.647466
882.263637	0.676029
882.573602	0.714212
882.883526	0.739514
883.193408	0.761563
883.503248	0.781913
883.813048	0.808679
884.122806	0.837368
884.432522	0.859994
884.742197	0.878861
885.051831	0.888391
885.361424	0.898120
885.670975	0.909653
885.980485	0.919657
886.289954	0.925317
886.599382	0.929488
886.908768	0.934490
887.218113	0.938901
887.527417	0.943771
887.836680	0.947284
888.145901	0.947129
888.455082	0.950572
888.764221	0.954967
889.073319	0.956208
889.382376	0.957449
889.691392	0.957983
890.000366	0.957298
890.309300	0.958601
890.618193	0.957878
890.927044	0.956029
891.235855	0.955889
891.544625	0.954753
891.853353	0.956448
892.162041	0.953692
892.470687	0.947721
892.779293	0.943226
893.087858	0.938783
893.396381	0.931760
893.704864	0.919199
894.013306	0.897066
894.321707	0.870978
894.630068	0.857091
894.938387	0.852877
895.246665	0.854419
895.554903	0.867051
895.863100	0.878258
896.171256	0.894412
896.479371	0.913465
896.787446	0.925634
897.095480	0.930560
897.403473	0.933552
897.711425	0.937921
898.019336	0.944691
898.327207	0.948108
898.635038	0.949440
898.942827	0.949695
899.250576	0.952764
899.558284	0.957573
899.865952	0.957986
900.173579	0.960040
900.481165	0.959620
900.788711	0.964131
901.096216	0.965766
901.403681	0.965428
901.711105	0.966615
902.018489	0.967297
902.325832	0.967059
902.633135	0.965508
902.940397	0.960251
903.247619	0.948239
903.554800	0.925060
903.861941	0.887197
904.169041	0.853949
904.476101	0.838107
904.783121	0.838889
905.090100	0.853624
905.397039	0.874019
905.703938	0.894895
906.010796	0.913497
906.317614	0.929024
906.624391	0.939643
906.931129	0.949237
907.237826	0.956103
907.544483	0.963608
907.851099	0.966239
908.157675	0.971118
908.464211	0.973236
908.770707	0.975872
909.077163	0.977888
909.383578	0.977562
909.689954	0.977924
909.996289	0.979546
910.302584	0.980911
910.608839	0.982881
910.915054	0.981254
911.221229	0.981304
911.527363	0.980094
911.833458	0.980467
912.139513	0.981515
912.445527	0.977699
912.751502	0.976280
913.057436	0.976204
913.363331	0.974039
913.669186	0.970189
913.975000	0.966482
914.280775	0.959975
914.586510	0.953702
914.892205	0.941415
915.197859	0.921130
915.503475	0.895557
915.809050	0.877109
916.114585	0.873338
916.420081	0.871482
916.725536	0.867267
917.030952	0.874469
917.336328	0.886510
917.641665	0.901260
917.946961	0.916117
918.252218	0.927600
918.557435	0.933411
918.862612	0.942999
919.167750	0.947443
919.472848	0.952696
919.777906	0.958285
920.082925	0.962170
920.387904	0.966975
920.692843	0.967920
920.997743	0.967601
921.302603	0.971531
921.607423	0.973268
921.912204	0.976034
922.216946	0.974915
922.521647	0.975847
922.826310	0.978101
923.130932	0.979799
923.435516	0.981808
923.740059	0.982526
924.044564	0.982071
924.349028	0.983485
924.653454	0.986068
924.957840	0.987578
925.262186	0.987475
925.566493	0.985654
925.870761	0.987571
926.174989	0.988046
926.479178	0.991406
926.783328	0.990040
927.087438	0.991578
927.391509	0.989318
927.695541	0.992254
927.999533	0.991288
928.303486	0.992242
928.607400	0.993408
928.911275	0.991208
929.215110	0.992226
929.518906	0.992918
929.822663	0.990865
930.126381	0.993637
930.430060	0.992502
930.733699	0.992170
931.037299	0.991603
931.340861	0.992988
931.644383	0.991316
931.947866	0.991555
932.251309	0.992726
932.554714	0.992674
932.858080	0.992482
933.161407	0.993120
933.464694	0.992589
933.767943	0.991558
934.071153	0.993469
934.374323	0.994069
934.677455	0.993241
934.980548	0.993750
935.283602	0.992501
935.586617	0.992819
935.889593	0.991847
936.192530	0.993123
936.495428	0.993197
936.798287	0.992839
937.101108	0.992679
937.403890	0.991778
937.706632	0.990636
938.009336	0.988311
938.312002	0.988795
938.614628	0.987434
938.917216	0.986271
939.219765	0.984963
939.522275	0.985944
939.824747	0.986514
940.127179	0.986585
940.429573	0.987369
940.731929	0.987094
941.034246	0.987317
941.336524	0.988671
941.638763	0.988894
941.940964	0.989649
942.243126	0.988472
942.545250	0.989546
942.847335	0.990758
943.149381	0.991214
943.451389	0.991409
943.753359	0.991245
944.055290	0.993596
944.357182	0.993072
944.659036	0.991559
944.960851	0.991731
945.262628	0.992293
945.564367	0.992860
945.866067	0.992314
946.167729	0.992735
946.469352	0.990951
946.770937	0.991819
947.072484	0.993415
947.373992	0.992768
947.675462	0.991951
947.976893	0.992830
948.278286	0.992596
948.579641	0.993964
948.880958	0.992314
949.182236	0.992722
949.483476	0.993498
949.784678	0.993025
950.085841	0.994834
950.386967	0.993363
950.688054	0.992292
950.989103	0.993815
951.290114	0.991842
951.591087	0.992171
951.892021	0.992577
952.192917	0.991810
952.493776	0.991052
952.794596	0.990266
953.095378	0.990560
953.396122	0.991107
953.696828	0.989492
953.997496	0.992035
954.298126	0.993326
954.598718	0.992067
954.899272	0.993404
955.199788	0.992081
955.500266	0.994722
955.800706	0.994618
956.101108	0.994603
956.401472	0.994840
956.701798	0.995536
957.002087	0.995243
957.302337	0.995138
957.602550	0.996839
957.902724	0.996267
958.202861	0.996966
958.502960	0.996907
958.803022	0.995265
959.103045	0.996683
959.403031	0.998339
959.702979	0.996170
960.002889	0.997717
960.302762	0.995654
960.602596	0.997125
960.902393	0.995952
961.202153	0.997327
961.501875	0.997848
961.801559	0.997734
962.101205	0.996666
962.400814	0.997799
962.700385	0.997311
962.999918	0.997370
963.299414	0.998295
963.598873	0.997765
963.898293	0.996897
964.197677	0.997248
964.497022	0.998275
964.796331	0.998165
965.095601	0.997574
965.394835	0.997709
965.694030	0.998117
965.993189	0.998510
966.292309	0.997978
966.591393	0.999686
966.890439	0.998739
967.189447	0.998441
967.488419	0.998522
967.787353	0.996570
968.086249	0.997760
968.385108	0.998169
968.683930	0.998735
968.982714	0.998552
969.281462	0.999148
969.580172	0.998009
969.878844	0.998553
970.177480	0.998599
970.476078	0.999709
970.774639	0.998731
971.073162	0.998383
971.371649	0.997466
971.670098	0.997342
971.968510	0.997997
972.266885	0.996831
972.565223	0.997872
972.863524	0.997603
973.161788	0.997804
973.460014	0.997995
973.758204	0.996685
974.056356	0.997472
974.354471	0.995638
974.652550	0.998331
974.950591	0.998792
975.248595	0.997689
975.546563	0.997737
975.844493	0.999341
976.142386	0.998184
976.440243	0.999036
976.738062	0.998873
977.035845	0.999269
977.333590	0.997015
977.631299	0.997928
977.928971	0.998597
978.226606	0.997954
978.524204	0.997997
978.821765	0.999517
979.119290	0.997982
979.416777	0.997856
979.714228	0.999237
980.011642	0.998156
980.309020	0.998821
980.606360	0.999049
980.903664	0.998619
981.200931	0.997545
981.498162	0.996533
981.795356	0.996116
982.092513	0.994795
982.389633	0.996998
982.686717	0.992462
982.983764	0.994910
983.280775	0.992921
983.577749	0.992159
983.874686	0.993069
984.171587	0.993240
984.468451	0.995306
984.765279	0.996599
985.062070	0.995408
985.358824	0.997095
985.655543	0.997116
985.952224	0.997825
986.248869	0.998085
986.545478	0.998781
986.842050	0.998756
987.138586	0.997220
987.435086	0.998075
987.731549	1.000780
988.027975	0.998941
988.324366	0.998653
988.620719	0.998187
988.917037	0.996568
989.213318	0.997952
989.509563	0.999927
989.805772	0.999864
990.101944	0.999946
990.398080	0.998281
990.694180	0.998893
990.990244	0.997415
991.286271	0.999226
991.582262	0.999303
991.878217	0.998987
992.174136	0.999508
992.470019	0.999536
992.765865	0.998620
993.061676	0.999402
993.357450	0.998303
993.653188	0.998224
993.948890	0.998196
994.244556	0.999558
994.540186	0.998744
994.835780	0.997976
995.131337	0.999705
995.426859	0.997473
995.722345	0.998069
996.017795	0.997557
996.313208	0.997714
996.608586	0.997374
996.903928	0.997784
997.199234	0.996698
997.494504	0.997411
997.789738	0.997611
998.084936	0.997839
998.380099	0.997896
998.675225	0.998070
998.970316	0.999869
999.265371	0.998605
999.560390	0.999203
999.855373	0.999160
1000.150320	0.999533
1000.445232	1.000057
1000.740108	0.998587
1001.034948	0.998673
1001.329752	1.000388
1001.624521	0.999994
1001.919254	0.999003
1002.213951	0.999326
1002.508613	0.999038
1002.803239	0.999833
1003.097829	0.999671
1003.392384	0.999852
1003.686903	0.999173
1003.981386	0.998812
1004.275834	1.000253
1004.570246	0.998878
1004.864623	0.999798
1005.158964	0.999761
1005.453270	0.999916
1005.747540	0.998182
1006.041775	0.998676
1006.335974	1.000348
1006.630138	1.000106
1006.924266	0.999875
1007.218359	1.000938
1007.512416	1.000069
1007.806438	0.999902
1008.100425	0.999694
1008.394376	0.999562
1008.688292	0.999337
1008.982172	1.000157
1009.276017	1.000146
1009.569827	0.998522
1009.863602	0.999220
1010.157341	0.999967
1010.451045	0.999302
1010.744714	0.999635
1011.038347	0.999616
1011.331945	0.999759
1011.625508	0.997661
1011.919036	0.999222
1012.212528	0.999463
1012.505986	0.998634
1012.799408	0.999541
1013.092795	0.998999
1013.386147	1.000197
1013.679464	0.999905
1013.972745	0.997913
1014.265992	0.998390
1014.559204	0.999285
1014.852380	0.999830
1015.145521	0.999818
1015.438628	1.000193
1015.731699	0.999915
1016.024736	1.000512
1016.317737	0.997861
1016.610703	0.999479
1016.903635	1.000972
1017.196531	0.999414
1017.489393	1.000925
1017.782219	1.000050
1018.075011	0.999184
1018.367768	1.000104
1018.660490	1.000905
1018.953177	1.000905
1019.245829	1.000905
