Dividing Wavelength (nm)	Counts (n)	Blue Motor Position (mm): 0.000000	Red Motor Position (mm): 2.300000	
326.493990	1.002302
326.888308	1.002302
327.282561	1.002302
327.676750	1.000813
328.070874	0.999804
328.464933	1.000482
328.858929	0.999250
329.252859	0.999999
329.646726	1.000421
330.040528	1.000725
330.434265	1.000576
330.827938	1.000247
331.221547	1.000397
331.615091	1.000188
332.008571	1.000356
332.401986	1.000314
332.795338	0.999789
333.188625	0.998541
333.581847	1.000128
333.975006	0.999042
334.368100	0.999711
334.761129	0.999792
335.154095	1.001808
335.546996	0.998081
335.939833	0.992287
336.332606	0.993526
336.725315	0.993267
337.117960	0.993849
337.510540	0.993894
337.903056	0.993758
338.295508	0.993067
338.687896	0.993123
339.080220	0.994004
339.472480	0.992672
339.864676	0.993539
340.256807	0.993281
340.648875	0.994968
341.040879	0.993161
341.432818	0.993300
341.824694	0.992720
342.216506	0.995481
342.608253	0.993426
342.999937	0.993955
343.391557	0.993290
343.783113	0.993293
344.174605	0.992516
344.566033	0.994634
344.957397	0.993240
345.348697	0.994173
345.739934	0.993809
346.131106	0.992797
346.522215	0.991690
346.913260	0.993121
347.304241	0.992955
347.695159	0.992865
348.086012	0.991940
348.476802	0.993283
348.867528	0.993081
349.258191	0.992803
349.648789	0.993101
350.039324	0.993569
350.429796	0.994178
350.820203	0.993848
351.210548	0.993468
351.600828	0.993834
351.991045	0.993336
352.381198	0.991443
352.771288	0.992773
353.161314	0.992710
353.551276	0.993721
353.941175	0.993085
354.331010	0.991964
354.720782	0.993096
355.110490	0.992184
355.500135	0.992947
355.889717	0.992563
356.279235	0.992802
356.668689	0.992764
357.058080	0.993114
357.447408	0.993960
357.836672	0.993016
358.225873	0.992882
358.615010	0.992743
359.004084	0.994395
359.393095	0.992855
359.782043	0.992506
360.170927	0.993769
360.559748	0.993131
360.948505	0.991212
361.337199	0.992815
361.725830	0.992742
362.114398	0.991447
362.502903	0.992889
362.891344	0.992252
363.279722	0.991530
363.668037	0.993143
364.056289	0.991820
364.444478	0.993072
364.832603	0.991810
365.220665	0.991308
365.608665	0.992837
365.996601	0.989986
366.384474	0.991181
366.772284	0.991540
367.160031	0.989143
367.547715	0.987230
367.935336	0.988303
368.322893	0.987578
368.710388	0.985689
369.097820	0.985084
369.485189	0.981906
369.872495	0.980643
370.259738	0.976835
370.646918	0.976192
371.034035	0.974434
371.421090	0.970282
371.808081	0.964466
372.195010	0.963657
372.581875	0.957860
372.968678	0.953639
373.355418	0.948754
373.742096	0.943088
374.128710	0.938784
374.515262	0.931276
374.901751	0.927353
375.288177	0.922214
375.674540	0.916146
376.060841	0.910007
376.447079	0.903468
376.833254	0.896904
377.219367	0.891044
377.605417	0.880412
377.991404	0.876888
378.377329	0.869556
378.763191	0.864253
379.148991	0.855585
379.534727	0.847794
379.920402	0.840196
380.306013	0.836347
380.691563	0.824199
381.077049	0.817060
381.462474	0.813038
381.847835	0.802556
382.233134	0.796994
382.618371	0.797655
383.003545	0.780029
383.388657	0.777653
383.773706	0.771216
384.158693	0.767355
384.543618	0.760947
384.928480	0.752572
385.313280	0.742308
385.698017	0.743655
386.082692	0.731613
386.467305	0.730561
386.851856	0.723871
387.236344	0.719472
387.620770	0.711632
388.005133	0.707472
388.389435	0.702845
388.773674	0.700131
389.157851	0.692015
389.541965	0.689202
389.926018	0.696284
390.310008	0.682514
390.693936	0.678862
391.077802	0.670997
391.461606	0.673809
391.845348	0.661974
392.229027	0.663107
392.612645	0.660149
392.996200	0.648442
393.379694	0.640245
393.763125	0.631070
394.146494	0.635702
394.529801	0.626509
394.913047	0.618814
395.296230	0.623284
395.679351	0.614980
396.062410	0.612095
396.445408	0.614655
396.828343	0.609589
397.211217	0.605290
397.594028	0.618329
397.976778	0.607473
398.359466	0.604235
398.742092	0.598972
399.124656	0.611564
399.507158	0.600235
399.889598	0.597008
400.271977	0.587862
400.654294	0.592676
401.036549	0.591517
401.418742	0.595894
401.800874	0.580712
402.182944	0.578964
402.564952	0.569415
402.946898	0.572243
403.328783	0.571412
403.710606	0.583968
404.092367	0.558960
404.474067	0.562991
404.855705	0.561734
405.237282	0.571532
405.618797	0.557305
406.000250	0.553489
406.381642	0.543972
406.762972	0.547958
407.144240	0.547162
407.525447	0.547736
407.906593	0.540408
408.287677	0.535189
408.668700	0.543842
409.049661	0.537640
409.430560	0.532828
409.811399	0.541603
410.192176	0.522979
410.572891	0.529895
410.953545	0.518875
411.334138	0.531642
411.714669	0.524530
412.095139	0.536420
412.475547	0.520350
412.855894	0.522934
413.236180	0.522550
413.616405	0.526759
413.996568	0.518327
414.376670	0.524074
414.756711	0.528262
415.136691	0.525469
415.516609	0.517108
415.896466	0.513128
416.276262	0.509380
416.655997	0.511127
417.035670	0.492829
417.415283	0.484454
417.794834	0.489367
418.174324	0.494259
418.553753	0.504174
418.933121	0.485862
419.312428	0.479368
419.691674	0.485343
420.070859	0.473971
420.449983	0.482109
420.829045	0.471475
421.208047	0.480198
421.586988	0.473856
421.965867	0.472403
422.344686	0.460789
422.723444	0.473786
423.102141	0.489961
423.480777	0.463654
423.859352	0.483733
424.237866	0.460837
424.616319	0.461384
424.994712	0.453046
425.373044	0.463564
425.751314	0.451078
426.129524	0.467933
426.507673	0.451451
426.885762	0.445494
427.263789	0.450438
427.641756	0.460106
428.019662	0.450341
428.397508	0.449426
428.775292	0.453881
429.153016	0.445775
429.530679	0.452651
429.908282	0.445606
430.285824	0.455153
430.663305	0.433727
431.040726	0.455113
431.418086	0.455465
431.795385	0.447137
432.172624	0.445123
432.549802	0.446193
432.926920	0.445093
433.303977	0.444767
433.680974	0.441300
434.057910	0.439758
434.434786	0.439989
434.811601	0.441882
435.188355	0.424531
435.565050	0.433535
435.941683	0.435556
436.318257	0.419834
436.694770	0.419533
437.071222	0.417724
437.447614	0.422581
437.823946	0.429301
438.200218	0.418444
438.576429	0.428341
438.952580	0.421133
439.328670	0.418176
439.704700	0.424487
440.080670	0.425877
440.456580	0.406648
440.832429	0.414850
441.208218	0.426017
441.583947	0.414616
441.959616	0.414806
442.335224	0.419614
442.710773	0.410505
443.086261	0.408356
443.461689	0.422001
443.837057	0.411912
444.212365	0.402033
444.587612	0.408921
444.962800	0.398981
445.337927	0.400424
445.712995	0.427295
446.088002	0.389193
446.462949	0.399474
446.837837	0.403804
447.212664	0.392865
447.587431	0.384289
447.962139	0.355364
448.336786	0.314374
448.711374	0.324679
449.085901	0.368503
449.460369	0.373210
449.834776	0.376351
450.209124	0.355819
450.583412	0.348336
450.957640	0.341553
451.331808	0.352759
451.705917	0.376088
452.079965	0.380574
452.453954	0.369173
452.827883	0.375626
453.201752	0.370630
453.575562	0.382237
453.949311	0.369791
454.323001	0.376715
454.696632	0.371993
455.070202	0.365224
455.443713	0.356918
455.817164	0.351818
456.190556	0.347538
456.563888	0.344463
456.937160	0.342215
457.310373	0.359386
457.683526	0.358000
458.056619	0.363529
458.429653	0.364438
458.802628	0.367749
459.175542	0.362382
459.548398	0.344164
459.921194	0.336872
460.293930	0.337202
460.666607	0.314552
461.039224	0.302559
461.411782	0.298626
461.784280	0.298012
462.156719	0.301927
462.529099	0.306411
462.901419	0.322457
463.273680	0.326793
463.645882	0.326405
464.018024	0.331977
464.390106	0.325092
464.762130	0.309712
465.134094	0.292883
465.505999	0.262261
465.877845	0.232398
466.249631	0.219437
466.621358	0.226959
466.993026	0.240732
467.364634	0.246903
467.736184	0.255465
468.107674	0.264480
468.479105	0.263710
468.850477	0.270255
469.221790	0.277027
469.593043	0.287420
469.964238	0.292262
470.335373	0.291477
470.706449	0.289801
471.077467	0.290374
471.448425	0.252362
471.819324	0.228050
472.190164	0.227384
472.560945	0.256293
472.931667	0.278387
473.302330	0.282626
473.672934	0.294384
474.043479	0.282204
474.413965	0.284390
474.784393	0.287893
475.154761	0.283133
475.525070	0.279958
475.895321	0.285961
476.265513	0.280038
476.635645	0.275121
477.005719	0.275419
477.375734	0.271783
477.745691	0.265538
478.115588	0.261529
478.485427	0.255264
478.855207	0.242159
479.224928	0.224601
479.594591	0.212542
479.964194	0.216176
480.333739	0.217182
480.703226	0.218861
481.072653	0.217223
481.442022	0.212928
481.811333	0.209147
482.180584	0.212965
482.549777	0.218425
482.918912	0.221549
483.287988	0.221391
483.657005	0.220818
484.025964	0.227284
484.394864	0.224733
484.763706	0.225302
485.132489	0.230454
485.501213	0.231062
485.869879	0.229428
486.238487	0.232573
486.607036	0.230440
486.975527	0.235048
487.343959	0.231182
487.712333	0.229978
488.080648	0.231443
488.448905	0.230782
488.817104	0.231847
489.185244	0.226295
489.553326	0.223446
489.921350	0.213252
490.289315	0.195545
490.657222	0.190723
491.025070	0.192101
491.392861	0.194194
491.760593	0.199805
492.128267	0.205433
492.495883	0.210783
492.863440	0.217207
493.230939	0.223400
493.598380	0.224798
493.965763	0.226954
494.333088	0.229457
494.700354	0.230909
495.067563	0.229652
495.434713	0.232998
495.801805	0.230947
496.168839	0.232366
496.535815	0.233629
496.902733	0.233796
497.269593	0.235307
497.636395	0.233194
498.003139	0.233368
498.369825	0.236492
498.736453	0.232791
499.103023	0.234518
499.469535	0.233778
499.835989	0.233821
500.202385	0.234854
500.568723	0.237818
500.935003	0.233591
501.301226	0.237608
501.667390	0.231955
502.033497	0.230075
502.399546	0.233041
502.765537	0.234892
503.131470	0.233265
503.497345	0.229682
503.863163	0.238226
504.228923	0.231149
504.594625	0.229908
504.960269	0.235255
505.325856	0.230568
505.691385	0.234910
506.056856	0.231671
506.422270	0.230771
506.787625	0.233391
507.152924	0.230989
507.518164	0.231384
507.883347	0.232978
508.248472	0.234863
508.613540	0.230047
508.978550	0.232459
509.343503	0.232912
509.708398	0.230406
510.073236	0.228160
510.438016	0.228196
510.802738	0.228832
511.167403	0.227849
511.532010	0.230116
511.896561	0.225421
512.261053	0.224045
512.625488	0.226234
512.989866	0.226621
513.354186	0.226854
513.718449	0.228749
514.082655	0.224995
514.446803	0.227333
514.810894	0.225057
515.174927	0.227619
515.538904	0.227012
515.902822	0.223835
516.266684	0.226178
516.630488	0.227456
516.994235	0.226011
517.357925	0.224921
517.721558	0.223354
518.085133	0.222530
518.448651	0.223285
518.812112	0.225291
519.175516	0.224630
519.538863	0.222486
519.902152	0.224038
520.265385	0.221054
520.628560	0.222613
520.991678	0.223174
521.354739	0.222062
521.717743	0.223309
522.080690	0.223777
522.443580	0.220889
522.806413	0.221960
523.169189	0.221313
523.531908	0.219811
523.894569	0.223712
524.257174	0.223334
524.619722	0.221622
524.982213	0.222455
525.344647	0.221201
525.707025	0.222197
526.069345	0.220308
526.431608	0.221985
526.793815	0.220013
527.155964	0.224039
527.518057	0.223188
527.880093	0.223819
528.242072	0.222728
528.603995	0.224389
528.965860	0.226190
529.327669	0.225070
529.689421	0.225785
530.051117	0.226613
530.412755	0.224619
530.774337	0.226772
531.135862	0.227055
531.497331	0.226514
531.858743	0.229258
532.220098	0.226235
532.581396	0.228510
532.942638	0.229221
533.303824	0.229938
533.664953	0.230008
534.026025	0.231592
534.387040	0.229740
534.747999	0.229362
535.108902	0.228276
535.469748	0.233398
535.830537	0.230966
536.191270	0.231814
536.551947	0.231221
536.912567	0.231110
537.273131	0.232994
537.633638	0.232855
537.994089	0.233325
538.354483	0.234651
538.714821	0.231487
539.075103	0.231475
539.435328	0.231978
539.795497	0.235779
540.155609	0.232336
540.515665	0.230464
540.875665	0.236269
541.235609	0.234678
541.595496	0.234872
541.955328	0.231386
542.315102	0.233918
542.674821	0.235083
543.034483	0.234985
543.394090	0.234837
543.753640	0.236758
544.113134	0.231639
544.472571	0.234639
544.831953	0.231643
545.191278	0.235836
545.550548	0.235130
545.909761	0.232066
546.268918	0.232784
546.628019	0.231293
546.987064	0.233775
547.346053	0.235796
547.704986	0.233717
548.063863	0.233909
548.422684	0.234044
548.781449	0.236026
549.140158	0.233540
549.498811	0.236587
549.857408	0.239450
550.215949	0.234542
550.574434	0.237384
550.932864	0.235471
551.291237	0.233822
551.649555	0.235507
552.007817	0.235055
552.366022	0.236018
552.724173	0.236229
553.082267	0.236647
553.440305	0.233427
553.798288	0.237718
554.156215	0.234547
554.514086	0.234993
554.871902	0.238028
555.229661	0.237226
555.587365	0.238003
555.945014	0.240573
556.302606	0.237171
556.660143	0.239831
557.017625	0.236369
557.375050	0.238740
557.732421	0.235582
558.089735	0.237826
558.446994	0.237700
558.804197	0.236945
559.161345	0.237021
559.518437	0.240175
559.875474	0.238125
560.232455	0.237723
560.589381	0.238644
560.946251	0.238776
561.303065	0.236155
561.659825	0.237895
562.016528	0.239278
562.373177	0.241967
562.729770	0.239482
563.086307	0.241495
563.442789	0.239186
563.799216	0.242111
564.155587	0.240975
564.511904	0.241852
564.868164	0.242290
565.224370	0.241870
565.580520	0.243876
565.936615	0.243519
566.292654	0.246420
566.648638	0.243438
567.004567	0.244478
567.360441	0.245018
567.716260	0.246993
568.072023	0.244756
568.427732	0.245697
568.783385	0.248126
569.138982	0.245942
569.494525	0.245619
569.850013	0.248700
570.205445	0.247024
570.560823	0.249586
570.916145	0.251699
571.271412	0.249808
571.626625	0.251204
571.981782	0.251734
572.336884	0.252789
572.691931	0.252355
573.046923	0.253478
573.401860	0.254759
573.756743	0.256642
574.111570	0.255395
574.466342	0.255920
574.821059	0.254997
575.175722	0.257741
575.530330	0.257707
575.884882	0.257863
576.239380	0.259787
576.593823	0.260524
576.948211	0.259760
577.302544	0.263004
577.656823	0.262710
578.011047	0.262938
578.365216	0.263297
578.719330	0.265546
579.073389	0.265476
579.427394	0.266784
579.781344	0.267355
580.135239	0.268934
580.489080	0.268499
580.842866	0.271361
581.196597	0.271670
581.550273	0.270214
581.903895	0.271005
582.257463	0.268879
582.610975	0.272665
582.964434	0.271703
583.317837	0.274602
583.671186	0.274774
584.024481	0.275202
584.377721	0.277434
584.730906	0.278096
585.084037	0.276979
585.437113	0.278921
585.790135	0.278425
586.143103	0.281532
586.496016	0.282718
586.848874	0.280138
587.201679	0.280504
587.554428	0.283982
587.907124	0.282878
588.259765	0.283300
588.612352	0.283981
588.964884	0.287904
589.317362	0.287252
589.669786	0.287362
590.022155	0.286056
590.374470	0.284861
590.726731	0.287226
591.078937	0.291956
591.431090	0.287988
591.783188	0.292268
592.135232	0.293004
592.487222	0.292755
592.839157	0.291370
593.191038	0.293118
593.542866	0.294927
593.894639	0.298769
594.246358	0.296916
594.598022	0.295930
594.949633	0.299812
595.301190	0.300797
595.652692	0.299626
596.004141	0.296004
596.355535	0.303832
596.706876	0.304444
597.058162	0.306893
597.409395	0.304110
597.760573	0.302027
598.111698	0.305606
598.462768	0.305695
598.813785	0.306776
599.164748	0.308419
599.515657	0.308199
599.866511	0.312234
600.217312	0.307058
600.568060	0.312840
600.918753	0.308867
601.269392	0.309718
601.619978	0.313322
601.970510	0.310825
602.320988	0.311095
602.671412	0.308251
603.021783	0.310922
603.372100	0.312359
603.722363	0.312165
604.072572	0.312893
604.422728	0.312496
604.772830	0.314773
605.122878	0.314451
605.472872	0.314814
605.822813	0.313286
606.172701	0.316116
606.522534	0.313491
606.872314	0.313452
607.222041	0.314337
607.571714	0.312534
607.921333	0.313484
608.270899	0.313623
608.620411	0.309992
608.969870	0.314152
609.319276	0.314345
609.668627	0.314273
610.017926	0.312748
610.367171	0.311171
610.716362	0.312267
611.065500	0.312221
611.414585	0.311050
611.763616	0.311498
612.112594	0.311986
612.461518	0.311256
612.810389	0.308877
613.159207	0.311622
613.507971	0.313380
613.856682	0.308831
614.205340	0.310608
614.553945	0.307106
614.902496	0.311060
615.250994	0.309169
615.599439	0.309960
615.947830	0.309446
616.296169	0.310124
616.644454	0.309882
616.992686	0.309915
617.340864	0.307903
617.688990	0.311191
618.037063	0.307740
618.385082	0.309821
618.733048	0.306984
619.080961	0.309000
619.428821	0.308428
619.776628	0.307889
620.124382	0.310331
620.472083	0.309997
620.819731	0.309663
621.167326	0.313540
621.514868	0.313503
621.862357	0.317481
622.209793	0.316863
622.557176	0.319213
622.904506	0.320603
623.251783	0.322995
623.599007	0.325148
623.946179	0.324607
624.293297	0.326817
624.640363	0.330611
624.987376	0.331059
625.334336	0.333563
625.681243	0.335794
626.028097	0.336374
626.374899	0.337601
626.721647	0.337611
627.068343	0.341323
627.414987	0.341870
627.761577	0.344492
628.108115	0.342702
628.454600	0.347484
628.801032	0.345438
629.147412	0.347083
629.493739	0.347238
629.840014	0.350668
630.186236	0.347909
630.532405	0.353615
630.878521	0.350829
631.224585	0.353155
631.570597	0.356861
631.916556	0.354910
632.262462	0.355486
632.608316	0.357702
632.954117	0.358478
633.299866	0.358996
633.645562	0.359695
633.991206	0.363912
634.336797	0.366552
634.682336	0.369055
635.027823	0.371058
635.373257	0.371478
635.718639	0.374852
636.063968	0.374403
636.409245	0.379993
636.754470	0.380379
637.099642	0.382671
637.444762	0.386172
637.789829	0.385079
638.134845	0.388717
638.479808	0.389946
638.824719	0.389756
639.169577	0.393387
639.514383	0.392151
639.859137	0.396793
640.203839	0.396645
640.548489	0.397140
640.893086	0.397991
641.237632	0.399936
641.582125	0.398575
641.926566	0.399698
642.270955	0.400026
642.615292	0.400592
642.959576	0.399530
643.303809	0.400123
643.647990	0.399915
643.992118	0.400599
644.336195	0.403666
644.680219	0.402008
645.024192	0.402882
645.368112	0.396728
645.711981	0.395664
646.055797	0.390759
646.399562	0.393294
646.743274	0.385086
647.086935	0.382502
647.430544	0.382784
647.774101	0.381695
648.117606	0.381477
648.461059	0.381836
648.804460	0.383913
649.147810	0.389086
649.491108	0.390957
649.834354	0.392917
650.177548	0.397983
650.520690	0.403533
650.863781	0.404481
651.206820	0.403641
651.549807	0.408807
651.892742	0.412011
652.235626	0.411961
652.578458	0.413066
652.921238	0.419381
653.263967	0.417357
653.606644	0.421199
653.949269	0.420449
654.291843	0.424551
654.634365	0.421022
654.976836	0.424788
655.319255	0.424408
655.661622	0.426103
656.003938	0.426350
656.346203	0.429237
656.688416	0.427166
657.030577	0.431062
657.372687	0.432743
657.714746	0.433346
658.056753	0.430128
658.398708	0.434032
658.740612	0.435239
659.082465	0.431650
659.424266	0.432042
659.766016	0.431050
660.107715	0.434390
660.449362	0.432848
660.790958	0.433446
661.132503	0.433893
661.473996	0.432002
661.815438	0.432833
662.156829	0.432529
662.498168	0.433931
662.839456	0.434931
663.180693	0.433165
663.521879	0.432857
663.863013	0.433654
664.204097	0.431895
664.545129	0.429157
664.886110	0.429263
665.227040	0.426532
665.567918	0.429031
665.908746	0.427695
666.249522	0.427097
666.590248	0.428098
666.930922	0.426228
667.271545	0.425071
667.612118	0.425110
667.952639	0.426389
668.293109	0.424984
668.633528	0.428513
668.973896	0.428149
669.314213	0.428761
669.654480	0.430355
669.994695	0.430512
670.334859	0.431653
670.674973	0.432033
671.015035	0.431779
671.355047	0.431499
671.695008	0.432923
672.034918	0.434913
672.374777	0.433743
672.714585	0.434876
673.054342	0.434845
673.394049	0.435306
673.733705	0.432641
674.073310	0.433904
674.412864	0.436755
674.752368	0.437491
675.091820	0.437539
675.431223	0.442440
675.770574	0.441727
676.109875	0.445054
676.449125	0.444934
676.788324	0.446847
677.127473	0.452466
677.466571	0.452339
677.805619	0.453841
678.144616	0.455034
678.483562	0.456848
678.822458	0.459558
679.161303	0.460584
679.500098	0.460251
679.838842	0.462264
680.177535	0.462021
680.516179	0.460241
680.854771	0.459877
681.193314	0.453033
681.531805	0.444646
681.870247	0.432840
682.208638	0.425168
682.546978	0.424325
682.885268	0.425996
683.223508	0.432476
683.561697	0.435918
683.899836	0.438934
684.237925	0.441996
684.575963	0.444353
684.913951	0.447992
685.251889	0.443908
685.589776	0.445045
685.927614	0.448140
686.265401	0.442428
686.603137	0.443351
686.940824	0.437001
687.278460	0.435828
687.616046	0.434755
687.953582	0.429753
688.291068	0.431312
688.628504	0.426894
688.965889	0.429544
689.303224	0.433713
689.640510	0.436851
689.977745	0.443010
690.314930	0.450805
690.652065	0.455504
690.989150	0.462914
691.326185	0.469685
691.663170	0.474859
692.000105	0.481413
692.336990	0.488418
692.673825	0.490755
693.010610	0.498257
693.347345	0.503019
693.684030	0.504754
694.020665	0.510336
694.357251	0.518924
694.693786	0.518425
695.030272	0.522768
695.366707	0.525649
695.703093	0.528739
696.039429	0.527154
696.375716	0.528546
696.711952	0.531522
697.048139	0.533207
697.384276	0.535635
697.720363	0.533167
698.056400	0.532591
698.392388	0.538148
698.728326	0.541448
699.064214	0.543786
699.400053	0.544624
699.735842	0.548437
700.071581	0.551367
700.407270	0.554460
700.742910	0.556335
701.078501	0.563186
701.414042	0.563115
701.749533	0.567329
702.084974	0.575835
702.420366	0.568132
702.755709	0.575348
703.091002	0.583066
703.426246	0.576049
703.761440	0.582654
704.096584	0.587601
704.431679	0.584298
704.766725	0.586491
705.101721	0.587903
705.436668	0.583776
705.771565	0.590247
706.106413	0.587647
706.441212	0.582492
706.775961	0.581589
707.110661	0.585007
707.445311	0.581086
707.779913	0.578222
708.114465	0.576297
708.448967	0.572840
708.783421	0.565379
709.117825	0.560945
709.452180	0.559566
709.786485	0.553134
710.120742	0.543563
710.454949	0.545922
710.789107	0.537347
711.123216	0.529197
711.457275	0.530451
711.791286	0.521270
712.125247	0.520469
712.459159	0.530544
712.793023	0.523616
713.126837	0.528214
713.460602	0.528134
713.794318	0.537679
714.127985	0.536187
714.461602	0.546629
714.795171	0.549627
715.128691	0.557643
715.462162	0.565026
715.795584	0.569840
716.128957	0.573721
716.462281	0.580411
716.795556	0.583477
717.128782	0.588716
717.461960	0.598602
717.795088	0.596287
718.128167	0.603328
718.461198	0.611460
718.794180	0.612626
719.127113	0.615181
719.459997	0.618876
719.792833	0.625532
720.125619	0.625851
720.458357	0.631746
720.791046	0.631899
721.123686	0.635311
721.456278	0.642598
721.788821	0.639768
722.121315	0.643647
722.453761	0.648417
722.786158	0.645743
723.118506	0.642459
723.450805	0.649980
723.783056	0.646080
724.115259	0.643569
724.447412	0.642715
724.779518	0.643771
725.111574	0.643774
725.443582	0.638758
725.775542	0.640354
726.107453	0.632495
726.439315	0.632232
726.771129	0.631292
727.102895	0.624460
727.434612	0.617703
727.766281	0.615464
728.097901	0.614169
728.429473	0.615214
728.760996	0.612462
729.092471	0.613383
729.423897	0.616504
729.755276	0.615565
730.086606	0.615790
730.417887	0.610229
730.749120	0.601023
731.080305	0.591911
731.411442	0.587852
731.742530	0.592889
732.073570	0.591384
732.404562	0.584534
732.735506	0.585538
733.066401	0.590391
733.397249	0.599270
733.728048	0.611150
734.058798	0.623163
734.389501	0.634444
734.720156	0.643464
735.050762	0.651911
735.381320	0.652669
735.711831	0.662478
736.042293	0.667336
736.372707	0.662921
736.703073	0.667962
737.033391	0.670289
737.363661	0.667069
737.693883	0.662433
738.024056	0.661825
738.354182	0.661612
738.684260	0.650843
739.014290	0.646285
739.344272	0.647552
739.674207	0.640229
740.004093	0.640103
740.333931	0.640435
740.663722	0.640382
740.993464	0.641626
741.323159	0.644860
741.652806	0.649866
741.982405	0.654454
742.311956	0.658982
742.641460	0.661552
742.970915	0.665072
743.300323	0.673351
743.629683	0.679854
743.958996	0.682282
744.288260	0.686035
744.617477	0.691782
744.946647	0.692223
745.275768	0.698517
745.604842	0.698920
745.933869	0.708311
746.262847	0.708323
746.591778	0.702577
746.920662	0.708890
747.249498	0.715243
747.578286	0.706181
747.907027	0.702429
748.235720	0.702913
748.564365	0.697820
748.892963	0.697648
749.221514	0.700615
749.550017	0.705972
749.878473	0.705497
750.206881	0.711797
750.535242	0.713929
750.863555	0.713555
751.191821	0.714118
751.520039	0.717428
751.848210	0.722968
752.176334	0.715506
752.504411	0.714153
752.832440	0.722300
753.160421	0.725406
753.488356	0.724485
753.816243	0.721583
754.144082	0.729491
754.471875	0.734046
754.799620	0.729025
755.127318	0.730957
755.454969	0.730579
755.782572	0.730038
756.110129	0.734679
756.437638	0.737565
756.765100	0.733664
757.092515	0.732057
757.419882	0.731196
757.747203	0.735253
758.074477	0.735950
758.401703	0.732678
758.728882	0.727079
759.056014	0.726428
759.383099	0.724851
759.710138	0.726320
760.037129	0.723061
760.364073	0.716901
760.690970	0.719628
761.017820	0.724344
761.344623	0.720629
761.671379	0.710426
761.998088	0.699803
762.324751	0.677279
762.651366	0.635356
762.977935	0.567968
763.304456	0.515253
763.630931	0.505903
763.957359	0.544503
764.283740	0.589495
764.610074	0.617051
764.936362	0.648514
765.262602	0.674682
765.588796	0.696162
765.914943	0.714547
766.241044	0.732087
766.567097	0.739085
766.893104	0.749290
767.219064	0.755546
767.544978	0.762252
767.870845	0.775550
768.196665	0.779286
768.522438	0.777044
768.848165	0.778931
769.173846	0.787591
769.499479	0.791579
769.825066	0.795577
770.150607	0.801190
770.476101	0.795806
770.801548	0.796639
771.126949	0.808103
771.452303	0.811268
771.777611	0.812190
772.102872	0.810890
772.428087	0.817136
772.753256	0.818798
773.078378	0.821965
773.403453	0.830105
773.728482	0.835027
774.053465	0.829128
774.378401	0.831727
774.703291	0.839534
775.028135	0.839765
775.352932	0.841625
775.677683	0.845454
776.002388	0.846270
776.327046	0.844253
776.651658	0.847470
776.976224	0.851083
777.300743	0.851967
777.625216	0.852933
777.949643	0.855466
778.274024	0.855158
778.598359	0.856497
778.922647	0.855278
779.246889	0.856759
779.571086	0.859471
779.895236	0.862219
780.219339	0.859994
780.543397	0.857346
780.867409	0.855376
781.191374	0.857235
781.515294	0.859064
781.839167	0.857639
782.162995	0.860902
782.486776	0.858275
782.810511	0.858332
783.134201	0.863086
783.457844	0.860470
783.781441	0.863227
784.104993	0.869067
784.428498	0.868611
784.751958	0.865403
785.075372	0.867046
785.398739	0.871419
785.722061	0.866787
786.045337	0.862326
786.368568	0.867067
786.691752	0.870755
787.014891	0.854736
787.337983	0.847246
787.661030	0.840021
787.984031	0.821490
788.306987	0.808777
788.629897	0.810482
788.952760	0.814600
789.275579	0.820245
789.598351	0.834785
789.921078	0.847340
790.243759	0.849460
790.566395	0.854705
790.888984	0.862179
791.211529	0.867963
791.534027	0.870792
791.856480	0.872313
792.178888	0.877695
792.501249	0.879839
792.823566	0.881320
793.145836	0.880924
793.468062	0.883471
793.790241	0.884079
794.112375	0.881473
794.434464	0.876980
794.756507	0.876172
795.078505	0.876065
795.400457	0.870779
795.722364	0.859126
796.044226	0.851291
796.366042	0.850777
796.687812	0.852700
797.009538	0.850130
797.331218	0.852585
797.652852	0.858321
797.974442	0.862911
798.295986	0.862389
798.617484	0.866134
798.938938	0.869027
799.260346	0.874606
799.581709	0.876208
799.903026	0.878203
800.224299	0.879622
800.545526	0.883965
800.866708	0.887113
801.187845	0.890630
801.508936	0.890701
801.829983	0.888520
802.150984	0.891975
802.471940	0.896303
802.792851	0.895030
803.113717	0.896813
803.434538	0.894503
803.755314	0.897673
804.076045	0.899226
804.396731	0.899267
804.717372	0.898337
805.037967	0.900283
805.358518	0.899002
805.679024	0.895867
805.999485	0.895348
806.319901	0.895826
806.640272	0.897436
806.960598	0.895334
807.280879	0.892175
807.601115	0.890286
807.921306	0.894439
808.241453	0.894163
808.561554	0.892865
808.881611	0.892308
809.201623	0.893378
809.521590	0.894805
809.841513	0.895774
810.161390	0.894634
810.481223	0.896525
810.801011	0.899671
811.120755	0.901629
811.440453	0.900600
811.760107	0.898617
812.079716	0.899503
812.399281	0.902420
812.718801	0.904172
813.038276	0.905820
813.357707	0.904736
813.677093	0.902188
813.996434	0.906107
814.315731	0.908253
814.634983	0.908450
814.954191	0.905432
815.273354	0.904279
815.592473	0.900098
815.911547	0.900169
816.230577	0.897215
816.549562	0.894543
816.868502	0.894718
817.187399	0.891930
817.506250	0.886104
817.825058	0.888370
818.143821	0.884476
818.462539	0.879520
818.781213	0.870337
819.099843	0.859596
819.418429	0.843636
819.736970	0.826608
820.055466	0.807393
820.373919	0.781928
820.692327	0.747960
821.010691	0.712194
821.329011	0.634014
821.647286	0.516408
821.965517	0.401350
822.283704	0.358372
822.601847	0.358975
822.919945	0.394622
823.237999	0.429466
823.556010	0.477465
823.873976	0.533715
824.191897	0.585063
824.509775	0.628009
824.827609	0.673498
825.145398	0.697895
825.463144	0.699962
825.780845	0.683112
826.098502	0.663618
826.416116	0.617575
826.733685	0.572297
827.051210	0.563626
827.368692	0.579125
827.686129	0.616957
828.003522	0.671029
828.320872	0.718963
828.638177	0.763364
828.955439	0.796281
829.272656	0.817859
829.589830	0.835979
829.906960	0.852719
830.224046	0.864849
830.541088	0.874716
830.858086	0.879010
831.175041	0.885819
831.491952	0.884845
831.808819	0.881647
832.125642	0.874864
832.442421	0.860516
832.759157	0.837288
833.075849	0.790395
833.392497	0.726525
833.709101	0.685476
834.025662	0.694643
834.342179	0.725966
834.658653	0.765891
834.975083	0.802536
835.291469	0.828566
835.607811	0.851603
835.924110	0.868357
836.240366	0.886046
836.556578	0.899933
836.872746	0.906877
837.188871	0.913348
837.504952	0.918576
837.820990	0.922625
838.136984	0.925127
838.452935	0.929077
838.768842	0.930984
839.084706	0.924425
839.400526	0.898133
839.716303	0.856745
840.032037	0.833620
840.347727	0.836477
840.663373	0.855254
840.978977	0.876766
841.294537	0.900947
841.610054	0.915435
841.925527	0.925116
842.240957	0.931829
842.556344	0.938880
842.871687	0.945619
843.186987	0.948178
843.502244	0.949555
843.817458	0.951682
844.132629	0.954979
844.447756	0.960364
844.762840	0.959642
845.077881	0.959855
845.392879	0.959968
845.707833	0.961944
846.022745	0.963575
846.337613	0.964421
846.652438	0.966035
846.967221	0.964468
847.281960	0.964940
847.596656	0.967617
847.911309	0.966104
848.225919	0.966407
848.540485	0.967592
848.855009	0.968749
849.169490	0.967070
849.483928	0.968022
849.798323	0.968562
850.112675	0.969548
850.426984	0.969469
850.741251	0.968694
851.055474	0.970063
851.369654	0.967496
851.683792	0.968626
851.997887	0.970609
852.311938	0.970380
852.625947	0.968688
852.939914	0.967164
853.253837	0.968003
853.567718	0.971044
853.881555	0.970447
854.195350	0.967158
854.509103	0.969346
854.822812	0.969229
855.136479	0.969431
855.450103	0.969361
855.763685	0.968221
856.077224	0.967329
856.390720	0.970077
856.704173	0.970079
857.017584	0.967900
857.330953	0.966115
857.644278	0.967371
857.957561	0.968639
858.270802	0.968156
858.584000	0.967486
858.897155	0.965543
859.210268	0.966545
859.523339	0.967129
859.836367	0.970473
860.149352	0.970146
860.462295	0.968580
860.775195	0.968796
861.088054	0.969418
861.400869	0.968452
861.713642	0.970293
862.026373	0.969711
862.339062	0.970172
862.651708	0.968322
862.964312	0.967669
863.276873	0.968993
863.589392	0.967867
863.901869	0.965669
864.214303	0.964528
864.526696	0.963420
864.839045	0.962700
865.151353	0.960838
865.463619	0.962477
865.775842	0.961379
866.088023	0.962748
866.400162	0.961067
866.712258	0.962379
867.024313	0.962953
867.336325	0.962976
867.648296	0.962740
867.960224	0.962533
868.272110	0.961529
868.583954	0.963360
868.895755	0.963878
869.207515	0.960967
869.519233	0.959082
869.830909	0.960531
870.142542	0.962362
870.454134	0.960911
870.765684	0.960497
871.077191	0.958028
871.388657	0.957813
871.700081	0.956628
872.011463	0.957425
872.322803	0.957008
872.634101	0.955819
872.945357	0.954211
873.256571	0.952275
873.567744	0.950880
873.878874	0.953473
874.189963	0.951033
874.501010	0.950323
874.812015	0.949515
875.122979	0.949991
875.433900	0.951933
875.744780	0.952442
876.055618	0.950172
876.366415	0.948529
876.677169	0.949099
876.987882	0.950972
877.298554	0.949209
877.609183	0.946852
877.919771	0.942983
878.230317	0.941046
878.540822	0.938157
878.851285	0.932837
879.161707	0.925289
879.472087	0.912963
879.782425	0.894879
880.092722	0.860462
880.402977	0.807494
880.713191	0.744533
881.023363	0.684684
881.333494	0.648918
881.643583	0.621530
881.953631	0.621464
882.263637	0.650282
882.573602	0.689607
882.883526	0.716499
883.193408	0.740934
883.503248	0.764046
883.813048	0.792242
884.122806	0.822923
884.432522	0.846747
884.742197	0.866208
885.051831	0.878283
885.361424	0.888386
885.670975	0.900688
885.980485	0.910317
886.289954	0.918094
886.599382	0.922722
886.908768	0.926145
887.218113	0.932128
887.527417	0.937230
887.836680	0.941091
888.145901	0.942377
888.455082	0.944177
888.764221	0.949801
889.073319	0.950124
889.382376	0.952199
889.691392	0.950451
890.000366	0.950870
890.309300	0.952661
890.618193	0.952452
890.927044	0.949671
891.235855	0.951043
891.544625	0.950041
891.853353	0.950473
892.162041	0.947690
892.470687	0.940701
892.779293	0.935488
893.087858	0.931872
893.396381	0.923010
893.704864	0.910206
894.013306	0.885695
894.321707	0.858607
894.630068	0.843304
894.938387	0.837944
895.246665	0.840078
895.554903	0.852858
895.863100	0.866257
896.171256	0.883714
896.479371	0.903181
896.787446	0.916342
897.095480	0.922368
897.403473	0.925679
897.711425	0.930781
898.019336	0.938138
898.327207	0.941008
898.635038	0.942394
898.942827	0.943841
899.250576	0.946462
899.558284	0.950882
899.865952	0.952201
900.173579	0.954301
900.481165	0.953972
900.788711	0.958118
901.096216	0.960419
901.403681	0.959994
901.711105	0.961571
902.018489	0.962844
902.325832	0.960975
902.633135	0.959829
902.940397	0.954552
903.247619	0.942324
903.554800	0.915145
903.861941	0.874638
904.169041	0.838207
904.476101	0.819314
904.783121	0.820144
905.090100	0.837040
905.397039	0.860038
905.703938	0.881985
906.010796	0.902564
906.317614	0.919592
906.624391	0.932252
906.931129	0.941580
907.237826	0.950287
907.544483	0.958243
907.851099	0.960564
908.157675	0.966942
908.464211	0.968944
908.770707	0.970481
909.077163	0.972690
909.383578	0.973732
909.689954	0.974707
909.996289	0.974552
910.302584	0.977399
910.608839	0.978624
910.915054	0.978276
911.221229	0.977614
911.527363	0.975670
911.833458	0.977175
912.139513	0.976024
912.445527	0.974145
912.751502	0.971886
913.057436	0.971659
913.363331	0.968517
913.669186	0.964668
913.975000	0.960111
914.280775	0.953170
914.586510	0.946380
914.892205	0.931877
915.197859	0.910175
915.503475	0.882376
915.809050	0.861349
916.114585	0.855582
916.420081	0.852721
916.725536	0.849770
917.030952	0.858190
917.336328	0.871203
917.641665	0.887346
917.946961	0.903772
918.252218	0.915803
918.557435	0.924750
918.862612	0.933008
919.167750	0.940136
919.472848	0.944376
919.777906	0.950741
920.082925	0.956411
920.387904	0.959988
920.692843	0.962624
920.997743	0.962858
921.302603	0.966893
921.607423	0.967754
921.912204	0.970645
922.216946	0.970462
922.521647	0.972581
922.826310	0.974665
923.130932	0.977219
923.435516	0.976998
923.740059	0.978569
924.044564	0.977591
924.349028	0.980055
924.653454	0.982962
924.957840	0.985181
925.262186	0.984219
925.566493	0.982916
925.870761	0.984323
926.174989	0.985865
926.479178	0.988427
926.783328	0.986659
927.087438	0.988041
927.391509	0.987531
927.695541	0.989944
927.999533	0.988538
928.303486	0.989180
928.607400	0.991769
928.911275	0.988861
929.215110	0.989829
929.518906	0.990182
929.822663	0.988100
930.126381	0.991250
930.430060	0.988797
930.733699	0.990095
931.037299	0.989169
931.340861	0.989964
931.644383	0.989042
931.947866	0.988493
932.251309	0.991065
932.554714	0.988800
932.858080	0.990784
933.161407	0.989582
933.464694	0.989703
933.767943	0.989924
934.071153	0.990672
934.374323	0.990531
934.677455	0.990632
934.980548	0.991443
935.283602	0.990884
935.586617	0.991491
935.889593	0.989760
936.192530	0.990330
936.495428	0.990803
936.798287	0.989410
937.101108	0.989460
937.403890	0.989093
937.706632	0.988792
938.009336	0.985806
938.312002	0.985602
938.614628	0.984344
938.917216	0.983306
939.219765	0.981277
939.522275	0.983360
939.824747	0.981717
940.127179	0.983532
940.429573	0.984643
940.731929	0.983855
941.034246	0.983952
941.336524	0.984479
941.638763	0.985772
941.940964	0.986003
942.243126	0.985601
942.545250	0.986833
942.847335	0.987638
943.149381	0.987846
943.451389	0.988116
943.753359	0.989037
944.055290	0.990376
944.357182	0.988563
944.659036	0.987634
944.960851	0.988678
945.262628	0.989314
945.564367	0.989862
945.866067	0.989414
946.167729	0.989355
946.469352	0.989952
946.770937	0.987999
947.072484	0.990585
947.373992	0.990042
947.675462	0.990456
947.976893	0.988912
948.278286	0.990039
948.579641	0.992538
948.880958	0.989144
949.182236	0.989786
949.483476	0.991149
949.784678	0.990452
950.085841	0.990427
950.386967	0.990999
950.688054	0.991189
950.989103	0.991038
951.290114	0.988726
951.591087	0.988122
951.892021	0.988376
952.192917	0.988550
952.493776	0.988104
952.794596	0.987735
953.095378	0.987135
953.396122	0.986437
953.696828	0.987743
953.997496	0.989140
954.298126	0.990013
954.598718	0.989777
954.899272	0.990218
955.199788	0.989842
955.500266	0.991675
955.800706	0.992915
956.101108	0.992698
956.401472	0.993319
956.701798	0.993794
957.002087	0.992646
957.302337	0.994046
957.602550	0.995703
957.902724	0.994497
958.202861	0.995442
958.502960	0.995642
958.803022	0.993701
959.103045	0.995960
959.403031	0.995046
959.702979	0.995941
960.002889	0.996421
960.302762	0.994080
960.602596	0.995517
960.902393	0.995371
961.202153	0.996804
961.501875	0.996165
961.801559	0.994708
962.101205	0.994187
962.400814	0.996752
962.700385	0.996258
962.999918	0.996531
963.299414	0.997253
963.598873	0.995367
963.898293	0.996015
964.197677	0.996316
964.497022	0.996957
964.796331	0.996744
965.095601	0.995602
965.394835	0.996183
965.694030	0.995627
965.993189	0.997357
966.292309	0.995898
966.591393	0.998411
966.890439	0.997111
967.189447	0.996785
967.488419	0.996796
967.787353	0.995382
968.086249	0.996816
968.385108	0.998061
968.683930	0.997133
968.982714	0.997630
969.281462	0.997564
969.580172	0.996592
969.878844	0.997317
970.177480	0.997389
970.476078	0.998342
970.774639	0.996709
971.073162	0.997336
971.371649	0.997269
971.670098	0.995825
971.968510	0.998192
972.266885	0.996208
972.565223	0.996903
972.863524	0.995891
973.161788	0.996405
973.460014	0.998225
973.758204	0.995264
974.056356	0.995748
974.354471	0.994933
974.652550	0.997208
974.950591	0.996339
975.248595	0.997395
975.546563	0.996591
975.844493	0.997622
976.142386	0.996550
976.440243	0.997972
976.738062	0.996617
977.035845	0.998258
977.333590	0.996407
977.631299	0.998815
977.928971	0.996991
978.226606	0.996344
978.524204	0.996259
978.821765	0.999025
979.119290	0.996530
979.416777	0.996903
979.714228	0.998140
980.011642	0.996068
980.309020	0.998583
980.606360	0.995981
980.903664	0.998262
981.200931	0.996695
981.498162	0.995153
981.795356	0.993410
982.092513	0.993155
982.389633	0.994403
982.686717	0.991339
982.983764	0.990642
983.280775	0.991406
983.577749	0.990226
983.874686	0.991927
984.171587	0.991759
984.468451	0.995351
984.765279	0.994903
985.062070	0.994059
985.358824	0.994486
985.655543	0.995322
985.952224	0.995899
986.248869	0.996065
986.545478	0.997296
986.842050	0.999132
987.138586	0.995393
987.435086	0.996877
987.731549	0.998195
988.027975	0.997590
988.324366	0.997341
988.620719	0.997134
988.917037	0.996408
989.213318	0.999038
989.509563	0.998452
989.805772	0.998342
990.101944	0.998762
990.398080	0.998863
990.694180	0.998068
990.990244	0.996612
991.286271	0.997834
991.582262	0.999464
991.878217	0.998476
992.174136	0.998997
992.470019	0.998340
992.765865	0.998486
993.061676	0.998673
993.357450	0.998816
993.653188	0.996634
993.948890	0.997985
994.244556	0.999136
994.540186	0.996691
994.835780	0.997355
995.131337	0.997470
995.426859	0.996714
995.722345	0.996985
996.017795	0.997292
996.313208	0.995945
996.608586	0.994942
996.903928	0.997281
997.199234	0.995644
997.494504	0.996383
997.789738	0.995849
998.084936	0.996147
998.380099	0.997495
998.675225	0.996724
998.970316	0.997744
999.265371	0.998146
999.560390	0.999025
999.855373	0.998141
1000.150320	0.996998
1000.445232	0.998212
1000.740108	0.998068
1001.034948	0.998145
1001.329752	1.000077
1001.624521	0.998845
1001.919254	0.998918
1002.213951	0.998633
1002.508613	0.998086
1002.803239	0.999464
1003.097829	0.998766
1003.392384	1.000119
1003.686903	0.998455
1003.981386	0.998909
1004.275834	0.999363
1004.570246	0.998451
1004.864623	0.999109
1005.158964	1.000894
1005.453270	0.998993
1005.747540	0.997062
1006.041775	0.997596
1006.335974	0.998799
1006.630138	0.999263
1006.924266	0.999739
1007.218359	1.000413
1007.512416	0.999783
1007.806438	0.999180
1008.100425	0.999375
1008.394376	0.999225
1008.688292	0.999159
1008.982172	1.000455
1009.276017	0.999020
1009.569827	0.999317
1009.863602	0.999211
1010.157341	0.999356
1010.451045	0.999124
1010.744714	0.999396
1011.038347	0.999537
1011.331945	0.999692
1011.625508	0.998155
1011.919036	0.998478
1012.212528	0.998493
1012.505986	0.998240
1012.799408	0.998726
1013.092795	0.999981
1013.386147	0.999409
1013.679464	0.999886
1013.972745	0.998232
1014.265992	0.996263
1014.559204	0.999455
1014.852380	0.999239
1015.145521	0.998732
1015.438628	0.998892
1015.731699	0.997803
1016.024736	1.000378
1016.317737	0.999490
1016.610703	0.999993
1016.903635	0.999912
1017.196531	0.998525
1017.489393	1.000108
1017.782219	0.998728
1018.075011	0.999528
1018.367768	0.999034
1018.660490	0.999371
1018.953177	0.999371
1019.245829	0.999371
