Dividing Wavelength (nm)	Counts (n)	Blue Motor Position (mm): 0.000000	Red Motor Position (mm): 35.400000	
326.493990	1.000611
326.888308	1.000611
327.282561	1.000611
327.676750	0.998376
328.070874	0.999003
328.464933	1.000713
328.858929	0.999109
329.252859	0.999646
329.646726	1.000709
330.040528	1.000011
330.434265	0.998969
330.827938	1.000477
331.221547	1.001094
331.615091	1.000606
332.008571	1.000141
332.401986	1.000221
332.795338	1.000717
333.188625	0.998983
333.581847	1.001626
333.975006	0.999799
334.368100	0.998917
334.761129	0.999733
335.154095	1.000598
335.546996	0.998874
335.939833	0.995887
336.332606	0.996773
336.725315	0.997346
337.117960	0.998034
337.510540	0.996089
337.903056	0.997147
338.295508	0.994690
338.687896	0.996691
339.080220	0.996159
339.472480	0.997137
339.864676	0.995752
340.256807	0.997237
340.648875	0.996731
341.040879	0.997288
341.432818	0.996991
341.824694	0.996701
342.216506	0.996896
342.608253	0.996629
342.999937	0.996270
343.391557	0.996141
343.783113	0.996131
344.174605	0.996252
344.566033	0.996764
344.957397	0.994951
345.348697	0.996898
345.739934	0.997116
346.131106	0.996503
346.522215	0.997523
346.913260	0.996914
347.304241	0.997169
347.695159	0.995674
348.086012	0.995124
348.476802	0.995926
348.867528	0.996790
349.258191	0.996248
349.648789	0.997275
350.039324	0.996427
350.429796	0.997550
350.820203	0.996466
351.210548	0.997283
351.600828	0.996261
351.991045	0.995568
352.381198	0.995555
352.771288	0.996333
353.161314	0.995437
353.551276	0.998485
353.941175	0.995906
354.331010	0.996157
354.720782	0.997209
355.110490	0.997153
355.500135	0.997511
355.889717	0.996219
356.279235	0.996327
356.668689	0.995723
357.058080	0.996819
357.447408	0.997044
357.836672	0.996880
358.225873	0.996384
358.615010	0.997022
359.004084	0.997104
359.393095	0.997671
359.782043	0.996857
360.170927	0.998559
360.559748	0.997959
360.948505	0.995371
361.337199	0.997900
361.725830	0.997105
362.114398	0.997295
362.502903	0.997716
362.891344	0.998519
363.279722	0.996125
363.668037	0.997581
364.056289	0.995652
364.444478	0.997105
364.832603	0.996811
365.220665	0.996210
365.608665	0.996855
365.996601	0.997707
366.384474	0.997652
366.772284	0.996861
367.160031	0.996736
367.547715	0.995010
367.935336	0.996624
368.322893	0.996214
368.710388	0.995782
369.097820	0.996407
369.485189	0.996748
369.872495	0.996345
370.259738	0.996272
370.646918	0.997827
371.034035	0.997695
371.421090	0.997225
371.808081	0.995936
372.195010	0.997127
372.581875	0.998093
372.968678	0.995825
373.355418	0.997524
373.742096	0.997220
374.128710	0.998148
374.515262	0.996139
374.901751	0.998094
375.288177	0.996829
375.674540	0.998141
376.060841	0.996237
376.447079	0.996284
376.833254	0.996486
377.219367	0.996466
377.605417	0.997446
377.991404	0.997328
378.377329	0.996564
378.763191	0.996960
379.148991	0.996924
379.534727	0.997703
379.920402	0.997256
380.306013	0.997368
380.691563	0.997587
381.077049	0.996784
381.462474	0.997842
381.847835	0.997412
382.233134	0.997218
382.618371	0.996841
383.003545	0.998147
383.388657	0.998007
383.773706	0.998094
384.158693	0.997550
384.543618	0.997586
384.928480	0.998424
385.313280	0.997397
385.698017	0.997734
386.082692	0.997958
386.467305	0.998204
386.851856	0.998419
387.236344	0.997296
387.620770	0.997308
388.005133	0.998717
388.389435	0.998462
388.773674	0.997902
389.157851	0.997180
389.541965	0.998563
389.926018	0.997370
390.310008	0.999471
390.693936	0.998326
391.077802	0.998009
391.461606	0.998036
391.845348	0.998241
392.229027	0.998510
392.612645	0.998222
392.996200	0.999049
393.379694	0.998292
393.763125	0.998174
394.146494	0.999189
394.529801	0.997694
394.913047	0.998981
395.296230	0.998295
395.679351	0.998048
396.062410	0.997691
396.445408	0.998424
396.828343	0.998954
397.211217	0.998027
397.594028	0.998025
397.976778	0.997518
398.359466	0.997819
398.742092	0.998038
399.124656	0.997527
399.507158	0.998722
399.889598	0.999148
400.271977	0.998199
400.654294	0.997854
401.036549	0.999134
401.418742	0.999052
401.800874	0.997899
402.182944	0.998154
402.564952	0.997570
402.946898	0.998952
403.328783	0.998223
403.710606	0.997592
404.092367	0.998105
404.474067	0.998425
404.855705	0.998787
405.237282	0.998330
405.618797	0.998589
406.000250	0.997457
406.381642	0.999032
406.762972	0.997935
407.144240	0.999147
407.525447	0.998638
407.906593	0.998214
408.287677	0.998646
408.668700	0.999368
409.049661	0.998366
409.430560	0.999648
409.811399	0.998294
410.192176	0.997818
410.572891	0.997512
410.953545	0.998130
411.334138	0.998339
411.714669	0.999446
412.095139	0.997770
412.475547	0.999278
412.855894	0.999411
413.236180	0.999745
413.616405	0.998659
413.996568	0.998787
414.376670	0.998638
414.756711	0.998758
415.136691	0.998881
415.516609	0.998169
415.896466	0.998375
416.276262	0.998393
416.655997	0.998563
417.035670	0.997612
417.415283	0.998275
417.794834	0.998497
418.174324	0.998439
418.553753	0.999659
418.933121	0.998020
419.312428	0.998523
419.691674	0.998462
420.070859	0.999513
420.449983	0.998925
420.829045	0.999234
421.208047	0.998938
421.586988	0.999201
421.965867	0.999412
422.344686	0.999238
422.723444	0.998562
423.102141	0.999326
423.480777	0.998962
423.859352	0.998709
424.237866	0.998358
424.616319	0.998907
424.994712	0.998954
425.373044	0.999123
425.751314	0.999566
426.129524	0.998860
426.507673	0.998914
426.885762	1.000396
427.263789	0.998936
427.641756	0.999001
428.019662	1.000049
428.397508	0.998712
428.775292	0.997651
429.153016	0.998921
429.530679	0.999800
429.908282	0.999627
430.285824	0.998069
430.663305	0.998018
431.040726	0.998532
431.418086	0.999669
431.795385	0.999793
432.172624	0.998758
432.549802	0.998671
432.926920	0.998907
433.303977	0.998777
433.680974	0.999475
434.057910	0.998239
434.434786	0.999455
434.811601	0.998629
435.188355	0.999071
435.565050	0.999465
435.941683	0.999317
436.318257	0.999819
436.694770	0.998635
437.071222	0.999539
437.447614	0.999522
437.823946	0.998690
438.200218	0.998958
438.576429	0.999227
438.952580	0.999070
439.328670	0.998251
439.704700	0.999625
440.080670	0.999566
440.456580	0.999155
440.832429	0.998895
441.208218	0.998946
441.583947	0.999221
441.959616	0.999550
442.335224	0.999480
442.710773	1.000684
443.086261	0.998591
443.461689	0.998547
443.837057	0.998228
444.212365	0.998570
444.587612	0.998910
444.962800	0.998652
445.337927	0.998048
445.712995	0.998648
446.088002	0.999497
446.462949	0.999178
446.837837	0.998717
447.212664	0.999154
447.587431	0.999590
447.962139	0.998859
448.336786	0.999436
448.711374	0.999836
449.085901	0.998677
449.460369	1.000148
449.834776	0.999004
450.209124	0.999702
450.583412	0.999005
450.957640	0.998656
451.331808	0.999288
451.705917	0.999199
452.079965	0.999103
452.453954	0.999328
452.827883	0.998689
453.201752	0.999373
453.575562	1.000047
453.949311	0.998848
454.323001	0.998670
454.696632	0.998847
455.070202	0.998325
455.443713	0.998961
455.817164	0.999201
456.190556	0.999807
456.563888	0.998314
456.937160	0.999338
457.310373	0.999669
457.683526	0.998531
458.056619	0.998878
458.429653	0.998873
458.802628	0.998305
459.175542	0.997712
459.548398	0.999173
459.921194	0.999015
460.293930	0.999100
460.666607	0.997988
461.039224	0.997910
461.411782	0.999250
461.784280	0.998914
462.156719	1.000054
462.529099	0.998940
462.901419	0.999465
463.273680	0.999332
463.645882	0.999081
464.018024	0.999033
464.390106	0.999734
464.762130	0.999565
465.134094	0.998801
465.505999	1.000054
465.877845	0.998881
466.249631	0.999918
466.621358	0.999606
466.993026	0.999082
467.364634	0.999392
467.736184	0.999928
468.107674	0.998736
468.479105	0.998914
468.850477	0.999272
469.221790	0.999518
469.593043	0.999541
469.964238	0.999571
470.335373	0.998631
470.706449	0.998733
471.077467	0.999710
471.448425	0.999528
471.819324	1.000621
472.190164	0.999081
472.560945	0.999447
472.931667	0.999171
473.302330	0.998597
473.672934	0.999284
474.043479	0.999338
474.413965	0.998670
474.784393	0.999111
475.154761	0.998699
475.525070	0.999058
475.895321	0.999853
476.265513	0.999346
476.635645	0.999068
477.005719	0.999231
477.375734	0.998586
477.745691	0.999343
478.115588	0.999548
478.485427	0.999380
478.855207	0.999268
479.224928	0.999492
479.594591	0.999296
479.964194	0.999871
480.333739	0.999206
480.703226	0.999444
481.072653	1.000511
481.442022	0.999458
481.811333	0.998818
482.180584	0.999955
482.549777	0.999553
482.918912	0.999273
483.287988	0.999448
483.657005	0.999508
484.025964	1.000383
484.394864	0.999654
484.763706	0.999474
485.132489	0.999407
485.501213	0.999055
485.869879	1.000225
486.238487	0.999768
486.607036	1.000052
486.975527	0.998713
487.343959	0.999072
487.712333	0.999105
488.080648	0.999521
488.448905	0.999401
488.817104	0.999552
489.185244	0.999572
489.553326	0.999602
489.921350	0.998569
490.289315	0.999221
490.657222	0.999157
491.025070	0.999446
491.392861	1.000037
491.760593	0.999039
492.128267	0.998735
492.495883	0.998887
492.863440	0.999246
493.230939	0.999645
493.598380	0.998558
493.965763	0.998114
494.333088	0.999027
494.700354	0.998732
495.067563	0.998994
495.434713	0.998591
495.801805	0.999180
496.168839	0.998931
496.535815	0.999078
496.902733	0.998774
497.269593	0.998620
497.636395	0.999054
498.003139	0.999326
498.369825	0.998966
498.736453	0.999050
499.103023	0.997956
499.469535	0.997854
499.835989	0.998445
500.202385	0.998510
500.568723	0.998442
500.935003	0.999056
501.301226	0.998629
501.667390	0.998509
502.033497	0.998052
502.399546	0.998378
502.765537	0.997568
503.131470	0.997970
503.497345	0.997630
503.863163	0.998931
504.228923	0.997691
504.594625	0.998005
504.960269	0.998189
505.325856	0.997438
505.691385	0.996602
506.056856	0.997337
506.422270	0.996879
506.787625	0.997303
507.152924	0.996995
507.518164	0.996153
507.883347	0.996287
508.248472	0.995228
508.613540	0.995960
508.978550	0.996331
509.343503	0.995278
509.708398	0.995408
510.073236	0.995344
510.438016	0.994985
510.802738	0.993716
511.167403	0.993166
511.532010	0.993313
511.896561	0.992822
512.261053	0.993681
512.625488	0.992293
512.989866	0.991291
513.354186	0.990711
513.718449	0.990538
514.082655	0.989386
514.446803	0.989553
514.810894	0.988859
515.174927	0.988225
515.538904	0.987756
515.902822	0.986862
516.266684	0.986137
516.630488	0.986192
516.994235	0.984301
517.357925	0.983773
517.721558	0.983149
518.085133	0.982146
518.448651	0.982157
518.812112	0.981131
519.175516	0.978847
519.538863	0.978568
519.902152	0.977325
520.265385	0.975869
520.628560	0.975596
520.991678	0.974408
521.354739	0.973429
521.717743	0.971858
522.080690	0.971478
522.443580	0.969004
522.806413	0.967872
523.169189	0.966723
523.531908	0.964423
523.894569	0.963561
524.257174	0.962141
524.619722	0.960731
524.982213	0.959651
525.344647	0.957360
525.707025	0.955695
526.069345	0.953342
526.431608	0.951884
526.793815	0.950712
527.155964	0.947702
527.518057	0.946086
527.880093	0.944963
528.242072	0.942379
528.603995	0.939719
528.965860	0.939016
529.327669	0.935364
529.689421	0.933458
530.051117	0.932076
530.412755	0.928787
530.774337	0.927408
531.135862	0.923630
531.497331	0.921681
531.858743	0.918915
532.220098	0.916280
532.581396	0.914144
532.942638	0.911725
533.303824	0.909134
533.664953	0.905011
534.026025	0.902303
534.387040	0.899034
534.747999	0.896428
535.108902	0.893985
535.469748	0.889907
535.830537	0.887326
536.191270	0.884210
536.551947	0.880402
536.912567	0.876682
537.273131	0.875332
537.633638	0.870491
537.994089	0.867031
538.354483	0.864049
538.714821	0.860168
539.075103	0.856756
539.435328	0.852945
539.795497	0.850335
540.155609	0.844690
540.515665	0.842187
540.875665	0.838469
541.235609	0.834478
541.595496	0.831007
541.955328	0.825190
542.315102	0.823095
542.674821	0.818853
543.034483	0.815077
543.394090	0.810320
543.753640	0.807788
544.113134	0.801742
544.472571	0.798516
544.831953	0.793205
545.191278	0.790008
545.550548	0.786623
545.909761	0.780883
546.268918	0.776889
546.628019	0.772453
546.987064	0.767633
547.346053	0.765383
547.704986	0.759422
548.063863	0.755319
548.422684	0.752410
548.781449	0.747786
549.140158	0.741973
549.498811	0.738683
549.857408	0.735905
550.215949	0.728696
550.574434	0.725505
550.932864	0.719194
551.291237	0.715870
551.649555	0.710232
552.007817	0.705986
552.366022	0.701644
552.724173	0.697242
553.082267	0.693605
553.440305	0.685638
553.798288	0.684598
554.156215	0.676901
554.514086	0.673260
554.871902	0.670852
555.229661	0.665001
555.587365	0.661024
555.945014	0.658793
556.302606	0.650614
556.660143	0.648933
557.017625	0.641058
557.375050	0.638150
557.732421	0.632224
558.089735	0.628314
558.446994	0.623657
558.804197	0.619471
559.161345	0.614618
559.518437	0.613335
559.875474	0.604829
560.232455	0.600506
560.589381	0.597789
560.946251	0.591467
561.303065	0.587712
561.659825	0.582775
562.016528	0.579133
562.373177	0.578055
562.729770	0.570080
563.086307	0.568120
563.442789	0.562976
563.799216	0.558606
564.155587	0.554290
564.511904	0.550274
564.868164	0.546665
565.224370	0.542836
565.580520	0.538566
565.936615	0.536122
566.292654	0.532334
566.648638	0.526743
567.004567	0.522962
567.360441	0.519863
567.716260	0.516125
568.072023	0.511278
568.427732	0.506932
568.783385	0.506025
569.138982	0.499226
569.494525	0.495534
569.850013	0.493713
570.205445	0.487875
570.560823	0.487252
570.916145	0.484006
571.271412	0.478627
571.626625	0.476364
571.981782	0.472929
572.336884	0.469432
572.691931	0.466625
573.046923	0.462368
573.401860	0.460399
573.756743	0.457895
574.111570	0.453541
574.466342	0.451245
574.821059	0.446034
575.175722	0.445270
575.530330	0.441235
575.884882	0.438603
576.239380	0.436921
576.593823	0.433702
576.948211	0.430087
577.302544	0.430386
577.656823	0.425691
578.011047	0.423817
578.365216	0.420941
578.719330	0.419657
579.073389	0.416491
579.427394	0.415015
579.781344	0.413235
580.135239	0.411488
580.489080	0.408104
580.842866	0.407979
581.196597	0.404987
581.550273	0.401730
581.903895	0.399712
582.257463	0.395857
582.610975	0.396287
582.964434	0.393670
583.317837	0.392988
583.671186	0.391696
584.024481	0.388699
584.377721	0.388747
584.730906	0.387104
585.084037	0.383624
585.437113	0.383582
585.790135	0.380327
586.143103	0.380799
586.496016	0.380248
586.848874	0.375872
587.201679	0.374385
587.554428	0.375180
587.907124	0.372144
588.259765	0.371231
588.612352	0.369428
588.964884	0.371909
589.317362	0.369262
589.669786	0.367687
590.022155	0.364956
590.374470	0.362108
590.726731	0.362724
591.078937	0.365103
591.431090	0.359565
591.783188	0.362380
592.135232	0.360478
592.487222	0.359862
592.839157	0.356110
593.191038	0.357030
593.542866	0.357056
593.894639	0.359048
594.246358	0.355467
594.598022	0.353844
594.949633	0.355918
595.301190	0.355107
595.652692	0.353503
596.004141	0.348192
596.355535	0.354653
596.706876	0.353529
597.058162	0.354647
597.409395	0.351177
597.760573	0.347935
598.111698	0.349565
598.462768	0.349283
598.813785	0.349290
599.164748	0.349811
599.515657	0.348855
599.866511	0.350944
600.217312	0.345468
600.568060	0.349962
600.918753	0.345653
601.269392	0.345893
601.619978	0.347946
601.970510	0.344988
602.320988	0.344398
602.671412	0.341541
603.021783	0.342822
603.372100	0.343411
603.722363	0.342526
604.072572	0.342637
604.422728	0.341672
604.772830	0.343170
605.122878	0.341959
605.472872	0.341823
605.822813	0.339902
606.172701	0.341951
606.522534	0.338567
606.872314	0.338338
607.222041	0.338369
607.571714	0.336366
607.921333	0.337013
608.270899	0.336609
608.620411	0.332690
608.969870	0.336157
609.319276	0.335791
609.668627	0.335435
610.017926	0.333374
610.367171	0.331387
610.716362	0.331922
611.065500	0.331536
611.414585	0.330265
611.763616	0.330117
612.112594	0.330609
612.461518	0.329496
612.810389	0.327009
613.159207	0.329223
613.507971	0.330553
613.856682	0.325876
614.205340	0.327203
614.553945	0.324037
614.902496	0.327514
615.250994	0.325337
615.599439	0.325831
615.947830	0.325191
616.296169	0.326055
616.644454	0.325123
616.992686	0.324930
617.340864	0.322720
617.688990	0.325876
618.037063	0.322401
618.385082	0.324292
618.733048	0.320925
619.080961	0.323034
619.428821	0.322017
619.776628	0.321680
620.124382	0.323526
620.472083	0.323511
620.819731	0.323048
621.167326	0.326351
621.514868	0.326447
621.862357	0.330629
622.209793	0.329539
622.557176	0.331517
622.904506	0.332594
623.251783	0.335071
623.599007	0.337005
623.946179	0.336541
624.293297	0.337853
624.640363	0.341819
624.987376	0.342286
625.334336	0.344860
625.681243	0.347014
626.028097	0.347561
626.374899	0.348359
626.721647	0.348706
627.068343	0.351560
627.414987	0.352746
627.761577	0.354743
628.108115	0.352892
628.454600	0.358037
628.801032	0.355101
629.147412	0.357778
629.493739	0.357656
629.840014	0.360629
630.186236	0.358054
630.532405	0.363376
630.878521	0.361230
631.224585	0.363115
631.570597	0.366667
631.916556	0.364729
632.262462	0.365018
632.608316	0.367121
632.954117	0.367370
633.299866	0.368685
633.645562	0.368998
633.991206	0.373195
634.336797	0.376051
634.682336	0.378428
635.027823	0.379524
635.373257	0.380410
635.718639	0.384009
636.063968	0.382517
636.409245	0.388928
636.754470	0.388821
637.099642	0.391421
637.444762	0.394741
637.789829	0.393858
638.134845	0.397063
638.479808	0.398219
638.824719	0.397339
639.169577	0.402406
639.514383	0.400913
639.859137	0.404818
640.203839	0.405417
640.548489	0.405015
640.893086	0.406541
641.237632	0.408181
641.582125	0.406687
641.926566	0.408500
642.270955	0.407998
642.615292	0.408021
642.959576	0.407781
643.303809	0.408268
643.647990	0.407563
643.992118	0.408031
644.336195	0.411882
644.680219	0.410033
645.024192	0.411002
645.368112	0.404638
645.711981	0.403430
646.055797	0.398594
646.399562	0.401469
646.743274	0.393060
647.086935	0.390661
647.430544	0.390906
647.774101	0.389537
648.117606	0.389121
648.461059	0.389948
648.804460	0.392049
649.147810	0.397738
649.491108	0.399479
649.834354	0.400734
650.177548	0.405536
650.520690	0.410904
650.863781	0.412357
651.206820	0.411333
651.549807	0.416328
651.892742	0.420231
652.235626	0.419893
652.578458	0.420785
652.921238	0.426932
653.263967	0.424603
653.606644	0.428380
653.949269	0.428080
654.291843	0.432124
654.634365	0.428295
654.976836	0.432251
655.319255	0.432124
655.661622	0.433971
656.003938	0.433722
656.346203	0.436697
656.688416	0.434714
657.030577	0.437725
657.372687	0.439810
657.714746	0.440490
658.056753	0.437716
658.398708	0.441394
658.740612	0.442003
659.082465	0.438719
659.424266	0.439501
659.766016	0.438922
660.107715	0.441060
660.449362	0.440253
660.790958	0.440596
661.132503	0.441578
661.473996	0.438764
661.815438	0.440039
662.156829	0.440009
662.498168	0.440804
662.839456	0.442039
663.180693	0.440215
663.521879	0.439668
663.863013	0.440946
664.204097	0.439614
664.545129	0.435998
664.886110	0.436280
665.227040	0.434103
665.567918	0.436742
665.908746	0.434714
666.249522	0.434340
666.590248	0.435480
666.930922	0.433494
667.271545	0.432314
667.612118	0.432167
667.952639	0.434597
668.293109	0.432954
668.633528	0.435840
668.973896	0.435158
669.314213	0.435945
669.654480	0.436930
669.994695	0.438179
670.334859	0.438783
670.674973	0.438642
671.015035	0.438978
671.355047	0.439165
671.695008	0.440221
672.034918	0.441298
672.374777	0.440829
672.714585	0.441913
673.054342	0.442173
673.394049	0.442285
673.733705	0.440272
674.073310	0.441287
674.412864	0.444166
674.752368	0.444907
675.091820	0.445062
675.431223	0.449541
675.770574	0.449132
676.109875	0.451994
676.449125	0.452140
676.788324	0.454316
677.127473	0.459801
677.466571	0.459371
677.805619	0.461093
678.144616	0.462269
678.483562	0.463930
678.822458	0.466223
679.161303	0.467976
679.500098	0.468224
679.838842	0.469519
680.177535	0.469018
680.516179	0.467568
680.854771	0.466687
681.193314	0.459964
681.531805	0.451583
681.870247	0.440016
682.208638	0.432319
682.546978	0.431531
682.885268	0.433360
683.223508	0.439544
683.561697	0.443407
683.899836	0.446213
684.237925	0.449259
684.575963	0.451910
684.913951	0.454557
685.251889	0.450895
685.589776	0.452276
685.927614	0.455087
686.265401	0.449674
686.603137	0.450713
686.940824	0.444928
687.278460	0.442889
687.616046	0.442577
687.953582	0.437451
688.291068	0.438776
688.628504	0.433983
688.965889	0.436438
689.303224	0.440804
689.640510	0.444344
689.977745	0.450542
690.314930	0.458224
690.652065	0.463310
690.989150	0.470333
691.326185	0.476396
691.663170	0.481214
692.000105	0.488527
692.336990	0.495400
692.673825	0.497964
693.010610	0.504769
693.347345	0.510298
693.684030	0.511408
694.020665	0.515722
694.357251	0.524808
694.693786	0.525188
695.030272	0.529081
695.366707	0.532323
695.703093	0.535683
696.039429	0.533907
696.375716	0.535137
696.711952	0.537628
697.048139	0.539804
697.384276	0.541939
697.720363	0.539852
698.056400	0.539628
698.392388	0.545380
698.728326	0.548176
699.064214	0.550610
699.400053	0.551262
699.735842	0.554466
700.071581	0.556992
700.407270	0.560298
700.742910	0.562715
701.078501	0.569281
701.414042	0.569810
701.749533	0.572623
702.084974	0.581478
702.420366	0.574430
702.755709	0.582408
703.091002	0.589022
703.426246	0.583023
703.761440	0.588993
704.096584	0.593529
704.431679	0.590390
704.766725	0.592245
705.101721	0.593856
705.436668	0.590511
705.771565	0.597187
706.106413	0.594314
706.441212	0.589253
706.775961	0.587894
707.110661	0.590625
707.445311	0.586621
707.779913	0.584472
708.114465	0.582830
708.448967	0.579541
708.783421	0.571828
709.117825	0.566707
709.452180	0.566148
709.786485	0.559835
710.120742	0.550164
710.454949	0.552086
710.789107	0.543950
711.123216	0.535406
711.457275	0.537248
711.791286	0.527928
712.125247	0.527035
712.459159	0.538463
712.793023	0.530200
713.126837	0.533923
713.460602	0.534848
713.794318	0.544013
714.127985	0.542864
714.461602	0.553170
714.795171	0.556631
715.128691	0.563352
715.462162	0.571714
715.795584	0.577425
716.128957	0.580199
716.462281	0.586635
716.795556	0.590325
717.128782	0.595153
717.461960	0.604590
717.795088	0.602749
718.128167	0.609083
718.461198	0.617593
718.794180	0.617907
719.127113	0.620782
719.459997	0.624961
719.792833	0.630792
720.125619	0.631548
720.458357	0.638157
720.791046	0.637222
721.123686	0.640834
721.456278	0.647710
721.788821	0.645673
722.121315	0.649059
722.453761	0.653623
722.786158	0.650806
723.118506	0.647992
723.450805	0.655206
723.783056	0.651990
724.115259	0.649151
724.447412	0.648034
724.779518	0.650310
725.111574	0.648752
725.443582	0.644838
725.775542	0.645927
726.107453	0.638899
726.439315	0.638807
726.771129	0.637418
727.102895	0.631074
727.434612	0.624185
727.766281	0.621621
728.097901	0.621089
728.429473	0.620884
728.760996	0.619287
729.092471	0.619522
729.423897	0.622741
729.755276	0.621318
730.086606	0.622273
730.417887	0.616977
730.749120	0.608277
731.080305	0.598541
731.411442	0.594610
731.742530	0.598912
732.073570	0.598806
732.404562	0.590606
732.735506	0.592000
733.066401	0.597247
733.397249	0.606845
733.728048	0.617709
734.058798	0.630254
734.389501	0.639881
734.720156	0.650021
735.050762	0.658230
735.381320	0.658245
735.711831	0.668157
736.042293	0.672530
736.372707	0.668501
736.703073	0.673616
737.033391	0.675658
737.363661	0.671949
737.693883	0.667744
738.024056	0.665994
738.354182	0.667056
738.684260	0.657215
739.014290	0.652665
739.344272	0.653277
739.674207	0.646838
740.004093	0.646408
740.333931	0.646891
740.663722	0.646788
740.993464	0.647403
741.323159	0.651341
741.652806	0.655632
741.982405	0.660938
742.311956	0.665718
742.641460	0.667914
742.970915	0.670740
743.300323	0.678956
743.629683	0.685181
743.958996	0.687132
744.288260	0.691140
744.617477	0.697444
744.946647	0.698940
745.275768	0.704283
745.604842	0.703527
745.933869	0.713820
746.262847	0.714288
746.591778	0.707732
746.920662	0.713859
747.249498	0.720638
747.578286	0.711622
747.907027	0.708184
748.235720	0.709049
748.564365	0.703011
748.892963	0.703172
749.221514	0.705932
749.550017	0.711754
749.878473	0.711524
750.206881	0.717149
750.535242	0.718651
750.863555	0.718400
751.191821	0.721040
751.520039	0.723684
751.848210	0.728217
752.176334	0.720671
752.504411	0.719830
752.832440	0.727101
753.160421	0.731579
753.488356	0.728571
753.816243	0.727366
754.144082	0.735079
754.471875	0.738981
754.799620	0.733663
755.127318	0.736035
755.454969	0.735382
755.782572	0.734349
756.110129	0.740257
756.437638	0.742532
756.765100	0.738736
757.092515	0.737254
757.419882	0.735638
757.747203	0.741086
758.074477	0.740554
758.401703	0.738590
758.728882	0.732958
759.056014	0.732688
759.383099	0.730899
759.710138	0.732714
760.037129	0.728538
760.364073	0.722135
760.690970	0.724875
761.017820	0.730569
761.344623	0.726758
761.671379	0.716823
761.998088	0.705931
762.324751	0.683001
762.651366	0.642363
762.977935	0.576162
763.304456	0.524474
763.630931	0.514465
763.957359	0.553936
764.283740	0.598476
764.610074	0.624810
764.936362	0.654805
765.262602	0.682188
765.588796	0.703397
765.914943	0.720454
766.241044	0.738559
766.567097	0.744852
766.893104	0.754202
767.219064	0.759926
767.544978	0.766943
767.870845	0.780873
768.196665	0.785060
768.522438	0.782117
768.848165	0.783708
769.173846	0.792759
769.499479	0.797216
769.825066	0.800894
770.150607	0.805351
770.476101	0.800417
770.801548	0.801629
771.126949	0.813514
771.452303	0.816950
771.777611	0.816695
772.102872	0.814377
772.428087	0.820287
772.753256	0.824364
773.078378	0.825709
773.403453	0.834949
773.728482	0.838795
774.053465	0.832940
774.378401	0.835508
774.703291	0.844791
775.028135	0.843537
775.352932	0.845560
775.677683	0.848586
776.002388	0.848506
776.327046	0.849474
776.651658	0.851984
776.976224	0.854640
777.300743	0.855681
777.625216	0.857335
777.949643	0.859677
778.274024	0.858684
778.598359	0.860175
778.922647	0.859010
779.246889	0.859855
779.571086	0.864179
779.895236	0.866219
780.219339	0.862715
780.543397	0.860050
780.867409	0.858726
781.191374	0.860859
781.515294	0.862686
781.839167	0.861663
782.162995	0.864743
782.486776	0.861714
782.810511	0.862483
783.134201	0.865909
783.457844	0.864179
783.781441	0.866766
784.104993	0.872847
784.428498	0.872026
784.751958	0.868466
785.075372	0.870147
785.398739	0.875179
785.722061	0.870770
786.045337	0.866364
786.368568	0.871359
786.691752	0.874973
787.014891	0.860105
787.337983	0.851301
787.661030	0.843538
787.984031	0.826006
788.306987	0.814068
788.629897	0.816104
788.952760	0.819032
789.275579	0.822985
789.598351	0.839611
789.921078	0.852290
790.243759	0.854176
790.566395	0.859836
790.888984	0.866572
791.211529	0.871587
791.534027	0.873198
791.856480	0.876736
792.178888	0.881285
792.501249	0.883621
792.823566	0.883936
793.145836	0.884227
793.468062	0.886781
793.790241	0.887072
794.112375	0.885106
794.434464	0.880505
794.756507	0.879948
795.078505	0.880321
795.400457	0.874459
795.722364	0.862101
796.044226	0.855921
796.366042	0.855181
796.687812	0.858106
797.009538	0.853988
797.331218	0.856330
797.652852	0.862303
797.974442	0.866915
798.295986	0.865932
798.617484	0.867895
798.938938	0.873450
799.260346	0.877811
799.581709	0.880228
799.903026	0.882684
800.224299	0.882163
800.545526	0.886378
800.866708	0.891337
801.187845	0.894079
801.508936	0.894230
801.829983	0.892534
802.150984	0.895801
802.471940	0.900201
802.792851	0.898570
803.113717	0.899400
803.434538	0.897796
803.755314	0.900509
804.076045	0.902240
804.396731	0.902399
804.717372	0.901932
805.037967	0.904465
805.358518	0.901843
805.679024	0.899661
805.999485	0.898731
806.319901	0.898661
806.640272	0.899763
806.960598	0.898071
807.280879	0.895757
807.601115	0.895327
807.921306	0.897764
808.241453	0.898578
808.561554	0.896741
808.881611	0.896832
809.201623	0.897952
809.521590	0.898895
809.841513	0.899584
810.161390	0.898870
810.481223	0.899883
810.801011	0.903764
811.120755	0.904885
811.440453	0.903971
811.760107	0.903071
812.079716	0.902360
812.399281	0.904861
812.718801	0.908240
813.038276	0.909770
813.357707	0.908522
813.677093	0.905520
813.996434	0.909051
814.315731	0.910104
814.634983	0.911520
814.954191	0.909644
815.273354	0.908136
815.592473	0.904011
815.911547	0.902911
816.230577	0.901240
816.549562	0.898660
816.868502	0.899865
817.187399	0.896592
817.506250	0.890156
817.825058	0.892139
818.143821	0.888817
818.462539	0.884822
818.781213	0.875540
819.099843	0.865408
819.418429	0.849806
819.736970	0.832739
820.055466	0.813422
820.373919	0.789145
820.692327	0.755961
821.010691	0.722482
821.329011	0.647334
821.647286	0.533784
821.965517	0.421561
822.283704	0.379082
822.601847	0.381255
822.919945	0.416681
823.237999	0.449277
823.556010	0.494797
823.873976	0.549934
824.191897	0.599303
824.509775	0.642495
824.827609	0.685364
825.145398	0.707618
825.463144	0.710995
825.780845	0.693754
826.098502	0.675742
826.416116	0.630916
826.733685	0.587715
827.051210	0.579503
827.368692	0.593918
827.686129	0.629984
828.003522	0.682435
828.320872	0.729211
828.638177	0.771359
828.955439	0.803837
829.272656	0.825956
829.589830	0.842599
829.906960	0.857828
830.224046	0.870157
830.541088	0.879934
830.858086	0.884532
831.175041	0.891933
831.491952	0.889540
831.808819	0.886076
832.125642	0.879932
832.442421	0.864702
832.759157	0.844985
833.075849	0.799189
833.392497	0.736040
833.709101	0.695696
834.025662	0.705452
834.342179	0.736899
834.658653	0.775376
834.975083	0.810474
835.291469	0.836529
835.607811	0.859415
835.924110	0.872553
836.240366	0.890389
836.556578	0.905252
836.872746	0.910954
837.188871	0.916704
837.504952	0.922608
837.820990	0.925835
838.136984	0.929643
838.452935	0.931595
838.768842	0.933625
839.084706	0.926937
839.400526	0.902100
839.716303	0.862203
840.032037	0.841043
840.347727	0.843504
840.663373	0.861269
840.978977	0.882829
841.294537	0.903508
841.610054	0.921148
841.925527	0.927563
842.240957	0.934724
842.556344	0.943095
842.871687	0.948311
843.186987	0.951944
843.502244	0.952722
843.817458	0.952495
844.132629	0.957647
844.447756	0.961493
844.762840	0.960693
845.077881	0.960810
845.392879	0.961275
845.707833	0.963816
846.022745	0.966445
846.337613	0.966890
846.652438	0.967992
846.967221	0.966283
847.281960	0.966783
847.596656	0.969038
847.911309	0.966068
848.225919	0.969629
848.540485	0.969647
848.855009	0.971393
849.169490	0.969549
849.483928	0.971196
849.798323	0.970090
850.112675	0.969832
850.426984	0.970048
850.741251	0.971699
851.055474	0.970251
851.369654	0.968936
851.683792	0.970529
851.997887	0.969694
852.311938	0.972420
852.625947	0.971470
852.939914	0.970010
853.253837	0.969778
853.567718	0.972398
853.881555	0.972093
854.195350	0.969802
854.509103	0.970266
854.822812	0.970544
855.136479	0.972032
855.450103	0.970973
855.763685	0.969424
856.077224	0.969862
856.390720	0.972224
856.704173	0.971490
857.017584	0.970012
857.330953	0.967265
857.644278	0.969763
857.957561	0.970493
858.270802	0.969378
858.584000	0.969724
858.897155	0.967997
859.210268	0.968685
859.523339	0.969888
859.836367	0.971393
860.149352	0.973041
860.462295	0.969837
860.775195	0.972045
861.088054	0.969107
861.400869	0.970127
861.713642	0.971768
862.026373	0.971256
862.339062	0.971437
862.651708	0.969113
862.964312	0.968908
863.276873	0.971071
863.589392	0.969604
863.901869	0.968405
864.214303	0.966245
864.526696	0.965592
864.839045	0.965900
865.151353	0.962537
865.463619	0.964004
865.775842	0.963334
866.088023	0.963958
866.400162	0.963825
866.712258	0.963742
867.024313	0.964380
867.336325	0.964168
867.648296	0.965343
867.960224	0.963542
868.272110	0.962507
868.583954	0.964612
868.895755	0.966156
869.207515	0.963689
869.519233	0.962630
869.830909	0.962172
870.142542	0.964522
870.454134	0.963251
870.765684	0.961684
871.077191	0.957985
871.388657	0.959659
871.700081	0.959240
872.011463	0.959549
872.322803	0.959386
872.634101	0.959377
872.945357	0.956141
873.256571	0.955141
873.567744	0.954783
873.878874	0.955327
874.189963	0.954175
874.501010	0.953022
874.812015	0.951448
875.122979	0.953573
875.433900	0.954662
875.744780	0.955625
876.055618	0.953747
876.366415	0.952224
876.677169	0.952562
876.987882	0.954169
877.298554	0.953880
877.609183	0.950064
877.919771	0.947972
878.230317	0.945431
878.540822	0.943423
878.851285	0.937943
879.161707	0.930893
879.472087	0.919313
879.782425	0.904317
880.092722	0.870089
880.402977	0.819564
880.713191	0.761667
881.023363	0.705302
881.333494	0.672279
881.643583	0.644839
881.953631	0.644404
882.263637	0.672186
882.573602	0.711492
882.883526	0.736515
883.193408	0.757813
883.503248	0.779932
883.813048	0.807027
884.122806	0.835152
884.432522	0.857955
884.742197	0.876741
885.051831	0.887126
885.361424	0.896651
885.670975	0.907274
885.980485	0.918097
886.289954	0.922819
886.599382	0.928507
886.908768	0.932119
887.218113	0.937421
887.527417	0.941615
887.836680	0.944694
888.145901	0.946094
888.455082	0.948753
888.764221	0.953041
889.073319	0.955303
889.382376	0.954597
889.691392	0.956693
890.000366	0.954863
890.309300	0.955763
890.618193	0.956130
890.927044	0.953884
891.235855	0.953814
891.544625	0.953594
891.853353	0.954993
892.162041	0.952655
892.470687	0.946101
892.779293	0.940539
893.087858	0.937843
893.396381	0.930082
893.704864	0.917538
894.013306	0.895071
894.321707	0.868463
894.630068	0.855945
894.938387	0.852017
895.246665	0.851742
895.554903	0.864208
895.863100	0.877392
896.171256	0.892128
896.479371	0.912401
896.787446	0.923954
897.095480	0.930050
897.403473	0.932641
897.711425	0.936342
898.019336	0.943429
898.327207	0.945727
898.635038	0.948311
898.942827	0.948242
899.250576	0.951320
899.558284	0.954997
899.865952	0.956399
900.173579	0.957192
900.481165	0.956928
900.788711	0.962504
901.096216	0.964012
901.403681	0.963888
901.711105	0.965571
902.018489	0.965923
902.325832	0.964728
902.633135	0.964146
902.940397	0.958199
903.247619	0.947137
903.554800	0.923244
903.861941	0.885252
904.169041	0.851531
904.476101	0.835219
904.783121	0.836646
905.090100	0.852427
905.397039	0.872533
905.703938	0.893270
906.010796	0.911144
906.317614	0.926507
906.624391	0.939204
906.931129	0.948245
907.237826	0.955042
907.544483	0.961825
907.851099	0.964592
908.157675	0.969374
908.464211	0.971419
908.770707	0.975076
909.077163	0.975986
909.383578	0.977257
909.689954	0.975909
909.996289	0.977260
910.302584	0.979457
910.608839	0.982347
910.915054	0.980896
911.221229	0.979564
911.527363	0.977893
911.833458	0.979535
912.139513	0.978770
912.445527	0.976489
912.751502	0.975284
913.057436	0.974243
913.363331	0.972304
913.669186	0.969688
913.975000	0.963642
914.280775	0.958067
914.586510	0.952580
914.892205	0.940163
915.197859	0.918954
915.503475	0.893845
915.809050	0.875178
916.114585	0.872095
916.420081	0.868388
916.725536	0.864822
917.030952	0.872545
917.336328	0.884264
917.641665	0.898750
917.946961	0.914179
918.252218	0.925112
918.557435	0.933049
918.862612	0.941723
919.167750	0.947133
919.472848	0.950782
919.777906	0.956415
920.082925	0.961132
920.387904	0.965091
920.692843	0.965073
920.997743	0.966417
921.302603	0.970010
921.607423	0.970901
921.912204	0.973243
922.216946	0.974455
922.521647	0.975173
922.826310	0.976268
923.130932	0.979346
923.435516	0.978714
923.740059	0.980941
924.044564	0.980151
924.349028	0.981803
924.653454	0.984109
924.957840	0.986194
925.262186	0.985355
925.566493	0.985854
925.870761	0.985651
926.174989	0.988476
926.479178	0.988645
926.783328	0.988497
927.087438	0.988780
927.391509	0.987507
927.695541	0.990387
927.999533	0.990642
928.303486	0.990050
928.607400	0.992172
928.911275	0.990084
929.215110	0.991913
929.518906	0.991333
929.822663	0.991235
930.126381	0.991342
930.430060	0.991544
930.733699	0.991112
931.037299	0.990353
931.340861	0.991405
931.644383	0.990839
931.947866	0.990260
932.251309	0.991618
932.554714	0.991808
932.858080	0.991457
933.161407	0.990264
933.464694	0.990956
933.767943	0.992113
934.071153	0.992812
934.374323	0.992644
934.677455	0.992275
934.980548	0.992103
935.283602	0.990923
935.586617	0.992445
935.889593	0.991236
936.192530	0.991725
936.495428	0.991889
936.798287	0.992687
937.101108	0.991072
937.403890	0.990320
937.706632	0.990330
938.009336	0.987322
938.312002	0.986317
938.614628	0.985788
938.917216	0.984534
939.219765	0.983195
939.522275	0.985363
939.824747	0.983929
940.127179	0.984989
940.429573	0.986054
940.731929	0.985291
941.034246	0.986072
941.336524	0.987588
941.638763	0.986943
941.940964	0.987536
942.243126	0.987539
942.545250	0.988070
942.847335	0.989032
943.149381	0.988951
943.451389	0.988922
943.753359	0.988808
944.055290	0.990600
944.357182	0.990647
944.659036	0.989902
944.960851	0.989286
945.262628	0.991263
945.564367	0.991142
945.866067	0.990018
946.167729	0.991606
946.469352	0.990025
946.770937	0.989096
947.072484	0.991792
947.373992	0.990294
947.675462	0.991992
947.976893	0.991246
948.278286	0.991141
948.579641	0.992287
948.880958	0.991892
949.182236	0.992759
949.483476	0.992690
949.784678	0.991498
950.085841	0.991241
950.386967	0.991454
950.688054	0.992209
950.989103	0.991351
951.290114	0.990586
951.591087	0.989208
951.892021	0.990817
952.192917	0.990039
952.493776	0.989237
952.794596	0.989274
953.095378	0.988938
953.396122	0.989109
953.696828	0.988988
953.997496	0.991852
954.298126	0.991472
954.598718	0.991577
954.899272	0.991427
955.199788	0.991338
955.500266	0.991804
955.800706	0.992950
956.101108	0.994126
956.401472	0.994669
956.701798	0.993978
957.002087	0.993275
957.302337	0.994053
957.602550	0.995949
957.902724	0.996092
958.202861	0.995900
958.502960	0.995121
958.803022	0.994124
959.103045	0.997005
959.403031	0.995014
959.702979	0.995738
960.002889	0.997311
960.302762	0.995088
960.602596	0.995524
960.902393	0.995500
961.202153	0.996413
961.501875	0.996988
961.801559	0.995551
962.101205	0.996431
962.400814	0.996371
962.700385	0.996896
962.999918	0.996778
963.299414	0.996152
963.598873	0.996827
963.898293	0.997014
964.197677	0.997038
964.497022	0.996523
964.796331	0.997004
965.095601	0.996999
965.394835	0.995775
965.694030	0.997834
965.993189	0.997613
966.292309	0.996662
966.591393	0.997384
966.890439	0.997392
967.189447	0.997492
967.488419	0.997541
967.787353	0.997116
968.086249	0.996405
968.385108	0.997271
968.683930	0.996431
968.982714	0.997374
969.281462	0.998040
969.580172	0.996396
969.878844	0.997732
970.177480	0.997031
970.476078	0.997118
970.774639	0.997382
971.073162	0.997101
971.371649	0.996494
971.670098	0.996688
971.968510	0.998246
972.266885	0.996511
972.565223	0.996644
972.863524	0.996990
973.161788	0.996096
973.460014	0.998069
973.758204	0.996216
974.056356	0.996511
974.354471	0.994353
974.652550	0.997263
974.950591	0.996229
975.248595	0.995876
975.546563	0.996444
975.844493	0.998946
976.142386	0.997418
976.440243	0.997935
976.738062	0.997225
977.035845	0.998315
977.333590	0.996446
977.631299	0.997576
977.928971	0.996042
978.226606	0.997403
978.524204	0.995202
978.821765	0.998501
979.119290	0.996794
979.416777	0.995804
979.714228	0.997697
980.011642	0.996586
980.309020	0.996579
980.606360	0.998094
980.903664	0.998612
981.200931	0.997824
981.498162	0.995443
981.795356	0.995466
982.092513	0.993995
982.389633	0.994978
982.686717	0.992571
982.983764	0.992470
983.280775	0.991557
983.577749	0.991317
983.874686	0.992569
984.171587	0.992005
984.468451	0.994965
984.765279	0.995317
985.062070	0.994150
985.358824	0.995358
985.655543	0.995426
985.952224	0.996911
986.248869	0.996317
986.545478	0.997090
986.842050	0.998946
987.138586	0.996258
987.435086	0.997078
987.731549	0.998837
988.027975	0.998614
988.324366	0.998223
988.620719	0.997630
988.917037	0.997189
989.213318	0.998144
989.509563	0.998290
989.805772	0.998809
990.101944	0.998913
990.398080	0.997969
990.694180	0.998232
990.990244	0.996883
991.286271	0.998893
991.582262	0.998319
991.878217	0.999089
992.174136	0.998947
992.470019	0.999112
992.765865	0.997693
993.061676	0.998895
993.357450	0.998235
993.653188	0.998394
993.948890	0.997687
994.244556	0.998894
994.540186	0.997843
994.835780	0.995233
995.131337	0.998546
995.426859	0.996408
995.722345	0.997144
996.017795	0.996892
996.313208	0.996161
996.608586	0.995947
996.903928	0.998261
997.199234	0.994715
997.494504	0.996411
997.789738	0.996949
998.084936	0.996153
998.380099	0.998311
998.675225	0.997836
998.970316	0.997783
999.265371	0.997194
999.560390	0.997585
999.855373	0.998850
1000.150320	0.997871
1000.445232	0.998344
1000.740108	0.998050
1001.034948	0.998385
1001.329752	0.999938
1001.624521	0.999920
1001.919254	0.998938
1002.213951	0.997713
1002.508613	0.998050
1002.803239	0.998335
1003.097829	0.998896
1003.392384	1.000178
1003.686903	0.997689
1003.981386	0.999537
1004.275834	0.999254
1004.570246	0.997667
1004.864623	1.000510
1005.158964	0.999838
1005.453270	0.999321
1005.747540	0.998523
1006.041775	0.998099
1006.335974	1.000342
1006.630138	0.997768
1006.924266	0.998564
1007.218359	1.000299
1007.512416	0.998863
1007.806438	0.997660
1008.100425	0.999316
1008.394376	0.999488
1008.688292	0.998942
1008.982172	1.000329
1009.276017	0.999820
1009.569827	0.997662
1009.863602	0.998882
1010.157341	1.000472
1010.451045	0.999722
1010.744714	0.997864
1011.038347	0.999288
1011.331945	0.999493
1011.625508	0.998712
1011.919036	0.998911
1012.212528	0.999328
1012.505986	0.997257
1012.799408	0.999625
1013.092795	0.998787
1013.386147	0.999729
1013.679464	0.999482
1013.972745	0.998107
1014.265992	0.997932
1014.559204	0.997852
1014.852380	0.998666
1015.145521	0.998635
1015.438628	0.998982
1015.731699	0.997998
1016.024736	0.998853
1016.317737	0.999337
1016.610703	0.999560
1016.903635	1.000456
1017.196531	0.998779
1017.489393	0.999562
1017.782219	0.999629
1018.075011	0.999283
1018.367768	0.998882
1018.660490	0.999594
1018.953177	0.999594
1019.245829	0.999594
