Dividing Wavelength (nm)	Counts (n)	Blue Motor Position (mm): 0.000000	Red Motor Position (mm): 20.500000	
326.493990	1.000624
326.888308	1.000624
327.282561	1.000624
327.676750	1.000251
328.070874	0.999482
328.464933	1.000144
328.858929	1.000043
329.252859	1.000285
329.646726	0.999611
330.040528	0.999764
330.434265	0.999566
330.827938	1.000797
331.221547	1.001032
331.615091	1.001036
332.008571	1.000726
332.401986	0.999893
332.795338	1.000281
333.188625	0.998582
333.581847	1.000677
333.975006	0.999843
334.368100	0.999517
334.761129	1.000630
335.154095	1.001250
335.546996	0.998016
335.939833	0.993459
336.332606	0.992624
336.725315	0.995087
337.117960	0.995912
337.510540	0.994401
337.903056	0.994189
338.295508	0.993958
338.687896	0.995531
339.080220	0.994602
339.472480	0.995652
339.864676	0.993458
340.256807	0.994387
340.648875	0.995308
341.040879	0.995321
341.432818	0.994697
341.824694	0.994662
342.216506	0.996095
342.608253	0.993778
342.999937	0.994083
343.391557	0.995317
343.783113	0.994130
344.174605	0.994259
344.566033	0.994236
344.957397	0.993490
345.348697	0.994424
345.739934	0.994749
346.131106	0.994538
346.522215	0.993677
346.913260	0.994080
347.304241	0.994257
347.695159	0.994055
348.086012	0.993391
348.476802	0.994508
348.867528	0.994444
349.258191	0.993931
349.648789	0.993907
350.039324	0.995103
350.429796	0.995370
350.820203	0.995487
351.210548	0.993892
351.600828	0.994689
351.991045	0.993922
352.381198	0.993608
352.771288	0.994948
353.161314	0.993579
353.551276	0.995543
353.941175	0.993920
354.331010	0.993912
354.720782	0.995267
355.110490	0.993387
355.500135	0.995094
355.889717	0.993984
356.279235	0.994559
356.668689	0.994295
357.058080	0.993752
357.447408	0.993704
357.836672	0.994849
358.225873	0.995079
358.615010	0.994738
359.004084	0.995184
359.393095	0.994782
359.782043	0.994509
360.170927	0.995384
360.559748	0.995285
360.948505	0.994625
361.337199	0.993355
361.725830	0.994816
362.114398	0.994356
362.502903	0.994528
362.891344	0.995878
363.279722	0.993890
363.668037	0.994782
364.056289	0.993974
364.444478	0.994704
364.832603	0.994097
365.220665	0.994605
365.608665	0.994836
365.996601	0.993816
366.384474	0.993987
366.772284	0.994067
367.160031	0.992269
367.547715	0.993582
367.935336	0.994428
368.322893	0.992982
368.710388	0.994199
369.097820	0.994504
369.485189	0.994473
369.872495	0.993176
370.259738	0.991966
370.646918	0.994954
371.034035	0.994842
371.421090	0.994467
371.808081	0.994232
372.195010	0.994164
372.581875	0.994006
372.968678	0.994838
373.355418	0.993757
373.742096	0.993802
374.128710	0.995397
374.515262	0.993962
374.901751	0.993647
375.288177	0.994993
375.674540	0.995426
376.060841	0.994385
376.447079	0.994845
376.833254	0.994499
377.219367	0.994681
377.605417	0.994919
377.991404	0.994289
378.377329	0.995025
378.763191	0.994519
379.148991	0.995229
379.534727	0.995401
379.920402	0.996012
380.306013	0.995818
380.691563	0.995869
381.077049	0.994198
381.462474	0.995583
381.847835	0.994823
382.233134	0.995175
382.618371	0.994946
383.003545	0.995834
383.388657	0.994417
383.773706	0.996276
384.158693	0.996730
384.543618	0.995119
384.928480	0.995448
385.313280	0.995805
385.698017	0.996257
386.082692	0.997408
386.467305	0.995939
386.851856	0.995729
387.236344	0.995248
387.620770	0.994849
388.005133	0.996811
388.389435	0.997178
388.773674	0.996067
389.157851	0.994752
389.541965	0.995720
389.926018	0.996557
390.310008	0.996623
390.693936	0.995800
391.077802	0.995315
391.461606	0.996547
391.845348	0.996283
392.229027	0.997258
392.612645	0.996691
392.996200	0.997309
393.379694	0.995741
393.763125	0.996829
394.146494	0.996515
394.529801	0.996315
394.913047	0.997778
395.296230	0.996646
395.679351	0.996650
396.062410	0.995872
396.445408	0.996296
396.828343	0.995747
397.211217	0.995069
397.594028	0.996319
397.976778	0.995206
398.359466	0.996126
398.742092	0.995288
399.124656	0.995127
399.507158	0.996701
399.889598	0.995690
400.271977	0.995554
400.654294	0.996507
401.036549	0.996981
401.418742	0.996817
401.800874	0.995016
402.182944	0.995548
402.564952	0.994996
402.946898	0.996006
403.328783	0.996440
403.710606	0.996201
404.092367	0.995843
404.474067	0.996243
404.855705	0.995406
405.237282	0.996405
405.618797	0.995668
406.000250	0.995236
406.381642	0.995496
406.762972	0.995476
407.144240	0.996261
407.525447	0.995980
407.906593	0.995650
408.287677	0.995895
408.668700	0.996342
409.049661	0.995465
409.430560	0.995250
409.811399	0.994357
410.192176	0.994722
410.572891	0.994055
410.953545	0.994878
411.334138	0.993372
411.714669	0.993425
412.095139	0.992841
412.475547	0.993318
412.855894	0.991677
413.236180	0.991652
413.616405	0.990266
413.996568	0.989227
414.376670	0.987941
414.756711	0.985966
415.136691	0.985104
415.516609	0.982694
415.896466	0.981006
416.276262	0.979151
416.655997	0.978054
417.035670	0.973524
417.415283	0.971325
417.794834	0.969052
418.174324	0.967351
418.553753	0.964804
418.933121	0.959656
419.312428	0.956696
419.691674	0.953733
420.070859	0.949583
420.449983	0.945285
420.829045	0.940794
421.208047	0.938008
421.586988	0.933462
421.965867	0.926985
422.344686	0.920514
422.723444	0.917211
423.102141	0.914847
423.480777	0.905126
423.859352	0.903052
424.237866	0.892642
424.616319	0.886848
424.994712	0.878860
425.373044	0.874902
425.751314	0.864689
426.129524	0.861945
426.507673	0.850007
426.885762	0.842396
427.263789	0.834844
427.641756	0.831811
428.019662	0.820291
428.397508	0.811477
428.775292	0.803280
429.153016	0.792933
429.530679	0.786811
429.908282	0.776934
430.285824	0.772183
430.663305	0.754141
431.040726	0.753855
431.418086	0.746689
431.795385	0.733621
432.172624	0.723696
432.549802	0.716033
432.926920	0.706672
433.303977	0.697151
433.680974	0.687436
434.057910	0.677171
434.434786	0.669226
434.811601	0.661954
435.188355	0.643075
435.565050	0.639777
435.941683	0.633071
436.318257	0.615075
436.694770	0.606151
437.071222	0.597088
437.447614	0.592168
437.823946	0.589597
438.200218	0.574669
438.576429	0.574458
438.952580	0.561307
439.328670	0.552067
439.704700	0.551224
440.080670	0.545616
440.456580	0.523091
440.832429	0.523729
441.208218	0.526924
441.583947	0.512446
441.959616	0.506635
442.335224	0.505115
442.710773	0.492620
443.086261	0.485167
443.461689	0.493536
443.837057	0.479303
444.212365	0.466082
444.587612	0.468109
444.962800	0.454871
445.337927	0.452501
445.712995	0.473253
446.088002	0.434457
446.462949	0.441158
446.837837	0.442043
447.212664	0.429684
447.587431	0.418488
447.962139	0.387865
448.336786	0.346913
448.711374	0.354603
449.085901	0.394531
449.460369	0.396756
449.834776	0.398040
450.209124	0.376349
450.583412	0.367792
450.957640	0.359902
451.331808	0.368986
451.705917	0.391369
452.079965	0.394441
452.453954	0.381417
452.827883	0.387732
453.201752	0.382011
453.575562	0.392503
453.949311	0.380403
454.323001	0.385773
454.696632	0.380986
455.070202	0.373443
455.443713	0.364795
455.817164	0.359721
456.190556	0.354940
456.563888	0.351249
456.937160	0.348924
457.310373	0.365267
457.683526	0.363807
458.056619	0.369400
458.429653	0.370154
458.802628	0.372947
459.175542	0.366669
459.548398	0.349473
459.921194	0.342087
460.293930	0.342201
460.666607	0.319842
461.039224	0.307829
461.411782	0.303382
461.784280	0.302651
462.156719	0.306615
462.529099	0.311313
462.901419	0.326843
463.273680	0.331460
463.645882	0.330586
464.018024	0.336624
464.390106	0.329307
464.762130	0.314456
465.134094	0.297670
465.505999	0.266781
465.877845	0.237115
466.249631	0.223908
466.621358	0.231506
466.993026	0.245141
467.364634	0.251577
467.736184	0.260407
468.107674	0.268791
468.479105	0.268022
468.850477	0.274950
469.221790	0.281544
469.593043	0.291925
469.964238	0.296403
470.335373	0.295854
470.706449	0.294145
471.077467	0.294661
471.448425	0.256874
471.819324	0.232326
472.190164	0.231965
472.560945	0.260785
472.931667	0.282985
473.302330	0.286728
473.672934	0.298818
474.043479	0.287108
474.413965	0.288570
474.784393	0.292286
475.154761	0.287396
475.525070	0.284086
475.895321	0.290099
476.265513	0.284380
476.635645	0.279549
477.005719	0.279767
477.375734	0.276306
477.745691	0.269645
478.115588	0.265975
478.485427	0.259726
478.855207	0.246794
479.224928	0.229196
479.594591	0.217303
479.964194	0.220615
480.333739	0.221897
480.703226	0.223335
481.072653	0.221848
481.442022	0.217760
481.811333	0.214171
482.180584	0.217592
482.549777	0.222711
482.918912	0.226163
483.287988	0.225810
483.657005	0.225443
484.025964	0.231955
484.394864	0.229304
484.763706	0.230058
485.132489	0.234811
485.501213	0.235629
485.869879	0.233913
486.238487	0.237369
486.607036	0.235081
486.975527	0.239739
487.343959	0.235374
487.712333	0.234408
488.080648	0.235789
488.448905	0.235124
488.817104	0.236340
489.185244	0.230970
489.553326	0.227750
489.921350	0.217444
490.289315	0.200098
490.657222	0.195090
491.025070	0.196421
491.392861	0.198311
491.760593	0.204246
492.128267	0.209584
492.495883	0.215005
492.863440	0.221377
493.230939	0.227584
493.598380	0.228848
493.965763	0.231132
494.333088	0.233363
494.700354	0.235008
495.067563	0.233942
495.434713	0.237183
495.801805	0.234897
496.168839	0.236386
496.535815	0.237629
496.902733	0.237551
497.269593	0.239289
497.636395	0.237409
498.003139	0.237159
498.369825	0.240528
498.736453	0.236563
499.103023	0.238229
499.469535	0.237824
499.835989	0.237835
500.202385	0.238861
500.568723	0.241988
500.935003	0.237195
501.301226	0.241431
501.667390	0.236007
502.033497	0.233728
502.399546	0.236851
502.765537	0.238520
503.131470	0.237080
503.497345	0.233375
503.863163	0.241928
504.228923	0.235318
504.594625	0.233684
504.960269	0.239185
505.325856	0.234415
505.691385	0.238633
506.056856	0.235588
506.422270	0.234889
506.787625	0.237284
507.152924	0.234850
507.518164	0.235073
507.883347	0.237048
508.248472	0.238862
508.613540	0.233868
508.978550	0.236242
509.343503	0.236802
509.708398	0.234569
510.073236	0.231926
510.438016	0.232060
510.802738	0.232963
511.167403	0.231712
511.532010	0.234210
511.896561	0.229381
512.261053	0.228211
512.625488	0.229891
512.989866	0.230358
513.354186	0.230812
513.718449	0.232724
514.082655	0.228966
514.446803	0.231598
514.810894	0.229049
515.174927	0.231643
515.538904	0.230870
515.902822	0.227989
516.266684	0.230304
516.630488	0.231419
516.994235	0.230154
517.357925	0.229108
517.721558	0.227436
518.085133	0.226961
518.448651	0.226946
518.812112	0.229192
519.175516	0.228729
519.538863	0.226580
519.902152	0.227993
520.265385	0.225027
520.628560	0.226660
520.991678	0.227307
521.354739	0.226192
521.717743	0.227301
522.080690	0.227779
522.443580	0.225050
522.806413	0.225925
523.169189	0.225383
523.531908	0.224159
523.894569	0.227925
524.257174	0.227746
524.619722	0.225545
524.982213	0.226600
525.344647	0.225308
525.707025	0.226229
526.069345	0.224445
526.431608	0.226330
526.793815	0.223971
527.155964	0.228173
527.518057	0.227379
527.880093	0.228288
528.242072	0.226714
528.603995	0.228614
528.965860	0.230342
529.327669	0.229080
529.689421	0.230173
530.051117	0.231132
530.412755	0.228485
530.774337	0.230936
531.135862	0.231293
531.497331	0.230616
531.858743	0.233463
532.220098	0.230224
532.581396	0.232850
532.942638	0.233140
533.303824	0.234272
533.664953	0.234223
534.026025	0.235617
534.387040	0.233653
534.747999	0.233707
535.108902	0.232462
535.469748	0.237451
535.830537	0.235207
536.191270	0.235830
536.551947	0.235215
536.912567	0.235273
537.273131	0.237242
537.633638	0.237124
537.994089	0.237711
538.354483	0.238704
538.714821	0.235776
539.075103	0.235342
539.435328	0.236179
539.795497	0.239958
540.155609	0.236628
540.515665	0.234845
540.875665	0.240372
541.235609	0.238791
541.595496	0.239114
541.955328	0.235443
542.315102	0.238074
542.674821	0.239239
543.034483	0.239095
543.394090	0.239179
543.753640	0.240938
544.113134	0.235802
544.472571	0.239154
544.831953	0.235949
545.191278	0.240141
545.550548	0.239991
545.909761	0.236254
546.268918	0.236828
546.628019	0.235343
546.987064	0.238072
547.346053	0.239956
547.704986	0.237988
548.063863	0.237842
548.422684	0.238474
548.781449	0.240051
549.140158	0.237894
549.498811	0.240843
549.857408	0.243836
550.215949	0.238556
550.574434	0.241434
550.932864	0.239307
551.291237	0.238031
551.649555	0.239523
552.007817	0.239474
552.366022	0.240397
552.724173	0.240417
553.082267	0.240521
553.440305	0.237641
553.798288	0.242063
554.156215	0.238602
554.514086	0.239181
554.871902	0.242422
555.229661	0.241602
555.587365	0.242182
555.945014	0.244780
556.302606	0.241777
556.660143	0.243936
557.017625	0.240476
557.375050	0.242670
557.732421	0.239933
558.089735	0.242007
558.446994	0.242168
558.804197	0.241242
559.161345	0.241190
559.518437	0.244769
559.875474	0.242363
560.232455	0.241692
560.589381	0.242853
560.946251	0.242992
561.303065	0.240558
561.659825	0.242065
562.016528	0.243416
562.373177	0.246063
562.729770	0.243876
563.086307	0.245465
563.442789	0.243457
563.799216	0.246091
564.155587	0.244906
564.511904	0.246279
564.868164	0.246413
565.224370	0.246037
565.580520	0.247775
565.936615	0.247530
566.292654	0.250422
566.648638	0.247726
567.004567	0.248506
567.360441	0.249321
567.716260	0.251147
568.072023	0.249130
568.427732	0.249960
568.783385	0.252064
569.138982	0.250243
569.494525	0.249888
569.850013	0.252722
570.205445	0.251281
570.560823	0.253580
570.916145	0.255601
571.271412	0.254108
571.626625	0.255188
571.981782	0.255711
572.336884	0.256399
572.691931	0.256403
573.046923	0.257837
573.401860	0.258764
573.756743	0.260493
574.111570	0.259239
574.466342	0.259812
574.821059	0.259398
575.175722	0.262060
575.530330	0.261466
575.884882	0.261827
576.239380	0.263902
576.593823	0.264340
576.948211	0.263957
577.302544	0.267476
577.656823	0.266576
578.011047	0.266997
578.365216	0.267514
578.719330	0.269251
579.073389	0.269486
579.427394	0.270711
579.781344	0.271393
580.135239	0.272769
580.489080	0.272511
580.842866	0.275624
581.196597	0.275594
581.550273	0.273879
581.903895	0.275257
582.257463	0.273158
582.610975	0.276594
582.964434	0.275602
583.317837	0.278571
583.671186	0.278815
584.024481	0.278969
584.377721	0.281162
584.730906	0.281917
585.084037	0.281338
585.437113	0.282877
585.790135	0.282614
586.143103	0.285428
586.496016	0.286273
586.848874	0.284031
587.201679	0.284428
587.554428	0.287972
587.907124	0.286605
588.259765	0.287021
588.612352	0.288102
588.964884	0.291566
589.317362	0.291358
589.669786	0.290986
590.022155	0.289753
590.374470	0.288990
590.726731	0.291270
591.078937	0.295870
591.431090	0.292453
591.783188	0.296659
592.135232	0.296414
592.487222	0.296820
592.839157	0.294804
593.191038	0.297401
593.542866	0.298826
593.894639	0.302739
594.246358	0.300931
594.598022	0.299984
594.949633	0.303516
595.301190	0.304238
595.652692	0.303630
596.004141	0.299630
596.355535	0.307801
596.706876	0.308232
597.058162	0.310762
597.409395	0.307970
597.760573	0.305646
598.111698	0.309083
598.462768	0.309365
598.813785	0.310860
599.164748	0.312020
599.515657	0.312496
599.866511	0.315609
600.217312	0.310755
600.568060	0.316645
600.918753	0.312874
601.269392	0.313566
601.619978	0.316535
601.970510	0.314457
602.320988	0.314766
602.671412	0.312179
603.021783	0.314781
603.372100	0.316101
603.722363	0.315851
604.072572	0.316628
604.422728	0.316828
604.772830	0.318508
605.122878	0.318228
605.472872	0.318651
605.822813	0.316870
606.172701	0.319815
606.522534	0.316372
606.872314	0.317213
607.222041	0.317839
607.571714	0.315708
607.921333	0.317488
608.270899	0.316966
608.620411	0.313788
608.969870	0.318079
609.319276	0.318246
609.668627	0.318125
610.017926	0.316389
610.367171	0.315195
610.716362	0.315746
611.065500	0.315725
611.414585	0.314668
611.763616	0.315282
612.112594	0.315672
612.461518	0.315104
612.810389	0.312740
613.159207	0.315180
613.507971	0.316800
613.856682	0.312698
614.205340	0.314189
614.553945	0.311234
614.902496	0.314922
615.250994	0.312635
615.599439	0.313704
615.947830	0.312786
616.296169	0.314147
616.644454	0.313816
616.992686	0.313806
617.340864	0.311424
617.688990	0.314989
618.037063	0.311808
618.385082	0.313874
618.733048	0.310519
619.080961	0.312639
619.428821	0.312202
619.776628	0.311920
620.124382	0.313638
620.472083	0.314091
620.819731	0.313197
621.167326	0.317045
621.514868	0.316903
621.862357	0.321423
622.209793	0.321260
622.557176	0.323126
622.904506	0.323950
623.251783	0.326534
623.599007	0.328850
623.946179	0.328016
624.293297	0.330431
624.640363	0.333842
624.987376	0.334607
625.334336	0.337344
625.681243	0.339357
626.028097	0.339735
626.374899	0.341175
626.721647	0.341696
627.068343	0.344761
627.414987	0.345543
627.761577	0.347722
628.108115	0.345888
628.454600	0.351156
628.801032	0.348265
629.147412	0.350501
629.493739	0.350799
629.840014	0.354308
630.186236	0.351480
630.532405	0.357133
630.878521	0.354599
631.224585	0.356748
631.570597	0.360384
631.916556	0.358420
632.262462	0.358748
632.608316	0.361262
632.954117	0.361797
633.299866	0.362578
633.645562	0.362861
633.991206	0.367321
634.336797	0.370110
634.682336	0.372339
635.027823	0.374219
635.373257	0.374879
635.718639	0.378271
636.063968	0.377298
636.409245	0.383283
636.754470	0.383833
637.099642	0.386060
637.444762	0.389541
637.789829	0.388529
638.134845	0.391992
638.479808	0.392833
638.824719	0.392945
639.169577	0.397077
639.514383	0.395413
639.859137	0.399714
640.203839	0.399928
640.548489	0.399676
640.893086	0.401233
641.237632	0.403214
641.582125	0.401518
641.926566	0.403204
642.270955	0.403566
642.615292	0.403945
642.959576	0.402959
643.303809	0.403381
643.647990	0.402533
643.992118	0.403482
644.336195	0.407215
644.680219	0.405270
645.024192	0.406425
645.368112	0.399529
645.711981	0.398724
646.055797	0.393766
646.399562	0.396504
646.743274	0.389046
647.086935	0.386088
647.430544	0.386355
647.774101	0.384716
648.117606	0.384419
648.461059	0.384933
648.804460	0.387498
649.147810	0.392644
649.491108	0.394494
649.834354	0.395981
650.177548	0.401878
650.520690	0.406786
650.863781	0.407486
651.206820	0.407055
651.549807	0.411675
651.892742	0.415401
652.235626	0.415239
652.578458	0.416154
652.921238	0.421922
653.263967	0.420578
653.606644	0.424205
653.949269	0.423663
654.291843	0.427431
654.634365	0.424138
654.976836	0.427248
655.319255	0.428097
655.661622	0.429594
656.003938	0.429263
656.346203	0.432692
656.688416	0.430300
657.030577	0.433275
657.372687	0.435160
657.714746	0.436582
658.056753	0.433082
658.398708	0.436941
658.740612	0.437640
659.082465	0.434521
659.424266	0.435009
659.766016	0.434389
660.107715	0.437027
660.449362	0.435982
660.790958	0.436444
661.132503	0.437219
661.473996	0.434742
661.815438	0.435508
662.156829	0.436051
662.498168	0.436850
662.839456	0.438463
663.180693	0.435620
663.521879	0.435660
663.863013	0.436642
664.204097	0.435444
664.545129	0.432045
664.886110	0.432702
665.227040	0.429939
665.567918	0.432356
665.908746	0.430517
666.249522	0.430284
666.590248	0.430926
666.930922	0.429486
667.271545	0.428128
667.612118	0.428638
667.952639	0.429870
668.293109	0.428395
668.633528	0.431732
668.973896	0.431106
669.314213	0.431458
669.654480	0.432963
669.994695	0.433888
670.334859	0.434456
670.674973	0.434786
671.015035	0.434859
671.355047	0.434163
671.695008	0.436070
672.034918	0.437695
672.374777	0.436936
672.714585	0.437950
673.054342	0.437804
673.394049	0.437803
673.733705	0.435911
674.073310	0.437002
674.412864	0.440108
674.752368	0.440413
675.091820	0.440594
675.431223	0.445468
675.770574	0.444588
676.109875	0.447998
676.449125	0.447548
676.788324	0.450535
677.127473	0.455651
677.466571	0.455426
677.805619	0.457103
678.144616	0.458053
678.483562	0.460122
678.822458	0.462331
679.161303	0.463212
679.500098	0.463906
679.838842	0.465171
680.177535	0.465005
680.516179	0.463532
680.854771	0.462661
681.193314	0.455955
681.531805	0.447274
681.870247	0.435896
682.208638	0.428373
682.546978	0.427510
682.885268	0.429463
683.223508	0.435243
683.561697	0.438816
683.899836	0.441983
684.237925	0.445289
684.575963	0.447125
684.913951	0.450787
685.251889	0.446408
685.589776	0.448764
685.927614	0.450291
686.265401	0.445264
686.603137	0.446167
686.940824	0.440691
687.278460	0.438658
687.616046	0.438120
687.953582	0.432837
688.291068	0.434339
688.628504	0.430802
688.965889	0.432248
689.303224	0.436490
689.640510	0.440259
689.977745	0.446354
690.314930	0.454072
690.652065	0.458735
690.989150	0.465922
691.326185	0.472679
691.663170	0.477526
692.000105	0.483874
692.336990	0.491024
692.673825	0.493639
693.010610	0.500818
693.347345	0.506055
693.684030	0.507691
694.020665	0.512339
694.357251	0.521117
694.693786	0.520656
695.030272	0.524776
695.366707	0.528359
695.703093	0.532087
696.039429	0.529815
696.375716	0.531183
696.711952	0.534017
697.048139	0.536275
697.384276	0.537900
697.720363	0.536635
698.056400	0.535912
698.392388	0.540614
698.728326	0.544328
699.064214	0.547335
699.400053	0.547391
699.735842	0.550874
700.071581	0.554271
700.407270	0.556816
700.742910	0.559441
701.078501	0.565336
701.414042	0.565650
701.749533	0.569405
702.084974	0.577522
702.420366	0.570338
702.755709	0.578270
703.091002	0.586352
703.426246	0.579447
703.761440	0.585352
704.096584	0.589954
704.431679	0.586403
704.766725	0.589367
705.101721	0.590360
705.436668	0.586658
705.771565	0.594557
706.106413	0.590396
706.441212	0.585986
706.775961	0.584255
707.110661	0.587717
707.445311	0.583848
707.779913	0.580593
708.114465	0.579998
708.448967	0.576110
708.783421	0.567636
709.117825	0.562506
709.452180	0.562368
709.786485	0.557035
710.120742	0.545909
710.454949	0.548440
710.789107	0.540425
711.123216	0.531853
711.457275	0.533240
711.791286	0.524444
712.125247	0.523136
712.459159	0.533865
712.793023	0.525820
713.126837	0.530516
713.460602	0.530784
713.794318	0.539800
714.127985	0.539206
714.461602	0.549470
714.795171	0.552222
715.128691	0.560508
715.462162	0.567869
715.795584	0.573805
716.128957	0.576429
716.462281	0.583265
716.795556	0.586176
717.128782	0.590895
717.461960	0.601420
717.795088	0.598766
718.128167	0.605882
718.461198	0.613990
718.794180	0.615185
719.127113	0.617909
719.459997	0.621620
719.792833	0.627322
720.125619	0.628207
720.458357	0.634597
720.791046	0.633764
721.123686	0.637812
721.456278	0.644723
721.788821	0.642226
722.121315	0.646050
722.453761	0.650074
722.786158	0.648364
723.118506	0.644135
723.450805	0.652381
723.783056	0.647860
724.115259	0.645288
724.447412	0.644715
724.779518	0.646380
725.111574	0.645639
725.443582	0.641061
725.775542	0.643384
726.107453	0.634676
726.439315	0.634986
726.771129	0.633655
727.102895	0.627553
727.434612	0.619675
727.766281	0.617061
728.097901	0.616834
728.429473	0.617022
728.760996	0.615211
729.092471	0.615833
729.423897	0.618982
729.755276	0.618928
730.086606	0.618173
730.417887	0.612882
730.749120	0.603803
731.080305	0.594278
731.411442	0.590239
731.742530	0.595517
732.073570	0.594651
732.404562	0.586729
732.735506	0.587826
733.066401	0.593269
733.397249	0.602156
733.728048	0.613627
734.058798	0.626079
734.389501	0.637278
734.720156	0.647248
735.050762	0.654801
735.381320	0.655453
735.711831	0.665643
736.042293	0.668799
736.372707	0.665195
736.703073	0.669265
737.033391	0.672546
737.363661	0.669413
737.693883	0.664469
738.024056	0.663784
738.354182	0.663838
738.684260	0.653125
739.014290	0.648522
739.344272	0.650198
739.674207	0.643509
740.004093	0.642516
740.333931	0.642929
740.663722	0.643234
740.993464	0.643902
741.323159	0.647136
741.652806	0.652817
741.982405	0.656856
742.311956	0.661908
742.641460	0.663853
742.970915	0.667837
743.300323	0.674943
743.629683	0.681860
743.958996	0.683077
744.288260	0.688129
744.617477	0.693600
744.946647	0.696322
745.275768	0.700709
745.604842	0.700889
745.933869	0.710870
746.262847	0.710457
746.591778	0.704782
746.920662	0.710540
747.249498	0.717775
747.578286	0.708292
747.907027	0.705083
748.235720	0.705849
748.564365	0.700462
748.892963	0.699639
749.221514	0.703254
749.550017	0.707694
749.878473	0.708111
750.206881	0.713983
750.535242	0.715535
750.863555	0.715828
751.191821	0.716533
751.520039	0.720047
751.848210	0.724864
752.176334	0.717182
752.504411	0.716652
752.832440	0.724361
753.160421	0.728562
753.488356	0.726340
753.816243	0.724308
754.144082	0.731988
754.471875	0.735875
754.799620	0.731776
755.127318	0.732676
755.454969	0.732715
755.782572	0.731353
756.110129	0.737254
756.437638	0.739266
756.765100	0.736118
757.092515	0.733901
757.419882	0.732911
757.747203	0.738701
758.074477	0.737530
758.401703	0.734783
758.728882	0.730253
759.056014	0.728720
759.383099	0.727986
759.710138	0.729271
760.037129	0.724726
760.364073	0.719183
760.690970	0.721474
761.017820	0.727819
761.344623	0.722377
761.671379	0.714447
761.998088	0.702701
762.324751	0.679533
762.651366	0.637783
762.977935	0.570683
763.304456	0.519384
763.630931	0.509190
763.957359	0.548477
764.283740	0.593292
764.610074	0.620003
764.936362	0.651955
765.262602	0.677405
765.588796	0.699003
765.914943	0.717498
766.241044	0.734577
766.567097	0.741847
766.893104	0.751514
767.219064	0.758139
767.544978	0.764246
767.870845	0.777099
768.196665	0.781535
768.522438	0.779622
768.848165	0.781564
769.173846	0.790890
769.499479	0.793752
769.825066	0.798026
770.150607	0.802926
770.476101	0.797398
770.801548	0.799273
771.126949	0.810454
771.452303	0.814323
771.777611	0.813325
772.102872	0.812519
772.428087	0.817602
772.753256	0.821110
773.078378	0.822950
773.403453	0.831870
773.728482	0.836835
774.053465	0.830414
774.378401	0.833536
774.703291	0.842105
775.028135	0.840756
775.352932	0.843403
775.677683	0.846105
776.002388	0.846881
776.327046	0.845419
776.651658	0.849596
776.976224	0.852241
777.300743	0.852569
777.625216	0.854902
777.949643	0.856403
778.274024	0.857056
778.598359	0.858943
778.922647	0.856392
779.246889	0.857685
779.571086	0.862300
779.895236	0.864327
780.219339	0.861477
780.543397	0.858301
780.867409	0.856534
781.191374	0.858931
781.515294	0.860570
781.839167	0.858499
782.162995	0.862636
782.486776	0.860490
782.810511	0.860930
783.134201	0.864107
783.457844	0.861336
783.781441	0.864168
784.104993	0.870846
784.428498	0.870605
784.751958	0.866924
785.075372	0.867716
785.398739	0.872419
785.722061	0.868509
786.045337	0.864288
786.368568	0.869389
786.691752	0.871699
787.014891	0.857824
787.337983	0.848915
787.661030	0.840569
787.984031	0.824131
788.306987	0.810878
788.629897	0.812248
788.952760	0.817528
789.275579	0.821207
789.598351	0.836484
789.921078	0.848685
790.243759	0.850519
790.566395	0.856314
790.888984	0.864442
791.211529	0.868695
791.534027	0.872928
791.856480	0.873361
792.178888	0.878881
792.501249	0.882332
792.823566	0.883149
793.145836	0.882198
793.468062	0.884300
793.790241	0.884251
794.112375	0.883005
794.434464	0.877951
794.756507	0.877225
795.078505	0.877536
795.400457	0.872181
795.722364	0.859824
796.044226	0.852770
796.366042	0.852777
796.687812	0.854892
797.009538	0.851871
797.331218	0.854572
797.652852	0.859648
797.974442	0.864450
798.295986	0.864862
798.617484	0.866232
798.938938	0.871273
799.260346	0.875988
799.581709	0.878726
799.903026	0.880317
800.224299	0.881171
800.545526	0.885609
800.866708	0.889813
801.187845	0.892983
801.508936	0.892796
801.829983	0.890003
802.150984	0.893283
802.471940	0.898049
802.792851	0.896739
803.113717	0.897244
803.434538	0.895553
803.755314	0.898221
804.076045	0.899654
804.396731	0.899232
804.717372	0.900193
805.037967	0.901314
805.358518	0.899991
805.679024	0.897371
805.999485	0.896080
806.319901	0.897607
806.640272	0.898224
806.960598	0.896367
807.280879	0.893550
807.601115	0.891959
807.921306	0.896114
808.241453	0.895741
808.561554	0.894315
808.881611	0.893894
809.201623	0.895267
809.521590	0.896714
809.841513	0.897234
810.161390	0.896410
810.481223	0.897965
810.801011	0.900997
811.120755	0.903091
811.440453	0.901731
811.760107	0.900509
812.079716	0.900924
812.399281	0.904065
812.718801	0.907246
813.038276	0.907923
813.357707	0.907049
813.677093	0.904078
813.996434	0.906657
814.315731	0.908622
814.634983	0.910073
814.954191	0.907825
815.273354	0.905174
815.592473	0.901851
815.911547	0.901565
816.230577	0.898578
816.549562	0.895636
816.868502	0.897354
817.187399	0.894478
817.506250	0.887530
817.825058	0.889814
818.143821	0.886659
818.462539	0.882209
818.781213	0.873898
819.099843	0.862076
819.418429	0.847051
819.736970	0.829981
820.055466	0.809804
820.373919	0.783953
820.692327	0.750587
821.010691	0.716959
821.329011	0.639105
821.647286	0.524699
821.965517	0.410735
822.283704	0.367905
822.601847	0.369407
822.919945	0.405117
823.237999	0.438963
823.556010	0.485198
823.873976	0.540635
824.191897	0.592129
824.509775	0.634051
824.827609	0.679263
825.145398	0.701534
825.463144	0.704294
825.780845	0.687924
826.098502	0.669004
826.416116	0.623279
826.733685	0.579365
827.051210	0.570482
827.368692	0.585485
827.686129	0.622719
828.003522	0.675937
828.320872	0.722894
828.638177	0.767301
828.955439	0.799422
829.272656	0.822253
829.589830	0.838974
829.906960	0.854980
830.224046	0.867327
830.541088	0.877334
830.858086	0.881718
831.175041	0.887318
831.491952	0.885977
831.808819	0.883714
832.125642	0.876410
832.442421	0.861892
832.759157	0.840015
833.075849	0.794393
833.392497	0.730515
833.709101	0.690344
834.025662	0.699738
834.342179	0.730921
834.658653	0.769805
834.975083	0.806728
835.291469	0.831897
835.607811	0.855491
835.924110	0.870514
836.240366	0.888081
836.556578	0.901910
836.872746	0.908698
837.188871	0.914050
837.504952	0.920868
837.820990	0.924099
838.136984	0.927061
838.452935	0.930785
838.768842	0.931892
839.084706	0.925437
839.400526	0.898810
839.716303	0.858998
840.032037	0.836853
840.347727	0.840239
840.663373	0.858310
840.978977	0.880343
841.294537	0.901936
841.610054	0.918322
841.925527	0.925308
842.240957	0.932714
842.556344	0.939892
842.871687	0.946330
843.186987	0.950132
843.502244	0.949857
843.817458	0.952385
844.132629	0.955776
844.447756	0.960925
844.762840	0.959976
845.077881	0.960317
845.392879	0.960164
845.707833	0.964218
846.022745	0.964721
846.337613	0.965119
846.652438	0.966437
846.967221	0.965837
847.281960	0.965719
847.596656	0.968423
847.911309	0.966788
848.225919	0.968103
848.540485	0.968275
848.855009	0.969663
849.169490	0.968617
849.483928	0.969365
849.798323	0.970210
850.112675	0.970547
850.426984	0.970267
850.741251	0.970530
851.055474	0.969695
851.369654	0.967981
851.683792	0.970034
851.997887	0.969546
852.311938	0.970897
852.625947	0.969566
852.939914	0.968996
853.253837	0.969741
853.567718	0.970456
853.881555	0.971456
854.195350	0.968552
854.509103	0.969744
854.822812	0.969645
855.136479	0.969964
855.450103	0.970343
855.763685	0.968681
856.077224	0.968828
856.390720	0.970528
856.704173	0.970062
857.017584	0.968563
857.330953	0.966574
857.644278	0.967895
857.957561	0.967923
858.270802	0.968200
858.584000	0.968466
858.897155	0.967573
859.210268	0.967424
859.523339	0.968335
859.836367	0.970668
860.149352	0.971385
860.462295	0.968579
860.775195	0.970278
861.088054	0.968837
861.400869	0.970247
861.713642	0.970584
862.026373	0.970480
862.339062	0.969599
862.651708	0.968839
862.964312	0.967657
863.276873	0.969393
863.589392	0.968617
863.901869	0.967975
864.214303	0.964159
864.526696	0.964297
864.839045	0.963813
865.151353	0.962780
865.463619	0.961916
865.775842	0.963314
866.088023	0.962647
866.400162	0.962311
866.712258	0.961975
867.024313	0.963476
867.336325	0.964296
867.648296	0.963153
867.960224	0.963108
868.272110	0.962135
868.583954	0.965137
868.895755	0.964957
869.207515	0.962663
869.519233	0.959303
869.830909	0.961546
870.142542	0.962868
870.454134	0.961998
870.765684	0.960977
871.077191	0.958758
871.388657	0.959631
871.700081	0.958394
872.011463	0.958084
872.322803	0.958231
872.634101	0.957625
872.945357	0.954730
873.256571	0.953739
873.567744	0.953078
873.878874	0.953631
874.189963	0.952400
874.501010	0.952034
874.812015	0.950197
875.122979	0.952691
875.433900	0.953325
875.744780	0.954184
876.055618	0.951489
876.366415	0.950246
876.677169	0.950737
876.987882	0.951089
877.298554	0.950544
877.609183	0.948690
877.919771	0.945408
878.230317	0.943267
878.540822	0.940829
878.851285	0.935144
879.161707	0.926573
879.472087	0.915023
879.782425	0.899472
880.092722	0.865367
880.402977	0.813861
880.713191	0.752652
881.023363	0.694527
881.333494	0.660011
881.643583	0.631620
881.953631	0.631095
882.263637	0.660005
882.573602	0.699620
882.883526	0.724691
883.193408	0.748588
883.503248	0.770565
883.813048	0.799006
884.122806	0.828414
884.432522	0.851282
884.742197	0.870585
885.051831	0.880941
885.361424	0.892809
885.670975	0.904542
885.980485	0.914838
886.289954	0.920592
886.599382	0.925341
886.908768	0.929178
887.218113	0.934659
887.527417	0.939729
887.836680	0.942900
888.145901	0.944394
888.455082	0.946004
888.764221	0.950321
889.073319	0.953745
889.382376	0.952611
889.691392	0.953761
890.000366	0.953705
890.309300	0.955161
890.618193	0.952698
890.927044	0.952538
891.235855	0.952011
891.544625	0.951980
891.853353	0.952372
892.162041	0.949786
892.470687	0.942767
892.779293	0.938589
893.087858	0.934358
893.396381	0.927721
893.704864	0.914040
894.013306	0.889131
894.321707	0.862982
894.630068	0.848883
894.938387	0.844913
895.246665	0.845111
895.554903	0.857317
895.863100	0.870028
896.171256	0.887697
896.479371	0.907298
896.787446	0.919633
897.095480	0.925670
897.403473	0.927756
897.711425	0.932501
898.019336	0.940094
898.327207	0.943029
898.635038	0.945540
898.942827	0.945352
899.250576	0.948069
899.558284	0.953457
899.865952	0.954230
900.173579	0.954999
900.481165	0.956545
900.788711	0.959930
901.096216	0.961897
901.403681	0.962213
901.711105	0.963356
902.018489	0.964299
902.325832	0.963091
902.633135	0.961945
902.940397	0.956504
903.247619	0.943562
903.554800	0.918843
903.861941	0.879962
904.169041	0.844183
904.476101	0.827881
904.783121	0.828232
905.090100	0.844135
905.397039	0.865064
905.703938	0.887261
906.010796	0.907366
906.317614	0.923206
906.624391	0.935503
906.931129	0.944200
907.237826	0.952984
907.544483	0.958752
907.851099	0.963101
908.157675	0.968103
908.464211	0.969971
908.770707	0.973204
909.077163	0.975657
909.383578	0.975010
909.689954	0.975178
909.996289	0.975557
910.302584	0.978450
910.608839	0.980349
910.915054	0.978979
911.221229	0.977611
911.527363	0.977059
911.833458	0.976985
912.139513	0.977177
912.445527	0.975762
912.751502	0.974811
913.057436	0.972593
913.363331	0.970737
913.669186	0.966862
913.975000	0.962142
914.280775	0.955241
914.586510	0.948939
914.892205	0.936453
915.197859	0.914578
915.503475	0.886946
915.809050	0.868170
916.114585	0.862344
916.420081	0.860597
916.725536	0.856817
917.030952	0.864533
917.336328	0.877021
917.641665	0.892792
917.946961	0.908662
918.252218	0.919851
918.557435	0.927517
918.862612	0.936540
919.167750	0.941423
919.472848	0.947364
919.777906	0.953989
920.082925	0.959133
920.387904	0.962068
920.692843	0.963274
920.997743	0.964341
921.302603	0.968226
921.607423	0.968627
921.912204	0.973051
922.216946	0.972952
922.521647	0.974654
922.826310	0.974943
923.130932	0.977245
923.435516	0.978354
923.740059	0.979175
924.044564	0.979091
924.349028	0.980997
924.653454	0.983176
924.957840	0.985028
925.262186	0.984186
925.566493	0.984171
925.870761	0.984985
926.174989	0.986033
926.479178	0.987774
926.783328	0.988616
927.087438	0.989704
927.391509	0.987683
927.695541	0.990281
927.999533	0.989667
928.303486	0.989638
928.607400	0.991186
928.911275	0.989713
929.215110	0.990905
929.518906	0.992649
929.822663	0.990180
930.126381	0.991926
930.430060	0.991171
930.733699	0.990381
931.037299	0.989306
931.340861	0.991939
931.644383	0.989477
931.947866	0.989608
932.251309	0.990567
932.554714	0.990498
932.858080	0.990390
933.161407	0.991130
933.464694	0.991294
933.767943	0.990428
934.071153	0.991534
934.374323	0.991689
934.677455	0.991684
934.980548	0.992815
935.283602	0.991063
935.586617	0.991320
935.889593	0.992030
936.192530	0.990489
936.495428	0.990766
936.798287	0.990837
937.101108	0.990276
937.403890	0.990168
937.706632	0.989108
938.009336	0.987517
938.312002	0.986106
938.614628	0.983927
938.917216	0.983462
939.219765	0.981597
939.522275	0.984093
939.824747	0.984070
940.127179	0.983397
940.429573	0.984375
940.731929	0.984819
941.034246	0.984349
941.336524	0.985534
941.638763	0.985808
941.940964	0.986428
942.243126	0.987175
942.545250	0.988449
942.847335	0.989958
943.149381	0.988096
943.451389	0.987785
943.753359	0.988362
944.055290	0.990963
944.357182	0.990678
944.659036	0.988267
944.960851	0.990202
945.262628	0.990520
945.564367	0.989658
945.866067	0.990576
946.167729	0.990011
946.469352	0.989800
946.770937	0.988448
947.072484	0.991194
947.373992	0.990797
947.675462	0.991122
947.976893	0.990981
948.278286	0.991485
948.579641	0.992372
948.880958	0.991816
949.182236	0.991702
949.483476	0.990396
949.784678	0.989776
950.085841	0.991649
950.386967	0.991101
950.688054	0.991187
950.989103	0.991594
951.290114	0.990105
951.591087	0.989682
951.892021	0.989412
952.192917	0.989340
952.493776	0.988752
952.794596	0.988705
953.095378	0.987383
953.396122	0.988404
953.696828	0.987035
953.997496	0.990281
954.298126	0.990852
954.598718	0.991583
954.899272	0.991788
955.199788	0.989931
955.500266	0.993143
955.800706	0.993238
956.101108	0.993785
956.401472	0.994216
956.701798	0.994387
957.002087	0.993805
957.302337	0.994741
957.602550	0.995083
957.902724	0.996019
958.202861	0.994853
958.502960	0.995629
958.803022	0.994267
959.103045	0.995830
959.403031	0.996421
959.702979	0.993948
960.002889	0.996564
960.302762	0.995293
960.602596	0.997286
960.902393	0.995187
961.202153	0.996794
961.501875	0.997240
961.801559	0.996269
962.101205	0.997056
962.400814	0.996892
962.700385	0.996925
962.999918	0.995712
963.299414	0.996884
963.598873	0.995825
963.898293	0.996877
964.197677	0.996261
964.497022	0.996518
964.796331	0.997572
965.095601	0.997721
965.394835	0.996184
965.694030	0.997236
965.993189	0.996847
966.292309	0.997515
966.591393	0.997428
966.890439	0.997434
967.189447	0.997029
967.488419	0.998374
967.787353	0.995951
968.086249	0.996192
968.385108	0.996895
968.683930	0.998721
968.982714	0.997798
969.281462	0.997903
969.580172	0.996741
969.878844	0.997871
970.177480	0.996929
970.476078	0.997450
970.774639	0.995464
971.073162	0.997187
971.371649	0.997010
971.670098	0.995905
971.968510	0.998556
972.266885	0.995122
972.565223	0.996408
972.863524	0.996935
973.161788	0.996697
973.460014	0.998343
973.758204	0.995810
974.056356	0.997212
974.354471	0.995075
974.652550	0.996132
974.950591	0.997803
975.248595	0.996569
975.546563	0.998078
975.844493	0.997363
976.142386	0.996707
976.440243	0.997309
976.738062	0.997587
977.035845	0.998958
977.333590	0.997541
977.631299	0.997990
977.928971	0.997799
978.226606	0.996768
978.524204	0.995179
978.821765	0.998846
979.119290	0.996173
979.416777	0.996805
979.714228	0.997074
980.011642	0.996399
980.309020	0.998259
980.606360	0.998377
980.903664	0.997720
981.200931	0.995390
981.498162	0.995447
981.795356	0.995269
982.092513	0.994011
982.389633	0.994173
982.686717	0.991941
982.983764	0.991982
983.280775	0.990690
983.577749	0.990246
983.874686	0.992714
984.171587	0.992237
984.468451	0.993495
984.765279	0.995791
985.062070	0.994337
985.358824	0.995407
985.655543	0.995960
985.952224	0.996829
986.248869	0.996669
986.545478	0.997948
986.842050	0.998835
987.138586	0.995808
987.435086	0.997944
987.731549	1.000530
988.027975	0.998135
988.324366	0.998069
988.620719	0.997496
988.917037	0.996797
989.213318	0.998096
989.509563	0.998720
989.805772	0.997707
990.101944	0.998438
990.398080	0.997283
990.694180	0.998638
990.990244	0.997191
991.286271	0.998803
991.582262	0.998428
991.878217	0.998126
992.174136	0.999214
992.470019	0.998450
992.765865	0.997368
993.061676	0.999041
993.357450	0.997004
993.653188	0.997011
993.948890	0.996997
994.244556	0.998751
994.540186	0.998005
994.835780	0.997304
995.131337	0.997342
995.426859	0.996617
995.722345	0.999126
996.017795	0.996714
996.313208	0.995841
996.608586	0.996364
996.903928	0.996652
997.199234	0.996635
997.494504	0.996678
997.789738	0.997099
998.084936	0.997049
998.380099	0.999477
998.675225	0.998208
998.970316	0.997609
999.265371	0.999104
999.560390	0.998656
999.855373	0.999010
1000.150320	0.997450
1000.445232	0.997991
1000.740108	0.998670
1001.034948	0.997738
1001.329752	0.999526
1001.624521	0.998413
1001.919254	0.999441
1002.213951	0.998403
1002.508613	0.998388
1002.803239	0.999912
1003.097829	0.998542
1003.392384	0.998483
1003.686903	0.997456
1003.981386	0.999138
1004.275834	0.999433
1004.570246	0.998955
1004.864623	0.998588
1005.158964	0.999552
1005.453270	0.998689
1005.747540	0.998104
1006.041775	0.998464
1006.335974	0.999907
1006.630138	0.998721
1006.924266	0.999447
1007.218359	1.000405
1007.512416	0.998873
1007.806438	0.999461
1008.100425	0.998946
1008.394376	0.998290
1008.688292	0.998864
1008.982172	1.000798
1009.276017	0.999182
1009.569827	0.998086
1009.863602	0.998845
1010.157341	0.999393
1010.451045	0.999397
1010.744714	0.999092
1011.038347	0.999251
1011.331945	1.000025
1011.625508	0.997145
1011.919036	1.000188
1012.212528	0.998656
1012.505986	0.997470
1012.799408	0.998972
1013.092795	0.999789
1013.386147	0.999587
1013.679464	0.998717
1013.972745	0.999220
1014.265992	0.997631
1014.559204	0.999224
1014.852380	0.999738
1015.145521	0.998982
1015.438628	0.999246
1015.731699	0.998006
1016.024736	0.999286
1016.317737	0.998795
1016.610703	0.999157
1016.903635	1.000556
1017.196531	0.999033
1017.489393	1.000271
1017.782219	0.998139
1018.075011	0.998342
1018.367768	0.999765
1018.660490	1.000561
1018.953177	1.000561
1019.245829	1.000561
