Dividing Wavelength (nm)	Counts (n)	Blue Motor Position (mm): 0.000000	Red Motor Position (mm): 40.400000	
326.493990	1.001111
326.888308	1.001111
327.282561	1.001111
327.676750	0.999550
328.070874	0.998947
328.464933	1.001247
328.858929	0.998360
329.252859	0.999269
329.646726	0.999852
330.040528	1.000084
330.434265	0.998520
330.827938	0.999863
331.221547	1.001547
331.615091	1.000035
332.008571	0.999311
332.401986	0.999393
332.795338	0.999676
333.188625	0.997064
333.581847	0.999649
333.975006	0.998432
334.368100	0.999247
334.761129	1.000018
335.154095	0.999724
335.546996	0.997830
335.939833	0.996377
336.332606	0.997488
336.725315	0.998001
337.117960	0.998859
337.510540	0.997424
337.903056	0.998857
338.295508	0.995937
338.687896	0.997466
339.080220	0.997746
339.472480	0.998059
339.864676	0.996984
340.256807	0.998017
340.648875	0.998014
341.040879	0.996566
341.432818	0.996831
341.824694	0.996630
342.216506	0.998282
342.608253	0.996947
342.999937	0.997649
343.391557	0.996933
343.783113	0.996895
344.174605	0.997963
344.566033	0.997788
344.957397	0.997609
345.348697	0.997356
345.739934	0.997474
346.131106	0.997360
346.522215	0.997209
346.913260	0.997462
347.304241	0.996834
347.695159	0.996477
348.086012	0.996887
348.476802	0.996125
348.867528	0.997705
349.258191	0.994791
349.648789	0.997104
350.039324	0.998128
350.429796	0.997479
350.820203	0.997100
351.210548	0.996819
351.600828	0.998211
351.991045	0.997486
352.381198	0.996657
352.771288	0.996938
353.161314	0.996522
353.551276	0.998370
353.941175	0.996296
354.331010	0.998176
354.720782	0.997096
355.110490	0.997555
355.500135	0.997514
355.889717	0.996743
356.279235	0.996500
356.668689	0.996556
357.058080	0.998837
357.447408	0.998542
357.836672	0.998105
358.225873	0.997703
358.615010	0.998602
359.004084	0.998586
359.393095	0.997501
359.782043	0.997428
360.170927	0.998334
360.559748	0.997821
360.948505	0.997374
361.337199	0.997549
361.725830	0.998730
362.114398	0.997812
362.502903	0.998457
362.891344	0.998866
363.279722	0.997459
363.668037	0.998202
364.056289	0.997188
364.444478	0.998373
364.832603	0.997519
365.220665	0.996926
365.608665	0.997091
365.996601	0.997876
366.384474	0.997680
366.772284	0.997041
367.160031	0.996927
367.547715	0.996439
367.935336	0.997921
368.322893	0.996830
368.710388	0.996104
369.097820	0.998734
369.485189	0.997350
369.872495	0.996410
370.259738	0.996271
370.646918	0.998097
371.034035	0.998287
371.421090	0.996862
371.808081	0.996676
372.195010	0.998038
372.581875	0.997344
372.968678	0.996791
373.355418	0.996352
373.742096	0.997259
374.128710	0.998901
374.515262	0.996546
374.901751	0.998172
375.288177	0.997661
375.674540	0.997923
376.060841	0.997456
376.447079	0.999315
376.833254	0.997944
377.219367	0.998750
377.605417	0.997934
377.991404	0.997938
378.377329	0.997907
378.763191	0.997521
379.148991	0.997915
379.534727	0.998404
379.920402	0.998320
380.306013	0.998061
380.691563	0.997905
381.077049	0.997573
381.462474	0.998090
381.847835	0.998396
382.233134	0.998420
382.618371	0.997806
383.003545	0.998749
383.388657	0.997711
383.773706	0.999241
384.158693	0.998838
384.543618	0.998253
384.928480	0.999104
385.313280	0.997504
385.698017	0.999189
386.082692	0.999244
386.467305	0.998809
386.851856	0.998169
387.236344	0.997988
387.620770	0.997317
388.005133	0.999701
388.389435	0.998202
388.773674	0.998362
389.157851	0.998825
389.541965	0.997972
389.926018	0.997540
390.310008	0.999262
390.693936	0.998018
391.077802	0.998525
391.461606	0.998200
391.845348	0.998594
392.229027	0.999243
392.612645	0.999278
392.996200	0.999376
393.379694	0.998493
393.763125	1.000180
394.146494	0.999864
394.529801	0.999093
394.913047	0.999124
395.296230	0.999107
395.679351	0.999449
396.062410	0.998336
396.445408	0.999100
396.828343	0.998445
397.211217	0.998592
397.594028	0.998791
397.976778	0.998862
398.359466	0.998124
398.742092	0.998591
399.124656	0.998370
399.507158	0.998761
399.889598	0.998232
400.271977	0.999742
400.654294	0.999194
401.036549	1.000767
401.418742	0.999120
401.800874	0.998383
402.182944	0.998343
402.564952	0.998047
402.946898	0.999884
403.328783	1.000017
403.710606	0.999306
404.092367	0.998939
404.474067	0.999409
404.855705	0.999617
405.237282	0.999917
405.618797	0.998538
406.000250	0.998378
406.381642	0.999129
406.762972	0.999507
407.144240	0.999142
407.525447	0.998972
407.906593	0.998676
408.287677	0.999794
408.668700	0.999637
409.049661	0.998542
409.430560	0.999446
409.811399	0.999391
410.192176	0.999095
410.572891	0.998544
410.953545	0.998034
411.334138	0.997984
411.714669	0.999678
412.095139	0.998392
412.475547	0.999836
412.855894	0.998915
413.236180	0.999363
413.616405	0.999223
413.996568	1.000684
414.376670	0.998727
414.756711	0.998992
415.136691	0.999570
415.516609	0.999128
415.896466	0.998947
416.276262	0.997610
416.655997	0.999272
417.035670	0.998522
417.415283	0.998606
417.794834	0.999703
418.174324	0.999771
418.553753	1.000260
418.933121	0.998550
419.312428	0.999223
419.691674	0.999003
420.070859	0.999618
420.449983	0.998849
420.829045	0.999628
421.208047	0.999742
421.586988	1.000274
421.965867	0.998673
422.344686	0.999675
422.723444	0.999181
423.102141	0.999057
423.480777	1.000420
423.859352	0.999676
424.237866	0.998883
424.616319	0.999337
424.994712	0.999959
425.373044	0.999988
425.751314	0.999629
426.129524	0.999781
426.507673	0.999882
426.885762	1.000430
427.263789	0.999658
427.641756	1.000111
428.019662	1.000153
428.397508	0.999032
428.775292	0.999033
429.153016	0.999347
429.530679	0.999987
429.908282	1.000338
430.285824	0.999848
430.663305	0.999233
431.040726	0.999009
431.418086	1.000526
431.795385	1.000033
432.172624	0.998967
432.549802	1.000365
432.926920	0.999672
433.303977	0.998539
433.680974	0.999825
434.057910	0.999304
434.434786	1.000078
434.811601	0.999698
435.188355	0.999405
435.565050	0.999590
435.941683	0.999617
436.318257	1.000739
436.694770	0.999010
437.071222	0.999846
437.447614	1.000564
437.823946	0.999559
438.200218	1.000413
438.576429	1.000004
438.952580	1.000331
439.328670	0.999712
439.704700	1.000039
440.080670	1.000817
440.456580	0.999743
440.832429	0.999452
441.208218	1.000764
441.583947	1.000046
441.959616	0.999525
442.335224	0.999283
442.710773	1.000702
443.086261	0.999916
443.461689	0.999089
443.837057	0.999410
444.212365	1.000376
444.587612	0.999624
444.962800	0.999922
445.337927	1.000322
445.712995	0.999427
446.088002	1.000324
446.462949	1.000189
446.837837	1.000214
447.212664	1.000764
447.587431	1.000088
447.962139	1.000005
448.336786	0.999888
448.711374	0.999904
449.085901	0.999352
449.460369	1.000928
449.834776	0.999731
450.209124	1.000573
450.583412	0.999999
450.957640	1.000070
451.331808	1.000076
451.705917	1.000077
452.079965	0.999934
452.453954	0.999573
452.827883	0.999441
453.201752	1.000574
453.575562	1.000932
453.949311	1.000744
454.323001	0.999813
454.696632	1.000407
455.070202	0.999801
455.443713	0.999665
455.817164	1.000258
456.190556	0.999925
456.563888	0.999800
456.937160	1.000037
457.310373	0.999343
457.683526	0.999871
458.056619	1.000017
458.429653	1.000762
458.802628	0.999713
459.175542	0.999100
459.548398	1.000310
459.921194	1.000141
460.293930	0.999840
460.666607	0.999543
461.039224	0.999293
461.411782	1.000583
461.784280	0.999843
462.156719	1.000761
462.529099	1.000588
462.901419	1.000071
463.273680	1.000218
463.645882	1.000474
464.018024	1.000536
464.390106	1.000225
464.762130	1.000712
465.134094	1.000188
465.505999	1.000382
465.877845	1.000656
466.249631	1.000819
466.621358	1.000090
466.993026	0.999751
467.364634	1.000010
467.736184	1.000714
468.107674	1.000268
468.479105	0.999684
468.850477	0.999879
469.221790	1.000385
469.593043	0.999567
469.964238	1.001024
470.335373	0.999691
470.706449	1.000017
471.077467	1.000335
471.448425	1.000526
471.819324	1.001371
472.190164	0.999789
472.560945	1.000169
472.931667	1.000117
473.302330	0.999852
473.672934	1.000158
474.043479	1.000611
474.413965	1.000104
474.784393	1.000736
475.154761	1.000177
475.525070	0.999942
475.895321	1.000502
476.265513	1.000203
476.635645	1.000063
477.005719	0.999929
477.375734	1.000142
477.745691	1.000246
478.115588	1.000479
478.485427	1.000468
478.855207	1.000582
479.224928	1.000381
479.594591	1.000460
479.964194	1.000970
480.333739	1.000025
480.703226	1.000327
481.072653	1.001415
481.442022	1.001011
481.811333	0.999413
482.180584	1.000919
482.549777	0.999725
482.918912	1.000600
483.287988	1.000591
483.657005	1.000895
484.025964	1.000513
484.394864	1.000531
484.763706	1.000932
485.132489	1.000542
485.501213	1.000415
485.869879	1.000225
486.238487	1.000624
486.607036	1.000814
486.975527	1.000030
487.343959	1.000256
487.712333	0.999857
488.080648	1.000351
488.448905	1.000288
488.817104	1.000401
489.185244	1.000177
489.553326	1.000262
489.921350	1.000110
490.289315	1.000590
490.657222	1.000712
491.025070	1.000652
491.392861	1.000966
491.760593	1.000927
492.128267	1.000276
492.495883	1.000119
492.863440	1.000730
493.230939	1.000568
493.598380	1.000502
493.965763	1.000082
494.333088	1.000697
494.700354	1.000232
495.067563	1.000525
495.434713	0.999435
495.801805	1.000877
496.168839	1.000090
496.535815	0.999972
496.902733	0.999814
497.269593	0.999922
497.636395	1.000412
498.003139	1.000119
498.369825	1.001135
498.736453	0.999966
499.103023	0.999465
499.469535	0.999994
499.835989	0.999356
500.202385	1.000787
500.568723	1.000065
500.935003	1.000804
501.301226	1.000241
501.667390	0.999767
502.033497	1.000761
502.399546	1.000820
502.765537	0.999776
503.131470	1.000218
503.497345	0.999251
503.863163	1.000965
504.228923	1.000023
504.594625	0.999898
504.960269	1.000396
505.325856	1.000520
505.691385	0.999846
506.056856	1.000050
506.422270	0.999751
506.787625	1.000000
507.152924	1.000000
507.518164	0.999661
507.883347	1.000400
508.248472	0.999667
508.613540	1.000347
508.978550	1.000328
509.343503	0.999537
509.708398	1.000185
510.073236	1.000420
510.438016	0.999890
510.802738	1.000243
511.167403	0.999967
511.532010	1.000467
511.896561	0.999374
512.261053	1.001267
512.625488	1.000399
512.989866	0.999645
513.354186	0.999511
513.718449	0.999902
514.082655	0.999583
514.446803	1.000213
514.810894	1.000294
515.174927	0.999890
515.538904	0.999686
515.902822	1.000015
516.266684	1.000544
516.630488	1.000503
516.994235	0.999369
517.357925	0.999489
517.721558	0.999835
518.085133	0.998568
518.448651	1.000220
518.812112	0.999603
519.175516	0.999574
519.538863	1.000206
519.902152	0.999752
520.265385	0.999146
520.628560	0.999150
520.991678	1.000406
521.354739	0.999191
521.717743	0.999926
522.080690	0.999867
522.443580	0.999277
522.806413	0.999388
523.169189	0.999072
523.531908	0.999457
523.894569	0.998924
524.257174	0.999870
524.619722	0.999838
524.982213	0.999849
525.344647	0.999599
525.707025	0.998611
526.069345	0.998678
526.431608	0.999557
526.793815	0.999485
527.155964	0.999462
527.518057	0.999301
527.880093	0.999487
528.242072	0.999133
528.603995	0.998812
528.965860	0.999783
529.327669	0.998969
529.689421	0.998783
530.051117	0.999556
530.412755	0.998840
530.774337	0.999457
531.135862	0.998729
531.497331	0.999204
531.858743	0.999074
532.220098	0.999333
532.581396	0.998813
532.942638	0.999534
533.303824	0.998692
533.664953	0.998756
534.026025	0.998928
534.387040	0.999374
534.747999	0.999042
535.108902	0.999396
535.469748	0.998299
535.830537	0.998179
536.191270	0.998523
536.551947	0.998358
536.912567	0.998913
537.273131	0.999153
537.633638	0.997941
537.994089	0.998439
538.354483	0.998797
538.714821	0.998960
539.075103	0.998210
539.435328	0.998784
539.795497	0.998259
540.155609	0.998236
540.515665	0.998505
540.875665	0.998313
541.235609	0.998555
541.595496	0.997846
541.955328	0.997575
542.315102	0.998656
542.674821	0.998276
543.034483	0.998183
543.394090	0.997899
543.753640	0.998655
544.113134	0.998243
544.472571	0.998516
544.831953	0.997483
545.191278	0.998065
545.550548	0.998823
545.909761	0.997664
546.268918	0.998777
546.628019	0.998548
546.987064	0.997976
547.346053	0.998673
547.704986	0.998452
548.063863	0.998198
548.422684	0.998669
548.781449	0.998217
549.140158	0.997461
549.498811	0.998400
549.857408	0.997974
550.215949	0.998076
550.574434	0.998286
550.932864	0.997810
551.291237	0.997903
551.649555	0.997839
552.007817	0.997627
552.366022	0.997705
552.724173	0.998132
553.082267	0.997780
553.440305	0.997922
553.798288	0.997971
554.156215	0.997761
554.514086	0.998441
554.871902	0.997728
555.229661	0.997832
555.587365	0.997742
555.945014	0.998376
556.302606	0.997275
556.660143	0.997253
557.017625	0.997123
557.375050	0.997350
557.732421	0.997540
558.089735	0.998404
558.446994	0.998219
558.804197	0.997909
559.161345	0.998260
559.518437	0.997992
559.875474	0.997162
560.232455	0.997098
560.589381	0.997991
560.946251	0.996333
561.303065	0.996840
561.659825	0.996541
562.016528	0.996733
562.373177	0.996490
562.729770	0.996993
563.086307	0.997066
563.442789	0.997013
563.799216	0.996510
564.155587	0.996202
564.511904	0.995897
564.868164	0.996122
565.224370	0.996859
565.580520	0.995774
565.936615	0.996294
566.292654	0.995694
566.648638	0.995914
567.004567	0.995448
567.360441	0.996203
567.716260	0.995876
568.072023	0.996081
568.427732	0.995069
568.783385	0.996351
569.138982	0.995245
569.494525	0.995282
569.850013	0.994706
570.205445	0.994470
570.560823	0.994500
570.916145	0.994280
571.271412	0.994302
571.626625	0.994441
571.981782	0.994023
572.336884	0.994890
572.691931	0.993689
573.046923	0.993167
573.401860	0.993590
573.756743	0.993045
574.111570	0.993096
574.466342	0.993499
574.821059	0.992557
575.175722	0.992693
575.530330	0.992217
575.884882	0.991797
576.239380	0.992475
576.593823	0.991400
576.948211	0.990722
577.302544	0.991084
577.656823	0.990525
578.011047	0.990951
578.365216	0.989673
578.719330	0.989033
579.073389	0.989815
579.427394	0.989212
579.781344	0.988909
580.135239	0.988781
580.489080	0.988139
580.842866	0.987572
581.196597	0.986819
581.550273	0.986119
581.903895	0.986675
582.257463	0.985787
582.610975	0.985359
582.964434	0.985288
583.317837	0.985401
583.671186	0.984886
584.024481	0.983346
584.377721	0.982740
584.730906	0.982903
585.084037	0.982471
585.437113	0.982360
585.790135	0.980978
586.143103	0.980319
586.496016	0.980078
586.848874	0.978989
587.201679	0.978633
587.554428	0.977840
587.907124	0.976845
588.259765	0.976934
588.612352	0.976516
588.964884	0.975404
589.317362	0.975206
589.669786	0.973969
590.022155	0.973585
590.374470	0.972563
590.726731	0.972607
591.078937	0.970811
591.431090	0.970153
591.783188	0.969189
592.135232	0.968826
592.487222	0.968177
592.839157	0.966764
593.191038	0.966472
593.542866	0.965483
593.894639	0.965079
594.246358	0.963332
594.598022	0.962455
594.949633	0.961888
595.301190	0.959833
595.652692	0.959709
596.004141	0.959328
596.355535	0.957932
596.706876	0.956728
597.058162	0.955748
597.409395	0.954462
597.760573	0.953136
598.111698	0.952110
598.462768	0.950575
598.813785	0.950598
599.164748	0.948826
599.515657	0.947752
599.866511	0.946407
600.217312	0.945754
600.568060	0.944877
600.918753	0.942595
601.269392	0.941804
601.619978	0.939562
601.970510	0.938700
602.320988	0.937548
602.671412	0.935125
603.021783	0.934342
603.372100	0.934063
603.722363	0.931828
604.072572	0.930262
604.422728	0.928750
604.772830	0.926559
605.122878	0.925199
605.472872	0.924292
605.822813	0.922063
606.172701	0.920883
606.522534	0.919667
606.872314	0.917289
607.222041	0.915253
607.571714	0.914370
607.921333	0.911389
608.270899	0.909606
608.620411	0.908735
608.969870	0.907724
609.319276	0.904430
609.668627	0.903545
610.017926	0.900599
610.367171	0.898376
610.716362	0.897269
611.065500	0.894813
611.414585	0.891613
611.763616	0.890918
612.112594	0.888420
612.461518	0.886009
612.810389	0.883409
613.159207	0.882117
613.507971	0.879947
613.856682	0.877969
614.205340	0.876278
614.553945	0.872317
614.902496	0.871423
615.250994	0.869348
615.599439	0.867363
615.947830	0.864038
616.296169	0.862536
616.644454	0.859366
616.992686	0.858173
617.340864	0.854496
617.688990	0.852953
618.037063	0.850196
618.385082	0.848139
618.733048	0.844877
619.080961	0.844010
619.428821	0.841224
619.776628	0.837847
620.124382	0.836003
620.472083	0.832656
620.819731	0.831177
621.167326	0.830000
621.514868	0.827673
621.862357	0.827299
622.209793	0.825401
622.557176	0.822198
622.904506	0.821031
623.251783	0.819696
623.599007	0.818719
623.946179	0.815516
624.293297	0.813663
624.640363	0.813619
624.987376	0.811189
625.334336	0.810145
625.681243	0.807696
626.028097	0.806091
626.374899	0.805095
626.721647	0.801345
627.068343	0.800872
627.414987	0.798539
627.761577	0.795804
628.108115	0.793624
628.454600	0.793256
628.801032	0.788842
629.147412	0.789111
629.493739	0.786203
629.840014	0.784566
630.186236	0.781478
630.532405	0.780963
630.878521	0.777915
631.224585	0.776016
631.570597	0.775385
631.916556	0.771696
632.262462	0.769799
632.608316	0.767680
632.954117	0.766263
633.299866	0.764768
633.645562	0.761380
633.991206	0.761820
634.336797	0.760041
634.682336	0.758893
635.027823	0.757289
635.373257	0.755605
635.718639	0.753811
636.063968	0.751033
636.409245	0.751954
636.754470	0.749049
637.099642	0.748822
637.444762	0.747707
637.789829	0.744276
638.134845	0.743640
638.479808	0.742219
638.824719	0.740023
639.169577	0.739988
639.514383	0.736873
639.859137	0.736078
640.203839	0.735322
640.548489	0.732264
640.893086	0.731055
641.237632	0.729334
641.582125	0.725728
641.926566	0.724445
642.270955	0.722905
642.615292	0.721214
642.959576	0.717761
643.303809	0.716972
643.647990	0.713709
643.992118	0.711667
644.336195	0.712209
644.680219	0.708089
645.024192	0.707889
645.368112	0.701475
645.711981	0.699931
646.055797	0.695622
646.399562	0.693994
646.743274	0.686727
647.086935	0.684533
647.430544	0.682220
647.774101	0.678533
648.117606	0.677711
648.461059	0.675477
648.804460	0.674232
649.147810	0.675359
649.491108	0.674240
649.834354	0.672668
650.177548	0.673944
650.520690	0.674384
650.863781	0.673272
651.206820	0.670022
651.549807	0.670910
651.892742	0.671048
652.235626	0.668931
652.578458	0.667561
652.921238	0.668417
653.263967	0.666252
653.606644	0.666934
653.949269	0.664054
654.291843	0.664837
654.634365	0.660841
654.976836	0.660672
655.319255	0.659303
655.661622	0.658206
656.003938	0.655932
656.346203	0.657113
656.688416	0.653247
657.030577	0.653390
657.372687	0.652833
657.714746	0.651911
658.056753	0.648271
658.398708	0.648922
658.740612	0.648773
659.082465	0.643645
659.424266	0.643150
659.766016	0.639899
660.107715	0.639325
660.449362	0.637926
660.790958	0.636232
661.132503	0.634248
661.473996	0.631610
661.815438	0.630814
662.156829	0.629086
662.498168	0.628446
662.839456	0.628044
663.180693	0.624259
663.521879	0.623120
663.863013	0.621567
664.204097	0.619028
664.545129	0.615033
664.886110	0.613942
665.227040	0.609162
665.567918	0.611016
665.908746	0.607273
666.249522	0.605385
666.590248	0.605639
666.930922	0.602428
667.271545	0.600157
667.612118	0.598893
667.952639	0.598462
668.293109	0.594835
668.633528	0.596077
668.973896	0.593746
669.314213	0.592796
669.654480	0.592445
669.994695	0.590881
670.334859	0.589565
670.674973	0.588102
671.015035	0.587579
671.355047	0.584920
671.695008	0.585158
672.034918	0.585372
672.374777	0.583416
672.714585	0.582856
673.054342	0.582441
673.394049	0.580770
673.733705	0.576863
674.073310	0.576325
674.412864	0.578161
674.752368	0.576458
675.091820	0.575487
675.431223	0.578051
675.770574	0.575557
676.109875	0.577148
676.449125	0.575026
676.788324	0.574884
677.127473	0.578293
677.466571	0.576613
677.805619	0.576047
678.144616	0.576046
678.483562	0.576060
678.822458	0.576801
679.161303	0.576741
679.500098	0.575879
679.838842	0.576044
680.177535	0.575135
680.516179	0.572704
680.854771	0.570810
681.193314	0.564694
681.531805	0.557711
681.870247	0.548108
682.208638	0.540943
682.546978	0.538624
682.885268	0.538841
683.223508	0.543293
683.561697	0.544411
683.899836	0.545933
684.237925	0.547814
684.575963	0.549101
684.913951	0.551280
685.251889	0.546052
685.589776	0.547639
685.927614	0.549566
686.265401	0.543274
686.603137	0.544413
686.940824	0.538947
687.278460	0.537067
687.616046	0.536416
687.953582	0.531761
688.291068	0.532747
688.628504	0.527950
688.965889	0.529189
689.303224	0.531254
689.640510	0.533615
689.977745	0.536491
690.314930	0.541913
690.652065	0.544145
690.989150	0.549373
691.326185	0.552731
691.663170	0.555333
692.000105	0.560850
692.336990	0.565183
692.673825	0.565787
693.010610	0.571314
693.347345	0.575840
693.684030	0.575359
694.020665	0.578608
694.357251	0.585066
694.693786	0.584828
695.030272	0.587914
695.366707	0.589259
695.703093	0.592176
696.039429	0.589471
696.375716	0.589821
696.711952	0.592283
697.048139	0.593201
697.384276	0.594789
697.720363	0.592994
698.056400	0.591190
698.392388	0.596248
698.728326	0.598747
699.064214	0.600145
699.400053	0.599909
699.735842	0.602192
700.071581	0.603949
700.407270	0.605502
700.742910	0.606483
701.078501	0.612782
701.414042	0.612131
701.749533	0.614530
702.084974	0.621531
702.420366	0.613839
702.755709	0.620817
703.091002	0.626788
703.426246	0.620518
703.761440	0.625365
704.096584	0.629240
704.431679	0.625353
704.766725	0.626965
705.101721	0.628382
705.436668	0.624154
705.771565	0.630946
706.106413	0.626710
706.441212	0.621702
706.775961	0.620149
707.110661	0.622847
707.445311	0.619485
707.779913	0.616292
708.114465	0.614985
708.448967	0.611492
708.783421	0.603993
709.117825	0.598708
709.452180	0.598970
709.786485	0.592646
710.120742	0.583480
710.454949	0.585678
710.789107	0.578501
711.123216	0.571104
711.457275	0.572393
711.791286	0.563861
712.125247	0.562746
712.459159	0.572746
712.793023	0.565933
713.126837	0.568256
713.460602	0.568488
713.794318	0.576423
714.127985	0.574235
714.461602	0.582838
714.795171	0.585332
715.128691	0.591551
715.462162	0.598007
715.795584	0.602181
716.128957	0.605245
716.462281	0.610782
716.795556	0.613433
717.128782	0.618262
717.461960	0.626633
717.795088	0.624237
718.128167	0.629881
718.461198	0.638357
718.794180	0.638413
719.127113	0.641044
719.459997	0.644352
719.792833	0.648707
720.125619	0.650642
720.458357	0.656084
720.791046	0.655425
721.123686	0.657866
721.456278	0.664817
721.788821	0.661619
722.121315	0.666077
722.453761	0.669697
722.786158	0.667148
723.118506	0.664243
723.450805	0.671112
723.783056	0.667717
724.115259	0.664795
724.447412	0.663743
724.779518	0.665512
725.111574	0.664711
725.443582	0.659602
725.775542	0.661222
726.107453	0.653981
726.439315	0.654470
726.771129	0.652315
727.102895	0.646203
727.434612	0.639788
727.766281	0.637888
728.097901	0.636325
728.429473	0.636304
728.760996	0.634471
729.092471	0.633933
729.423897	0.638313
729.755276	0.636327
730.086606	0.636621
730.417887	0.630802
730.749120	0.622548
731.080305	0.613010
731.411442	0.609629
731.742530	0.614026
732.073570	0.612393
732.404562	0.604982
732.735506	0.606790
733.066401	0.611013
733.397249	0.618414
733.728048	0.629933
734.058798	0.641729
734.389501	0.651196
734.720156	0.660685
735.050762	0.668746
735.381320	0.669090
735.711831	0.678095
736.042293	0.683446
736.372707	0.678299
736.703073	0.682492
737.033391	0.686029
737.363661	0.681420
737.693883	0.677084
738.024056	0.676391
738.354182	0.676781
738.684260	0.665721
739.014290	0.662932
739.344272	0.663611
739.674207	0.657210
740.004093	0.656663
740.333931	0.657374
740.663722	0.656821
740.993464	0.657196
741.323159	0.661288
741.652806	0.665223
741.982405	0.669921
742.311956	0.674454
742.641460	0.676186
742.970915	0.679350
743.300323	0.686306
743.629683	0.692931
743.958996	0.694044
744.288260	0.699083
744.617477	0.704137
744.946647	0.705293
745.275768	0.710040
745.604842	0.710503
745.933869	0.720536
746.262847	0.720664
746.591778	0.714687
746.920662	0.719658
747.249498	0.726787
747.578286	0.717788
747.907027	0.714382
748.235720	0.715496
748.564365	0.710168
748.892963	0.709283
749.221514	0.712452
749.550017	0.717046
749.878473	0.717038
750.206881	0.722392
750.535242	0.724297
750.863555	0.724182
751.191821	0.726020
751.520039	0.727913
751.848210	0.733554
752.176334	0.725310
752.504411	0.724648
752.832440	0.732284
753.160421	0.736543
753.488356	0.734061
753.816243	0.732157
754.144082	0.740167
754.471875	0.743982
754.799620	0.739458
755.127318	0.741118
755.454969	0.740552
755.782572	0.740417
756.110129	0.744225
756.437638	0.747706
756.765100	0.744500
757.092515	0.742396
757.419882	0.741335
757.747203	0.746544
758.074477	0.746110
758.401703	0.742916
758.728882	0.737407
759.056014	0.736882
759.383099	0.735183
759.710138	0.737030
760.037129	0.733423
760.364073	0.727495
760.690970	0.730081
761.017820	0.735779
761.344623	0.730747
761.671379	0.722358
761.998088	0.710222
762.324751	0.688335
762.651366	0.647785
762.977935	0.582558
763.304456	0.531235
763.630931	0.521891
763.957359	0.560127
764.283740	0.603909
764.610074	0.630079
764.936362	0.660292
765.262602	0.687069
765.588796	0.706866
765.914943	0.724865
766.241044	0.743063
766.567097	0.748373
766.893104	0.758007
767.219064	0.764375
767.544978	0.770330
767.870845	0.784308
768.196665	0.788288
768.522438	0.785360
768.848165	0.787188
769.173846	0.795732
769.499479	0.799797
769.825066	0.803542
770.150607	0.808785
770.476101	0.803665
770.801548	0.804539
771.126949	0.816443
771.452303	0.819350
771.777611	0.819350
772.102872	0.817581
772.428087	0.823516
772.753256	0.826721
773.078378	0.828863
773.403453	0.837353
773.728482	0.841313
774.053465	0.835006
774.378401	0.838534
774.703291	0.846797
775.028135	0.845884
775.352932	0.847358
775.677683	0.851281
776.002388	0.851842
776.327046	0.849939
776.651658	0.854136
776.976224	0.856720
777.300743	0.856934
777.625216	0.860034
777.949643	0.861752
778.274024	0.861304
778.598359	0.862289
778.922647	0.860685
779.246889	0.861497
779.571086	0.866064
779.895236	0.868448
780.219339	0.865781
780.543397	0.862366
780.867409	0.860309
781.191374	0.862204
781.515294	0.863591
781.839167	0.862774
782.162995	0.867018
782.486776	0.864330
782.810511	0.865089
783.134201	0.867977
783.457844	0.866304
783.781441	0.868708
784.104993	0.874355
784.428498	0.874861
784.751958	0.870568
785.075372	0.871781
785.398739	0.877109
785.722061	0.873420
786.045337	0.868254
786.368568	0.873622
786.691752	0.874876
787.014891	0.861999
787.337983	0.853246
787.661030	0.846380
787.984031	0.829023
788.306987	0.815540
788.629897	0.817655
788.952760	0.820882
789.275579	0.826323
789.598351	0.841773
789.921078	0.854329
790.243759	0.855966
790.566395	0.861419
790.888984	0.868280
791.211529	0.872361
791.534027	0.876131
791.856480	0.877928
792.178888	0.883439
792.501249	0.885290
792.823566	0.886126
793.145836	0.886201
793.468062	0.888401
793.790241	0.888020
794.112375	0.886087
794.434464	0.882095
794.756507	0.880948
795.078505	0.881687
795.400457	0.877069
795.722364	0.864191
796.044226	0.856884
796.366042	0.856714
796.687812	0.860390
797.009538	0.856028
797.331218	0.858717
797.652852	0.863466
797.974442	0.868416
798.295986	0.867979
798.617484	0.870690
798.938938	0.874719
799.260346	0.879461
799.581709	0.882291
799.903026	0.884155
800.224299	0.884489
800.545526	0.888624
800.866708	0.892446
801.187845	0.896949
801.508936	0.895429
801.829983	0.893084
802.150984	0.896067
802.471940	0.901524
802.792851	0.901464
803.113717	0.901943
803.434538	0.899301
803.755314	0.902210
804.076045	0.903833
804.396731	0.903183
804.717372	0.903859
805.037967	0.905503
805.358518	0.902632
805.679024	0.900453
805.999485	0.900322
806.319901	0.901146
806.640272	0.901707
806.960598	0.900262
807.280879	0.896399
807.601115	0.896758
807.921306	0.899306
808.241453	0.900375
808.561554	0.897200
808.881611	0.897012
809.201623	0.899595
809.521590	0.899278
809.841513	0.900830
810.161390	0.899819
810.481223	0.901888
810.801011	0.903898
811.120755	0.906304
811.440453	0.905344
811.760107	0.904930
812.079716	0.904245
812.399281	0.906910
812.718801	0.909296
813.038276	0.911242
813.357707	0.910683
813.677093	0.907232
813.996434	0.910503
814.315731	0.913190
814.634983	0.912160
814.954191	0.912543
815.273354	0.908619
815.592473	0.904708
815.911547	0.905424
816.230577	0.902197
816.549562	0.899910
816.868502	0.900614
817.187399	0.897436
817.506250	0.892192
817.825058	0.894275
818.143821	0.890025
818.462539	0.885397
818.781213	0.878156
819.099843	0.866583
819.418429	0.851011
819.736970	0.835045
820.055466	0.816193
820.373919	0.790914
820.692327	0.758730
821.010691	0.725566
821.329011	0.650416
821.647286	0.538714
821.965517	0.426627
822.283704	0.385209
822.601847	0.387175
822.919945	0.422262
823.237999	0.454713
823.556010	0.499313
823.873976	0.554399
824.191897	0.603206
824.509775	0.644720
824.827609	0.689454
825.145398	0.711822
825.463144	0.714828
825.780845	0.697012
826.098502	0.678316
826.416116	0.634635
826.733685	0.591401
827.051210	0.583415
827.368692	0.597651
827.686129	0.633902
828.003522	0.685551
828.320872	0.732450
828.638177	0.775095
828.955439	0.806846
829.272656	0.828372
829.589830	0.844148
829.906960	0.860370
830.224046	0.871966
830.541088	0.881834
830.858086	0.886863
831.175041	0.892352
831.491952	0.891768
831.808819	0.888681
832.125642	0.881162
832.442421	0.867404
832.759157	0.845697
833.075849	0.801528
833.392497	0.739370
833.709101	0.699388
834.025662	0.708410
834.342179	0.739838
834.658653	0.778146
834.975083	0.812488
835.291469	0.838405
835.607811	0.859665
835.924110	0.875217
836.240366	0.891461
836.556578	0.905978
836.872746	0.913066
837.188871	0.918148
837.504952	0.923500
837.820990	0.927343
838.136984	0.930048
838.452935	0.933324
838.768842	0.935258
839.084706	0.927796
839.400526	0.903065
839.716303	0.865105
840.032037	0.842529
840.347727	0.847051
840.663373	0.863654
840.978977	0.884521
841.294537	0.907225
841.610054	0.922158
841.925527	0.929495
842.240957	0.936715
842.556344	0.942971
842.871687	0.948758
843.186987	0.952947
843.502244	0.952373
843.817458	0.954177
844.132629	0.958681
844.447756	0.963464
844.762840	0.964107
845.077881	0.962423
845.392879	0.963183
845.707833	0.965256
846.022745	0.968459
846.337613	0.968538
846.652438	0.968773
846.967221	0.966977
847.281960	0.968358
847.596656	0.969876
847.911309	0.967666
848.225919	0.970562
848.540485	0.970434
848.855009	0.971922
849.169490	0.971612
849.483928	0.971491
849.798323	0.970919
850.112675	0.972656
850.426984	0.971595
850.741251	0.972918
851.055474	0.972913
851.369654	0.969997
851.683792	0.972078
851.997887	0.972212
852.311938	0.973540
852.625947	0.972563
852.939914	0.970784
853.253837	0.971881
853.567718	0.973278
853.881555	0.972887
854.195350	0.970644
854.509103	0.972830
854.822812	0.973098
855.136479	0.973477
855.450103	0.972616
855.763685	0.971135
856.077224	0.971283
856.390720	0.972417
856.704173	0.972627
857.017584	0.971357
857.330953	0.969602
857.644278	0.970385
857.957561	0.971556
858.270802	0.972098
858.584000	0.970377
858.897155	0.969688
859.210268	0.970740
859.523339	0.970780
859.836367	0.972493
860.149352	0.971948
860.462295	0.971203
860.775195	0.971543
861.088054	0.971838
861.400869	0.971553
861.713642	0.972725
862.026373	0.972829
862.339062	0.972896
862.651708	0.971216
862.964312	0.969821
863.276873	0.971854
863.589392	0.971343
863.901869	0.969037
864.214303	0.967171
864.526696	0.967098
864.839045	0.965938
865.151353	0.963498
865.463619	0.965008
865.775842	0.965067
866.088023	0.966137
866.400162	0.963366
866.712258	0.965373
867.024313	0.966847
867.336325	0.966422
867.648296	0.965983
867.960224	0.964631
868.272110	0.964998
868.583954	0.966375
868.895755	0.967124
869.207515	0.964835
869.519233	0.962638
869.830909	0.964290
870.142542	0.965484
870.454134	0.964751
870.765684	0.964031
871.077191	0.962361
871.388657	0.963283
871.700081	0.961729
872.011463	0.962598
872.322803	0.961592
872.634101	0.960250
872.945357	0.958612
873.256571	0.956635
873.567744	0.955119
873.878874	0.957397
874.189963	0.955464
874.501010	0.954693
874.812015	0.952732
875.122979	0.956061
875.433900	0.956440
875.744780	0.957043
876.055618	0.955186
876.366415	0.954398
876.677169	0.953342
876.987882	0.954833
877.298554	0.955498
877.609183	0.951357
877.919771	0.949182
878.230317	0.946671
878.540822	0.945566
878.851285	0.939738
879.161707	0.932037
879.472087	0.920195
879.782425	0.905981
880.092722	0.872306
880.402977	0.822960
880.713191	0.765250
881.023363	0.709373
881.333494	0.677382
881.643583	0.648896
881.953631	0.647991
882.263637	0.676316
882.573602	0.715422
882.883526	0.740432
883.193408	0.762411
883.503248	0.782866
883.813048	0.808907
884.122806	0.838094
884.432522	0.860816
884.742197	0.879033
885.051831	0.888846
885.361424	0.898917
885.670975	0.909761
885.980485	0.919054
886.289954	0.925116
886.599382	0.930441
886.908768	0.933486
887.218113	0.939926
887.527417	0.943381
887.836680	0.946579
888.145901	0.947991
888.455082	0.950186
888.764221	0.954713
889.073319	0.957736
889.382376	0.957460
889.691392	0.956990
890.000366	0.957541
890.309300	0.957981
890.618193	0.957072
890.927044	0.955604
891.235855	0.957271
891.544625	0.955196
891.853353	0.956262
892.162041	0.954461
892.470687	0.947205
892.779293	0.943288
893.087858	0.940337
893.396381	0.932736
893.704864	0.918673
894.013306	0.897019
894.321707	0.871962
894.630068	0.858122
894.938387	0.853035
895.246665	0.855472
895.554903	0.867405
895.863100	0.879385
896.171256	0.895017
896.479371	0.912990
896.787446	0.926196
897.095480	0.931504
897.403473	0.933744
897.711425	0.937333
898.019336	0.944704
898.327207	0.948553
898.635038	0.949100
898.942827	0.949585
899.250576	0.953364
899.558284	0.956726
899.865952	0.958566
900.173579	0.959570
900.481165	0.960122
900.788711	0.963287
901.096216	0.965354
901.403681	0.965549
901.711105	0.967065
902.018489	0.967910
902.325832	0.966616
902.633135	0.966155
902.940397	0.960212
903.247619	0.948765
903.554800	0.924906
903.861941	0.887542
904.169041	0.855220
904.476101	0.839158
904.783121	0.839799
905.090100	0.854970
905.397039	0.874628
905.703938	0.894744
906.010796	0.913689
906.317614	0.929144
906.624391	0.940507
906.931129	0.949597
907.237826	0.956679
907.544483	0.963278
907.851099	0.967070
908.157675	0.970818
908.464211	0.973216
908.770707	0.977142
909.077163	0.976945
909.383578	0.977813
909.689954	0.977576
909.996289	0.979019
910.302584	0.980728
910.608839	0.983540
910.915054	0.982232
911.221229	0.981167
911.527363	0.980400
911.833458	0.980306
912.139513	0.980725
912.445527	0.978868
912.751502	0.978224
913.057436	0.975410
913.363331	0.973177
913.669186	0.970460
913.975000	0.965224
914.280775	0.960676
914.586510	0.954599
914.892205	0.941691
915.197859	0.921775
915.503475	0.896566
915.809050	0.878858
916.114585	0.874086
916.420081	0.871596
916.725536	0.868841
917.030952	0.876198
917.336328	0.887373
917.641665	0.901182
917.946961	0.916803
918.252218	0.926576
918.557435	0.935057
918.862612	0.943303
919.167750	0.949911
919.472848	0.951191
919.777906	0.958088
920.082925	0.962171
920.387904	0.966154
920.692843	0.966429
920.997743	0.968761
921.302603	0.971759
921.607423	0.973324
921.912204	0.976979
922.216946	0.975878
922.521647	0.975669
922.826310	0.979711
923.130932	0.979854
923.435516	0.981772
923.740059	0.983663
924.044564	0.980510
924.349028	0.983847
924.653454	0.985106
924.957840	0.987310
925.262186	0.986244
925.566493	0.986789
925.870761	0.987313
926.174989	0.988736
926.479178	0.991001
926.783328	0.990134
927.087438	0.990822
927.391509	0.990717
927.695541	0.991384
927.999533	0.991745
928.303486	0.991344
928.607400	0.994283
928.911275	0.991796
929.215110	0.991567
929.518906	0.993748
929.822663	0.992024
930.126381	0.993826
930.430060	0.991896
930.733699	0.992300
931.037299	0.991935
931.340861	0.993375
931.644383	0.992434
931.947866	0.992251
932.251309	0.991856
932.554714	0.992534
932.858080	0.993013
933.161407	0.992910
933.464694	0.993026
933.767943	0.991738
934.071153	0.992647
934.374323	0.994625
934.677455	0.993180
934.980548	0.993805
935.283602	0.993020
935.586617	0.993415
935.889593	0.992306
936.192530	0.992603
936.495428	0.993221
936.798287	0.993024
937.101108	0.992480
937.403890	0.991911
937.706632	0.991380
938.009336	0.988695
938.312002	0.988749
938.614628	0.986974
938.917216	0.986609
939.219765	0.984439
939.522275	0.986131
939.824747	0.986563
940.127179	0.986160
940.429573	0.987114
940.731929	0.987772
941.034246	0.988281
941.336524	0.988004
941.638763	0.988989
941.940964	0.988499
942.243126	0.988904
942.545250	0.990122
942.847335	0.990339
943.149381	0.990921
943.451389	0.990804
943.753359	0.991002
944.055290	0.993396
944.357182	0.992887
944.659036	0.990605
944.960851	0.990990
945.262628	0.991249
945.564367	0.992280
945.866067	0.991556
946.167729	0.993047
946.469352	0.991611
946.770937	0.991657
947.072484	0.992932
947.373992	0.992118
947.675462	0.992320
947.976893	0.991357
948.278286	0.992625
948.579641	0.992686
948.880958	0.992694
949.182236	0.993634
949.483476	0.992383
949.784678	0.992642
950.085841	0.993811
950.386967	0.993387
950.688054	0.993197
950.989103	0.992356
951.290114	0.991290
951.591087	0.992628
951.892021	0.991474
952.192917	0.991170
952.493776	0.990502
952.794596	0.991175
953.095378	0.989593
953.396122	0.989753
953.696828	0.990699
953.997496	0.991771
954.298126	0.992349
954.598718	0.993017
954.899272	0.993041
955.199788	0.992058
955.500266	0.993380
955.800706	0.995246
956.101108	0.994829
956.401472	0.994997
956.701798	0.995443
957.002087	0.995173
957.302337	0.994527
957.602550	0.997738
957.902724	0.996174
958.202861	0.996142
958.502960	0.996438
958.803022	0.994477
959.103045	0.997637
959.403031	0.996867
959.702979	0.996831
960.002889	0.996902
960.302762	0.995884
960.602596	0.997656
960.902393	0.996371
961.202153	0.998664
961.501875	0.996877
961.801559	0.996994
962.101205	0.997199
962.400814	0.996398
962.700385	0.998946
962.999918	0.997494
963.299414	0.998231
963.598873	0.996738
963.898293	0.997048
964.197677	0.997768
964.497022	0.997924
964.796331	0.999573
965.095601	0.997732
965.394835	0.998257
965.694030	0.997732
965.993189	0.998703
966.292309	0.998080
966.591393	0.998278
966.890439	0.998284
967.189447	0.998661
967.488419	0.999554
967.787353	0.998002
968.086249	0.997478
968.385108	0.998710
968.683930	0.998397
968.982714	1.000275
969.281462	0.998429
969.580172	0.997314
969.878844	0.998823
970.177480	0.997428
970.476078	0.998550
970.774639	0.997493
971.073162	0.999521
971.371649	0.997511
971.670098	0.997232
971.968510	0.998640
972.266885	0.996836
972.565223	0.997899
972.863524	0.997588
973.161788	0.997312
973.460014	0.998792
973.758204	0.997285
974.056356	0.997437
974.354471	0.995935
974.652550	0.998301
974.950591	0.997254
975.248595	0.997910
975.546563	0.998544
975.844493	0.998912
976.142386	0.997319
976.440243	0.997802
976.738062	0.997948
977.035845	0.998816
977.333590	0.998101
977.631299	0.997603
977.928971	0.997728
978.226606	0.997303
978.524204	0.996562
978.821765	0.998315
979.119290	0.997028
979.416777	0.996560
979.714228	0.998721
980.011642	0.996896
980.309020	0.997694
980.606360	0.997614
980.903664	0.998951
981.200931	0.997191
981.498162	0.996050
981.795356	0.995347
982.092513	0.994883
982.389633	0.995997
982.686717	0.992481
982.983764	0.992995
983.280775	0.991661
983.577749	0.991591
983.874686	0.993130
984.171587	0.993698
984.468451	0.996553
984.765279	0.995348
985.062070	0.994755
985.358824	0.994395
985.655543	0.995396
985.952224	0.996696
986.248869	0.997058
986.545478	0.998085
986.842050	0.999536
987.138586	0.996879
987.435086	0.997725
987.731549	1.000154
988.027975	0.998077
988.324366	0.998076
988.620719	0.998582
988.917037	0.996970
989.213318	0.998762
989.509563	0.998784
989.805772	0.999956
990.101944	1.000241
990.398080	0.998399
990.694180	0.999099
990.990244	0.997396
991.286271	0.998626
991.582262	0.998302
991.878217	0.999171
992.174136	0.998798
992.470019	1.000016
992.765865	0.997804
993.061676	0.999698
993.357450	0.997588
993.653188	0.998091
993.948890	0.997670
994.244556	0.997612
994.540186	0.998334
994.835780	0.997338
995.131337	0.997119
995.426859	0.996661
995.722345	0.998373
996.017795	0.997022
996.313208	0.997475
996.608586	0.996575
996.903928	0.997284
997.199234	0.997244
997.494504	0.997583
997.789738	0.997210
998.084936	0.997613
998.380099	0.998777
998.675225	0.997468
998.970316	0.999047
999.265371	0.998951
999.560390	0.998884
999.855373	0.998999
1000.150320	0.998692
1000.445232	0.999085
1000.740108	0.999390
1001.034948	0.998930
1001.329752	0.999261
1001.624521	1.000455
1001.919254	0.999085
1002.213951	0.998643
1002.508613	0.998707
1002.803239	0.998953
1003.097829	0.999166
1003.392384	0.999446
1003.686903	0.998178
1003.981386	0.999185
1004.275834	0.998968
1004.570246	0.999513
1004.864623	1.000178
1005.158964	1.000558
1005.453270	0.999132
1005.747540	0.998291
1006.041775	0.998459
1006.335974	0.999380
1006.630138	0.999126
1006.924266	0.999583
1007.218359	1.000214
1007.512416	0.999658
1007.806438	0.999095
1008.100425	0.999567
1008.394376	0.998221
1008.688292	0.999934
1008.982172	1.000379
1009.276017	0.998330
1009.569827	0.999205
1009.863602	0.998533
1010.157341	1.001090
1010.451045	0.999796
1010.744714	0.998952
1011.038347	0.999920
1011.331945	0.998450
1011.625508	0.998170
1011.919036	0.999234
1012.212528	0.999149
1012.505986	0.998574
1012.799408	0.999736
1013.092795	1.000252
1013.386147	0.999903
1013.679464	0.998530
1013.972745	0.998172
1014.265992	0.998234
1014.559204	0.998372
1014.852380	0.999402
1015.145521	0.999179
1015.438628	0.998694
1015.731699	0.999213
1016.024736	0.999049
1016.317737	0.999044
1016.610703	0.999442
1016.903635	0.999997
1017.196531	0.998629
1017.489393	0.999346
1017.782219	0.999625
1018.075011	0.999915
1018.367768	0.998995
1018.660490	1.000691
1018.953177	1.000691
1019.245829	1.000691
