Dividing Wavelength (nm)	Counts (n)	Blue Motor Position (mm): 0.000000	Red Motor Position (mm): 18.800000	
326.493990	1.001846
326.888308	1.001846
327.282561	1.001846
327.676750	0.999871
328.070874	0.999833
328.464933	1.000571
328.858929	1.000113
329.252859	1.000030
329.646726	1.000621
330.040528	1.000377
330.434265	0.999566
330.827938	1.001005
331.221547	1.000078
331.615091	0.999913
332.008571	0.999283
332.401986	0.999234
332.795338	0.999711
333.188625	0.998508
333.581847	1.000125
333.975006	0.999252
334.368100	0.999644
334.761129	1.000141
335.154095	1.001133
335.546996	0.997210
335.939833	0.992726
336.332606	0.993183
336.725315	0.994322
337.117960	0.996100
337.510540	0.994975
337.903056	0.995355
338.295508	0.993151
338.687896	0.994262
339.080220	0.993951
339.472480	0.993236
339.864676	0.994954
340.256807	0.994373
340.648875	0.996224
341.040879	0.993990
341.432818	0.994139
341.824694	0.993812
342.216506	0.995134
342.608253	0.994111
342.999937	0.994000
343.391557	0.993641
343.783113	0.993824
344.174605	0.994527
344.566033	0.995332
344.957397	0.993465
345.348697	0.993499
345.739934	0.994903
346.131106	0.993959
346.522215	0.994524
346.913260	0.993276
347.304241	0.994933
347.695159	0.993945
348.086012	0.992871
348.476802	0.993799
348.867528	0.994094
349.258191	0.992449
349.648789	0.994193
350.039324	0.993603
350.429796	0.994533
350.820203	0.994324
351.210548	0.994722
351.600828	0.994685
351.991045	0.993639
352.381198	0.992022
352.771288	0.994292
353.161314	0.993882
353.551276	0.993704
353.941175	0.993700
354.331010	0.992660
354.720782	0.993633
355.110490	0.993459
355.500135	0.995455
355.889717	0.994730
356.279235	0.993842
356.668689	0.993894
357.058080	0.993581
357.447408	0.994725
357.836672	0.994762
358.225873	0.993602
358.615010	0.994127
359.004084	0.994744
359.393095	0.993910
359.782043	0.993731
360.170927	0.993912
360.559748	0.994700
360.948505	0.992597
361.337199	0.994971
361.725830	0.993290
362.114398	0.994248
362.502903	0.994177
362.891344	0.995428
363.279722	0.993325
363.668037	0.994449
364.056289	0.993144
364.444478	0.994828
364.832603	0.994825
365.220665	0.993720
365.608665	0.992831
365.996601	0.993413
366.384474	0.992845
366.772284	0.994714
367.160031	0.992379
367.547715	0.993524
367.935336	0.993911
368.322893	0.993648
368.710388	0.993405
369.097820	0.994498
369.485189	0.994741
369.872495	0.993691
370.259738	0.993061
370.646918	0.994699
371.034035	0.994957
371.421090	0.993291
371.808081	0.993478
372.195010	0.994196
372.581875	0.994081
372.968678	0.994414
373.355418	0.995153
373.742096	0.993529
374.128710	0.995681
374.515262	0.993483
374.901751	0.995100
375.288177	0.994337
375.674540	0.994264
376.060841	0.993648
376.447079	0.994438
376.833254	0.994608
377.219367	0.994897
377.605417	0.995231
377.991404	0.994879
378.377329	0.993947
378.763191	0.994202
379.148991	0.995498
379.534727	0.994924
379.920402	0.994473
380.306013	0.995356
380.691563	0.995171
381.077049	0.994755
381.462474	0.995018
381.847835	0.995489
382.233134	0.994368
382.618371	0.995092
383.003545	0.994602
383.388657	0.994503
383.773706	0.995636
384.158693	0.995108
384.543618	0.995086
384.928480	0.995397
385.313280	0.995562
385.698017	0.996655
386.082692	0.995870
386.467305	0.995295
386.851856	0.994432
387.236344	0.994493
387.620770	0.994932
388.005133	0.995174
388.389435	0.995406
388.773674	0.995380
389.157851	0.995289
389.541965	0.995703
389.926018	0.993974
390.310008	0.996223
390.693936	0.994995
391.077802	0.994666
391.461606	0.994387
391.845348	0.995531
392.229027	0.996428
392.612645	0.995616
392.996200	0.996661
393.379694	0.996028
393.763125	0.995331
394.146494	0.995437
394.529801	0.994775
394.913047	0.996443
395.296230	0.995068
395.679351	0.995368
396.062410	0.995390
396.445408	0.995033
396.828343	0.994050
397.211217	0.994698
397.594028	0.995531
397.976778	0.995026
398.359466	0.994914
398.742092	0.994561
399.124656	0.994188
399.507158	0.994475
399.889598	0.994720
400.271977	0.995876
400.654294	0.995595
401.036549	0.995167
401.418742	0.995030
401.800874	0.993937
402.182944	0.995440
402.564952	0.994229
402.946898	0.994649
403.328783	0.995405
403.710606	0.993688
404.092367	0.993663
404.474067	0.994845
404.855705	0.994139
405.237282	0.993323
405.618797	0.993023
406.000250	0.990829
406.381642	0.991370
406.762972	0.989866
407.144240	0.990303
407.525447	0.988633
407.906593	0.986501
408.287677	0.984812
408.668700	0.983967
409.049661	0.981126
409.430560	0.979615
409.811399	0.977823
410.192176	0.974104
410.572891	0.971640
410.953545	0.968611
411.334138	0.964175
411.714669	0.962235
412.095139	0.959243
412.475547	0.955380
412.855894	0.951082
413.236180	0.946266
413.616405	0.943131
413.996568	0.938319
414.376670	0.933823
414.756711	0.928745
415.136691	0.923632
415.516609	0.916637
415.896466	0.910874
416.276262	0.902678
416.655997	0.898624
417.035670	0.888074
417.415283	0.880300
417.794834	0.873734
418.174324	0.869289
418.553753	0.864741
418.933121	0.851432
419.312428	0.843416
419.691674	0.836895
420.070859	0.825876
420.449983	0.820435
420.829045	0.807474
421.208047	0.803497
421.586988	0.791495
421.965867	0.781728
422.344686	0.768112
422.723444	0.765599
423.102141	0.764954
423.480777	0.743338
423.859352	0.744059
424.237866	0.722989
424.616319	0.714787
424.994712	0.701840
425.373044	0.698742
425.751314	0.682019
426.129524	0.682638
426.507673	0.664587
426.885762	0.652833
427.263789	0.646219
427.641756	0.645529
428.019662	0.629955
428.397508	0.620980
428.775292	0.615034
429.153016	0.601884
429.530679	0.600105
429.908282	0.587039
430.285824	0.587627
430.663305	0.563904
431.040726	0.572551
431.418086	0.567137
431.795385	0.554115
432.172624	0.546977
432.549802	0.541328
432.926920	0.534394
433.303977	0.528479
433.680974	0.521267
434.057910	0.514186
434.434786	0.508844
434.811601	0.506514
435.188355	0.486377
435.565050	0.490484
435.941683	0.487923
436.318257	0.469579
436.694770	0.466388
437.071222	0.460537
437.447614	0.461634
437.823946	0.464704
438.200218	0.451706
438.576429	0.458466
438.952580	0.449352
439.328670	0.444200
439.704700	0.448543
440.080670	0.447265
440.456580	0.426765
440.832429	0.432523
441.208218	0.442111
441.583947	0.430248
441.959616	0.428677
442.335224	0.432367
442.710773	0.422310
443.086261	0.419192
443.461689	0.432515
443.837057	0.421596
444.212365	0.410864
444.587612	0.417326
444.962800	0.406673
445.337927	0.407324
445.712995	0.433008
446.088002	0.395234
446.462949	0.405449
446.837837	0.409502
447.212664	0.398729
447.587431	0.389474
447.962139	0.360077
448.336786	0.319615
448.711374	0.329769
449.085901	0.372878
449.460369	0.377303
449.834776	0.380476
450.209124	0.359843
450.583412	0.352834
450.957640	0.345568
451.331808	0.356539
451.705917	0.380135
452.079965	0.384053
452.453954	0.372549
452.827883	0.379658
453.201752	0.374567
453.575562	0.385639
453.949311	0.374216
454.323001	0.380195
454.696632	0.375771
455.070202	0.368261
455.443713	0.359950
455.817164	0.355139
456.190556	0.350611
456.563888	0.347585
456.937160	0.345086
457.310373	0.362217
457.683526	0.361176
458.056619	0.366782
458.429653	0.367193
458.802628	0.369965
459.175542	0.364824
459.548398	0.347680
459.921194	0.339760
460.293930	0.340300
460.666607	0.317774
461.039224	0.306398
461.411782	0.302136
461.784280	0.301108
462.156719	0.305125
462.529099	0.309773
462.901419	0.325504
463.273680	0.330124
463.645882	0.329654
464.018024	0.334951
464.390106	0.328031
464.762130	0.313310
465.134094	0.296135
465.505999	0.265580
465.877845	0.236024
466.249631	0.222950
466.621358	0.230438
466.993026	0.244390
467.364634	0.250326
467.736184	0.259221
468.107674	0.267962
468.479105	0.266917
468.850477	0.273828
469.221790	0.280646
469.593043	0.291048
469.964238	0.295855
470.335373	0.294858
470.706449	0.293209
471.077467	0.293957
471.448425	0.255731
471.819324	0.232023
472.190164	0.231081
472.560945	0.259822
472.931667	0.282131
473.302330	0.286313
473.672934	0.298044
474.043479	0.285966
474.413965	0.287805
474.784393	0.291619
475.154761	0.286748
475.525070	0.283571
475.895321	0.289497
476.265513	0.283767
476.635645	0.278815
477.005719	0.279059
477.375734	0.275725
477.745691	0.269269
478.115588	0.265469
478.485427	0.259258
478.855207	0.246038
479.224928	0.228542
479.594591	0.216675
479.964194	0.220146
480.333739	0.221028
480.703226	0.222685
481.072653	0.221456
481.442022	0.217044
481.811333	0.213508
482.180584	0.217100
482.549777	0.222188
482.918912	0.225372
483.287988	0.225354
483.657005	0.224885
484.025964	0.231517
484.394864	0.228655
484.763706	0.229106
485.132489	0.234266
485.501213	0.234822
485.869879	0.233187
486.238487	0.236729
486.607036	0.234650
486.975527	0.238972
487.343959	0.234854
487.712333	0.233687
488.080648	0.235280
488.448905	0.234353
488.817104	0.235588
489.185244	0.230153
489.553326	0.227034
489.921350	0.216835
490.289315	0.199395
490.657222	0.194547
491.025070	0.195681
491.392861	0.197608
491.760593	0.203420
492.128267	0.208989
492.495883	0.214472
492.863440	0.220649
493.230939	0.226983
493.598380	0.228399
493.965763	0.230364
494.333088	0.232716
494.700354	0.234205
495.067563	0.233300
495.434713	0.236547
495.801805	0.234271
496.168839	0.235656
496.535815	0.237001
496.902733	0.236980
497.269593	0.238733
497.636395	0.236741
498.003139	0.236475
498.369825	0.239721
498.736453	0.236277
499.103023	0.237670
499.469535	0.237059
499.835989	0.237362
500.202385	0.238338
500.568723	0.241556
500.935003	0.236838
501.301226	0.240880
501.667390	0.235216
502.033497	0.233131
502.399546	0.236172
502.765537	0.237914
503.131470	0.236684
503.497345	0.233057
503.863163	0.241335
504.228923	0.234722
504.594625	0.233144
504.960269	0.238779
505.325856	0.233992
505.691385	0.238215
506.056856	0.235149
506.422270	0.234514
506.787625	0.237057
507.152924	0.234606
507.518164	0.234677
507.883347	0.236522
508.248472	0.238023
508.613540	0.233542
508.978550	0.235621
509.343503	0.236227
509.708398	0.234145
510.073236	0.231729
510.438016	0.231579
510.802738	0.232508
511.167403	0.231504
511.532010	0.233574
511.896561	0.228585
512.261053	0.227654
512.625488	0.229864
512.989866	0.230193
513.354186	0.230260
513.718449	0.232127
514.082655	0.228718
514.446803	0.231055
514.810894	0.228463
515.174927	0.231045
515.538904	0.230532
515.902822	0.227562
516.266684	0.229898
516.630488	0.231253
516.994235	0.229700
517.357925	0.228655
517.721558	0.227098
518.085133	0.226428
518.448651	0.226604
518.812112	0.228542
519.175516	0.228076
519.538863	0.226086
519.902152	0.227654
520.265385	0.224491
520.628560	0.226150
520.991678	0.226640
521.354739	0.225552
521.717743	0.226774
522.080690	0.227098
522.443580	0.224468
522.806413	0.225461
523.169189	0.224633
523.531908	0.223683
523.894569	0.227372
524.257174	0.227394
524.619722	0.224721
524.982213	0.226134
525.344647	0.224831
525.707025	0.225844
526.069345	0.224123
526.431608	0.225579
526.793815	0.223546
527.155964	0.227618
527.518057	0.226667
527.880093	0.227711
528.242072	0.226203
528.603995	0.228000
528.965860	0.229751
529.327669	0.228843
529.689421	0.229769
530.051117	0.230239
530.412755	0.227848
530.774337	0.230527
531.135862	0.230819
531.497331	0.229902
531.858743	0.233055
532.220098	0.229908
532.581396	0.232217
532.942638	0.232548
533.303824	0.233451
533.664953	0.233322
534.026025	0.235159
534.387040	0.233172
534.747999	0.233142
535.108902	0.231955
535.469748	0.236905
535.830537	0.234875
536.191270	0.235107
536.551947	0.234765
536.912567	0.234631
537.273131	0.236868
537.633638	0.236557
537.994089	0.237242
538.354483	0.237934
538.714821	0.235009
539.075103	0.234626
539.435328	0.235580
539.795497	0.239457
540.155609	0.235878
540.515665	0.234027
540.875665	0.239915
541.235609	0.238189
541.595496	0.238366
541.955328	0.234777
542.315102	0.237465
542.674821	0.238684
543.034483	0.238302
543.394090	0.238252
543.753640	0.240194
544.113134	0.234934
544.472571	0.238525
544.831953	0.235514
545.191278	0.239489
545.550548	0.238931
545.909761	0.235825
546.268918	0.236606
546.628019	0.234806
546.987064	0.237628
547.346053	0.238983
547.704986	0.236763
548.063863	0.237649
548.422684	0.237499
548.781449	0.239431
549.140158	0.237013
549.498811	0.239692
549.857408	0.243084
550.215949	0.237817
550.574434	0.240785
550.932864	0.238727
551.291237	0.237532
551.649555	0.238954
552.007817	0.238834
552.366022	0.239438
552.724173	0.239826
553.082267	0.240003
553.440305	0.236868
553.798288	0.241227
554.156215	0.237719
554.514086	0.238345
554.871902	0.241849
555.229661	0.241027
555.587365	0.241434
555.945014	0.244264
556.302606	0.240889
556.660143	0.243543
557.017625	0.239685
557.375050	0.242219
557.732421	0.239316
558.089735	0.241149
558.446994	0.241165
558.804197	0.240411
559.161345	0.240345
559.518437	0.243744
559.875474	0.241846
560.232455	0.241000
560.589381	0.242204
560.946251	0.242234
561.303065	0.239737
561.659825	0.241417
562.016528	0.242872
562.373177	0.245884
562.729770	0.242930
563.086307	0.244832
563.442789	0.242474
563.799216	0.245655
564.155587	0.244275
564.511904	0.245664
564.868164	0.245630
565.224370	0.245410
565.580520	0.247147
565.936615	0.247071
566.292654	0.249767
566.648638	0.247117
567.004567	0.248040
567.360441	0.248771
567.716260	0.250592
568.072023	0.248046
568.427732	0.249075
568.783385	0.251228
569.138982	0.249485
569.494525	0.248993
569.850013	0.252066
570.205445	0.250306
570.560823	0.252924
570.916145	0.254924
571.271412	0.253310
571.626625	0.254453
571.981782	0.255138
572.336884	0.255794
572.691931	0.255658
573.046923	0.257129
573.401860	0.258188
573.756743	0.259753
574.111570	0.258591
574.466342	0.259282
574.821059	0.257937
575.175722	0.260997
575.530330	0.260902
575.884882	0.261100
576.239380	0.263448
576.593823	0.264022
576.948211	0.263292
577.302544	0.266162
577.656823	0.266181
578.011047	0.266258
578.365216	0.266738
578.719330	0.268747
579.073389	0.268513
579.427394	0.269951
579.781344	0.270593
580.135239	0.271970
580.489080	0.271991
580.842866	0.274764
581.196597	0.274324
581.550273	0.273325
581.903895	0.274183
582.257463	0.272464
582.610975	0.275819
582.964434	0.275000
583.317837	0.277304
583.671186	0.277714
584.024481	0.277844
584.377721	0.280493
584.730906	0.280954
585.084037	0.280218
585.437113	0.282010
585.790135	0.281548
586.143103	0.284530
586.496016	0.285761
586.848874	0.283163
587.201679	0.283996
587.554428	0.287193
587.907124	0.286118
588.259765	0.286824
588.612352	0.286937
588.964884	0.290834
589.317362	0.290776
589.669786	0.290616
590.022155	0.289203
590.374470	0.288430
590.726731	0.290390
591.078937	0.294781
591.431090	0.291535
591.783188	0.295930
592.135232	0.296107
592.487222	0.296254
592.839157	0.294087
593.191038	0.296789
593.542866	0.298456
593.894639	0.302069
594.246358	0.300200
594.598022	0.299488
594.949633	0.303347
595.301190	0.303885
595.652692	0.303233
596.004141	0.299409
596.355535	0.307178
596.706876	0.307829
597.058162	0.310164
597.409395	0.307441
597.760573	0.305218
598.111698	0.308479
598.462768	0.308677
598.813785	0.309945
599.164748	0.311764
599.515657	0.311860
599.866511	0.314819
600.217312	0.310366
600.568060	0.315682
600.918753	0.312252
601.269392	0.312658
601.619978	0.316536
601.970510	0.313717
602.320988	0.313925
602.671412	0.311792
603.021783	0.314086
603.372100	0.315616
603.722363	0.315230
604.072572	0.316068
604.422728	0.315705
604.772830	0.317945
605.122878	0.317407
605.472872	0.317965
605.822813	0.316298
606.172701	0.318852
606.522534	0.316341
606.872314	0.316488
607.222041	0.317239
607.571714	0.315372
607.921333	0.316367
608.270899	0.316326
608.620411	0.313486
608.969870	0.317301
609.319276	0.317494
609.668627	0.317321
610.017926	0.315541
610.367171	0.314216
610.716362	0.315028
611.065500	0.315281
611.414585	0.314281
611.763616	0.314605
612.112594	0.314896
612.461518	0.314365
612.810389	0.312303
613.159207	0.314120
613.507971	0.316349
613.856682	0.311690
614.205340	0.313830
614.553945	0.310575
614.902496	0.314198
615.250994	0.312113
615.599439	0.312949
615.947830	0.312477
616.296169	0.313772
616.644454	0.312732
616.992686	0.313216
617.340864	0.310635
617.688990	0.314471
618.037063	0.311016
618.385082	0.312789
618.733048	0.309765
619.080961	0.312159
619.428821	0.311540
619.776628	0.311156
620.124382	0.313008
620.472083	0.313173
620.819731	0.312508
621.167326	0.316511
621.514868	0.316394
621.862357	0.320845
622.209793	0.320324
622.557176	0.322324
622.904506	0.323403
623.251783	0.325703
623.599007	0.328256
623.946179	0.327720
624.293297	0.329876
624.640363	0.333535
624.987376	0.333992
625.334336	0.336551
625.681243	0.338671
626.028097	0.339012
626.374899	0.340321
626.721647	0.340688
627.068343	0.343860
627.414987	0.344859
627.761577	0.347027
628.108115	0.345059
628.454600	0.350492
628.801032	0.347833
629.147412	0.350241
629.493739	0.350467
629.840014	0.353304
630.186236	0.350699
630.532405	0.356249
630.878521	0.353993
631.224585	0.356376
631.570597	0.359731
631.916556	0.357977
632.262462	0.358255
632.608316	0.360517
632.954117	0.360768
633.299866	0.362163
633.645562	0.362184
633.991206	0.366997
634.336797	0.369708
634.682336	0.371934
635.027823	0.373255
635.373257	0.374175
635.718639	0.377386
636.063968	0.377151
636.409245	0.382794
636.754470	0.382854
637.099642	0.385546
637.444762	0.388315
637.789829	0.388229
638.134845	0.391759
638.479808	0.392661
638.824719	0.391861
639.169577	0.396125
639.514383	0.394934
639.859137	0.399528
640.203839	0.399135
640.548489	0.399828
640.893086	0.401118
641.237632	0.402650
641.582125	0.400959
641.926566	0.402773
642.270955	0.402827
642.615292	0.403107
642.959576	0.402324
643.303809	0.402914
643.647990	0.402365
643.992118	0.402967
644.336195	0.406640
644.680219	0.404325
645.024192	0.406011
645.368112	0.399122
645.711981	0.398020
646.055797	0.393392
646.399562	0.395836
646.743274	0.387785
647.086935	0.385067
647.430544	0.385627
647.774101	0.384188
648.117606	0.383510
648.461059	0.384628
648.804460	0.386803
649.147810	0.391849
649.491108	0.393743
649.834354	0.395352
650.177548	0.400878
650.520690	0.406119
650.863781	0.407397
651.206820	0.407079
651.549807	0.411316
651.892742	0.414809
652.235626	0.414438
652.578458	0.414964
652.921238	0.421595
653.263967	0.419199
653.606644	0.423345
653.949269	0.422716
654.291843	0.427404
654.634365	0.424444
654.976836	0.427282
655.319255	0.427199
655.661622	0.429031
656.003938	0.429275
656.346203	0.432042
656.688416	0.429579
657.030577	0.433202
657.372687	0.435366
657.714746	0.435667
658.056753	0.433160
658.398708	0.436674
658.740612	0.437803
659.082465	0.434055
659.424266	0.434750
659.766016	0.433864
660.107715	0.436240
660.449362	0.435444
660.790958	0.436050
661.132503	0.436630
661.473996	0.434277
661.815438	0.435030
662.156829	0.435332
662.498168	0.435791
662.839456	0.437570
663.180693	0.434822
663.521879	0.435117
663.863013	0.436022
664.204097	0.434737
664.545129	0.431530
664.886110	0.431583
665.227040	0.429068
665.567918	0.431959
665.908746	0.430039
666.249522	0.429599
666.590248	0.430270
666.930922	0.429036
667.271545	0.427937
667.612118	0.427441
667.952639	0.429513
668.293109	0.428026
668.633528	0.430648
668.973896	0.430818
669.314213	0.431607
669.654480	0.432417
669.994695	0.433506
670.334859	0.434426
670.674973	0.434134
671.015035	0.434164
671.355047	0.434202
671.695008	0.435089
672.034918	0.436829
672.374777	0.436112
672.714585	0.437014
673.054342	0.437797
673.394049	0.438163
673.733705	0.435266
674.073310	0.436181
674.412864	0.439497
674.752368	0.440316
675.091820	0.440241
675.431223	0.444585
675.770574	0.444345
676.109875	0.447450
676.449125	0.447337
676.788324	0.450127
677.127473	0.455313
677.466571	0.455208
677.805619	0.456795
678.144616	0.458006
678.483562	0.459250
678.822458	0.461679
679.161303	0.463350
679.500098	0.463026
679.838842	0.465186
680.177535	0.464643
680.516179	0.463011
680.854771	0.462472
681.193314	0.455796
681.531805	0.447159
681.870247	0.435571
682.208638	0.427717
682.546978	0.427041
682.885268	0.428377
683.223508	0.434823
683.561697	0.438692
683.899836	0.441279
684.237925	0.444702
684.575963	0.446686
684.913951	0.449907
685.251889	0.446055
685.589776	0.447944
685.927614	0.450881
686.265401	0.444470
686.603137	0.445713
686.940824	0.440216
687.278460	0.438492
687.616046	0.437485
687.953582	0.432725
688.291068	0.433905
688.628504	0.429781
688.965889	0.431576
689.303224	0.436037
689.640510	0.440046
689.977745	0.445720
690.314930	0.454028
690.652065	0.458239
690.989150	0.465787
691.326185	0.472264
691.663170	0.476552
692.000105	0.483806
692.336990	0.490620
692.673825	0.493382
693.010610	0.500215
693.347345	0.505716
693.684030	0.507325
694.020665	0.511465
694.357251	0.521168
694.693786	0.520413
695.030272	0.524772
695.366707	0.527559
695.703093	0.531793
696.039429	0.529456
696.375716	0.530600
696.711952	0.533784
697.048139	0.535676
697.384276	0.537535
697.720363	0.536040
698.056400	0.535363
698.392388	0.540686
698.728326	0.543262
699.064214	0.546719
699.400053	0.546605
699.735842	0.550531
700.071581	0.553275
700.407270	0.556314
700.742910	0.558570
701.078501	0.565360
701.414042	0.565455
701.749533	0.568765
702.084974	0.577735
702.420366	0.569850
702.755709	0.577267
703.091002	0.584787
703.426246	0.578588
703.761440	0.584132
704.096584	0.589363
704.431679	0.586286
704.766725	0.588114
705.101721	0.590229
705.436668	0.586035
705.771565	0.593219
706.106413	0.589854
706.441212	0.585015
706.775961	0.584099
707.110661	0.586767
707.445311	0.582958
707.779913	0.580569
708.114465	0.579037
708.448967	0.575701
708.783421	0.567441
709.117825	0.562013
709.452180	0.562437
709.786485	0.555970
710.120742	0.545745
710.454949	0.547404
710.789107	0.540227
711.123216	0.531016
711.457275	0.533094
711.791286	0.523478
712.125247	0.522799
712.459159	0.533973
712.793023	0.526336
713.126837	0.529573
713.460602	0.530272
713.794318	0.539669
714.127985	0.538454
714.461602	0.548678
714.795171	0.551795
715.128691	0.559889
715.462162	0.566896
715.795584	0.572882
716.128957	0.575550
716.462281	0.582238
716.795556	0.585542
717.128782	0.590916
717.461960	0.600401
717.795088	0.599022
718.128167	0.604910
718.461198	0.613876
718.794180	0.614236
719.127113	0.617367
719.459997	0.620754
719.792833	0.626654
720.125619	0.628382
720.458357	0.633911
720.791046	0.633282
721.123686	0.637134
721.456278	0.644453
721.788821	0.641234
722.121315	0.645214
722.453761	0.649827
722.786158	0.647832
723.118506	0.643595
723.450805	0.651068
723.783056	0.647767
724.115259	0.644795
724.447412	0.645059
724.779518	0.645952
725.111574	0.644509
725.443582	0.641480
725.775542	0.643016
726.107453	0.634607
726.439315	0.634231
726.771129	0.632813
727.102895	0.626171
727.434612	0.619321
727.766281	0.617857
728.097901	0.616170
728.429473	0.617012
728.760996	0.615393
729.092471	0.614160
729.423897	0.618362
729.755276	0.617709
730.086606	0.618425
730.417887	0.612848
730.749120	0.603388
731.080305	0.595065
731.411442	0.590072
731.742530	0.595631
732.073570	0.593895
732.404562	0.585964
732.735506	0.587715
733.066401	0.592698
733.397249	0.601332
733.728048	0.613197
734.058798	0.625582
734.389501	0.636580
734.720156	0.646107
735.050762	0.653132
735.381320	0.654677
735.711831	0.664634
736.042293	0.669226
736.372707	0.664915
736.703073	0.669600
737.033391	0.671874
737.363661	0.669004
737.693883	0.663407
738.024056	0.663335
738.354182	0.663138
738.684260	0.652784
739.014290	0.648884
739.344272	0.649771
739.674207	0.643639
740.004093	0.642798
740.333931	0.642548
740.663722	0.642074
740.993464	0.643590
741.323159	0.647002
741.652806	0.652455
741.982405	0.657533
742.311956	0.661233
742.641460	0.664027
742.970915	0.666306
743.300323	0.675044
743.629683	0.681237
743.958996	0.683554
744.288260	0.686643
744.617477	0.694155
744.946647	0.694424
745.275768	0.700908
745.604842	0.700712
745.933869	0.710513
746.262847	0.711022
746.591778	0.704928
746.920662	0.711413
747.249498	0.717078
747.578286	0.708427
747.907027	0.703483
748.235720	0.704774
748.564365	0.700418
748.892963	0.699776
749.221514	0.703267
749.550017	0.707688
749.878473	0.707328
750.206881	0.714120
750.535242	0.715660
750.863555	0.714568
751.191821	0.716226
751.520039	0.719767
751.848210	0.724308
752.176334	0.716513
752.504411	0.715962
752.832440	0.723856
753.160421	0.727752
753.488356	0.725899
753.816243	0.723507
754.144082	0.732722
754.471875	0.735606
754.799620	0.731240
755.127318	0.732310
755.454969	0.731944
755.782572	0.731314
756.110129	0.736432
756.437638	0.738914
756.765100	0.735872
757.092515	0.733388
757.419882	0.731621
757.747203	0.737695
758.074477	0.736941
758.401703	0.733816
758.728882	0.729115
759.056014	0.728280
759.383099	0.728517
759.710138	0.728813
760.037129	0.724586
760.364073	0.719287
760.690970	0.721480
761.017820	0.726835
761.344623	0.722627
761.671379	0.713895
761.998088	0.701527
762.324751	0.679162
762.651366	0.637894
762.977935	0.570597
763.304456	0.518034
763.630931	0.509190
763.957359	0.547190
764.283740	0.593367
764.610074	0.619413
764.936362	0.651277
765.262602	0.676673
765.588796	0.698703
765.914943	0.716651
766.241044	0.734501
766.567097	0.740631
766.893104	0.750973
767.219064	0.756328
767.544978	0.763732
767.870845	0.777126
768.196665	0.782037
768.522438	0.778637
768.848165	0.780732
769.173846	0.789277
769.499479	0.794188
769.825066	0.797327
770.150607	0.802103
770.476101	0.797557
770.801548	0.798506
771.126949	0.810560
771.452303	0.813941
771.777611	0.813018
772.102872	0.811308
772.428087	0.817983
772.753256	0.820193
773.078378	0.823311
773.403453	0.832104
773.728482	0.836287
774.053465	0.830394
774.378401	0.832773
774.703291	0.841144
775.028135	0.839969
775.352932	0.843553
775.677683	0.845377
776.002388	0.846810
776.327046	0.845340
776.651658	0.848700
776.976224	0.852374
777.300743	0.852077
777.625216	0.855744
777.949643	0.856352
778.274024	0.856227
778.598359	0.858824
778.922647	0.856853
779.246889	0.857626
779.571086	0.861055
779.895236	0.864865
780.219339	0.859595
780.543397	0.857899
780.867409	0.856490
781.191374	0.858831
781.515294	0.860046
781.839167	0.859481
782.162995	0.861646
782.486776	0.859265
782.810511	0.859975
783.134201	0.864068
783.457844	0.861931
783.781441	0.863199
784.104993	0.870034
784.428498	0.870806
784.751958	0.865576
785.075372	0.868193
785.398739	0.872550
785.722061	0.869038
786.045337	0.864379
786.368568	0.868294
786.691752	0.871067
787.014891	0.856357
787.337983	0.847521
787.661030	0.841566
787.984031	0.824160
788.306987	0.810331
788.629897	0.812715
788.952760	0.816012
789.275579	0.821774
789.598351	0.836340
789.921078	0.848865
790.243759	0.850277
790.566395	0.856510
790.888984	0.863259
791.211529	0.867734
791.534027	0.871421
791.856480	0.874253
792.178888	0.878830
792.501249	0.880978
792.823566	0.881907
793.145836	0.882381
793.468062	0.883091
793.790241	0.884941
794.112375	0.882527
794.434464	0.877626
794.756507	0.876491
795.078505	0.877656
795.400457	0.871476
795.722364	0.860111
796.044226	0.852928
796.366042	0.851487
796.687812	0.855348
797.009538	0.851193
797.331218	0.854571
797.652852	0.858804
797.974442	0.863768
798.295986	0.863696
798.617484	0.866242
798.938938	0.870234
799.260346	0.876716
799.581709	0.876355
799.903026	0.879476
800.224299	0.880289
800.545526	0.884538
800.866708	0.888000
801.187845	0.891952
801.508936	0.891563
801.829983	0.890408
802.150984	0.893376
802.471940	0.897000
802.792851	0.895452
803.113717	0.898090
803.434538	0.895875
803.755314	0.897890
804.076045	0.900115
804.396731	0.900201
804.717372	0.899551
805.037967	0.901186
805.358518	0.898601
805.679024	0.895552
805.999485	0.896317
806.319901	0.897276
806.640272	0.897804
806.960598	0.895526
807.280879	0.893930
807.601115	0.891645
807.921306	0.895025
808.241453	0.895885
808.561554	0.893817
808.881611	0.893260
809.201623	0.896961
809.521590	0.896583
809.841513	0.897092
810.161390	0.895737
810.481223	0.897936
810.801011	0.900968
811.120755	0.903335
811.440453	0.901805
811.760107	0.899693
812.079716	0.900215
812.399281	0.902988
812.718801	0.905924
813.038276	0.907182
813.357707	0.906498
813.677093	0.904070
813.996434	0.906801
814.315731	0.908322
814.634983	0.908774
814.954191	0.908055
815.273354	0.904948
815.592473	0.900440
815.911547	0.900126
816.230577	0.897841
816.549562	0.895622
816.868502	0.897004
817.187399	0.892163
817.506250	0.888109
817.825058	0.888973
818.143821	0.886452
818.462539	0.880989
818.781213	0.872898
819.099843	0.861201
819.418429	0.846745
819.736970	0.829537
820.055466	0.809788
820.373919	0.784045
820.692327	0.749569
821.010691	0.715742
821.329011	0.639422
821.647286	0.523423
821.965517	0.409378
822.283704	0.366658
822.601847	0.367644
822.919945	0.403234
823.237999	0.437520
823.556010	0.484273
823.873976	0.539911
824.191897	0.590804
824.509775	0.632888
824.827609	0.679035
825.145398	0.700894
825.463144	0.703974
825.780845	0.686563
826.098502	0.668232
826.416116	0.622354
826.733685	0.578337
827.051210	0.568997
827.368692	0.584802
827.686129	0.622985
828.003522	0.675524
828.320872	0.722378
828.638177	0.766885
828.955439	0.799855
829.272656	0.821199
829.589830	0.838338
829.906960	0.853675
830.224046	0.867104
830.541088	0.877467
830.858086	0.880716
831.175041	0.887612
831.491952	0.885569
831.808819	0.883278
832.125642	0.877089
832.442421	0.861398
832.759157	0.839688
833.075849	0.793387
833.392497	0.729576
833.709101	0.689144
834.025662	0.699129
834.342179	0.729531
834.658653	0.768704
834.975083	0.805852
835.291469	0.830229
835.607811	0.854310
835.924110	0.869761
836.240366	0.887916
836.556578	0.901912
836.872746	0.908139
837.188871	0.914605
837.504952	0.920363
837.820990	0.923062
838.136984	0.927618
838.452935	0.930918
838.768842	0.931486
839.084706	0.924958
839.400526	0.899390
839.716303	0.858456
840.032037	0.835922
840.347727	0.839979
840.663373	0.857750
840.978977	0.879538
841.294537	0.902664
841.610054	0.917788
841.925527	0.926371
842.240957	0.932592
842.556344	0.940897
842.871687	0.944609
843.186987	0.950486
843.502244	0.950899
843.817458	0.951211
844.132629	0.955193
844.447756	0.960826
844.762840	0.960765
845.077881	0.959374
845.392879	0.959949
845.707833	0.962618
846.022745	0.964884
846.337613	0.964722
846.652438	0.965528
846.967221	0.964917
847.281960	0.965403
847.596656	0.968268
847.911309	0.965471
848.225919	0.967263
848.540485	0.967583
848.855009	0.969387
849.169490	0.968068
849.483928	0.969880
849.798323	0.968624
850.112675	0.969822
850.426984	0.970390
850.741251	0.968911
851.055474	0.970045
851.369654	0.968470
851.683792	0.970316
851.997887	0.969501
852.311938	0.970454
852.625947	0.969785
852.939914	0.968618
853.253837	0.969246
853.567718	0.969189
853.881555	0.970213
854.195350	0.968129
854.509103	0.969807
854.822812	0.969423
855.136479	0.970510
855.450103	0.969880
855.763685	0.967255
856.077224	0.969204
856.390720	0.970567
856.704173	0.970533
857.017584	0.969183
857.330953	0.967389
857.644278	0.968233
857.957561	0.968213
858.270802	0.968906
858.584000	0.968209
858.897155	0.966851
859.210268	0.967844
859.523339	0.968939
859.836367	0.969640
860.149352	0.970773
860.462295	0.968621
860.775195	0.969734
861.088054	0.968144
861.400869	0.969426
861.713642	0.970127
862.026373	0.970753
862.339062	0.970950
862.651708	0.968046
862.964312	0.968386
863.276873	0.968794
863.589392	0.967768
863.901869	0.966939
864.214303	0.965326
864.526696	0.963922
864.839045	0.962856
865.151353	0.962761
865.463619	0.962447
865.775842	0.961933
866.088023	0.962115
866.400162	0.961730
866.712258	0.962037
867.024313	0.963433
867.336325	0.963033
867.648296	0.963338
867.960224	0.961348
868.272110	0.961988
868.583954	0.963113
868.895755	0.964182
869.207515	0.961855
869.519233	0.960027
869.830909	0.961440
870.142542	0.962302
870.454134	0.962195
870.765684	0.960363
871.077191	0.958274
871.388657	0.958814
871.700081	0.958427
872.011463	0.958795
872.322803	0.958251
872.634101	0.957000
872.945357	0.954754
873.256571	0.952694
873.567744	0.953294
873.878874	0.951765
874.189963	0.951797
874.501010	0.951389
874.812015	0.949589
875.122979	0.952582
875.433900	0.952835
875.744780	0.953836
876.055618	0.951928
876.366415	0.950564
876.677169	0.951200
876.987882	0.950545
877.298554	0.950945
877.609183	0.947471
877.919771	0.945459
878.230317	0.942589
878.540822	0.940299
878.851285	0.935359
879.161707	0.927085
879.472087	0.915884
879.782425	0.898394
880.092722	0.865382
880.402977	0.812857
880.713191	0.751257
881.023363	0.692324
881.333494	0.658874
881.643583	0.631189
881.953631	0.630647
882.263637	0.658963
882.573602	0.699105
882.883526	0.724072
883.193408	0.747191
883.503248	0.770419
883.813048	0.797654
884.122806	0.826515
884.432522	0.850400
884.742197	0.869912
885.051831	0.880596
885.361424	0.891459
885.670975	0.903502
885.980485	0.913212
886.289954	0.919112
886.599382	0.924882
886.908768	0.926925
887.218113	0.934691
887.527417	0.939032
887.836680	0.941283
888.145901	0.944167
888.455082	0.945778
888.764221	0.950714
889.073319	0.953207
889.382376	0.952616
889.691392	0.952920
890.000366	0.952848
890.309300	0.954273
890.618193	0.953022
890.927044	0.950672
891.235855	0.951206
891.544625	0.950440
891.853353	0.951389
892.162041	0.949602
892.470687	0.942305
892.779293	0.937509
893.087858	0.933661
893.396381	0.925785
893.704864	0.913422
894.013306	0.888719
894.321707	0.861819
894.630068	0.847291
894.938387	0.842236
895.246665	0.844256
895.554903	0.856383
895.863100	0.869328
896.171256	0.887449
896.479371	0.906971
896.787446	0.918866
897.095480	0.924843
897.403473	0.928412
897.711425	0.932732
898.019336	0.940407
898.327207	0.942839
898.635038	0.945108
898.942827	0.945323
899.250576	0.948164
899.558284	0.953538
899.865952	0.954049
900.173579	0.954890
900.481165	0.954936
900.788711	0.959411
901.096216	0.961519
901.403681	0.961376
901.711105	0.963132
902.018489	0.962881
902.325832	0.961480
902.633135	0.961433
902.940397	0.954898
903.247619	0.943739
903.554800	0.918462
903.861941	0.878474
904.169041	0.842065
904.476101	0.825213
904.783121	0.826684
905.090100	0.842877
905.397039	0.863654
905.703938	0.885162
906.010796	0.906101
906.317614	0.923841
906.624391	0.933293
906.931129	0.944468
907.237826	0.951411
907.544483	0.958684
907.851099	0.962960
908.157675	0.967348
908.464211	0.969690
908.770707	0.972942
909.077163	0.973224
909.383578	0.974144
909.689954	0.974315
909.996289	0.974782
910.302584	0.977735
910.608839	0.979054
910.915054	0.978490
911.221229	0.978108
911.527363	0.976770
911.833458	0.977231
912.139513	0.976984
912.445527	0.974980
912.751502	0.974413
913.057436	0.972195
913.363331	0.970043
913.669186	0.966629
913.975000	0.960062
914.280775	0.954738
914.586510	0.947850
914.892205	0.935426
915.197859	0.913808
915.503475	0.886165
915.809050	0.866773
916.114585	0.861750
916.420081	0.858032
916.725536	0.855599
917.030952	0.863882
917.336328	0.876182
917.641665	0.892279
917.946961	0.907555
918.252218	0.919167
918.557435	0.927914
918.862612	0.936793
919.167750	0.942400
919.472848	0.947225
919.777906	0.952063
920.082925	0.958503
920.387904	0.961490
920.692843	0.962911
920.997743	0.963657
921.302603	0.967480
921.607423	0.969199
921.912204	0.972134
922.216946	0.972070
922.521647	0.972686
922.826310	0.974868
923.130932	0.975876
923.435516	0.978206
923.740059	0.979269
924.044564	0.978662
924.349028	0.979962
924.653454	0.982673
924.957840	0.984163
925.262186	0.983777
925.566493	0.983530
925.870761	0.984983
926.174989	0.985966
926.479178	0.988742
926.783328	0.989285
927.087438	0.988286
927.391509	0.987895
927.695541	0.989462
927.999533	0.988543
928.303486	0.990685
928.607400	0.992635
928.911275	0.988940
929.215110	0.989705
929.518906	0.989734
929.822663	0.988699
930.126381	0.991699
930.430060	0.990048
930.733699	0.989438
931.037299	0.988326
931.340861	0.990935
931.644383	0.989802
931.947866	0.990108
932.251309	0.990766
932.554714	0.990543
932.858080	0.990531
933.161407	0.990516
933.464694	0.990745
933.767943	0.989031
934.071153	0.991095
934.374323	0.991284
934.677455	0.990636
934.980548	0.991971
935.283602	0.991321
935.586617	0.992454
935.889593	0.990520
936.192530	0.990770
936.495428	0.991058
936.798287	0.990506
937.101108	0.990445
937.403890	0.988676
937.706632	0.989298
938.009336	0.987091
938.312002	0.985830
938.614628	0.984236
938.917216	0.982523
939.219765	0.981767
939.522275	0.981888
939.824747	0.983645
940.127179	0.983177
940.429573	0.984327
940.731929	0.983286
941.034246	0.985339
941.336524	0.984868
941.638763	0.986090
941.940964	0.985764
942.243126	0.986136
942.545250	0.986372
942.847335	0.988680
943.149381	0.988488
943.451389	0.988410
943.753359	0.988590
944.055290	0.990856
944.357182	0.990439
944.659036	0.987809
944.960851	0.988989
945.262628	0.990310
945.564367	0.991026
945.866067	0.989610
946.167729	0.989759
946.469352	0.989963
946.770937	0.989050
947.072484	0.990389
947.373992	0.989045
947.675462	0.990464
947.976893	0.990391
948.278286	0.990442
948.579641	0.991644
948.880958	0.990454
949.182236	0.990589
949.483476	0.991057
949.784678	0.991147
950.085841	0.991676
950.386967	0.991100
950.688054	0.990332
950.989103	0.990101
951.290114	0.987711
951.591087	0.990798
951.892021	0.988571
952.192917	0.989649
952.493776	0.988266
952.794596	0.987501
953.095378	0.988121
953.396122	0.988400
953.696828	0.988037
953.997496	0.990358
954.298126	0.990895
954.598718	0.990946
954.899272	0.990746
955.199788	0.990030
955.500266	0.991892
955.800706	0.993210
956.101108	0.993239
956.401472	0.993702
956.701798	0.994050
957.002087	0.993515
957.302337	0.993456
957.602550	0.994313
957.902724	0.995256
958.202861	0.994643
958.502960	0.995505
958.803022	0.993493
959.103045	0.995674
959.403031	0.995995
959.702979	0.995238
960.002889	0.996643
960.302762	0.993892
960.602596	0.996371
960.902393	0.994677
961.202153	0.996234
961.501875	0.997271
961.801559	0.995131
962.101205	0.996352
962.400814	0.996149
962.700385	0.995369
962.999918	0.996897
963.299414	0.996319
963.598873	0.995674
963.898293	0.996270
964.197677	0.996509
964.497022	0.996098
964.796331	0.997936
965.095601	0.997215
965.394835	0.996401
965.694030	0.996457
965.993189	0.997078
966.292309	0.995693
966.591393	0.997760
966.890439	0.997228
967.189447	0.996036
967.488419	0.997481
967.787353	0.996443
968.086249	0.996801
968.385108	0.996750
968.683930	0.998033
968.982714	0.997801
969.281462	0.997575
969.580172	0.996998
969.878844	0.996789
970.177480	0.996084
970.476078	0.997732
970.774639	0.996697
971.073162	0.997210
971.371649	0.996221
971.670098	0.996885
971.968510	0.997494
972.266885	0.995691
972.565223	0.996134
972.863524	0.996594
973.161788	0.995984
973.460014	0.997841
973.758204	0.995489
974.056356	0.996464
974.354471	0.994236
974.652550	0.995881
974.950591	0.997209
975.248595	0.995975
975.546563	0.995793
975.844493	0.999039
976.142386	0.996378
976.440243	0.997311
976.738062	0.996827
977.035845	0.998347
977.333590	0.996304
977.631299	0.996455
977.928971	0.996655
978.226606	0.997728
978.524204	0.995002
978.821765	0.997953
979.119290	0.996179
979.416777	0.998482
979.714228	0.998093
980.011642	0.996006
980.309020	0.996747
980.606360	0.996780
980.903664	0.998701
981.200931	0.995182
981.498162	0.994470
981.795356	0.994644
982.092513	0.994435
982.389633	0.996010
982.686717	0.992988
982.983764	0.990619
983.280775	0.990567
983.577749	0.989782
983.874686	0.992684
984.171587	0.991187
984.468451	0.993736
984.765279	0.995061
985.062070	0.994033
985.358824	0.995333
985.655543	0.994569
985.952224	0.996007
986.248869	0.997049
986.545478	0.996914
986.842050	0.998595
987.138586	0.995694
987.435086	0.996433
987.731549	0.997837
988.027975	0.998251
988.324366	0.997862
988.620719	0.997669
988.917037	0.996202
989.213318	0.997513
989.509563	0.998195
989.805772	0.998048
990.101944	0.999877
990.398080	0.997690
990.694180	0.998531
990.990244	0.997399
991.286271	0.999122
991.582262	0.999248
991.878217	0.997988
992.174136	0.998937
992.470019	0.997779
992.765865	0.997360
993.061676	0.998517
993.357450	0.998251
993.653188	0.997052
993.948890	0.997810
994.244556	0.997167
994.540186	0.997523
994.835780	0.996006
995.131337	0.997369
995.426859	0.996379
995.722345	0.997517
996.017795	0.996714
996.313208	0.995719
996.608586	0.995884
996.903928	0.995572
997.199234	0.996034
997.494504	0.996948
997.789738	0.997236
998.084936	0.995831
998.380099	0.998372
998.675225	0.996261
998.970316	0.997668
999.265371	0.997593
999.560390	0.997515
999.855373	0.998827
1000.150320	0.998223
1000.445232	0.998632
1000.740108	0.997405
1001.034948	0.997855
1001.329752	0.998020
1001.624521	0.999118
1001.919254	0.998039
1002.213951	0.997862
1002.508613	0.997685
1002.803239	0.999225
1003.097829	0.999178
1003.392384	0.999725
1003.686903	0.997240
1003.981386	0.998458
1004.275834	0.998425
1004.570246	0.998025
1004.864623	0.998568
1005.158964	0.999226
1005.453270	0.998706
1005.747540	0.997249
1006.041775	0.999024
1006.335974	0.998710
1006.630138	0.999457
1006.924266	0.998638
1007.218359	1.001034
1007.512416	0.998722
1007.806438	0.998070
1008.100425	0.997895
1008.394376	0.999224
1008.688292	0.999036
1008.982172	1.000517
1009.276017	0.999078
1009.569827	0.998555
1009.863602	0.999294
1010.157341	0.999716
1010.451045	0.998454
1010.744714	0.998357
1011.038347	0.999056
1011.331945	1.000223
1011.625508	0.997169
1011.919036	0.998984
1012.212528	0.999544
1012.505986	0.996937
1012.799408	0.999456
1013.092795	0.998946
1013.386147	0.998864
1013.679464	0.999565
1013.972745	0.999216
1014.265992	0.996693
1014.559204	0.998702
1014.852380	0.998839
1015.145521	0.999738
1015.438628	0.999303
1015.731699	0.998887
1016.024736	0.998729
1016.317737	0.997990
1016.610703	0.998143
1016.903635	0.999534
1017.196531	0.998310
1017.489393	0.999990
1017.782219	0.998623
1018.075011	0.998784
1018.367768	0.998771
1018.660490	1.000331
1018.953177	1.000331
1019.245829	1.000331
