Dividing Wavelength (nm)	Counts (n)	Blue Motor Position (mm): 0.000000	Red Motor Position (mm): 11.000000	
326.493990	1.001507
326.888308	1.001507
327.282561	1.001507
327.676750	1.000731
328.070874	1.000043
328.464933	1.000452
328.858929	0.999041
329.252859	1.000125
329.646726	0.999539
330.040528	1.000446
330.434265	1.000710
330.827938	1.000691
331.221547	1.001655
331.615091	0.999950
332.008571	1.000415
332.401986	1.000677
332.795338	1.000120
333.188625	0.998454
333.581847	1.000463
333.975006	0.999893
334.368100	0.999279
334.761129	1.000583
335.154095	1.001338
335.546996	0.997130
335.939833	0.992922
336.332606	0.994265
336.725315	0.993828
337.117960	0.995632
337.510540	0.993411
337.903056	0.994058
338.295508	0.993787
338.687896	0.994638
339.080220	0.994060
339.472480	0.993476
339.864676	0.994632
340.256807	0.994673
340.648875	0.995504
341.040879	0.995544
341.432818	0.994241
341.824694	0.994005
342.216506	0.996253
342.608253	0.994044
342.999937	0.993725
343.391557	0.993568
343.783113	0.994303
344.174605	0.994626
344.566033	0.994156
344.957397	0.993918
345.348697	0.993839
345.739934	0.995306
346.131106	0.994000
346.522215	0.993536
346.913260	0.994062
347.304241	0.993506
347.695159	0.993847
348.086012	0.993013
348.476802	0.993893
348.867528	0.993422
349.258191	0.993070
349.648789	0.994349
350.039324	0.993988
350.429796	0.995010
350.820203	0.993915
351.210548	0.993743
351.600828	0.993823
351.991045	0.994219
352.381198	0.993390
352.771288	0.994557
353.161314	0.993353
353.551276	0.994383
353.941175	0.992744
354.331010	0.993975
354.720782	0.993957
355.110490	0.993815
355.500135	0.994234
355.889717	0.993963
356.279235	0.993953
356.668689	0.993859
357.058080	0.994215
357.447408	0.994439
357.836672	0.993734
358.225873	0.994593
358.615010	0.994121
359.004084	0.994802
359.393095	0.994197
359.782043	0.994492
360.170927	0.993541
360.559748	0.994765
360.948505	0.992472
361.337199	0.993299
361.725830	0.993430
362.114398	0.993676
362.502903	0.994689
362.891344	0.993220
363.279722	0.993316
363.668037	0.994799
364.056289	0.993857
364.444478	0.995094
364.832603	0.994497
365.220665	0.993328
365.608665	0.993683
365.996601	0.992983
366.384474	0.994097
366.772284	0.993808
367.160031	0.990938
367.547715	0.991808
367.935336	0.992728
368.322893	0.993114
368.710388	0.992294
369.097820	0.992751
369.485189	0.993102
369.872495	0.991711
370.259738	0.990827
370.646918	0.992631
371.034035	0.992660
371.421090	0.991426
371.808081	0.992891
372.195010	0.991949
372.581875	0.991892
372.968678	0.992416
373.355418	0.992239
373.742096	0.991609
374.128710	0.994219
374.515262	0.991875
374.901751	0.992067
375.288177	0.992508
375.674540	0.993643
376.060841	0.992416
376.447079	0.992284
376.833254	0.992154
377.219367	0.992491
377.605417	0.992763
377.991404	0.992546
378.377329	0.992032
378.763191	0.992213
379.148991	0.992076
379.534727	0.992766
379.920402	0.992030
380.306013	0.992709
380.691563	0.992672
381.077049	0.991094
381.462474	0.991249
381.847835	0.990161
382.233134	0.988502
382.618371	0.988498
383.003545	0.986857
383.388657	0.984296
383.773706	0.983504
384.158693	0.980041
384.543618	0.978310
384.928480	0.975269
385.313280	0.970935
385.698017	0.968664
386.082692	0.964393
386.467305	0.959455
386.851856	0.954119
387.236344	0.950022
387.620770	0.943200
388.005133	0.938175
388.389435	0.932853
388.773674	0.927340
389.157851	0.919422
389.541965	0.913162
389.926018	0.909223
390.310008	0.899635
390.693936	0.891938
391.077802	0.882934
391.461606	0.876671
391.845348	0.866288
392.229027	0.859066
392.612645	0.850538
392.996200	0.837973
393.379694	0.826340
393.763125	0.814551
394.146494	0.808020
394.529801	0.794179
394.913047	0.782817
395.296230	0.777785
395.679351	0.765569
396.062410	0.754681
396.445408	0.749007
396.828343	0.736606
397.211217	0.726775
397.594028	0.727552
397.976778	0.713256
398.359466	0.703496
398.742092	0.693357
399.124656	0.696021
399.507158	0.681296
399.889598	0.672049
400.271977	0.658447
400.654294	0.657060
401.036549	0.650480
401.418742	0.649412
401.800874	0.631433
402.182944	0.625060
402.564952	0.612751
402.946898	0.610501
403.328783	0.607383
403.710606	0.614961
404.092367	0.587620
404.474067	0.589490
404.855705	0.586212
405.237282	0.591895
405.618797	0.576330
406.000250	0.569955
406.381642	0.559284
406.762972	0.561717
407.144240	0.559236
407.525447	0.557955
407.906593	0.549560
408.287677	0.544452
408.668700	0.550777
409.049661	0.543934
409.430560	0.538958
409.811399	0.546368
410.192176	0.528034
410.572891	0.533952
410.953545	0.522252
411.334138	0.535327
411.714669	0.527747
412.095139	0.539266
412.475547	0.523732
412.855894	0.525454
413.236180	0.524622
413.616405	0.529439
413.996568	0.519867
414.376670	0.525800
414.756711	0.530892
415.136691	0.527818
415.516609	0.518035
415.896466	0.514931
416.276262	0.510472
416.655997	0.512865
417.035670	0.493761
417.415283	0.486462
417.794834	0.490877
418.174324	0.495954
418.553753	0.505905
418.933121	0.486561
419.312428	0.481093
419.691674	0.487229
420.070859	0.475727
420.449983	0.483244
420.829045	0.473150
421.208047	0.481492
421.586988	0.474986
421.965867	0.473668
422.344686	0.462485
422.723444	0.474933
423.102141	0.491920
423.480777	0.465128
423.859352	0.485078
424.237866	0.462577
424.616319	0.463195
424.994712	0.454147
425.373044	0.465022
425.751314	0.452436
426.129524	0.468522
426.507673	0.453200
426.885762	0.446200
427.263789	0.451696
427.641756	0.460872
428.019662	0.451618
428.397508	0.450738
428.775292	0.455710
429.153016	0.447141
429.530679	0.453637
429.908282	0.446356
430.285824	0.456265
430.663305	0.435453
431.040726	0.456247
431.418086	0.456907
431.795385	0.447726
432.172624	0.446121
432.549802	0.447834
432.926920	0.446144
433.303977	0.445635
433.680974	0.442634
434.057910	0.441117
434.434786	0.441178
434.811601	0.442939
435.188355	0.425189
435.565050	0.435047
435.941683	0.435749
436.318257	0.421091
436.694770	0.421075
437.071222	0.419546
437.447614	0.423836
437.823946	0.430162
438.200218	0.419391
438.576429	0.429466
438.952580	0.422428
439.328670	0.419443
439.704700	0.426097
440.080670	0.426817
440.456580	0.408229
440.832429	0.416145
441.208218	0.426972
441.583947	0.415758
441.959616	0.415966
442.335224	0.420134
442.710773	0.411669
443.086261	0.409484
443.461689	0.424071
443.837057	0.413255
444.212365	0.403230
444.587612	0.410365
444.962800	0.400283
445.337927	0.401900
445.712995	0.428005
446.088002	0.389997
446.462949	0.400232
446.837837	0.405221
447.212664	0.394485
447.587431	0.385705
447.962139	0.356350
448.336786	0.315608
448.711374	0.326209
449.085901	0.369807
449.460369	0.374183
449.834776	0.377805
450.209124	0.357458
450.583412	0.349515
450.957640	0.342996
451.331808	0.354080
451.705917	0.377501
452.079965	0.382106
452.453954	0.370074
452.827883	0.376978
453.201752	0.371517
453.575562	0.383454
453.949311	0.371657
454.323001	0.377779
454.696632	0.373734
455.070202	0.366718
455.443713	0.357770
455.817164	0.353012
456.190556	0.348722
456.563888	0.345686
456.937160	0.343000
457.310373	0.360407
457.683526	0.359230
458.056619	0.364837
458.429653	0.365332
458.802628	0.369011
459.175542	0.363403
459.548398	0.345707
459.921194	0.338067
460.293930	0.338442
460.666607	0.316036
461.039224	0.304203
461.411782	0.299686
461.784280	0.299281
462.156719	0.303512
462.529099	0.308031
462.901419	0.323780
463.273680	0.328381
463.645882	0.327794
464.018024	0.333486
464.390106	0.326451
464.762130	0.311091
465.134094	0.294603
465.505999	0.263233
465.877845	0.234043
466.249631	0.221142
466.621358	0.228290
466.993026	0.242288
467.364634	0.248658
467.736184	0.257106
468.107674	0.265823
468.479105	0.264927
468.850477	0.271885
469.221790	0.278639
469.593043	0.288700
469.964238	0.293862
470.335373	0.292771
470.706449	0.291040
471.077467	0.291769
471.448425	0.254038
471.819324	0.229491
472.190164	0.228948
472.560945	0.257759
472.931667	0.279699
473.302330	0.283857
473.672934	0.295503
474.043479	0.283951
474.413965	0.285550
474.784393	0.289363
475.154761	0.284494
475.525070	0.281352
475.895321	0.287183
476.265513	0.281160
476.635645	0.276417
477.005719	0.276324
477.375734	0.273027
477.745691	0.266609
478.115588	0.263241
478.485427	0.256541
478.855207	0.243406
479.224928	0.226096
479.594591	0.214244
479.964194	0.217475
480.333739	0.218749
480.703226	0.220128
481.072653	0.218785
481.442022	0.214148
481.811333	0.210618
482.180584	0.214264
482.549777	0.219619
482.918912	0.222867
483.287988	0.222582
483.657005	0.222161
484.025964	0.228571
484.394864	0.225995
484.763706	0.226736
485.132489	0.231648
485.501213	0.232206
485.869879	0.230815
486.238487	0.233903
486.607036	0.231812
486.975527	0.236252
487.343959	0.232294
487.712333	0.231514
488.080648	0.232950
488.448905	0.231854
488.817104	0.233174
489.185244	0.227573
489.553326	0.224704
489.921350	0.214343
490.289315	0.196979
490.657222	0.192143
491.025070	0.193331
491.392861	0.195193
491.760593	0.200760
492.128267	0.206729
492.495883	0.212086
492.863440	0.218431
493.230939	0.224913
493.598380	0.226029
493.965763	0.228252
494.333088	0.230651
494.700354	0.232057
495.067563	0.230973
495.434713	0.234151
495.801805	0.232125
496.168839	0.233405
496.535815	0.235316
496.902733	0.234989
497.269593	0.236557
497.636395	0.234316
498.003139	0.234677
498.369825	0.237551
498.736453	0.234001
499.103023	0.235678
499.469535	0.234863
499.835989	0.235115
500.202385	0.236052
500.568723	0.239349
500.935003	0.234783
501.301226	0.239042
501.667390	0.233054
502.033497	0.231168
502.399546	0.234369
502.765537	0.235921
503.131470	0.234342
503.497345	0.230649
503.863163	0.239324
504.228923	0.232694
504.594625	0.231142
504.960269	0.236511
505.325856	0.231857
505.691385	0.236179
506.056856	0.233088
506.422270	0.232326
506.787625	0.234624
507.152924	0.232026
507.518164	0.232725
507.883347	0.234315
508.248472	0.236078
508.613540	0.230950
508.978550	0.233570
509.343503	0.233931
509.708398	0.231779
510.073236	0.229315
510.438016	0.229453
510.802738	0.230098
511.167403	0.229062
511.532010	0.231217
511.896561	0.226458
512.261053	0.225419
512.625488	0.227611
512.989866	0.227828
513.354186	0.228089
513.718449	0.229709
514.082655	0.226384
514.446803	0.228297
514.810894	0.225829
515.174927	0.228831
515.538904	0.228271
515.902822	0.225377
516.266684	0.227595
516.630488	0.228931
516.994235	0.227514
517.357925	0.226328
517.721558	0.224849
518.085133	0.224149
518.448651	0.224083
518.812112	0.226273
519.175516	0.225944
519.538863	0.223810
519.902152	0.225231
520.265385	0.222017
520.628560	0.223809
520.991678	0.224202
521.354739	0.222967
521.717743	0.224587
522.080690	0.225179
522.443580	0.222104
522.806413	0.223078
523.169189	0.222433
523.531908	0.221595
523.894569	0.224771
524.257174	0.225014
524.619722	0.222787
524.982213	0.223768
525.344647	0.222629
525.707025	0.223657
526.069345	0.221515
526.431608	0.223109
526.793815	0.221253
527.155964	0.225451
527.518057	0.224248
527.880093	0.225336
528.242072	0.223706
528.603995	0.225758
528.965860	0.227579
529.327669	0.226345
529.689421	0.227153
530.051117	0.228084
530.412755	0.225792
530.774337	0.228200
531.135862	0.228437
531.497331	0.227635
531.858743	0.230742
532.220098	0.227468
532.581396	0.229868
532.942638	0.230403
533.303824	0.231553
533.664953	0.231199
534.026025	0.232883
534.387040	0.230845
534.747999	0.230670
535.108902	0.229679
535.469748	0.234581
535.830537	0.232644
536.191270	0.232990
536.551947	0.232742
536.912567	0.232222
537.273131	0.234286
537.633638	0.234177
537.994089	0.234888
538.354483	0.235910
538.714821	0.232696
539.075103	0.232517
539.435328	0.233416
539.795497	0.236985
540.155609	0.233984
540.515665	0.232000
540.875665	0.237630
541.235609	0.235908
541.595496	0.236154
541.955328	0.232428
542.315102	0.235310
542.674821	0.236361
543.034483	0.236319
543.394090	0.235803
543.753640	0.238001
544.113134	0.232962
544.472571	0.235990
544.831953	0.233022
545.191278	0.237266
545.550548	0.236556
545.909761	0.233396
546.268918	0.234124
546.628019	0.232600
546.987064	0.235421
547.346053	0.237115
547.704986	0.234944
548.063863	0.235222
548.422684	0.235582
548.781449	0.237227
549.140158	0.234784
549.498811	0.237901
549.857408	0.241017
550.215949	0.235875
550.574434	0.238625
550.932864	0.236890
551.291237	0.235042
551.649555	0.236922
552.007817	0.236445
552.366022	0.237272
552.724173	0.237223
553.082267	0.237723
553.440305	0.234529
553.798288	0.239101
554.156215	0.235834
554.514086	0.236534
554.871902	0.239709
555.229661	0.238715
555.587365	0.239210
555.945014	0.241791
556.302606	0.238823
556.660143	0.241294
557.017625	0.237660
557.375050	0.239983
557.732421	0.236789
558.089735	0.239209
558.446994	0.239080
558.804197	0.238307
559.161345	0.238081
559.518437	0.241817
559.875474	0.239359
560.232455	0.238653
560.589381	0.240099
560.946251	0.239873
561.303065	0.237662
561.659825	0.239236
562.016528	0.240625
562.373177	0.243582
562.729770	0.240939
563.086307	0.242657
563.442789	0.240629
563.799216	0.243229
564.155587	0.242042
564.511904	0.243480
564.868164	0.243593
565.224370	0.243147
565.580520	0.244879
565.936615	0.244705
566.292654	0.247963
566.648638	0.244841
567.004567	0.245624
567.360441	0.246624
567.716260	0.248279
568.072023	0.246184
568.427732	0.246727
568.783385	0.249438
569.138982	0.247333
569.494525	0.247155
569.850013	0.250032
570.205445	0.248542
570.560823	0.250829
570.916145	0.252838
571.271412	0.251246
571.626625	0.252832
571.981782	0.253117
572.336884	0.253980
572.691931	0.253591
573.046923	0.254607
573.401860	0.256257
573.756743	0.257611
574.111570	0.256779
574.466342	0.257126
574.821059	0.256662
575.175722	0.258845
575.530330	0.259102
575.884882	0.259159
576.239380	0.261202
576.593823	0.261834
576.948211	0.261231
577.302544	0.264152
577.656823	0.264197
578.011047	0.264129
578.365216	0.264981
578.719330	0.266473
579.073389	0.266568
579.427394	0.268127
579.781344	0.268840
580.135239	0.270012
580.489080	0.269778
580.842866	0.272891
581.196597	0.272422
581.550273	0.271115
581.903895	0.272317
582.257463	0.270559
582.610975	0.273633
582.964434	0.273333
583.317837	0.275265
583.671186	0.275987
584.024481	0.276347
584.377721	0.278635
584.730906	0.279367
585.084037	0.278467
585.437113	0.280263
585.790135	0.280153
586.143103	0.282828
586.496016	0.283759
586.848874	0.281410
587.201679	0.281773
587.554428	0.285339
587.907124	0.283583
588.259765	0.284753
588.612352	0.285250
588.964884	0.289016
589.317362	0.288749
589.669786	0.288678
590.022155	0.287169
590.374470	0.286151
590.726731	0.288363
591.078937	0.293180
591.431090	0.289737
591.783188	0.293795
592.135232	0.294371
592.487222	0.294283
592.839157	0.292465
593.191038	0.294909
593.542866	0.296493
593.894639	0.300335
594.246358	0.298438
594.598022	0.297776
594.949633	0.301242
595.301190	0.301812
595.652692	0.301476
596.004141	0.297448
596.355535	0.305279
596.706876	0.305738
597.058162	0.308287
597.409395	0.305515
597.760573	0.303069
598.111698	0.306376
598.462768	0.307254
598.813785	0.308421
599.164748	0.309643
599.515657	0.309831
599.866511	0.313222
600.217312	0.308391
600.568060	0.313844
600.918753	0.310475
601.269392	0.311163
601.619978	0.314380
601.970510	0.311994
602.320988	0.312246
602.671412	0.309986
603.021783	0.312436
603.372100	0.313839
603.722363	0.313557
604.072572	0.314235
604.422728	0.314193
604.772830	0.316394
605.122878	0.315739
605.472872	0.315982
605.822813	0.314428
606.172701	0.317416
606.522534	0.314523
606.872314	0.314800
607.222041	0.315555
607.571714	0.313645
607.921333	0.315073
608.270899	0.315090
608.620411	0.311416
608.969870	0.315693
609.319276	0.315775
609.668627	0.315140
610.017926	0.313922
610.367171	0.312784
610.716362	0.313222
611.065500	0.313787
611.414585	0.312021
611.763616	0.313046
612.112594	0.313485
612.461518	0.312652
612.810389	0.310128
613.159207	0.312805
613.507971	0.314652
613.856682	0.310275
614.205340	0.311683
614.553945	0.308798
614.902496	0.312646
615.250994	0.310321
615.599439	0.311501
615.947830	0.310717
616.296169	0.311702
616.644454	0.311383
616.992686	0.311586
617.340864	0.308867
617.688990	0.312741
618.037063	0.309147
618.385082	0.311441
618.733048	0.308091
619.080961	0.310456
619.428821	0.309607
619.776628	0.309622
620.124382	0.311461
620.472083	0.311606
620.819731	0.311077
621.167326	0.314754
621.514868	0.314297
621.862357	0.318885
622.209793	0.318219
622.557176	0.320452
622.904506	0.321676
623.251783	0.324169
623.599007	0.326547
623.946179	0.325958
624.293297	0.328052
624.640363	0.331668
624.987376	0.332446
625.334336	0.335019
625.681243	0.337041
626.028097	0.337469
626.374899	0.338830
626.721647	0.338904
627.068343	0.342395
627.414987	0.343518
627.761577	0.345454
628.108115	0.344152
628.454600	0.348835
628.801032	0.346063
629.147412	0.348429
629.493739	0.348382
629.840014	0.351839
630.186236	0.349443
630.532405	0.354970
630.878521	0.352322
631.224585	0.354391
631.570597	0.358551
631.916556	0.356312
632.262462	0.356533
632.608316	0.358509
632.954117	0.359647
633.299866	0.360716
633.645562	0.360904
633.991206	0.365499
634.336797	0.368426
634.682336	0.370682
635.027823	0.371816
635.373257	0.372656
635.718639	0.375935
636.063968	0.375616
636.409245	0.381675
636.754470	0.381571
637.099642	0.383925
637.444762	0.387380
637.789829	0.386390
638.134845	0.389436
638.479808	0.391132
638.824719	0.390520
639.169577	0.394860
639.514383	0.393443
639.859137	0.397630
640.203839	0.397664
640.548489	0.398258
640.893086	0.399932
641.237632	0.400944
641.582125	0.399320
641.926566	0.401210
642.270955	0.401286
642.615292	0.401549
642.959576	0.400521
643.303809	0.401451
643.647990	0.400903
643.992118	0.400959
644.336195	0.404977
644.680219	0.403508
645.024192	0.404436
645.368112	0.397614
645.711981	0.396775
646.055797	0.391897
646.399562	0.394288
646.743274	0.386716
647.086935	0.384025
647.430544	0.384251
647.774101	0.382928
648.117606	0.382703
648.461059	0.382954
648.804460	0.384893
649.147810	0.390514
649.491108	0.392240
649.834354	0.393446
650.177548	0.399077
650.520690	0.404863
650.863781	0.405470
651.206820	0.405377
651.549807	0.409848
651.892742	0.413725
652.235626	0.413603
652.578458	0.414013
652.921238	0.419844
653.263967	0.418019
653.606644	0.422280
653.949269	0.421700
654.291843	0.425583
654.634365	0.421774
654.976836	0.425498
655.319255	0.426054
655.661622	0.427876
656.003938	0.427445
656.346203	0.430020
656.688416	0.427815
657.030577	0.431984
657.372687	0.433235
657.714746	0.434921
658.056753	0.431032
658.398708	0.435424
658.740612	0.436044
659.082465	0.432472
659.424266	0.432985
659.766016	0.432775
660.107715	0.435397
660.449362	0.434164
660.790958	0.434447
661.132503	0.435132
661.473996	0.433094
661.815438	0.433721
662.156829	0.433916
662.498168	0.434796
662.839456	0.436439
663.180693	0.433876
663.521879	0.433854
663.863013	0.434812
664.204097	0.432892
664.545129	0.430087
664.886110	0.430635
665.227040	0.427782
665.567918	0.430641
665.908746	0.428711
666.249522	0.428573
666.590248	0.429338
666.930922	0.427362
667.271545	0.426379
667.612118	0.426163
667.952639	0.427818
668.293109	0.426412
668.633528	0.429590
668.973896	0.429065
669.314213	0.429671
669.654480	0.431475
669.994695	0.431362
670.334859	0.432441
670.674973	0.432406
671.015035	0.433004
671.355047	0.432108
671.695008	0.433812
672.034918	0.435507
672.374777	0.435215
672.714585	0.436751
673.054342	0.435862
673.394049	0.436021
673.733705	0.433523
674.073310	0.434518
674.412864	0.438414
674.752368	0.438250
675.091820	0.438910
675.431223	0.443194
675.770574	0.443219
676.109875	0.446052
676.449125	0.446198
676.788324	0.448029
677.127473	0.453652
677.466571	0.453319
677.805619	0.455170
678.144616	0.456186
678.483562	0.458407
678.822458	0.459923
679.161303	0.461483
679.500098	0.461912
679.838842	0.463293
680.177535	0.463197
680.516179	0.461355
680.854771	0.460854
681.193314	0.454006
681.531805	0.445124
681.870247	0.433847
682.208638	0.426315
682.546978	0.425406
682.885268	0.426845
683.223508	0.433297
683.561697	0.437028
683.899836	0.439658
684.237925	0.443423
684.575963	0.445786
684.913951	0.448837
685.251889	0.444647
685.589776	0.446456
685.927614	0.448752
686.265401	0.443212
686.603137	0.444771
686.940824	0.438475
687.278460	0.437127
687.616046	0.436278
687.953582	0.431502
688.291068	0.432564
688.628504	0.427756
688.965889	0.430453
689.303224	0.434091
689.640510	0.438221
689.977745	0.444547
690.314930	0.452136
690.652065	0.456639
690.989150	0.464064
691.326185	0.470772
691.663170	0.475088
692.000105	0.482879
692.336990	0.489610
692.673825	0.491519
693.010610	0.498437
693.347345	0.504434
693.684030	0.506505
694.020665	0.510981
694.357251	0.519295
694.693786	0.519043
695.030272	0.522752
695.366707	0.526364
695.703093	0.529937
696.039429	0.527874
696.375716	0.530097
696.711952	0.532551
697.048139	0.534077
697.384276	0.536832
697.720363	0.534891
698.056400	0.534242
698.392388	0.540009
698.728326	0.541891
699.064214	0.544928
699.400053	0.545689
699.735842	0.548881
700.071581	0.552396
700.407270	0.555020
700.742910	0.557900
701.078501	0.564963
701.414042	0.564784
701.749533	0.567389
702.084974	0.576430
702.420366	0.568457
702.755709	0.576005
703.091002	0.584279
703.426246	0.577631
703.761440	0.583319
704.096584	0.588209
704.431679	0.585221
704.766725	0.587032
705.101721	0.589316
705.436668	0.584724
705.771565	0.592821
706.106413	0.588972
706.441212	0.583938
706.775961	0.583174
707.110661	0.585660
707.445311	0.582264
707.779913	0.578814
708.114465	0.577760
708.448967	0.574157
708.783421	0.566441
709.117825	0.560856
709.452180	0.561095
709.786485	0.554889
710.120742	0.544214
710.454949	0.546827
710.789107	0.538468
711.123216	0.529993
711.457275	0.531290
711.791286	0.522495
712.125247	0.521124
712.459159	0.531756
712.793023	0.524298
713.126837	0.528433
713.460602	0.529287
713.794318	0.538385
714.127985	0.537650
714.461602	0.547897
714.795171	0.550745
715.128691	0.558844
715.462162	0.565873
715.795584	0.571819
716.128957	0.574379
716.462281	0.580792
716.795556	0.584091
717.128782	0.589729
717.461960	0.599428
717.795088	0.597803
718.128167	0.603800
718.461198	0.612651
718.794180	0.613056
719.127113	0.616672
719.459997	0.619100
719.792833	0.626035
720.125619	0.626426
720.458357	0.633092
720.791046	0.632243
721.123686	0.636361
721.456278	0.642635
721.788821	0.639673
722.121315	0.645077
722.453761	0.648629
722.786158	0.646751
723.118506	0.643156
723.450805	0.650472
723.783056	0.646929
724.115259	0.643468
724.447412	0.643324
724.779518	0.645214
725.111574	0.643986
725.443582	0.639124
725.775542	0.642054
726.107453	0.633455
726.439315	0.633745
726.771129	0.631666
727.102895	0.625926
727.434612	0.618329
727.766281	0.616133
728.097901	0.615480
728.429473	0.615397
728.760996	0.613850
729.092471	0.614390
729.423897	0.618290
729.755276	0.616623
730.086606	0.616690
730.417887	0.611522
730.749120	0.601524
731.080305	0.592624
731.411442	0.588771
731.742530	0.593613
732.073570	0.592022
732.404562	0.584919
732.735506	0.586690
733.066401	0.590790
733.397249	0.600619
733.728048	0.611904
734.058798	0.624265
734.389501	0.635137
734.720156	0.644690
735.050762	0.653165
735.381320	0.654201
735.711831	0.663489
736.042293	0.667735
736.372707	0.664173
736.703073	0.668218
737.033391	0.670582
737.363661	0.667213
737.693883	0.662846
738.024056	0.662254
738.354182	0.662559
738.684260	0.651001
739.014290	0.647315
739.344272	0.648271
739.674207	0.641548
740.004093	0.641060
740.333931	0.642064
740.663722	0.641397
740.993464	0.642732
741.323159	0.645511
741.652806	0.651444
741.982405	0.656050
742.311956	0.660070
742.641460	0.662162
742.970915	0.666447
743.300323	0.673462
743.629683	0.680626
743.958996	0.682316
744.288260	0.687280
744.617477	0.692710
744.946647	0.693617
745.275768	0.699608
745.604842	0.699640
745.933869	0.708967
746.262847	0.709724
746.591778	0.703956
746.920662	0.709939
747.249498	0.716650
747.578286	0.707085
747.907027	0.703027
748.235720	0.703840
748.564365	0.698335
748.892963	0.698812
749.221514	0.701809
749.550017	0.705969
749.878473	0.706249
750.206881	0.713102
750.535242	0.714114
750.863555	0.713257
751.191821	0.714970
751.520039	0.718635
751.848210	0.723225
752.176334	0.715570
752.504411	0.715004
752.832440	0.722642
753.160421	0.727183
753.488356	0.725588
753.816243	0.722901
754.144082	0.731209
754.471875	0.733603
754.799620	0.730330
755.127318	0.731159
755.454969	0.731456
755.782572	0.730106
756.110129	0.735261
756.437638	0.737730
756.765100	0.733939
757.092515	0.732550
757.419882	0.731651
757.747203	0.736548
758.074477	0.736223
758.401703	0.733645
758.728882	0.727841
759.056014	0.726823
759.383099	0.725872
759.710138	0.727399
760.037129	0.724653
760.364073	0.718551
760.690970	0.720500
761.017820	0.725704
761.344623	0.721746
761.671379	0.712593
761.998088	0.701174
762.324751	0.677689
762.651366	0.636237
762.977935	0.568820
763.304456	0.516031
763.630931	0.506736
763.957359	0.545476
764.283740	0.590967
764.610074	0.618344
764.936362	0.648853
765.262602	0.675582
765.588796	0.697481
765.914943	0.715034
766.241044	0.733083
766.567097	0.740158
766.893104	0.750081
767.219064	0.756535
767.544978	0.763119
767.870845	0.775760
768.196665	0.779887
768.522438	0.777902
768.848165	0.779546
769.173846	0.788260
769.499479	0.792656
769.825066	0.796405
770.150607	0.800843
770.476101	0.796365
770.801548	0.798345
771.126949	0.809881
771.452303	0.813127
771.777611	0.812441
772.102872	0.811120
772.428087	0.816713
772.753256	0.820825
773.078378	0.822252
773.403453	0.831223
773.728482	0.835152
774.053465	0.829724
774.378401	0.832132
774.703291	0.840582
775.028135	0.840205
775.352932	0.842415
775.677683	0.845165
776.002388	0.845727
776.327046	0.844118
776.651658	0.848597
776.976224	0.851414
777.300743	0.851857
777.625216	0.854639
777.949643	0.854986
778.274024	0.856887
778.598359	0.858253
778.922647	0.856200
779.246889	0.856992
779.571086	0.859982
779.895236	0.863247
780.219339	0.860812
780.543397	0.856869
780.867409	0.855300
781.191374	0.857620
781.515294	0.859579
781.839167	0.858280
782.162995	0.861634
782.486776	0.858404
782.810511	0.858936
783.134201	0.862619
783.457844	0.860852
783.781441	0.864253
784.104993	0.868915
784.428498	0.870522
784.751958	0.865755
785.075372	0.867528
785.398739	0.872147
785.722061	0.867339
786.045337	0.863828
786.368568	0.868385
786.691752	0.871288
787.014891	0.857079
787.337983	0.846485
787.661030	0.839916
787.984031	0.822785
788.306987	0.809665
788.629897	0.811846
788.952760	0.815188
789.275579	0.819637
789.598351	0.834931
789.921078	0.848047
790.243759	0.850346
790.566395	0.855111
790.888984	0.863038
791.211529	0.868574
791.534027	0.870732
791.856480	0.873863
792.178888	0.878450
792.501249	0.880491
792.823566	0.882549
793.145836	0.881389
793.468062	0.883181
793.790241	0.883512
794.112375	0.882958
794.434464	0.877213
794.756507	0.876916
795.078505	0.876374
795.400457	0.871100
795.722364	0.858591
796.044226	0.852686
796.366042	0.850802
796.687812	0.854588
797.009538	0.851014
797.331218	0.853288
797.652852	0.858475
797.974442	0.862787
798.295986	0.862454
798.617484	0.865111
798.938938	0.869830
799.260346	0.875112
799.581709	0.876471
799.903026	0.878841
800.224299	0.879144
800.545526	0.884175
800.866708	0.888446
801.187845	0.891323
801.508936	0.891746
801.829983	0.888679
802.150984	0.891110
802.471940	0.897340
802.792851	0.895876
803.113717	0.896382
803.434538	0.895618
803.755314	0.897173
804.076045	0.899062
804.396731	0.899329
804.717372	0.898529
805.037967	0.900878
805.358518	0.899078
805.679024	0.895627
805.999485	0.896646
806.319901	0.895982
806.640272	0.896506
806.960598	0.896330
807.280879	0.892622
807.601115	0.890297
807.921306	0.894530
808.241453	0.894928
808.561554	0.892287
808.881611	0.893152
809.201623	0.894436
809.521590	0.895147
809.841513	0.896318
810.161390	0.895436
810.481223	0.895904
810.801011	0.899954
811.120755	0.901448
811.440453	0.900847
811.760107	0.900536
812.079716	0.900076
812.399281	0.902037
812.718801	0.905368
813.038276	0.906659
813.357707	0.906387
813.677093	0.902733
813.996434	0.906360
814.315731	0.907244
814.634983	0.908882
814.954191	0.906952
815.273354	0.904292
815.592473	0.900985
815.911547	0.900072
816.230577	0.897863
816.549562	0.893830
816.868502	0.896525
817.187399	0.891973
817.506250	0.886285
817.825058	0.889763
818.143821	0.885610
818.462539	0.880272
818.781213	0.872286
819.099843	0.861217
819.418429	0.845001
819.736970	0.828076
820.055466	0.808199
820.373919	0.782281
820.692327	0.749224
821.010691	0.714036
821.329011	0.635706
821.647286	0.518225
821.965517	0.404526
822.283704	0.361170
822.601847	0.362086
822.919945	0.397591
823.237999	0.431846
823.556010	0.479403
823.873976	0.535470
824.191897	0.586406
824.509775	0.629561
824.827609	0.675818
825.145398	0.698511
825.463144	0.701536
825.780845	0.683963
826.098502	0.665329
826.416116	0.619210
826.733685	0.575007
827.051210	0.565691
827.368692	0.580414
827.686129	0.618984
828.003522	0.671894
828.320872	0.720420
828.638177	0.763811
828.955439	0.797867
829.272656	0.820007
829.589830	0.836225
829.906960	0.852410
830.224046	0.865680
830.541088	0.876096
830.858086	0.879786
831.175041	0.886545
831.491952	0.884817
831.808819	0.882028
832.125642	0.876820
832.442421	0.860804
832.759157	0.837954
833.075849	0.792149
833.392497	0.727388
833.709101	0.686080
834.025662	0.695400
834.342179	0.727452
834.658653	0.767451
834.975083	0.803443
835.291469	0.829216
835.607811	0.852290
835.924110	0.869096
836.240366	0.885880
836.556578	0.900563
836.872746	0.908219
837.188871	0.913211
837.504952	0.919315
837.820990	0.922829
838.136984	0.925868
838.452935	0.929337
838.768842	0.931365
839.084706	0.923899
839.400526	0.899094
839.716303	0.857904
840.032037	0.834353
840.347727	0.836853
840.663373	0.856490
840.978977	0.878626
841.294537	0.900961
841.610054	0.917869
841.925527	0.924332
842.240957	0.932478
842.556344	0.939819
842.871687	0.945468
843.186987	0.949149
843.502244	0.951192
843.817458	0.951505
844.132629	0.954777
844.447756	0.959613
844.762840	0.959883
845.077881	0.959255
845.392879	0.959763
845.707833	0.962830
846.022745	0.964361
846.337613	0.965245
846.652438	0.966772
846.967221	0.964468
847.281960	0.964576
847.596656	0.967642
847.911309	0.965445
848.225919	0.968046
848.540485	0.967577
848.855009	0.968454
849.169490	0.968266
849.483928	0.969469
849.798323	0.969747
850.112675	0.969671
850.426984	0.969878
850.741251	0.970095
851.055474	0.969453
851.369654	0.967363
851.683792	0.970048
851.997887	0.969627
852.311938	0.971268
852.625947	0.970018
852.939914	0.967904
853.253837	0.968981
853.567718	0.971009
853.881555	0.971180
854.195350	0.968290
854.509103	0.969136
854.822812	0.969825
855.136479	0.969662
855.450103	0.969678
855.763685	0.968350
856.077224	0.967303
856.390720	0.970434
856.704173	0.970037
857.017584	0.969528
857.330953	0.966517
857.644278	0.968590
857.957561	0.969240
858.270802	0.968701
858.584000	0.968980
858.897155	0.966772
859.210268	0.966962
859.523339	0.968224
859.836367	0.970057
860.149352	0.970921
860.462295	0.968103
860.775195	0.969737
861.088054	0.970218
861.400869	0.969969
861.713642	0.969983
862.026373	0.970188
862.339062	0.970340
862.651708	0.967556
862.964312	0.968713
863.276873	0.968582
863.589392	0.968933
863.901869	0.966181
864.214303	0.964852
864.526696	0.964436
864.839045	0.964103
865.151353	0.961460
865.463619	0.961767
865.775842	0.962156
866.088023	0.962079
866.400162	0.962299
866.712258	0.962919
867.024313	0.961994
867.336325	0.962912
867.648296	0.962435
867.960224	0.961234
868.272110	0.961426
868.583954	0.963234
868.895755	0.963371
869.207515	0.961069
869.519233	0.959328
869.830909	0.960949
870.142542	0.962067
870.454134	0.961553
870.765684	0.960446
871.077191	0.957526
871.388657	0.958207
871.700081	0.957211
872.011463	0.957545
872.322803	0.956655
872.634101	0.956257
872.945357	0.953189
873.256571	0.952398
873.567744	0.951771
873.878874	0.952435
874.189963	0.951476
874.501010	0.950822
874.812015	0.949444
875.122979	0.951448
875.433900	0.952619
875.744780	0.951438
876.055618	0.950677
876.366415	0.949353
876.677169	0.949037
876.987882	0.950015
877.298554	0.950688
877.609183	0.947173
877.919771	0.942631
878.230317	0.941389
878.540822	0.939132
878.851285	0.933700
879.161707	0.926191
879.472087	0.913787
879.782425	0.897531
880.092722	0.862136
880.402977	0.808924
880.713191	0.746315
881.023363	0.686179
881.333494	0.652446
881.643583	0.624036
881.953631	0.624196
882.263637	0.652835
882.573602	0.692510
882.883526	0.718591
883.193408	0.743721
883.503248	0.766150
883.813048	0.793521
884.122806	0.824288
884.432522	0.847521
884.742197	0.868341
885.051831	0.878467
885.361424	0.888968
885.670975	0.901885
885.980485	0.911576
886.289954	0.917403
886.599382	0.923574
886.908768	0.926616
887.218113	0.933518
887.527417	0.937787
887.836680	0.941003
888.145901	0.943715
888.455082	0.945894
888.764221	0.950443
889.073319	0.951996
889.382376	0.952510
889.691392	0.952101
890.000366	0.951912
890.309300	0.952798
890.618193	0.952574
890.927044	0.950544
891.235855	0.950165
891.544625	0.951506
891.853353	0.952047
892.162041	0.947763
892.470687	0.942244
892.779293	0.936422
893.087858	0.932762
893.396381	0.924268
893.704864	0.910711
894.013306	0.886730
894.321707	0.859665
894.630068	0.844939
894.938387	0.839566
895.246665	0.841355
895.554903	0.853567
895.863100	0.867058
896.171256	0.885468
896.479371	0.905047
896.787446	0.916952
897.095480	0.922862
897.403473	0.926012
897.711425	0.931609
898.019336	0.938532
898.327207	0.942011
898.635038	0.944334
898.942827	0.944368
899.250576	0.947171
899.558284	0.950819
899.865952	0.952729
900.173579	0.954566
900.481165	0.954601
900.788711	0.958276
901.096216	0.960229
901.403681	0.960946
901.711105	0.962102
902.018489	0.963033
902.325832	0.961949
902.633135	0.960124
902.940397	0.955309
903.247619	0.941426
903.554800	0.916753
903.861941	0.876049
904.169041	0.840235
904.476101	0.821693
904.783121	0.822636
905.090100	0.838563
905.397039	0.860981
905.703938	0.883441
906.010796	0.904303
906.317614	0.920206
906.624391	0.933906
906.931129	0.942933
907.237826	0.950738
907.544483	0.958295
907.851099	0.961787
908.157675	0.968065
908.464211	0.969795
908.770707	0.972664
909.077163	0.974378
909.383578	0.974032
909.689954	0.974747
909.996289	0.975041
910.302584	0.978057
910.608839	0.978671
910.915054	0.978311
911.221229	0.977095
911.527363	0.976326
911.833458	0.976860
912.139513	0.977218
912.445527	0.974522
912.751502	0.973636
913.057436	0.971330
913.363331	0.969482
913.669186	0.964883
913.975000	0.960639
914.280775	0.953718
914.586510	0.946689
914.892205	0.932985
915.197859	0.910327
915.503475	0.882628
915.809050	0.863807
916.114585	0.857473
916.420081	0.854328
916.725536	0.852276
917.030952	0.859306
917.336328	0.873252
917.641665	0.888491
917.946961	0.903969
918.252218	0.916356
918.557435	0.926534
918.862612	0.935414
919.167750	0.941271
919.472848	0.945382
919.777906	0.951514
920.082925	0.956071
920.387904	0.959981
920.692843	0.962045
920.997743	0.963496
921.302603	0.967515
921.607423	0.967936
921.912204	0.971144
922.216946	0.971429
922.521647	0.972744
922.826310	0.974382
923.130932	0.975811
923.435516	0.977555
923.740059	0.979417
924.044564	0.978096
924.349028	0.979796
924.653454	0.983153
924.957840	0.983843
925.262186	0.984021
925.566493	0.983604
925.870761	0.984471
926.174989	0.985717
926.479178	0.987829
926.783328	0.988376
927.087438	0.988498
927.391509	0.988333
927.695541	0.990589
927.999533	0.989675
928.303486	0.990255
928.607400	0.991555
928.911275	0.988752
929.215110	0.990216
929.518906	0.991532
929.822663	0.990136
930.126381	0.991836
930.430060	0.989985
930.733699	0.990482
931.037299	0.989073
931.340861	0.990529
931.644383	0.990628
931.947866	0.988966
932.251309	0.990676
932.554714	0.990237
932.858080	0.989878
933.161407	0.991268
933.464694	0.992131
933.767943	0.989229
934.071153	0.991071
934.374323	0.991640
934.677455	0.991151
934.980548	0.991296
935.283602	0.990771
935.586617	0.991316
935.889593	0.990239
936.192530	0.990525
936.495428	0.991369
936.798287	0.990510
937.101108	0.990318
937.403890	0.988436
937.706632	0.989127
938.009336	0.986184
938.312002	0.985604
938.614628	0.984828
938.917216	0.982808
939.219765	0.980767
939.522275	0.982691
939.824747	0.982823
940.127179	0.984081
940.429573	0.983698
940.731929	0.984312
941.034246	0.984267
941.336524	0.985294
941.638763	0.986195
941.940964	0.986792
942.243126	0.985665
942.545250	0.987020
942.847335	0.988122
943.149381	0.988227
943.451389	0.987225
943.753359	0.987334
944.055290	0.991324
944.357182	0.990928
944.659036	0.988083
944.960851	0.989447
945.262628	0.989414
945.564367	0.990428
945.866067	0.989693
946.167729	0.990691
946.469352	0.990242
946.770937	0.989801
947.072484	0.990747
947.373992	0.990097
947.675462	0.989661
947.976893	0.989812
948.278286	0.989488
948.579641	0.991838
948.880958	0.990972
949.182236	0.991029
949.483476	0.990981
949.784678	0.991122
950.085841	0.990726
950.386967	0.990257
950.688054	0.990469
950.989103	0.990208
951.290114	0.989505
951.591087	0.988595
951.892021	0.989025
952.192917	0.989264
952.493776	0.988289
952.794596	0.988751
953.095378	0.988456
953.396122	0.987925
953.696828	0.986808
953.997496	0.989380
954.298126	0.990479
954.598718	0.990194
954.899272	0.990019
955.199788	0.989991
955.500266	0.992013
955.800706	0.993799
956.101108	0.993721
956.401472	0.993640
956.701798	0.994686
957.002087	0.992896
957.302337	0.994704
957.602550	0.995626
957.902724	0.994398
958.202861	0.995780
958.502960	0.994564
958.803022	0.994723
959.103045	0.995150
959.403031	0.996793
959.702979	0.995991
960.002889	0.996922
960.302762	0.995048
960.602596	0.995918
960.902393	0.995206
961.202153	0.997058
961.501875	0.996468
961.801559	0.996240
962.101205	0.996735
962.400814	0.996644
962.700385	0.996174
962.999918	0.995485
963.299414	0.996029
963.598873	0.996831
963.898293	0.997208
964.197677	0.996193
964.497022	0.996919
964.796331	0.997708
965.095601	0.997204
965.394835	0.996880
965.694030	0.998083
965.993189	0.996676
966.292309	0.997514
966.591393	0.997709
966.890439	0.997569
967.189447	0.996931
967.488419	0.997736
967.787353	0.996368
968.086249	0.996773
968.385108	0.997895
968.683930	0.996799
968.982714	0.996367
969.281462	0.997799
969.580172	0.996623
969.878844	0.997690
970.177480	0.997702
970.476078	0.996518
970.774639	0.997073
971.073162	0.997336
971.371649	0.997322
971.670098	0.996108
971.968510	0.997589
972.266885	0.996414
972.565223	0.995963
972.863524	0.996302
973.161788	0.996363
973.460014	0.997691
973.758204	0.996743
974.056356	0.995753
974.354471	0.994134
974.652550	0.996196
974.950591	0.996096
975.248595	0.996471
975.546563	0.997399
975.844493	0.998294
976.142386	0.997150
976.440243	0.997370
976.738062	0.997499
977.035845	0.997716
977.333590	0.997811
977.631299	0.997812
977.928971	0.996923
978.226606	0.996978
978.524204	0.996272
978.821765	0.998885
979.119290	0.996776
979.416777	0.996692
979.714228	0.997355
980.011642	0.997665
980.309020	0.998324
980.606360	0.997434
980.903664	0.999716
981.200931	0.995732
981.498162	0.994810
981.795356	0.995047
982.092513	0.994515
982.389633	0.995912
982.686717	0.991259
982.983764	0.991702
983.280775	0.991380
983.577749	0.990432
983.874686	0.991802
984.171587	0.991233
984.468451	0.994809
984.765279	0.995116
985.062070	0.994105
985.358824	0.995546
985.655543	0.995387
985.952224	0.996999
986.248869	0.996275
986.545478	0.996768
986.842050	0.998046
987.138586	0.996153
987.435086	0.998190
987.731549	0.998806
988.027975	0.998724
988.324366	0.997637
988.620719	0.997759
988.917037	0.996653
989.213318	0.998121
989.509563	0.997863
989.805772	0.997616
990.101944	0.998956
990.398080	0.998401
990.694180	0.998035
990.990244	0.996896
991.286271	0.997954
991.582262	0.999090
991.878217	0.998169
992.174136	0.999403
992.470019	0.999644
992.765865	0.998053
993.061676	0.997249
993.357450	0.996949
993.653188	0.997328
993.948890	0.996767
994.244556	0.997595
994.540186	0.997743
994.835780	0.996241
995.131337	0.998072
995.426859	0.997422
995.722345	0.997172
996.017795	0.996331
996.313208	0.995439
996.608586	0.995781
996.903928	0.996279
997.199234	0.995566
997.494504	0.996906
997.789738	0.996970
998.084936	0.996477
998.380099	0.997388
998.675225	0.997699
998.970316	0.997641
999.265371	0.998511
999.560390	0.999262
999.855373	0.998225
1000.150320	0.998317
1000.445232	0.998688
1000.740108	0.997909
1001.034948	0.998583
1001.329752	0.999199
1001.624521	1.000091
1001.919254	0.998328
1002.213951	0.998979
1002.508613	0.997622
1002.803239	0.999988
1003.097829	0.998946
1003.392384	0.999654
1003.686903	0.997722
1003.981386	0.999097
1004.275834	0.999689
1004.570246	0.999566
1004.864623	0.999233
1005.158964	1.000672
1005.453270	0.998464
1005.747540	0.998389
1006.041775	1.000150
1006.335974	1.000091
1006.630138	0.999915
1006.924266	0.999312
1007.218359	1.001010
1007.512416	0.998886
1007.806438	0.999136
1008.100425	0.999269
1008.394376	0.999913
1008.688292	0.999121
1008.982172	0.999321
1009.276017	0.999910
1009.569827	0.998644
1009.863602	0.998809
1010.157341	0.998971
1010.451045	0.998372
1010.744714	0.998159
1011.038347	1.000161
1011.331945	0.999109
1011.625508	0.998796
1011.919036	0.999182
1012.212528	0.999391
1012.505986	0.998738
1012.799408	0.999502
1013.092795	0.999798
1013.386147	1.000081
1013.679464	0.998533
1013.972745	0.998320
1014.265992	0.998251
1014.559204	0.999503
1014.852380	0.999312
1015.145521	0.998560
1015.438628	0.999349
1015.731699	0.999632
1016.024736	0.999492
1016.317737	0.998690
1016.610703	0.999262
1016.903635	0.999524
1017.196531	0.998723
1017.489393	0.999754
1017.782219	0.999020
1018.075011	0.998487
1018.367768	0.999332
1018.660490	1.000446
1018.953177	1.000446
1019.245829	1.000446
