Dividing Wavelength (nm)	Counts (n)	Blue Motor Position (mm): 0.000000	Red Motor Position (mm): 14.100000	
326.493990	1.000864
326.888308	1.000864
327.282561	1.000864
327.676750	0.998341
328.070874	0.999897
328.464933	1.000266
328.858929	1.000326
329.252859	0.999689
329.646726	0.999924
330.040528	0.999830
330.434265	0.998749
330.827938	1.001338
331.221547	1.001467
331.615091	1.000468
332.008571	0.999271
332.401986	0.998858
332.795338	0.999816
333.188625	0.999218
333.581847	1.000248
333.975006	0.999096
334.368100	0.999470
334.761129	1.000356
335.154095	1.001855
335.546996	0.999632
335.939833	0.993052
336.332606	0.992958
336.725315	0.993389
337.117960	0.994704
337.510540	0.994420
337.903056	0.994255
338.295508	0.993047
338.687896	0.994949
339.080220	0.994309
339.472480	0.994261
339.864676	0.992801
340.256807	0.994982
340.648875	0.994044
341.040879	0.994596
341.432818	0.993825
341.824694	0.994028
342.216506	0.995203
342.608253	0.994213
342.999937	0.993952
343.391557	0.993541
343.783113	0.994456
344.174605	0.993955
344.566033	0.994290
344.957397	0.993254
345.348697	0.993074
345.739934	0.993179
346.131106	0.993204
346.522215	0.992663
346.913260	0.993394
347.304241	0.993713
347.695159	0.992588
348.086012	0.992962
348.476802	0.992693
348.867528	0.993752
349.258191	0.992326
349.648789	0.994195
350.039324	0.992914
350.429796	0.993610
350.820203	0.994898
351.210548	0.993998
351.600828	0.992417
351.991045	0.993919
352.381198	0.992580
352.771288	0.992996
353.161314	0.993913
353.551276	0.994530
353.941175	0.992589
354.331010	0.993779
354.720782	0.994839
355.110490	0.992571
355.500135	0.994486
355.889717	0.994108
356.279235	0.993597
356.668689	0.992838
357.058080	0.993339
357.447408	0.994313
357.836672	0.993498
358.225873	0.994222
358.615010	0.994994
359.004084	0.994906
359.393095	0.994099
359.782043	0.993766
360.170927	0.994448
360.559748	0.995683
360.948505	0.993976
361.337199	0.993286
361.725830	0.992968
362.114398	0.993704
362.502903	0.994389
362.891344	0.995593
363.279722	0.993331
363.668037	0.993944
364.056289	0.993588
364.444478	0.995019
364.832603	0.993373
365.220665	0.994190
365.608665	0.993757
365.996601	0.993809
366.384474	0.993351
366.772284	0.993830
367.160031	0.993043
367.547715	0.993551
367.935336	0.993214
368.322893	0.993326
368.710388	0.992661
369.097820	0.993954
369.485189	0.993669
369.872495	0.993521
370.259738	0.991769
370.646918	0.993901
371.034035	0.993248
371.421090	0.993277
371.808081	0.992001
372.195010	0.992853
372.581875	0.993428
372.968678	0.992264
373.355418	0.993188
373.742096	0.992390
374.128710	0.993844
374.515262	0.992507
374.901751	0.993983
375.288177	0.993592
375.674540	0.994165
376.060841	0.992870
376.447079	0.993662
376.833254	0.993472
377.219367	0.993258
377.605417	0.992994
377.991404	0.993961
378.377329	0.992647
378.763191	0.992747
379.148991	0.993591
379.534727	0.992490
379.920402	0.992977
380.306013	0.993939
380.691563	0.994269
381.077049	0.993133
381.462474	0.993058
381.847835	0.993504
382.233134	0.992832
382.618371	0.993055
383.003545	0.992291
383.388657	0.992432
383.773706	0.994561
384.158693	0.993629
384.543618	0.994308
384.928480	0.993001
385.313280	0.993224
385.698017	0.994056
386.082692	0.993118
386.467305	0.994010
386.851856	0.992952
387.236344	0.992556
387.620770	0.992916
388.005133	0.992885
388.389435	0.993008
388.773674	0.992719
389.157851	0.993190
389.541965	0.992686
389.926018	0.991651
390.310008	0.992505
390.693936	0.990610
391.077802	0.990325
391.461606	0.988664
391.845348	0.987963
392.229027	0.987471
392.612645	0.984359
392.996200	0.981825
393.379694	0.978870
393.763125	0.977084
394.146494	0.972291
394.529801	0.968345
394.913047	0.963819
395.296230	0.960442
395.679351	0.956876
396.062410	0.950728
396.445408	0.946059
396.828343	0.939813
397.211217	0.934349
397.594028	0.931068
397.976778	0.923286
398.359466	0.915383
398.742092	0.909180
399.124656	0.904786
399.507158	0.896044
399.889598	0.888181
400.271977	0.878235
400.654294	0.871806
401.036549	0.863639
401.418742	0.857346
401.800874	0.843655
402.182944	0.834723
402.564952	0.822396
402.946898	0.815322
403.328783	0.806790
403.710606	0.802811
404.092367	0.782340
404.474067	0.776120
404.855705	0.766624
405.237282	0.763598
405.618797	0.747155
406.000250	0.735529
406.381642	0.722146
406.762972	0.716385
407.144240	0.707489
407.525447	0.699242
407.906593	0.685921
408.287677	0.674942
408.668700	0.673143
409.049661	0.660179
409.430560	0.650506
409.811399	0.649086
410.192176	0.627759
410.572891	0.627292
410.953545	0.611483
411.334138	0.615658
411.714669	0.603358
412.095139	0.608179
412.475547	0.589037
412.855894	0.585704
413.236180	0.580164
413.616405	0.580066
413.996568	0.567051
414.376670	0.569006
414.756711	0.569266
415.136691	0.562886
415.516609	0.551470
415.896466	0.544753
416.276262	0.538760
416.655997	0.537376
417.035670	0.516921
417.415283	0.507259
417.794834	0.509496
418.174324	0.511330
418.553753	0.519682
418.933121	0.500229
419.312428	0.492748
419.691674	0.496494
420.070859	0.484809
420.449983	0.491079
420.829045	0.480151
421.208047	0.487624
421.586988	0.480720
421.965867	0.478114
422.344686	0.467025
422.723444	0.478941
423.102141	0.494913
423.480777	0.468501
423.859352	0.487957
424.237866	0.465413
424.616319	0.465369
424.994712	0.456305
425.373044	0.465893
425.751314	0.454399
426.129524	0.470914
426.507673	0.454429
426.885762	0.447703
427.263789	0.453219
427.641756	0.462778
428.019662	0.453288
428.397508	0.451838
428.775292	0.455849
429.153016	0.448068
429.530679	0.454122
429.908282	0.447528
430.285824	0.457540
430.663305	0.436095
431.040726	0.456527
431.418086	0.457597
431.795385	0.448667
432.172624	0.446753
432.549802	0.448119
432.926920	0.446684
433.303977	0.446235
433.680974	0.443364
434.057910	0.441532
434.434786	0.441376
434.811601	0.443314
435.188355	0.426215
435.565050	0.435401
435.941683	0.436478
436.318257	0.421458
436.694770	0.421765
437.071222	0.420012
437.447614	0.423926
437.823946	0.430720
438.200218	0.420460
438.576429	0.429805
438.952580	0.422809
439.328670	0.419439
439.704700	0.426293
440.080670	0.427468
440.456580	0.408010
440.832429	0.416648
441.208218	0.427435
441.583947	0.416554
441.959616	0.416465
442.335224	0.420721
442.710773	0.411926
443.086261	0.409604
443.461689	0.424052
443.837057	0.413600
444.212365	0.403630
444.587612	0.410599
444.962800	0.400409
445.337927	0.402196
445.712995	0.428303
446.088002	0.390768
446.462949	0.401316
446.837837	0.405010
447.212664	0.394826
447.587431	0.386231
447.962139	0.356599
448.336786	0.315831
448.711374	0.326946
449.085901	0.370300
449.460369	0.374445
449.834776	0.377869
450.209124	0.357534
450.583412	0.350229
450.957640	0.343604
451.331808	0.354477
451.705917	0.378074
452.079965	0.382315
452.453954	0.370779
452.827883	0.378122
453.201752	0.372636
453.575562	0.383398
453.949311	0.372160
454.323001	0.377971
454.696632	0.374228
455.070202	0.366808
455.443713	0.358429
455.817164	0.353391
456.190556	0.349480
456.563888	0.345999
456.937160	0.343838
457.310373	0.360608
457.683526	0.359766
458.056619	0.365930
458.429653	0.365890
458.802628	0.369041
459.175542	0.363877
459.548398	0.346055
459.921194	0.338877
460.293930	0.338708
460.666607	0.316780
461.039224	0.304756
461.411782	0.300725
461.784280	0.299759
462.156719	0.304312
462.529099	0.308206
462.901419	0.324373
463.273680	0.328884
463.645882	0.328201
464.018024	0.334330
464.390106	0.327110
464.762130	0.311907
465.134094	0.294924
465.505999	0.264317
465.877845	0.234773
466.249631	0.221621
466.621358	0.229262
466.993026	0.243326
467.364634	0.249298
467.736184	0.258113
468.107674	0.266519
468.479105	0.265802
468.850477	0.272714
469.221790	0.279293
469.593043	0.289603
469.964238	0.294473
470.335373	0.293975
470.706449	0.292144
471.077467	0.292527
471.448425	0.254910
471.819324	0.230545
472.190164	0.230023
472.560945	0.258460
472.931667	0.280809
473.302330	0.284881
473.672934	0.296272
474.043479	0.284826
474.413965	0.286460
474.784393	0.290194
475.154761	0.285371
475.525070	0.282108
475.895321	0.288081
476.265513	0.282018
476.635645	0.277397
477.005719	0.277550
477.375734	0.274306
477.745691	0.267455
478.115588	0.263920
478.485427	0.257377
478.855207	0.244270
479.224928	0.226927
479.594591	0.214914
479.964194	0.218365
480.333739	0.219766
480.703226	0.221147
481.072653	0.219723
481.442022	0.215190
481.811333	0.211506
482.180584	0.215029
482.549777	0.220572
482.918912	0.223971
483.287988	0.223342
483.657005	0.223032
484.025964	0.229670
484.394864	0.226787
484.763706	0.227422
485.132489	0.232370
485.501213	0.233161
485.869879	0.231452
486.238487	0.234806
486.607036	0.232779
486.975527	0.237243
487.343959	0.233109
487.712333	0.232268
488.080648	0.233379
488.448905	0.232641
488.817104	0.234012
489.185244	0.228580
489.553326	0.225482
489.921350	0.215085
490.289315	0.197837
490.657222	0.193001
491.025070	0.193980
491.392861	0.196141
491.760593	0.201877
492.128267	0.207345
492.495883	0.212826
492.863440	0.219283
493.230939	0.225640
493.598380	0.227154
493.965763	0.228995
494.333088	0.231436
494.700354	0.232930
495.067563	0.231780
495.434713	0.235232
495.801805	0.233018
496.168839	0.234397
496.535815	0.235765
496.902733	0.235705
497.269593	0.237601
497.636395	0.235176
498.003139	0.235512
498.369825	0.238383
498.736453	0.234837
499.103023	0.236430
499.469535	0.235815
499.835989	0.235941
500.202385	0.236865
500.568723	0.240218
500.935003	0.235515
501.301226	0.239845
501.667390	0.233780
502.033497	0.232284
502.399546	0.235047
502.765537	0.236637
503.131470	0.235244
503.497345	0.231672
503.863163	0.240238
504.228923	0.233189
504.594625	0.231896
504.960269	0.237206
505.325856	0.232691
505.691385	0.236863
506.056856	0.233847
506.422270	0.233113
506.787625	0.235608
507.152924	0.233023
507.518164	0.233473
507.883347	0.235103
508.248472	0.236753
508.613540	0.231648
508.978550	0.234473
509.343503	0.234853
509.708398	0.232627
510.073236	0.229965
510.438016	0.229965
510.802738	0.231098
511.167403	0.229981
511.532010	0.232138
511.896561	0.227370
512.261053	0.226007
512.625488	0.228398
512.989866	0.228614
513.354186	0.228878
513.718449	0.230869
514.082655	0.227010
514.446803	0.229198
514.810894	0.226868
515.174927	0.229657
515.538904	0.228991
515.902822	0.225943
516.266684	0.228119
516.630488	0.229469
516.994235	0.228363
517.357925	0.227072
517.721558	0.225357
518.085133	0.224950
518.448651	0.224927
518.812112	0.227098
519.175516	0.226739
519.538863	0.224481
519.902152	0.226100
520.265385	0.222761
520.628560	0.224703
520.991678	0.225059
521.354739	0.223872
521.717743	0.225054
522.080690	0.225610
522.443580	0.222983
522.806413	0.223933
523.169189	0.223315
523.531908	0.222178
523.894569	0.225578
524.257174	0.225542
524.619722	0.223197
524.982213	0.224591
525.344647	0.223402
525.707025	0.224265
526.069345	0.222351
526.431608	0.223926
526.793815	0.221780
527.155964	0.225924
527.518057	0.224845
527.880093	0.226092
528.242072	0.224515
528.603995	0.226697
528.965860	0.228159
529.327669	0.226937
529.689421	0.227849
530.051117	0.228903
530.412755	0.226306
530.774337	0.229032
531.135862	0.229122
531.497331	0.228710
531.858743	0.231206
532.220098	0.228196
532.581396	0.230657
532.942638	0.230989
533.303824	0.232159
533.664953	0.231940
534.026025	0.233546
534.387040	0.231495
534.747999	0.231492
535.108902	0.230217
535.469748	0.235344
535.830537	0.232923
536.191270	0.233762
536.551947	0.232948
536.912567	0.233245
537.273131	0.234680
537.633638	0.234843
537.994089	0.235491
538.354483	0.236466
538.714821	0.233576
539.075103	0.233235
539.435328	0.234230
539.795497	0.237690
540.155609	0.234299
540.515665	0.232503
540.875665	0.238297
541.235609	0.236396
541.595496	0.236819
541.955328	0.233196
542.315102	0.235876
542.674821	0.236603
543.034483	0.237020
543.394090	0.236688
543.753640	0.238794
544.113134	0.233713
544.472571	0.236903
544.831953	0.233854
545.191278	0.237773
545.550548	0.237414
545.909761	0.234125
546.268918	0.234946
546.628019	0.233097
546.987064	0.235927
547.346053	0.237616
547.704986	0.235376
548.063863	0.235923
548.422684	0.236162
548.781449	0.238072
549.140158	0.235444
549.498811	0.238255
549.857408	0.241468
550.215949	0.236173
550.574434	0.239480
550.932864	0.237198
551.291237	0.235958
551.649555	0.237354
552.007817	0.237087
552.366022	0.237884
552.724173	0.238269
553.082267	0.238457
553.440305	0.235560
553.798288	0.239556
554.156215	0.236413
554.514086	0.236851
554.871902	0.240177
555.229661	0.239324
555.587365	0.239691
555.945014	0.242408
556.302606	0.239404
556.660143	0.241979
557.017625	0.238341
557.375050	0.240766
557.732421	0.237581
558.089735	0.239567
558.446994	0.239685
558.804197	0.238866
559.161345	0.238969
559.518437	0.242256
559.875474	0.240098
560.232455	0.239399
560.589381	0.240600
560.946251	0.240703
561.303065	0.238317
561.659825	0.239611
562.016528	0.241134
562.373177	0.243931
562.729770	0.241121
563.086307	0.243422
563.442789	0.240986
563.799216	0.244156
564.155587	0.242658
564.511904	0.243985
564.868164	0.243876
565.224370	0.243879
565.580520	0.245647
565.936615	0.245915
566.292654	0.248415
566.648638	0.245875
567.004567	0.246486
567.360441	0.247115
567.716260	0.249253
568.072023	0.246945
568.427732	0.247486
568.783385	0.249796
569.138982	0.248028
569.494525	0.247496
569.850013	0.250616
570.205445	0.249111
570.560823	0.251623
570.916145	0.253428
571.271412	0.251753
571.626625	0.253157
571.981782	0.253817
572.336884	0.254727
572.691931	0.254009
573.046923	0.255652
573.401860	0.256694
573.756743	0.258648
574.111570	0.257414
574.466342	0.257887
574.821059	0.257083
575.175722	0.259791
575.530330	0.259809
575.884882	0.259867
576.239380	0.261606
576.593823	0.262566
576.948211	0.261664
577.302544	0.265176
577.656823	0.264650
578.011047	0.264939
578.365216	0.265561
578.719330	0.267378
579.073389	0.267260
579.427394	0.268441
579.781344	0.269310
580.135239	0.270803
580.489080	0.270640
580.842866	0.273140
581.196597	0.273140
581.550273	0.271901
581.903895	0.272952
582.257463	0.271041
582.610975	0.274464
582.964434	0.273838
583.317837	0.276475
583.671186	0.276693
584.024481	0.276648
584.377721	0.279139
584.730906	0.279744
585.084037	0.278705
585.437113	0.280797
585.790135	0.280314
586.143103	0.282788
586.496016	0.284560
586.848874	0.281885
587.201679	0.282711
587.554428	0.286010
587.907124	0.284768
588.259765	0.285272
588.612352	0.285993
588.964884	0.289491
589.317362	0.289242
589.669786	0.289435
590.022155	0.287863
590.374470	0.286998
590.726731	0.289097
591.078937	0.294021
591.431090	0.290248
591.783188	0.294336
592.135232	0.294553
592.487222	0.294985
592.839157	0.292977
593.191038	0.295327
593.542866	0.297341
593.894639	0.300443
594.246358	0.298752
594.598022	0.298139
594.949633	0.301783
595.301190	0.302422
595.652692	0.301817
596.004141	0.297931
596.355535	0.305742
596.706876	0.306113
597.058162	0.309009
597.409395	0.305857
597.760573	0.303515
598.111698	0.307127
598.462768	0.307552
598.813785	0.308948
599.164748	0.310217
599.515657	0.310391
599.866511	0.313706
600.217312	0.309185
600.568060	0.314120
600.918753	0.310700
601.269392	0.311299
601.619978	0.315259
601.970510	0.312672
602.320988	0.312728
602.671412	0.310691
603.021783	0.312749
603.372100	0.314215
603.722363	0.314243
604.072572	0.315209
604.422728	0.314692
604.772830	0.316900
605.122878	0.316347
605.472872	0.317052
605.822813	0.314930
606.172701	0.317743
606.522534	0.315387
606.872314	0.315329
607.222041	0.315923
607.571714	0.314543
607.921333	0.315368
608.270899	0.315394
608.620411	0.312131
608.969870	0.315927
609.319276	0.316151
609.668627	0.315802
610.017926	0.314716
610.367171	0.313074
610.716362	0.313814
611.065500	0.313922
611.414585	0.312896
611.763616	0.313779
612.112594	0.313896
612.461518	0.313523
612.810389	0.310927
613.159207	0.313389
613.507971	0.315277
613.856682	0.310447
614.205340	0.312382
614.553945	0.309349
614.902496	0.312834
615.250994	0.311100
615.599439	0.311601
615.947830	0.311643
616.296169	0.312052
616.644454	0.311564
616.992686	0.311820
617.340864	0.309668
617.688990	0.313205
618.037063	0.309746
618.385082	0.311697
618.733048	0.308828
619.080961	0.311053
619.428821	0.310357
619.776628	0.310100
620.124382	0.311957
620.472083	0.312415
620.819731	0.311448
621.167326	0.315297
621.514868	0.315222
621.862357	0.319623
622.209793	0.319158
622.557176	0.321441
622.904506	0.322203
623.251783	0.324852
623.599007	0.326462
623.946179	0.326640
624.293297	0.328713
624.640363	0.332611
624.987376	0.332819
625.334336	0.335282
625.681243	0.337784
626.028097	0.338159
626.374899	0.339544
626.721647	0.339408
627.068343	0.342732
627.414987	0.343735
627.761577	0.346072
628.108115	0.343803
628.454600	0.349559
628.801032	0.346704
629.147412	0.348780
629.493739	0.348919
629.840014	0.352331
630.186236	0.349670
630.532405	0.355207
630.878521	0.352671
631.224585	0.354956
631.570597	0.358796
631.916556	0.357227
632.262462	0.357357
632.608316	0.359092
632.954117	0.360160
633.299866	0.360706
633.645562	0.361239
633.991206	0.365610
634.336797	0.368395
634.682336	0.370987
635.027823	0.373039
635.373257	0.373051
635.718639	0.376507
636.063968	0.375569
636.409245	0.381811
636.754470	0.382021
637.099642	0.384528
637.444762	0.387839
637.789829	0.386829
638.134845	0.390144
638.479808	0.391483
638.824719	0.391297
639.169577	0.395110
639.514383	0.393649
639.859137	0.398371
640.203839	0.398305
640.548489	0.399155
640.893086	0.400149
641.237632	0.401757
641.582125	0.400029
641.926566	0.401146
642.270955	0.401924
642.615292	0.402511
642.959576	0.401053
643.303809	0.402143
643.647990	0.401132
643.992118	0.402329
644.336195	0.405450
644.680219	0.403646
645.024192	0.404627
645.368112	0.398233
645.711981	0.397104
646.055797	0.392182
646.399562	0.394575
646.743274	0.386742
647.086935	0.384285
647.430544	0.384308
647.774101	0.382987
648.117606	0.383029
648.461059	0.383842
648.804460	0.385396
649.147810	0.390639
649.491108	0.393208
649.834354	0.394058
650.177548	0.399721
650.520690	0.405112
650.863781	0.406260
651.206820	0.405674
651.549807	0.410356
651.892742	0.414272
652.235626	0.413371
652.578458	0.414599
652.921238	0.420945
653.263967	0.418721
653.606644	0.422463
653.949269	0.422129
654.291843	0.425987
654.634365	0.423004
654.976836	0.425635
655.319255	0.426266
655.661622	0.428113
656.003938	0.427668
656.346203	0.430646
656.688416	0.428278
657.030577	0.432549
657.372687	0.433755
657.714746	0.434741
658.056753	0.432042
658.398708	0.435554
658.740612	0.436647
659.082465	0.432935
659.424266	0.433277
659.766016	0.432765
660.107715	0.435535
660.449362	0.434667
660.790958	0.435705
661.132503	0.435839
661.473996	0.433529
661.815438	0.434197
662.156829	0.434228
662.498168	0.434927
662.839456	0.436176
663.180693	0.434022
663.521879	0.434006
663.863013	0.434747
664.204097	0.433674
664.545129	0.430637
664.886110	0.430726
665.227040	0.428231
665.567918	0.430439
665.908746	0.429336
666.249522	0.428548
666.590248	0.429774
666.930922	0.427847
667.271545	0.426392
667.612118	0.426618
667.952639	0.428535
668.293109	0.426693
668.633528	0.430025
668.973896	0.429505
669.314213	0.430077
669.654480	0.431708
669.994695	0.432042
670.334859	0.432842
670.674973	0.433150
671.015035	0.432723
671.355047	0.433260
671.695008	0.434708
672.034918	0.436203
672.374777	0.435181
672.714585	0.436601
673.054342	0.436231
673.394049	0.436740
673.733705	0.434184
674.073310	0.435548
674.412864	0.438289
674.752368	0.439072
675.091820	0.439320
675.431223	0.443607
675.770574	0.443249
676.109875	0.446419
676.449125	0.446294
676.788324	0.449063
677.127473	0.453978
677.466571	0.453543
677.805619	0.455312
678.144616	0.456317
678.483562	0.457797
678.822458	0.460944
679.161303	0.461668
679.500098	0.461843
679.838842	0.463515
680.177535	0.463719
680.516179	0.461902
680.854771	0.461667
681.193314	0.454564
681.531805	0.446246
681.870247	0.434180
682.208638	0.426679
682.546978	0.426104
682.885268	0.427393
683.223508	0.433898
683.561697	0.437953
683.899836	0.440252
684.237925	0.443593
684.575963	0.445333
684.913951	0.449617
685.251889	0.444924
685.589776	0.446990
685.927614	0.449344
686.265401	0.443676
686.603137	0.445112
686.940824	0.438980
687.278460	0.437581
687.616046	0.436475
687.953582	0.431399
688.291068	0.432756
688.628504	0.428696
688.965889	0.431373
689.303224	0.434734
689.640510	0.439035
689.977745	0.444908
690.314930	0.452374
690.652065	0.457260
690.989150	0.464437
691.326185	0.470446
691.663170	0.475373
692.000105	0.483074
692.336990	0.489471
692.673825	0.492432
693.010610	0.499377
693.347345	0.504488
693.684030	0.506262
694.020665	0.511127
694.357251	0.519678
694.693786	0.519836
695.030272	0.523622
695.366707	0.526799
695.703093	0.530619
696.039429	0.529124
696.375716	0.530076
696.711952	0.532947
697.048139	0.534826
697.384276	0.536643
697.720363	0.535303
698.056400	0.534193
698.392388	0.539807
698.728326	0.542036
699.064214	0.545846
699.400053	0.546631
699.735842	0.549980
700.071581	0.551910
700.407270	0.555704
700.742910	0.557338
701.078501	0.564386
701.414042	0.565161
701.749533	0.568135
702.084974	0.576887
702.420366	0.569203
702.755709	0.576905
703.091002	0.584957
703.426246	0.577559
703.761440	0.583514
704.096584	0.588866
704.431679	0.585852
704.766725	0.587429
705.101721	0.589914
705.436668	0.585093
705.771565	0.592244
706.106413	0.588886
706.441212	0.584562
706.775961	0.583423
707.110661	0.586392
707.445311	0.582410
707.779913	0.579725
708.114465	0.577416
708.448967	0.574838
708.783421	0.566254
709.117825	0.561439
709.452180	0.561736
709.786485	0.555057
710.120742	0.544287
710.454949	0.547166
710.789107	0.539018
711.123216	0.530253
711.457275	0.532101
711.791286	0.522512
712.125247	0.522047
712.459159	0.532462
712.793023	0.525026
713.126837	0.529195
713.460602	0.529734
713.794318	0.539142
714.127985	0.537836
714.461602	0.548383
714.795171	0.551191
715.128691	0.558820
715.462162	0.566821
715.795584	0.572151
716.128957	0.574984
716.462281	0.581612
716.795556	0.585185
717.128782	0.590931
717.461960	0.599564
717.795088	0.598076
718.128167	0.604533
718.461198	0.613146
718.794180	0.613310
719.127113	0.616817
719.459997	0.620312
719.792833	0.626037
720.125619	0.627331
720.458357	0.634019
720.791046	0.632852
721.123686	0.636832
721.456278	0.643398
721.788821	0.640683
722.121315	0.644855
722.453761	0.648986
722.786158	0.647169
723.118506	0.643158
723.450805	0.651337
723.783056	0.646872
724.115259	0.643488
724.447412	0.644372
724.779518	0.645847
725.111574	0.644688
725.443582	0.639383
725.775542	0.642199
726.107453	0.633873
726.439315	0.633983
726.771129	0.631714
727.102895	0.625665
727.434612	0.618797
727.766281	0.616337
728.097901	0.615944
728.429473	0.615615
728.760996	0.613466
729.092471	0.613534
729.423897	0.617273
729.755276	0.617170
730.086606	0.617129
730.417887	0.611331
730.749120	0.602489
731.080305	0.593694
731.411442	0.588796
731.742530	0.594395
732.073570	0.593700
732.404562	0.585924
732.735506	0.587016
733.066401	0.591508
733.397249	0.600363
733.728048	0.611648
734.058798	0.624880
734.389501	0.635187
734.720156	0.644701
735.050762	0.653190
735.381320	0.653710
735.711831	0.663190
736.042293	0.668464
736.372707	0.663777
736.703073	0.668594
737.033391	0.671009
737.363661	0.667200
737.693883	0.662656
738.024056	0.662684
738.354182	0.662783
738.684260	0.651049
739.014290	0.647873
739.344272	0.648897
739.674207	0.641684
740.004093	0.641254
740.333931	0.641842
740.663722	0.641742
740.993464	0.642164
741.323159	0.645265
741.652806	0.651851
741.982405	0.655434
742.311956	0.660387
742.641460	0.663085
742.970915	0.665885
743.300323	0.674162
743.629683	0.680591
743.958996	0.682122
744.288260	0.686892
744.617477	0.692229
744.946647	0.694889
745.275768	0.699465
745.604842	0.699145
745.933869	0.710067
746.262847	0.710418
746.591778	0.704294
746.920662	0.709848
747.249498	0.716194
747.578286	0.707956
747.907027	0.702635
748.235720	0.704211
748.564365	0.699215
748.892963	0.699260
749.221514	0.702082
749.550017	0.707190
749.878473	0.707449
750.206881	0.714037
750.535242	0.714761
750.863555	0.714338
751.191821	0.715605
751.520039	0.718747
751.848210	0.723074
752.176334	0.716275
752.504411	0.715107
752.832440	0.722605
753.160421	0.727952
753.488356	0.725333
753.816243	0.722832
754.144082	0.731082
754.471875	0.734743
754.799620	0.729627
755.127318	0.731521
755.454969	0.731107
755.782572	0.730518
756.110129	0.736318
756.437638	0.738091
756.765100	0.734321
757.092515	0.733574
757.419882	0.732273
757.747203	0.737704
758.074477	0.736761
758.401703	0.734151
758.728882	0.728288
759.056014	0.727389
759.383099	0.726390
759.710138	0.727069
760.037129	0.724248
760.364073	0.718374
760.690970	0.721147
761.017820	0.726104
761.344623	0.721786
761.671379	0.712517
761.998088	0.700947
762.324751	0.678715
762.651366	0.635817
762.977935	0.568840
763.304456	0.517246
763.630931	0.507399
763.957359	0.546951
764.283740	0.591322
764.610074	0.618275
764.936362	0.650090
765.262602	0.676929
765.588796	0.697734
765.914943	0.716453
766.241044	0.733344
766.567097	0.740865
766.893104	0.750332
767.219064	0.756787
767.544978	0.763340
767.870845	0.776685
768.196665	0.780852
768.522438	0.778717
768.848165	0.779567
769.173846	0.789226
769.499479	0.793109
769.825066	0.797260
770.150607	0.801566
770.476101	0.795759
770.801548	0.797695
771.126949	0.809827
771.452303	0.813347
771.777611	0.811993
772.102872	0.811893
772.428087	0.817243
772.753256	0.819771
773.078378	0.821923
773.403453	0.830921
773.728482	0.834824
774.053465	0.828117
774.378401	0.832117
774.703291	0.840352
775.028135	0.840418
775.352932	0.841674
775.677683	0.844300
776.002388	0.846405
776.327046	0.844359
776.651658	0.848610
776.976224	0.850531
777.300743	0.851630
777.625216	0.854339
777.949643	0.855470
778.274024	0.857426
778.598359	0.857986
778.922647	0.856576
779.246889	0.856828
779.571086	0.861395
779.895236	0.862554
780.219339	0.859105
780.543397	0.857061
780.867409	0.855768
781.191374	0.858464
781.515294	0.859571
781.839167	0.857804
782.162995	0.861446
782.486776	0.858559
782.810511	0.859132
783.134201	0.862477
783.457844	0.860969
783.781441	0.863015
784.104993	0.868696
784.428498	0.869239
784.751958	0.864932
785.075372	0.867262
785.398739	0.872101
785.722061	0.867667
786.045337	0.863723
786.368568	0.867929
786.691752	0.870724
787.014891	0.856690
787.337983	0.847432
787.661030	0.840396
787.984031	0.822716
788.306987	0.809819
788.629897	0.812022
788.952760	0.815686
789.275579	0.820569
789.598351	0.835416
789.921078	0.849004
790.243759	0.851838
790.566395	0.856321
790.888984	0.863061
791.211529	0.867377
791.534027	0.871197
791.856480	0.873068
792.178888	0.878428
792.501249	0.880339
792.823566	0.882699
793.145836	0.880702
793.468062	0.884802
793.790241	0.883479
794.112375	0.882523
794.434464	0.878352
794.756507	0.877131
795.078505	0.876990
795.400457	0.870545
795.722364	0.859744
796.044226	0.852679
796.366042	0.852041
796.687812	0.853648
797.009538	0.851486
797.331218	0.853340
797.652852	0.858375
797.974442	0.863005
798.295986	0.862569
798.617484	0.865542
798.938938	0.870932
799.260346	0.875353
799.581709	0.877517
799.903026	0.879708
800.224299	0.879392
800.545526	0.883809
800.866708	0.887938
801.187845	0.891741
801.508936	0.891713
801.829983	0.888910
802.150984	0.892149
802.471940	0.897098
802.792851	0.897314
803.113717	0.897347
803.434538	0.895702
803.755314	0.897342
804.076045	0.899419
804.396731	0.899603
804.717372	0.898879
805.037967	0.901580
805.358518	0.898578
805.679024	0.895632
805.999485	0.896328
806.319901	0.897127
806.640272	0.896824
806.960598	0.895052
807.280879	0.892818
807.601115	0.891807
807.921306	0.895210
808.241453	0.895863
808.561554	0.893657
808.881611	0.892685
809.201623	0.894957
809.521590	0.895281
809.841513	0.896010
810.161390	0.895258
810.481223	0.896866
810.801011	0.900310
811.120755	0.901987
811.440453	0.901102
811.760107	0.899549
812.079716	0.899366
812.399281	0.902692
812.718801	0.905739
813.038276	0.906522
813.357707	0.906544
813.677093	0.901585
813.996434	0.906803
814.315731	0.908697
814.634983	0.908550
814.954191	0.906837
815.273354	0.903609
815.592473	0.900976
815.911547	0.899976
816.230577	0.897784
816.549562	0.895384
816.868502	0.895989
817.187399	0.892716
817.506250	0.887281
817.825058	0.889112
818.143821	0.885137
818.462539	0.880705
818.781213	0.872112
819.099843	0.860885
819.418429	0.845426
819.736970	0.828378
820.055466	0.808562
820.373919	0.782399
820.692327	0.749727
821.010691	0.714374
821.329011	0.636520
821.647286	0.520571
821.965517	0.406489
822.283704	0.363742
822.601847	0.364554
822.919945	0.400214
823.237999	0.434427
823.556010	0.481947
823.873976	0.537198
824.191897	0.588223
824.509775	0.631065
824.827609	0.676127
825.145398	0.699576
825.463144	0.702239
825.780845	0.685586
826.098502	0.666306
826.416116	0.620548
826.733685	0.575925
827.051210	0.567447
827.368692	0.581777
827.686129	0.620561
828.003522	0.673532
828.320872	0.720860
828.638177	0.765418
828.955439	0.798121
829.272656	0.820008
829.589830	0.837288
829.906960	0.852959
830.224046	0.865874
830.541088	0.876090
830.858086	0.880853
831.175041	0.885813
831.491952	0.884831
831.808819	0.882978
832.125642	0.875322
832.442421	0.860803
832.759157	0.838368
833.075849	0.792734
833.392497	0.728496
833.709101	0.686868
834.025662	0.696937
834.342179	0.728494
834.658653	0.767777
834.975083	0.803817
835.291469	0.829813
835.607811	0.853104
835.924110	0.869576
836.240366	0.886452
836.556578	0.899759
836.872746	0.906397
837.188871	0.913816
837.504952	0.919121
837.820990	0.923105
838.136984	0.926800
838.452935	0.929151
838.768842	0.930251
839.084706	0.924024
839.400526	0.897694
839.716303	0.857997
840.032037	0.834960
840.347727	0.838539
840.663373	0.856838
840.978977	0.878932
841.294537	0.900810
841.610054	0.918133
841.925527	0.925416
842.240957	0.932090
842.556344	0.939537
842.871687	0.946460
843.186987	0.950944
843.502244	0.949087
843.817458	0.952340
844.132629	0.955796
844.447756	0.959609
844.762840	0.960479
845.077881	0.959688
845.392879	0.959820
845.707833	0.961654
846.022745	0.964595
846.337613	0.965583
846.652438	0.966303
846.967221	0.963812
847.281960	0.964840
847.596656	0.967493
847.911309	0.964522
848.225919	0.967396
848.540485	0.967439
848.855009	0.968684
849.169490	0.968430
849.483928	0.969187
849.798323	0.968492
850.112675	0.969378
850.426984	0.969004
850.741251	0.969484
851.055474	0.970558
851.369654	0.967324
851.683792	0.968869
851.997887	0.969458
852.311938	0.969397
852.625947	0.970301
852.939914	0.967636
853.253837	0.968686
853.567718	0.971907
853.881555	0.970015
854.195350	0.967335
854.509103	0.969403
854.822812	0.969772
855.136479	0.969892
855.450103	0.970097
855.763685	0.967268
856.077224	0.967877
856.390720	0.970057
856.704173	0.969504
857.017584	0.968940
857.330953	0.966820
857.644278	0.968003
857.957561	0.967763
858.270802	0.967582
858.584000	0.967596
858.897155	0.966788
859.210268	0.966773
859.523339	0.968074
859.836367	0.970672
860.149352	0.969994
860.462295	0.967656
860.775195	0.970002
861.088054	0.967486
861.400869	0.968664
861.713642	0.970368
862.026373	0.969545
862.339062	0.971704
862.651708	0.966814
862.964312	0.967787
863.276873	0.969413
863.589392	0.968569
863.901869	0.966535
864.214303	0.964310
864.526696	0.963573
864.839045	0.962722
865.151353	0.961348
865.463619	0.961291
865.775842	0.961843
866.088023	0.961801
866.400162	0.962096
866.712258	0.961333
867.024313	0.962292
867.336325	0.963665
867.648296	0.963373
867.960224	0.961468
868.272110	0.961204
868.583954	0.963328
868.895755	0.963908
869.207515	0.961053
869.519233	0.959031
869.830909	0.961176
870.142542	0.962772
870.454134	0.960847
870.765684	0.959882
871.077191	0.958472
871.388657	0.957853
871.700081	0.957866
872.011463	0.958178
872.322803	0.958163
872.634101	0.955837
872.945357	0.954581
873.256571	0.952265
873.567744	0.952323
873.878874	0.953218
874.189963	0.951402
874.501010	0.951200
874.812015	0.949333
875.122979	0.950844
875.433900	0.952591
875.744780	0.952623
876.055618	0.950712
876.366415	0.949367
876.677169	0.949527
876.987882	0.950996
877.298554	0.949718
877.609183	0.947245
877.919771	0.945380
878.230317	0.941453
878.540822	0.939146
878.851285	0.933778
879.161707	0.925892
879.472087	0.914122
879.782425	0.897623
880.092722	0.862259
880.402977	0.810623
880.713191	0.749271
881.023363	0.689644
881.333494	0.655713
881.643583	0.627259
881.953631	0.627079
882.263637	0.655556
882.573602	0.694895
882.883526	0.720916
883.193408	0.745639
883.503248	0.768234
883.813048	0.795190
884.122806	0.825160
884.432522	0.849209
884.742197	0.868290
885.051831	0.879814
885.361424	0.890596
885.670975	0.902018
885.980485	0.911946
886.289954	0.918033
886.599382	0.923771
886.908768	0.927924
887.218113	0.933336
887.527417	0.938097
887.836680	0.940799
888.145901	0.943402
888.455082	0.946579
888.764221	0.949849
889.073319	0.952568
889.382376	0.951439
889.691392	0.952478
890.000366	0.950974
890.309300	0.953144
890.618193	0.952687
890.927044	0.950537
891.235855	0.950658
891.544625	0.950078
891.853353	0.951616
892.162041	0.948727
892.470687	0.941949
892.779293	0.936434
893.087858	0.932972
893.396381	0.925317
893.704864	0.912199
894.013306	0.887748
894.321707	0.860565
894.630068	0.845822
894.938387	0.841353
895.246665	0.841907
895.554903	0.855532
895.863100	0.868484
896.171256	0.885108
896.479371	0.905670
896.787446	0.917408
897.095480	0.923269
897.403473	0.926145
897.711425	0.931646
898.019336	0.939176
898.327207	0.941786
898.635038	0.945102
898.942827	0.944964
899.250576	0.948045
899.558284	0.951597
899.865952	0.953028
900.173579	0.954973
900.481165	0.955206
900.788711	0.959068
901.096216	0.961305
901.403681	0.959616
901.711105	0.962910
902.018489	0.962606
902.325832	0.962037
902.633135	0.962159
902.940397	0.955831
903.247619	0.943055
903.554800	0.917563
903.861941	0.876528
904.169041	0.839880
904.476101	0.823207
904.783121	0.824021
905.090100	0.840119
905.397039	0.861926
905.703938	0.885491
906.010796	0.904772
906.317614	0.922357
906.624391	0.933287
906.931129	0.943142
907.237826	0.951562
907.544483	0.957999
907.851099	0.961834
908.157675	0.967098
908.464211	0.969416
908.770707	0.972384
909.077163	0.972289
909.383578	0.974731
909.689954	0.974639
909.996289	0.975332
910.302584	0.976536
910.608839	0.979951
910.915054	0.977155
911.221229	0.977730
911.527363	0.977015
911.833458	0.977401
912.139513	0.975779
912.445527	0.974924
912.751502	0.973314
913.057436	0.972339
913.363331	0.969808
913.669186	0.965314
913.975000	0.960012
914.280775	0.954734
914.586510	0.945877
914.892205	0.934308
915.197859	0.912207
915.503475	0.883893
915.809050	0.864456
916.114585	0.859623
916.420081	0.855749
916.725536	0.852996
917.030952	0.861284
917.336328	0.875134
917.641665	0.890530
917.946961	0.906575
918.252218	0.917807
918.557435	0.925133
918.862612	0.935471
919.167750	0.941132
919.472848	0.946075
919.777906	0.951503
920.082925	0.956309
920.387904	0.961658
920.692843	0.962454
920.997743	0.964583
921.302603	0.967148
921.607423	0.967531
921.912204	0.970787
922.216946	0.972359
922.521647	0.973630
922.826310	0.974387
923.130932	0.976941
923.435516	0.978032
923.740059	0.979729
924.044564	0.978202
924.349028	0.980213
924.653454	0.982987
924.957840	0.983465
925.262186	0.983882
925.566493	0.983334
925.870761	0.984385
926.174989	0.985875
926.479178	0.987713
926.783328	0.987937
927.087438	0.987754
927.391509	0.986936
927.695541	0.989266
927.999533	0.989595
928.303486	0.988825
928.607400	0.991735
928.911275	0.989048
929.215110	0.990399
929.518906	0.990766
929.822663	0.990072
930.126381	0.991687
930.430060	0.989631
930.733699	0.989995
931.037299	0.989389
931.340861	0.991180
931.644383	0.989446
931.947866	0.989262
932.251309	0.990107
932.554714	0.989748
932.858080	0.990170
933.161407	0.989293
933.464694	0.991203
933.767943	0.990382
934.071153	0.990771
934.374323	0.991889
934.677455	0.991843
934.980548	0.991328
935.283602	0.989054
935.586617	0.991514
935.889593	0.989506
936.192530	0.991835
936.495428	0.990802
936.798287	0.990310
937.101108	0.990501
937.403890	0.988779
937.706632	0.988079
938.009336	0.985920
938.312002	0.985187
938.614628	0.984314
938.917216	0.982637
939.219765	0.981707
939.522275	0.981839
939.824747	0.983364
940.127179	0.983040
940.429573	0.983956
940.731929	0.983442
941.034246	0.984663
941.336524	0.985097
941.638763	0.985362
941.940964	0.986175
942.243126	0.986684
942.545250	0.987363
942.847335	0.987561
943.149381	0.988221
943.451389	0.987994
943.753359	0.988907
944.055290	0.990825
944.357182	0.988860
944.659036	0.988115
944.960851	0.988545
945.262628	0.989362
945.564367	0.990658
945.866067	0.990214
946.167729	0.991090
946.469352	0.990165
946.770937	0.989125
947.072484	0.989766
947.373992	0.990835
947.675462	0.989564
947.976893	0.989329
948.278286	0.989731
948.579641	0.990824
948.880958	0.991087
949.182236	0.990455
949.483476	0.991426
949.784678	0.989689
950.085841	0.991094
950.386967	0.991475
950.688054	0.989957
950.989103	0.991006
951.290114	0.990195
951.591087	0.989943
951.892021	0.989609
952.192917	0.988620
952.493776	0.987919
952.794596	0.988729
953.095378	0.986981
953.396122	0.987378
953.696828	0.987662
953.997496	0.989443
954.298126	0.990661
954.598718	0.990780
954.899272	0.991192
955.199788	0.991366
955.500266	0.990934
955.800706	0.992501
956.101108	0.993461
956.401472	0.994455
956.701798	0.993994
957.002087	0.993450
957.302337	0.993763
957.602550	0.994427
957.902724	0.994261
958.202861	0.995162
958.502960	0.994623
958.803022	0.994132
959.103045	0.995489
959.403031	0.995583
959.702979	0.994454
960.002889	0.996133
960.302762	0.994498
960.602596	0.995538
960.902393	0.994563
961.202153	0.998095
961.501875	0.996872
961.801559	0.995981
962.101205	0.995209
962.400814	0.996132
962.700385	0.996721
962.999918	0.996305
963.299414	0.996304
963.598873	0.997152
963.898293	0.996806
964.197677	0.995862
964.497022	0.996729
964.796331	0.996733
965.095601	0.996938
965.394835	0.996349
965.694030	0.996723
965.993189	0.996956
966.292309	0.996413
966.591393	0.997804
966.890439	0.996669
967.189447	0.997055
967.488419	0.997474
967.787353	0.995971
968.086249	0.997395
968.385108	0.995924
968.683930	0.997049
968.982714	0.997634
969.281462	0.996700
969.580172	0.995768
969.878844	0.997748
970.177480	0.997447
970.476078	0.997055
970.774639	0.997081
971.073162	0.996840
971.371649	0.997116
971.670098	0.996774
971.968510	0.996359
972.266885	0.995929
972.565223	0.996121
972.863524	0.996106
973.161788	0.995662
973.460014	0.997251
973.758204	0.995429
974.056356	0.996897
974.354471	0.994654
974.652550	0.996784
974.950591	0.995752
975.248595	0.996444
975.546563	0.996457
975.844493	0.997777
976.142386	0.997058
976.440243	0.998389
976.738062	0.996083
977.035845	0.997803
977.333590	0.997634
977.631299	0.997804
977.928971	0.996887
978.226606	0.996668
978.524204	0.996824
978.821765	0.997600
979.119290	0.996259
979.416777	0.996183
979.714228	0.997475
980.011642	0.996299
980.309020	0.997348
980.606360	0.996417
980.903664	0.998770
981.200931	0.995708
981.498162	0.995427
981.795356	0.994868
982.092513	0.993455
982.389633	0.994254
982.686717	0.992100
982.983764	0.990907
983.280775	0.990706
983.577749	0.990060
983.874686	0.990913
984.171587	0.990889
984.468451	0.995089
984.765279	0.994757
985.062070	0.994037
985.358824	0.993824
985.655543	0.995283
985.952224	0.995182
986.248869	0.996284
986.545478	0.994803
986.842050	0.998875
987.138586	0.995679
987.435086	0.997424
987.731549	0.997542
988.027975	0.998515
988.324366	0.997548
988.620719	0.996317
988.917037	0.996126
989.213318	0.996656
989.509563	0.999294
989.805772	0.998420
990.101944	0.997787
990.398080	0.997185
990.694180	0.997627
990.990244	0.997551
991.286271	0.998431
991.582262	0.998450
991.878217	0.997487
992.174136	0.997947
992.470019	0.999088
992.765865	0.997847
993.061676	0.997062
993.357450	0.998242
993.653188	0.996489
993.948890	0.997326
994.244556	0.998039
994.540186	0.998500
994.835780	0.996808
995.131337	0.997586
995.426859	0.996734
995.722345	0.997119
996.017795	0.997040
996.313208	0.995876
996.608586	0.995430
996.903928	0.996737
997.199234	0.995827
997.494504	0.996291
997.789738	0.996391
998.084936	0.995980
998.380099	0.997472
998.675225	0.997804
998.970316	0.997276
999.265371	0.998585
999.560390	0.997311
999.855373	0.998497
1000.150320	0.997844
1000.445232	0.997940
1000.740108	0.997568
1001.034948	0.998586
1001.329752	1.000203
1001.624521	0.998185
1001.919254	0.997379
1002.213951	0.998015
1002.508613	0.998235
1002.803239	0.999080
1003.097829	0.998630
1003.392384	0.998907
1003.686903	0.998826
1003.981386	0.997789
1004.275834	0.999800
1004.570246	0.998903
1004.864623	0.999251
1005.158964	0.998851
1005.453270	0.998878
1005.747540	0.997589
1006.041775	0.998328
1006.335974	0.998828
1006.630138	0.999886
1006.924266	0.999011
1007.218359	1.000107
1007.512416	0.998801
1007.806438	0.999110
1008.100425	0.998584
1008.394376	0.998693
1008.688292	0.997887
1008.982172	1.001116
1009.276017	0.999457
1009.569827	0.999475
1009.863602	0.997739
1010.157341	1.000323
1010.451045	0.999503
1010.744714	0.999219
1011.038347	0.999536
1011.331945	0.998565
1011.625508	0.997381
1011.919036	0.999654
1012.212528	0.998665
1012.505986	0.997143
1012.799408	0.998853
1013.092795	0.999326
1013.386147	0.998038
1013.679464	0.999629
1013.972745	0.997576
1014.265992	0.997568
1014.559204	0.998743
1014.852380	0.999880
1015.145521	0.997915
1015.438628	0.998744
1015.731699	0.998316
1016.024736	0.999364
1016.317737	0.998312
1016.610703	0.999128
1016.903635	0.999434
1017.196531	0.998538
1017.489393	0.999877
1017.782219	0.998873
1018.075011	0.999077
1018.367768	0.998839
1018.660490	0.999785
1018.953177	0.999785
1019.245829	0.999785
