Dividing Wavelength (nm)	Counts (n)	Blue Motor Position (mm): 0.000000	Red Motor Position (mm): 15.100000	
326.493990	1.000875
326.888308	1.000875
327.282561	1.000875
327.676750	1.000617
328.070874	1.000012
328.464933	1.000238
328.858929	0.999949
329.252859	0.999964
329.646726	0.999183
330.040528	1.001172
330.434265	1.000697
330.827938	1.001585
331.221547	1.001631
331.615091	1.000501
332.008571	1.000605
332.401986	1.000225
332.795338	1.001296
333.188625	0.998395
333.581847	1.000770
333.975006	0.999452
334.368100	0.999905
334.761129	0.999664
335.154095	1.000127
335.546996	0.998280
335.939833	0.992572
336.332606	0.993170
336.725315	0.994952
337.117960	0.994277
337.510540	0.994102
337.903056	0.994972
338.295508	0.993422
338.687896	0.993456
339.080220	0.995210
339.472480	0.993964
339.864676	0.992765
340.256807	0.994377
340.648875	0.994330
341.040879	0.995225
341.432818	0.994608
341.824694	0.994867
342.216506	0.994994
342.608253	0.993666
342.999937	0.994622
343.391557	0.994412
343.783113	0.994773
344.174605	0.993327
344.566033	0.995801
344.957397	0.993888
345.348697	0.993986
345.739934	0.993608
346.131106	0.993731
346.522215	0.993824
346.913260	0.993688
347.304241	0.994207
347.695159	0.994186
348.086012	0.992766
348.476802	0.994136
348.867528	0.993983
349.258191	0.993042
349.648789	0.994839
350.039324	0.994195
350.429796	0.994770
350.820203	0.994556
351.210548	0.994706
351.600828	0.994095
351.991045	0.994379
352.381198	0.993700
352.771288	0.992934
353.161314	0.993680
353.551276	0.995078
353.941175	0.993861
354.331010	0.994018
354.720782	0.995202
355.110490	0.993031
355.500135	0.994134
355.889717	0.993646
356.279235	0.993236
356.668689	0.994297
357.058080	0.994256
357.447408	0.996092
357.836672	0.993821
358.225873	0.993649
358.615010	0.994697
359.004084	0.995498
359.393095	0.995118
359.782043	0.993564
360.170927	0.995918
360.559748	0.994306
360.948505	0.993480
361.337199	0.994569
361.725830	0.995589
362.114398	0.994146
362.502903	0.993546
362.891344	0.994774
363.279722	0.994077
363.668037	0.993741
364.056289	0.994811
364.444478	0.994778
364.832603	0.994438
365.220665	0.992772
365.608665	0.993882
365.996601	0.993145
366.384474	0.993799
366.772284	0.993962
367.160031	0.992903
367.547715	0.993582
367.935336	0.994266
368.322893	0.993270
368.710388	0.992735
369.097820	0.994499
369.485189	0.993511
369.872495	0.992490
370.259738	0.992247
370.646918	0.994637
371.034035	0.993124
371.421090	0.993860
371.808081	0.992517
372.195010	0.993843
372.581875	0.994933
372.968678	0.993222
373.355418	0.993930
373.742096	0.993795
374.128710	0.994418
374.515262	0.993535
374.901751	0.994129
375.288177	0.993744
375.674540	0.994402
376.060841	0.992940
376.447079	0.994218
376.833254	0.993828
377.219367	0.994151
377.605417	0.995146
377.991404	0.993590
378.377329	0.993071
378.763191	0.993163
379.148991	0.994184
379.534727	0.994215
379.920402	0.994450
380.306013	0.994129
380.691563	0.994898
381.077049	0.994296
381.462474	0.994015
381.847835	0.994664
382.233134	0.993801
382.618371	0.994592
383.003545	0.994728
383.388657	0.992836
383.773706	0.993936
384.158693	0.994376
384.543618	0.994031
384.928480	0.995896
385.313280	0.994856
385.698017	0.994768
386.082692	0.994650
386.467305	0.995123
386.851856	0.994531
387.236344	0.993767
387.620770	0.993064
388.005133	0.994247
388.389435	0.995076
388.773674	0.994833
389.157851	0.994517
389.541965	0.994164
389.926018	0.993525
390.310008	0.995631
390.693936	0.994142
391.077802	0.994582
391.461606	0.994404
391.845348	0.994519
392.229027	0.994565
392.612645	0.993692
392.996200	0.994545
393.379694	0.992162
393.763125	0.992571
394.146494	0.990608
394.529801	0.989317
394.913047	0.988085
395.296230	0.985939
395.679351	0.984235
396.062410	0.982411
396.445408	0.980178
396.828343	0.976367
397.211217	0.973503
397.594028	0.971160
397.976778	0.966577
398.359466	0.963154
398.742092	0.958675
399.124656	0.955515
399.507158	0.949799
399.889598	0.945012
400.271977	0.938855
400.654294	0.934587
401.036549	0.928908
401.418742	0.922332
401.800874	0.912985
402.182944	0.907128
402.564952	0.896926
402.946898	0.892980
403.328783	0.884293
403.710606	0.880540
404.092367	0.865652
404.474067	0.859696
404.855705	0.851260
405.237282	0.845833
405.618797	0.832758
406.000250	0.821830
406.381642	0.811155
406.762972	0.804378
407.144240	0.794328
407.525447	0.787100
407.906593	0.774736
408.287677	0.762414
408.668700	0.758463
409.049661	0.745302
409.430560	0.733704
409.811399	0.729630
410.192176	0.710624
410.572891	0.706714
410.953545	0.690961
411.334138	0.690473
411.714669	0.677920
412.095139	0.678296
412.475547	0.659510
412.855894	0.652970
413.236180	0.644660
413.616405	0.641026
413.996568	0.627038
414.376670	0.624720
414.756711	0.622209
415.136691	0.614080
415.516609	0.600603
415.896466	0.591924
416.276262	0.582548
416.655997	0.579490
417.035670	0.557967
417.415283	0.545877
417.794834	0.545369
418.174324	0.545921
418.553753	0.550357
418.933121	0.529927
419.312428	0.519807
419.691674	0.521855
420.070859	0.508109
420.449983	0.512283
420.829045	0.499264
421.208047	0.505694
421.586988	0.496664
421.965867	0.493462
422.344686	0.480217
422.723444	0.490571
423.102141	0.504759
423.480777	0.477645
423.859352	0.496159
424.237866	0.472824
424.616319	0.472153
424.994712	0.462632
425.373044	0.471326
425.751314	0.459126
426.129524	0.474425
426.507673	0.458368
426.885762	0.451170
427.263789	0.455939
427.641756	0.464874
428.019662	0.455127
428.397508	0.454316
428.775292	0.457580
429.153016	0.449883
429.530679	0.456040
429.908282	0.448597
430.285824	0.458898
430.663305	0.437085
431.040726	0.457844
431.418086	0.458258
431.795385	0.449819
432.172624	0.448490
432.549802	0.448453
432.926920	0.447868
433.303977	0.446429
433.680974	0.444071
434.057910	0.442111
434.434786	0.441999
434.811601	0.444347
435.188355	0.426661
435.565050	0.436037
435.941683	0.437353
436.318257	0.421835
436.694770	0.422158
437.071222	0.420509
437.447614	0.424888
437.823946	0.431556
438.200218	0.420837
438.576429	0.430540
438.952580	0.423361
439.328670	0.420140
439.704700	0.426564
440.080670	0.427607
440.456580	0.408722
440.832429	0.416640
441.208218	0.427420
441.583947	0.416936
441.959616	0.416314
442.335224	0.421631
442.710773	0.412826
443.086261	0.410033
443.461689	0.424216
443.837057	0.414505
444.212365	0.404181
444.587612	0.410729
444.962800	0.400857
445.337927	0.402412
445.712995	0.428745
446.088002	0.391388
446.462949	0.401382
446.837837	0.406382
447.212664	0.395010
447.587431	0.386325
447.962139	0.357132
448.336786	0.316500
448.711374	0.327047
449.085901	0.370877
449.460369	0.374762
449.834776	0.378505
450.209124	0.357917
450.583412	0.350548
450.957640	0.343503
451.331808	0.354634
451.705917	0.378167
452.079965	0.382615
452.453954	0.370987
452.827883	0.377877
453.201752	0.372763
453.575562	0.384468
453.949311	0.372159
454.323001	0.378447
454.696632	0.374240
455.070202	0.367463
455.443713	0.359049
455.817164	0.353710
456.190556	0.349504
456.563888	0.346407
456.937160	0.344095
457.310373	0.361367
457.683526	0.360138
458.056619	0.366046
458.429653	0.366535
458.802628	0.369890
459.175542	0.364413
459.548398	0.347148
459.921194	0.339201
460.293930	0.339218
460.666607	0.316931
461.039224	0.304945
461.411782	0.301127
461.784280	0.300106
462.156719	0.304574
462.529099	0.308655
462.901419	0.324550
463.273680	0.329352
463.645882	0.328291
464.018024	0.334605
464.390106	0.327419
464.762130	0.312089
465.134094	0.295040
465.505999	0.264725
465.877845	0.235158
466.249631	0.222138
466.621358	0.229526
466.993026	0.243392
467.364634	0.249479
467.736184	0.258517
468.107674	0.266923
468.479105	0.266296
468.850477	0.272811
469.221790	0.279571
469.593043	0.289974
469.964238	0.294888
470.335373	0.293822
470.706449	0.292213
471.077467	0.292762
471.448425	0.255265
471.819324	0.231100
472.190164	0.230093
472.560945	0.258993
472.931667	0.281173
473.302330	0.285302
473.672934	0.297032
474.043479	0.285278
474.413965	0.286922
474.784393	0.290685
475.154761	0.285679
475.525070	0.282454
475.895321	0.288637
476.265513	0.282724
476.635645	0.277950
477.005719	0.278213
477.375734	0.274580
477.745691	0.268138
478.115588	0.264356
478.485427	0.258014
478.855207	0.244973
479.224928	0.227325
479.594591	0.215412
479.964194	0.218761
480.333739	0.220167
480.703226	0.221709
481.072653	0.219927
481.442022	0.215584
481.811333	0.212036
482.180584	0.215815
482.549777	0.220840
482.918912	0.224394
483.287988	0.223884
483.657005	0.223541
484.025964	0.229978
484.394864	0.227256
484.763706	0.227815
485.132489	0.232741
485.501213	0.233654
485.869879	0.231977
486.238487	0.235631
486.607036	0.233038
486.975527	0.237480
487.343959	0.233512
487.712333	0.232540
488.080648	0.233994
488.448905	0.233282
488.817104	0.234422
489.185244	0.229009
489.553326	0.225763
489.921350	0.215898
490.289315	0.198353
490.657222	0.193351
491.025070	0.194630
491.392861	0.196588
491.760593	0.202329
492.128267	0.207877
492.495883	0.213285
492.863440	0.219582
493.230939	0.225890
493.598380	0.227261
493.965763	0.229215
494.333088	0.231892
494.700354	0.233241
495.067563	0.232188
495.434713	0.235526
495.801805	0.233395
496.168839	0.234597
496.535815	0.236270
496.902733	0.236040
497.269593	0.237757
497.636395	0.235362
498.003139	0.236022
498.369825	0.238808
498.736453	0.235181
499.103023	0.237065
499.469535	0.236204
499.835989	0.236438
500.202385	0.237395
500.568723	0.240632
500.935003	0.235725
501.301226	0.239929
501.667390	0.234347
502.033497	0.232628
502.399546	0.235187
502.765537	0.237046
503.131470	0.235749
503.497345	0.232024
503.863163	0.240905
504.228923	0.233477
504.594625	0.232432
504.960269	0.237611
505.325856	0.232958
505.691385	0.237524
506.056856	0.234193
506.422270	0.233630
506.787625	0.236094
507.152924	0.233388
507.518164	0.233777
507.883347	0.235383
508.248472	0.237215
508.613540	0.232252
508.978550	0.234788
509.343503	0.235147
509.708398	0.232752
510.073236	0.230450
510.438016	0.230626
510.802738	0.231147
511.167403	0.230401
511.532010	0.232466
511.896561	0.227659
512.261053	0.226506
512.625488	0.228572
512.989866	0.228793
513.354186	0.229473
513.718449	0.231203
514.082655	0.227354
514.446803	0.229799
514.810894	0.227120
515.174927	0.230074
515.538904	0.229334
515.902822	0.226441
516.266684	0.228715
516.630488	0.229742
516.994235	0.228611
517.357925	0.227440
517.721558	0.225723
518.085133	0.225415
518.448651	0.225133
518.812112	0.227556
519.175516	0.227172
519.538863	0.224997
519.902152	0.226538
520.265385	0.223124
520.628560	0.225128
520.991678	0.225415
521.354739	0.224441
521.717743	0.225399
522.080690	0.226210
522.443580	0.223351
522.806413	0.224416
523.169189	0.223404
523.531908	0.222558
523.894569	0.226041
524.257174	0.226032
524.619722	0.223751
524.982213	0.224827
525.344647	0.223685
525.707025	0.224801
526.069345	0.222876
526.431608	0.224314
526.793815	0.222467
527.155964	0.226322
527.518057	0.225300
527.880093	0.226367
528.242072	0.224916
528.603995	0.226832
528.965860	0.228685
529.327669	0.227416
529.689421	0.228332
530.051117	0.229001
530.412755	0.226720
530.774337	0.229283
531.135862	0.229407
531.497331	0.228642
531.858743	0.231956
532.220098	0.228519
532.581396	0.230995
532.942638	0.231609
533.303824	0.232419
533.664953	0.232305
534.026025	0.233773
534.387040	0.231878
534.747999	0.231917
535.108902	0.230674
535.469748	0.235686
535.830537	0.233515
536.191270	0.234148
536.551947	0.233738
536.912567	0.233607
537.273131	0.235108
537.633638	0.235572
537.994089	0.235629
538.354483	0.236892
538.714821	0.233852
539.075103	0.233598
539.435328	0.234351
539.795497	0.238413
540.155609	0.234560
540.515665	0.232865
540.875665	0.238369
541.235609	0.237000
541.595496	0.237030
541.955328	0.233586
542.315102	0.236279
542.674821	0.237304
543.034483	0.237346
543.394090	0.237088
543.753640	0.239076
544.113134	0.234012
544.472571	0.237215
544.831953	0.233997
545.191278	0.238248
545.550548	0.237531
545.909761	0.234486
546.268918	0.234976
546.628019	0.233516
546.987064	0.236264
547.346053	0.238007
547.704986	0.235930
548.063863	0.236401
548.422684	0.236625
548.781449	0.238241
549.140158	0.235982
549.498811	0.238556
549.857408	0.241872
550.215949	0.236585
550.574434	0.239647
550.932864	0.237629
551.291237	0.236205
551.649555	0.237603
552.007817	0.237543
552.366022	0.238301
552.724173	0.238401
553.082267	0.238611
553.440305	0.235947
553.798288	0.240190
554.156215	0.236605
554.514086	0.237429
554.871902	0.240601
555.229661	0.239834
555.587365	0.240440
555.945014	0.242815
556.302606	0.239585
556.660143	0.242276
557.017625	0.238418
557.375050	0.241093
557.732421	0.238064
558.089735	0.239829
558.446994	0.240015
558.804197	0.239048
559.161345	0.239031
559.518437	0.242586
559.875474	0.240425
560.232455	0.239828
560.589381	0.240936
560.946251	0.241042
561.303065	0.238595
561.659825	0.240022
562.016528	0.241445
562.373177	0.244177
562.729770	0.241862
563.086307	0.243887
563.442789	0.241648
563.799216	0.244481
564.155587	0.243041
564.511904	0.244309
564.868164	0.244560
565.224370	0.244346
565.580520	0.246133
565.936615	0.245955
566.292654	0.248768
566.648638	0.246102
567.004567	0.246643
567.360441	0.247146
567.716260	0.249346
568.072023	0.246981
568.427732	0.247842
568.783385	0.250402
569.138982	0.248407
569.494525	0.247705
569.850013	0.250620
570.205445	0.249460
570.560823	0.251782
570.916145	0.253998
571.271412	0.252186
571.626625	0.253665
571.981782	0.254041
572.336884	0.255115
572.691931	0.254811
573.046923	0.255934
573.401860	0.256954
573.756743	0.258650
574.111570	0.257629
574.466342	0.257935
574.821059	0.257132
575.175722	0.259784
575.530330	0.259876
575.884882	0.260090
576.239380	0.262178
576.593823	0.262895
576.948211	0.261889
577.302544	0.265293
577.656823	0.264890
578.011047	0.264787
578.365216	0.265635
578.719330	0.267781
579.073389	0.267534
579.427394	0.268846
579.781344	0.269299
580.135239	0.270863
580.489080	0.270811
580.842866	0.273603
581.196597	0.273632
581.550273	0.272022
581.903895	0.273260
582.257463	0.270955
582.610975	0.274718
582.964434	0.274270
583.317837	0.276783
583.671186	0.276907
584.024481	0.277172
584.377721	0.279228
584.730906	0.279934
585.084037	0.279139
585.437113	0.281082
585.790135	0.280554
586.143103	0.283558
586.496016	0.284667
586.848874	0.282221
587.201679	0.282680
587.554428	0.286250
587.907124	0.284880
588.259765	0.285737
588.612352	0.286323
588.964884	0.290161
589.317362	0.289600
589.669786	0.289816
590.022155	0.287846
590.374470	0.287549
590.726731	0.289398
591.078937	0.294065
591.431090	0.290449
591.783188	0.294675
592.135232	0.295314
592.487222	0.295426
592.839157	0.293228
593.191038	0.295459
593.542866	0.297168
593.894639	0.301269
594.246358	0.299117
594.598022	0.298265
594.949633	0.302167
595.301190	0.302671
595.652692	0.301990
596.004141	0.298568
596.355535	0.306243
596.706876	0.306562
597.058162	0.309082
597.409395	0.306394
597.760573	0.304389
598.111698	0.307530
598.462768	0.307896
598.813785	0.309247
599.164748	0.310481
599.515657	0.310453
599.866511	0.314191
600.217312	0.309172
600.568060	0.314864
600.918753	0.311178
601.269392	0.312031
601.619978	0.315055
601.970510	0.312820
602.320988	0.313208
602.671412	0.310834
603.021783	0.313326
603.372100	0.314503
603.722363	0.314358
604.072572	0.315071
604.422728	0.314594
604.772830	0.316949
605.122878	0.316657
605.472872	0.317308
605.822813	0.315601
606.172701	0.318402
606.522534	0.315317
606.872314	0.315675
607.222041	0.316495
607.571714	0.314873
607.921333	0.316026
608.270899	0.315963
608.620411	0.312600
608.969870	0.316258
609.319276	0.316577
609.668627	0.316649
610.017926	0.314949
610.367171	0.313420
610.716362	0.313989
611.065500	0.314665
611.414585	0.313089
611.763616	0.313347
612.112594	0.314138
612.461518	0.313625
612.810389	0.311485
613.159207	0.313760
613.507971	0.315218
613.856682	0.311045
614.205340	0.312455
614.553945	0.309678
614.902496	0.313573
615.250994	0.311092
615.599439	0.311900
615.947830	0.311783
616.296169	0.312695
616.644454	0.312408
616.992686	0.312304
617.340864	0.309771
617.688990	0.313780
618.037063	0.310327
618.385082	0.312301
618.733048	0.309161
619.080961	0.311470
619.428821	0.310599
619.776628	0.310216
620.124382	0.312258
620.472083	0.312420
620.819731	0.311862
621.167326	0.315784
621.514868	0.315548
621.862357	0.319776
622.209793	0.319583
622.557176	0.321292
622.904506	0.322970
623.251783	0.325100
623.599007	0.327402
623.946179	0.326781
624.293297	0.328780
624.640363	0.332710
624.987376	0.333102
625.334336	0.336068
625.681243	0.338281
626.028097	0.338459
626.374899	0.339570
626.721647	0.340000
627.068343	0.343209
627.414987	0.344244
627.761577	0.346059
628.108115	0.344574
628.454600	0.349824
628.801032	0.347026
629.147412	0.348773
629.493739	0.349501
629.840014	0.352531
630.186236	0.349874
630.532405	0.355595
630.878521	0.352827
631.224585	0.355347
631.570597	0.359144
631.916556	0.357095
632.262462	0.357293
632.608316	0.359563
632.954117	0.360117
633.299866	0.361292
633.645562	0.361901
633.991206	0.366035
634.336797	0.369029
634.682336	0.371491
635.027823	0.372418
635.373257	0.373326
635.718639	0.377120
636.063968	0.376418
636.409245	0.382050
636.754470	0.382581
637.099642	0.384700
637.444762	0.388355
637.789829	0.387273
638.134845	0.390503
638.479808	0.391721
638.824719	0.391155
639.169577	0.395648
639.514383	0.394544
639.859137	0.398455
640.203839	0.398721
640.548489	0.399147
640.893086	0.400206
641.237632	0.402045
641.582125	0.400389
641.926566	0.402085
642.270955	0.401951
642.615292	0.402339
642.959576	0.401388
643.303809	0.402031
643.647990	0.401888
643.992118	0.402514
644.336195	0.406076
644.680219	0.403615
645.024192	0.404383
645.368112	0.398700
645.711981	0.397759
646.055797	0.392832
646.399562	0.395109
646.743274	0.387322
647.086935	0.384611
647.430544	0.384445
647.774101	0.383507
648.117606	0.383204
648.461059	0.383555
648.804460	0.385941
649.147810	0.391363
649.491108	0.393145
649.834354	0.394544
650.177548	0.399753
650.520690	0.405104
650.863781	0.406078
651.206820	0.405836
651.549807	0.410495
651.892742	0.414477
652.235626	0.413659
652.578458	0.415232
652.921238	0.420966
653.263967	0.418438
653.606644	0.422740
653.949269	0.422491
654.291843	0.426315
654.634365	0.423025
654.976836	0.426482
655.319255	0.426339
655.661622	0.428313
656.003938	0.428207
656.346203	0.431209
656.688416	0.429045
657.030577	0.432172
657.372687	0.434723
657.714746	0.435773
658.056753	0.431948
658.398708	0.435522
658.740612	0.437328
659.082465	0.433373
659.424266	0.434097
659.766016	0.433365
660.107715	0.436099
660.449362	0.434797
660.790958	0.436030
661.132503	0.435763
661.473996	0.434151
661.815438	0.434560
662.156829	0.434722
662.498168	0.435573
662.839456	0.437100
663.180693	0.435052
663.521879	0.434461
663.863013	0.435485
664.204097	0.433747
664.545129	0.431055
664.886110	0.431479
665.227040	0.428591
665.567918	0.431482
665.908746	0.429186
666.249522	0.428930
666.590248	0.430023
666.930922	0.427923
667.271545	0.426943
667.612118	0.426874
667.952639	0.428812
668.293109	0.427577
668.633528	0.430213
668.973896	0.430163
669.314213	0.430178
669.654480	0.432292
669.994695	0.432623
670.334859	0.433702
670.674973	0.433826
671.015035	0.433838
671.355047	0.433700
671.695008	0.434137
672.034918	0.435938
672.374777	0.436079
672.714585	0.437508
673.054342	0.437000
673.394049	0.436798
673.733705	0.434487
674.073310	0.436000
674.412864	0.438904
674.752368	0.439896
675.091820	0.439346
675.431223	0.443635
675.770574	0.443648
676.109875	0.447105
676.449125	0.446905
676.788324	0.449052
677.127473	0.454620
677.466571	0.454349
677.805619	0.456029
678.144616	0.457050
678.483562	0.458377
678.822458	0.461247
679.161303	0.461693
679.500098	0.462105
679.838842	0.463734
680.177535	0.463909
680.516179	0.462596
680.854771	0.461491
681.193314	0.454275
681.531805	0.446495
681.870247	0.434686
682.208638	0.427475
682.546978	0.426025
682.885268	0.427825
683.223508	0.433796
683.561697	0.438265
683.899836	0.440140
684.237925	0.443970
684.575963	0.446562
684.913951	0.449348
685.251889	0.445363
685.589776	0.447915
685.927614	0.449977
686.265401	0.444356
686.603137	0.445241
686.940824	0.439793
687.278460	0.437197
687.616046	0.437193
687.953582	0.431617
688.291068	0.433273
688.628504	0.428620
688.965889	0.431288
689.303224	0.435233
689.640510	0.439409
689.977745	0.444885
690.314930	0.452529
690.652065	0.457244
690.989150	0.464872
691.326185	0.471071
691.663170	0.476171
692.000105	0.483104
692.336990	0.489989
692.673825	0.492515
693.010610	0.499351
693.347345	0.505445
693.684030	0.506648
694.020665	0.511333
694.357251	0.519952
694.693786	0.519995
695.030272	0.524297
695.366707	0.527382
695.703093	0.531138
696.039429	0.528456
696.375716	0.530405
696.711952	0.532746
697.048139	0.535171
697.384276	0.537034
697.720363	0.535114
698.056400	0.534369
698.392388	0.540259
698.728326	0.542764
699.064214	0.545868
699.400053	0.546670
699.735842	0.550575
700.071581	0.552948
700.407270	0.555799
700.742910	0.558570
701.078501	0.564918
701.414042	0.564877
701.749533	0.568834
702.084974	0.576892
702.420366	0.568634
702.755709	0.577001
703.091002	0.585040
703.426246	0.578295
703.761440	0.584237
704.096584	0.589220
704.431679	0.586265
704.766725	0.587439
705.101721	0.589412
705.436668	0.585621
705.771565	0.592516
706.106413	0.589411
706.441212	0.584908
706.775961	0.583399
707.110661	0.586349
707.445311	0.581867
707.779913	0.579995
708.114465	0.578495
708.448967	0.575064
708.783421	0.567023
709.117825	0.561631
709.452180	0.561603
709.786485	0.555823
710.120742	0.545305
710.454949	0.547303
710.789107	0.539675
711.123216	0.530287
711.457275	0.532188
711.791286	0.522954
712.125247	0.522116
712.459159	0.532657
712.793023	0.525175
713.126837	0.529230
713.460602	0.529866
713.794318	0.539061
714.127985	0.538344
714.461602	0.548547
714.795171	0.551563
715.128691	0.559120
715.462162	0.566648
715.795584	0.572377
716.128957	0.574559
716.462281	0.581836
716.795556	0.585509
717.128782	0.590487
717.461960	0.599888
717.795088	0.598502
718.128167	0.604609
718.461198	0.614051
718.794180	0.613750
719.127113	0.616978
719.459997	0.620522
719.792833	0.626900
720.125619	0.628007
720.458357	0.633800
720.791046	0.633613
721.123686	0.636423
721.456278	0.643413
721.788821	0.641141
722.121315	0.645125
722.453761	0.649387
722.786158	0.646965
723.118506	0.643768
723.450805	0.651441
723.783056	0.647491
724.115259	0.644739
724.447412	0.644885
724.779518	0.645956
725.111574	0.644181
725.443582	0.639642
725.775542	0.642040
726.107453	0.634157
726.439315	0.634718
726.771129	0.632170
727.102895	0.627077
727.434612	0.619317
727.766281	0.616792
728.097901	0.615775
728.429473	0.616895
728.760996	0.614023
729.092471	0.614146
729.423897	0.618645
729.755276	0.617276
730.086606	0.617698
730.417887	0.612028
730.749120	0.602780
731.080305	0.592974
731.411442	0.589535
731.742530	0.594553
732.073570	0.593707
732.404562	0.586112
732.735506	0.587746
733.066401	0.592046
733.397249	0.601593
733.728048	0.612268
734.058798	0.625011
734.389501	0.635927
734.720156	0.645609
735.050762	0.653940
735.381320	0.654573
735.711831	0.663300
736.042293	0.668736
736.372707	0.664546
736.703073	0.668873
737.033391	0.671333
737.363661	0.667820
737.693883	0.663879
738.024056	0.662547
738.354182	0.662371
738.684260	0.651929
739.014290	0.648339
739.344272	0.648422
739.674207	0.642479
740.004093	0.641224
740.333931	0.641772
740.663722	0.642140
740.993464	0.643210
741.323159	0.646223
741.652806	0.651726
741.982405	0.656608
742.311956	0.660526
742.641460	0.663383
742.970915	0.667190
743.300323	0.673935
743.629683	0.681035
743.958996	0.683296
744.288260	0.686600
744.617477	0.693406
744.946647	0.695378
745.275768	0.699554
745.604842	0.699718
745.933869	0.710059
746.262847	0.710195
746.591778	0.704666
746.920662	0.709884
747.249498	0.716577
747.578286	0.706833
747.907027	0.703925
748.235720	0.704711
748.564365	0.698927
748.892963	0.699853
749.221514	0.701991
749.550017	0.707148
749.878473	0.707594
750.206881	0.713531
750.535242	0.714497
750.863555	0.715117
751.191821	0.717257
751.520039	0.718887
751.848210	0.723381
752.176334	0.716527
752.504411	0.715699
752.832440	0.723522
753.160421	0.727446
753.488356	0.725873
753.816243	0.723098
754.144082	0.731665
754.471875	0.734778
754.799620	0.730365
755.127318	0.732544
755.454969	0.732008
755.782572	0.731556
756.110129	0.735753
756.437638	0.738571
756.765100	0.734537
757.092515	0.733219
757.419882	0.731363
757.747203	0.737111
758.074477	0.736600
758.401703	0.734054
758.728882	0.728763
759.056014	0.728144
759.383099	0.726390
759.710138	0.728021
760.037129	0.724167
760.364073	0.718952
760.690970	0.721485
761.017820	0.726035
761.344623	0.722770
761.671379	0.712844
761.998088	0.701135
762.324751	0.678767
762.651366	0.636786
762.977935	0.569743
763.304456	0.518163
763.630931	0.508901
763.957359	0.546982
764.283740	0.591879
764.610074	0.619720
764.936362	0.649481
765.262602	0.677361
765.588796	0.698065
765.914943	0.715605
766.241044	0.734464
766.567097	0.740847
766.893104	0.749658
767.219064	0.757455
767.544978	0.763571
767.870845	0.776653
768.196665	0.780643
768.522438	0.779037
768.848165	0.780562
769.173846	0.788901
769.499479	0.793310
769.825066	0.796849
770.150607	0.801753
770.476101	0.797041
770.801548	0.798636
771.126949	0.810574
771.452303	0.813422
771.777611	0.812593
772.102872	0.811915
772.428087	0.817338
772.753256	0.820404
773.078378	0.822105
773.403453	0.831395
773.728482	0.835791
774.053465	0.829750
774.378401	0.832827
774.703291	0.841189
775.028135	0.840646
775.352932	0.843110
775.677683	0.846147
776.002388	0.846169
776.327046	0.845365
776.651658	0.849620
776.976224	0.852137
777.300743	0.852547
777.625216	0.854531
777.949643	0.856796
778.274024	0.855819
778.598359	0.858352
778.922647	0.856482
779.246889	0.856966
779.571086	0.861028
779.895236	0.863568
780.219339	0.861001
780.543397	0.857278
780.867409	0.855696
781.191374	0.858595
781.515294	0.861100
781.839167	0.858226
782.162995	0.862190
782.486776	0.859331
782.810511	0.859825
783.134201	0.863225
783.457844	0.860462
783.781441	0.863235
784.104993	0.869716
784.428498	0.870319
784.751958	0.866459
785.075372	0.869257
785.398739	0.871804
785.722061	0.869010
786.045337	0.864270
786.368568	0.868397
786.691752	0.871486
787.014891	0.856926
787.337983	0.848426
787.661030	0.840355
787.984031	0.823656
788.306987	0.809594
788.629897	0.813146
788.952760	0.815717
789.275579	0.820206
789.598351	0.835599
789.921078	0.847810
790.243759	0.851479
790.566395	0.856019
790.888984	0.863353
791.211529	0.868422
791.534027	0.871191
791.856480	0.873973
792.178888	0.879397
792.501249	0.881932
792.823566	0.882540
793.145836	0.883381
793.468062	0.884912
793.790241	0.884704
794.112375	0.881721
794.434464	0.877213
794.756507	0.877462
795.078505	0.877586
795.400457	0.871280
795.722364	0.859959
796.044226	0.852619
796.366042	0.852873
796.687812	0.856056
797.009538	0.851464
797.331218	0.854236
797.652852	0.859280
797.974442	0.863466
798.295986	0.863905
798.617484	0.866536
798.938938	0.871343
799.260346	0.875333
799.581709	0.877243
799.903026	0.879836
800.224299	0.880345
800.545526	0.883916
800.866708	0.888713
801.187845	0.892806
801.508936	0.891453
801.829983	0.888872
802.150984	0.891686
802.471940	0.897638
802.792851	0.895869
803.113717	0.897883
803.434538	0.895459
803.755314	0.898144
804.076045	0.900246
804.396731	0.900150
804.717372	0.899035
805.037967	0.900666
805.358518	0.898950
805.679024	0.896642
805.999485	0.897082
806.319901	0.895915
806.640272	0.897443
806.960598	0.896282
807.280879	0.894003
807.601115	0.892613
807.921306	0.895090
808.241453	0.896458
808.561554	0.893974
808.881611	0.894097
809.201623	0.896505
809.521590	0.896302
809.841513	0.896739
810.161390	0.895637
810.481223	0.897476
810.801011	0.900719
811.120755	0.902966
811.440453	0.900599
811.760107	0.899933
812.079716	0.899864
812.399281	0.903590
812.718801	0.905666
813.038276	0.906941
813.357707	0.905287
813.677093	0.903700
813.996434	0.906515
814.315731	0.908739
814.634983	0.908647
814.954191	0.908046
815.273354	0.904516
815.592473	0.901367
815.911547	0.902023
816.230577	0.898083
816.549562	0.895801
816.868502	0.896967
817.187399	0.892823
817.506250	0.888459
817.825058	0.889790
818.143821	0.885898
818.462539	0.880750
818.781213	0.873394
819.099843	0.860848
819.418429	0.845722
819.736970	0.827875
820.055466	0.808400
820.373919	0.782593
820.692327	0.749528
821.010691	0.715484
821.329011	0.636613
821.647286	0.520905
821.965517	0.407839
822.283704	0.364434
822.601847	0.365449
822.919945	0.400936
823.237999	0.435472
823.556010	0.482533
823.873976	0.538504
824.191897	0.589115
824.509775	0.631462
824.827609	0.677380
825.145398	0.700370
825.463144	0.703191
825.780845	0.686008
826.098502	0.667588
826.416116	0.621215
826.733685	0.576754
827.051210	0.568445
827.368692	0.582836
827.686129	0.620291
828.003522	0.674058
828.320872	0.721302
828.638177	0.765580
828.955439	0.798693
829.272656	0.820838
829.589830	0.837730
829.906960	0.854343
830.224046	0.865927
830.541088	0.876023
830.858086	0.880844
831.175041	0.887484
831.491952	0.886939
831.808819	0.883036
832.125642	0.875533
832.442421	0.860880
832.759157	0.839486
833.075849	0.792035
833.392497	0.729040
833.709101	0.687723
834.025662	0.697416
834.342179	0.729852
834.658653	0.768601
834.975083	0.805235
835.291469	0.831073
835.607811	0.854345
835.924110	0.869833
836.240366	0.886794
836.556578	0.901409
836.872746	0.908278
837.188871	0.915132
837.504952	0.919713
837.820990	0.923677
838.136984	0.927471
838.452935	0.929442
838.768842	0.932057
839.084706	0.925314
839.400526	0.898816
839.716303	0.858426
840.032037	0.835852
840.347727	0.839054
840.663373	0.857142
840.978977	0.879630
841.294537	0.901423
841.610054	0.918058
841.925527	0.926666
842.240957	0.932655
842.556344	0.939293
842.871687	0.945870
843.186987	0.949100
843.502244	0.951281
843.817458	0.952968
844.132629	0.955435
844.447756	0.961478
844.762840	0.959709
845.077881	0.958791
845.392879	0.959775
845.707833	0.963166
846.022745	0.963946
846.337613	0.964792
846.652438	0.966685
846.967221	0.964987
847.281960	0.964057
847.596656	0.968264
847.911309	0.965459
848.225919	0.967618
848.540485	0.969479
848.855009	0.968384
849.169490	0.968311
849.483928	0.969421
849.798323	0.969141
850.112675	0.969588
850.426984	0.969874
850.741251	0.969937
851.055474	0.970748
851.369654	0.967970
851.683792	0.968692
851.997887	0.969485
852.311938	0.970780
852.625947	0.969381
852.939914	0.967876
853.253837	0.968685
853.567718	0.970992
853.881555	0.970298
854.195350	0.968381
854.509103	0.969093
854.822812	0.969477
855.136479	0.970065
855.450103	0.968786
855.763685	0.967462
856.077224	0.968640
856.390720	0.969893
856.704173	0.970469
857.017584	0.968103
857.330953	0.966857
857.644278	0.967301
857.957561	0.967729
858.270802	0.968672
858.584000	0.968349
858.897155	0.966830
859.210268	0.967707
859.523339	0.968480
859.836367	0.970317
860.149352	0.970759
860.462295	0.968441
860.775195	0.969600
861.088054	0.968967
861.400869	0.970077
861.713642	0.971904
862.026373	0.969915
862.339062	0.970715
862.651708	0.967146
862.964312	0.968168
863.276873	0.970494
863.589392	0.967775
863.901869	0.967615
864.214303	0.965886
864.526696	0.964502
864.839045	0.963619
865.151353	0.962348
865.463619	0.963119
865.775842	0.963284
866.088023	0.963375
866.400162	0.962066
866.712258	0.962388
867.024313	0.963087
867.336325	0.963659
867.648296	0.963706
867.960224	0.962545
868.272110	0.961648
868.583954	0.964436
868.895755	0.964178
869.207515	0.961898
869.519233	0.959315
869.830909	0.961825
870.142542	0.961589
870.454134	0.962079
870.765684	0.961358
871.077191	0.957708
871.388657	0.959837
871.700081	0.957315
872.011463	0.958488
872.322803	0.956998
872.634101	0.956551
872.945357	0.954037
873.256571	0.952018
873.567744	0.952227
873.878874	0.953902
874.189963	0.951913
874.501010	0.951358
874.812015	0.950157
875.122979	0.951786
875.433900	0.953128
875.744780	0.953337
876.055618	0.950832
876.366415	0.949198
876.677169	0.949235
876.987882	0.951181
877.298554	0.950640
877.609183	0.947431
877.919771	0.944985
878.230317	0.942577
878.540822	0.941201
878.851285	0.934613
879.161707	0.926593
879.472087	0.915030
879.782425	0.898442
880.092722	0.864324
880.402977	0.811001
880.713191	0.750682
881.023363	0.690248
881.333494	0.655535
881.643583	0.628294
881.953631	0.628053
882.263637	0.656606
882.573602	0.695133
882.883526	0.721971
883.193408	0.745953
883.503248	0.768565
883.813048	0.796751
884.122806	0.825281
884.432522	0.849517
884.742197	0.869173
885.051831	0.880764
885.361424	0.890330
885.670975	0.902892
885.980485	0.912643
886.289954	0.919119
886.599382	0.923703
886.908768	0.927355
887.218113	0.933730
887.527417	0.938603
887.836680	0.941615
888.145901	0.943236
888.455082	0.946681
888.764221	0.950623
889.073319	0.951493
889.382376	0.952351
889.691392	0.953013
890.000366	0.952447
890.309300	0.953726
890.618193	0.952527
890.927044	0.950924
891.235855	0.951607
891.544625	0.951692
891.853353	0.951804
892.162041	0.948192
892.470687	0.942062
892.779293	0.937023
893.087858	0.933768
893.396381	0.925722
893.704864	0.911893
894.013306	0.888864
894.321707	0.860827
894.630068	0.847072
894.938387	0.841663
895.246665	0.843290
895.554903	0.856750
895.863100	0.869341
896.171256	0.885241
896.479371	0.905741
896.787446	0.917996
897.095480	0.924586
897.403473	0.928661
897.711425	0.932419
898.019336	0.939649
898.327207	0.942382
898.635038	0.944424
898.942827	0.943987
899.250576	0.947972
899.558284	0.952718
899.865952	0.953184
900.173579	0.954994
900.481165	0.955866
900.788711	0.960186
901.096216	0.961684
901.403681	0.960630
901.711105	0.963873
902.018489	0.964208
902.325832	0.962117
902.633135	0.962143
902.940397	0.954718
903.247619	0.943576
903.554800	0.917757
903.861941	0.877142
904.169041	0.841861
904.476101	0.824384
904.783121	0.824436
905.090100	0.841600
905.397039	0.863171
905.703938	0.886097
906.010796	0.904881
906.317614	0.922934
906.624391	0.934427
906.931129	0.944410
907.237826	0.951247
907.544483	0.959405
907.851099	0.962666
908.157675	0.967949
908.464211	0.968610
908.770707	0.972462
909.077163	0.974067
909.383578	0.975618
909.689954	0.974559
909.996289	0.976451
910.302584	0.977354
910.608839	0.979423
910.915054	0.978231
911.221229	0.978169
911.527363	0.976218
911.833458	0.977304
912.139513	0.976371
912.445527	0.976133
912.751502	0.973883
913.057436	0.972639
913.363331	0.969404
913.669186	0.967051
913.975000	0.960864
914.280775	0.954861
914.586510	0.948161
914.892205	0.934605
915.197859	0.912813
915.503475	0.885598
915.809050	0.865619
916.114585	0.858855
916.420081	0.857219
916.725536	0.854440
917.030952	0.862305
917.336328	0.874733
917.641665	0.890711
917.946961	0.906471
918.252218	0.917749
918.557435	0.927597
918.862612	0.936619
919.167750	0.940950
919.472848	0.945619
919.777906	0.951815
920.082925	0.957997
920.387904	0.961318
920.692843	0.962926
920.997743	0.963727
921.302603	0.967498
921.607423	0.969144
921.912204	0.971850
922.216946	0.972096
922.521647	0.973060
922.826310	0.975227
923.130932	0.976591
923.435516	0.977999
923.740059	0.980456
924.044564	0.977733
924.349028	0.981537
924.653454	0.982283
924.957840	0.985592
925.262186	0.984582
925.566493	0.983174
925.870761	0.985475
926.174989	0.987391
926.479178	0.989002
926.783328	0.988015
927.087438	0.988994
927.391509	0.988406
927.695541	0.989807
927.999533	0.990170
928.303486	0.988921
928.607400	0.991025
928.911275	0.988947
929.215110	0.990393
929.518906	0.991722
929.822663	0.989532
930.126381	0.992372
930.430060	0.990910
930.733699	0.989606
931.037299	0.989204
931.340861	0.990482
931.644383	0.989538
931.947866	0.989580
932.251309	0.990426
932.554714	0.990618
932.858080	0.990497
933.161407	0.989491
933.464694	0.990624
933.767943	0.989615
934.071153	0.990525
934.374323	0.990821
934.677455	0.991537
934.980548	0.991489
935.283602	0.991552
935.586617	0.990380
935.889593	0.991227
936.192530	0.991204
936.495428	0.991341
936.798287	0.991339
937.101108	0.991057
937.403890	0.989533
937.706632	0.988976
938.009336	0.987794
938.312002	0.985461
938.614628	0.984256
938.917216	0.983299
939.219765	0.981721
939.522275	0.982901
939.824747	0.983622
940.127179	0.984612
940.429573	0.983241
940.731929	0.983062
941.034246	0.984844
941.336524	0.985687
941.638763	0.985653
941.940964	0.986244
942.243126	0.986418
942.545250	0.987531
942.847335	0.988825
943.149381	0.988971
943.451389	0.988714
943.753359	0.987517
944.055290	0.990084
944.357182	0.989057
944.659036	0.989062
944.960851	0.990545
945.262628	0.989659
945.564367	0.991141
945.866067	0.990389
946.167729	0.990614
946.469352	0.990109
946.770937	0.988594
947.072484	0.990445
947.373992	0.989517
947.675462	0.990762
947.976893	0.989045
948.278286	0.990445
948.579641	0.992539
948.880958	0.990281
949.182236	0.990732
949.483476	0.990905
949.784678	0.989904
950.085841	0.991974
950.386967	0.990224
950.688054	0.990967
950.989103	0.991520
951.290114	0.989136
951.591087	0.990316
951.892021	0.989379
952.192917	0.989440
952.493776	0.988147
952.794596	0.988848
953.095378	0.988192
953.396122	0.988429
953.696828	0.987861
953.997496	0.988764
954.298126	0.991706
954.598718	0.990351
954.899272	0.991148
955.199788	0.990778
955.500266	0.992146
955.800706	0.993489
956.101108	0.993498
956.401472	0.994302
956.701798	0.993036
957.002087	0.992365
957.302337	0.993693
957.602550	0.995243
957.902724	0.995709
958.202861	0.995726
958.502960	0.995437
958.803022	0.993601
959.103045	0.996293
959.403031	0.995376
959.702979	0.996096
960.002889	0.995878
960.302762	0.995284
960.602596	0.996627
960.902393	0.994343
961.202153	0.998091
961.501875	0.996950
961.801559	0.996028
962.101205	0.996052
962.400814	0.996239
962.700385	0.995676
962.999918	0.995786
963.299414	0.997542
963.598873	0.995960
963.898293	0.996099
964.197677	0.996352
964.497022	0.995641
964.796331	0.998505
965.095601	0.997097
965.394835	0.995622
965.694030	0.996822
965.993189	0.996928
966.292309	0.997553
966.591393	0.997055
966.890439	0.997140
967.189447	0.997843
967.488419	0.998657
967.787353	0.996180
968.086249	0.996253
968.385108	0.997782
968.683930	0.996643
968.982714	0.997282
969.281462	0.997603
969.580172	0.997260
969.878844	0.997444
970.177480	0.996994
970.476078	0.997509
970.774639	0.996842
971.073162	0.996539
971.371649	0.996659
971.670098	0.996447
971.968510	0.996906
972.266885	0.995968
972.565223	0.996737
972.863524	0.996372
973.161788	0.997425
973.460014	0.997390
973.758204	0.995839
974.056356	0.995492
974.354471	0.995298
974.652550	0.996176
974.950591	0.996060
975.248595	0.996879
975.546563	0.997226
975.844493	0.998142
976.142386	0.996325
976.440243	0.997890
976.738062	0.996237
977.035845	0.999101
977.333590	0.996285
977.631299	0.999119
977.928971	0.997331
978.226606	0.997390
978.524204	0.996528
978.821765	0.998124
979.119290	0.996812
979.416777	0.997186
979.714228	0.997739
980.011642	0.996061
980.309020	0.997789
980.606360	0.997335
980.903664	0.997176
981.200931	0.997273
981.498162	0.995282
981.795356	0.994886
982.092513	0.993630
982.389633	0.994046
982.686717	0.990336
982.983764	0.992241
983.280775	0.990480
983.577749	0.989918
983.874686	0.991040
984.171587	0.991415
984.468451	0.994355
984.765279	0.994897
985.062070	0.994297
985.358824	0.994914
985.655543	0.995131
985.952224	0.995451
986.248869	0.997311
986.545478	0.996465
986.842050	0.997613
987.138586	0.996235
987.435086	0.997777
987.731549	0.998382
988.027975	0.998329
988.324366	0.997414
988.620719	0.997509
988.917037	0.997182
989.213318	0.999167
989.509563	0.999453
989.805772	0.999519
990.101944	0.997575
990.398080	0.997251
990.694180	0.997493
990.990244	0.997712
991.286271	0.998439
991.582262	0.998879
991.878217	0.997550
992.174136	0.999581
992.470019	0.998919
992.765865	0.998061
993.061676	0.998731
993.357450	0.997881
993.653188	0.997085
993.948890	0.997331
994.244556	0.998021
994.540186	0.997004
994.835780	0.996528
995.131337	0.999166
995.426859	0.996637
995.722345	0.996811
996.017795	0.996727
996.313208	0.996898
996.608586	0.996832
996.903928	0.997262
997.199234	0.996529
997.494504	0.995689
997.789738	0.996279
998.084936	0.996350
998.380099	0.997932
998.675225	0.996842
998.970316	0.997653
999.265371	0.997918
999.560390	0.998014
999.855373	0.998432
1000.150320	0.998241
1000.445232	0.998624
1000.740108	0.998382
1001.034948	0.998731
1001.329752	0.998931
1001.624521	0.998567
1001.919254	0.998384
1002.213951	0.998593
1002.508613	0.998524
1002.803239	0.998941
1003.097829	1.000274
1003.392384	0.998766
1003.686903	0.998626
1003.981386	1.000053
1004.275834	0.999873
1004.570246	0.999977
1004.864623	0.999849
1005.158964	0.998793
1005.453270	0.998422
1005.747540	0.997482
1006.041775	0.999107
1006.335974	0.999678
1006.630138	0.999798
1006.924266	0.999710
1007.218359	1.000394
1007.512416	0.999230
1007.806438	0.999366
1008.100425	1.000733
1008.394376	0.999659
1008.688292	0.999294
1008.982172	1.000879
1009.276017	0.999358
1009.569827	0.998606
1009.863602	0.999267
1010.157341	0.999482
1010.451045	0.999247
1010.744714	0.997758
1011.038347	0.999833
1011.331945	1.000389
1011.625508	0.998042
1011.919036	0.998479
1012.212528	0.998484
1012.505986	0.998506
1012.799408	0.998848
1013.092795	0.999885
1013.386147	0.999670
1013.679464	0.998985
1013.972745	0.998027
1014.265992	0.997855
1014.559204	0.999267
1014.852380	0.999757
1015.145521	0.998683
1015.438628	0.999371
1015.731699	0.999255
1016.024736	0.998628
1016.317737	0.999231
1016.610703	0.999600
1016.903635	0.999720
1017.196531	0.999039
1017.489393	0.999767
1017.782219	0.998791
1018.075011	0.999039
1018.367768	0.998590
1018.660490	0.999963
1018.953177	0.999963
1019.245829	0.999963
