Dividing Wavelength (nm)	Counts (n)	Blue Motor Position (mm): 0.000000	Red Motor Position (mm): 22.700000	
326.493990	0.999534
326.888308	0.999534
327.282561	0.999534
327.676750	1.000356
328.070874	0.999360
328.464933	1.000592
328.858929	0.999721
329.252859	1.000110
329.646726	0.998284
330.040528	1.001231
330.434265	0.999284
330.827938	1.000146
331.221547	1.001113
331.615091	1.000493
332.008571	1.001259
332.401986	1.000447
332.795338	1.000812
333.188625	0.999137
333.581847	0.999765
333.975006	0.999141
334.368100	1.000838
334.761129	1.000547
335.154095	1.000137
335.546996	0.996954
335.939833	0.993271
336.332606	0.994086
336.725315	0.994824
337.117960	0.996026
337.510540	0.994262
337.903056	0.995253
338.295508	0.993013
338.687896	0.995542
339.080220	0.993547
339.472480	0.995256
339.864676	0.993701
340.256807	0.994514
340.648875	0.995559
341.040879	0.995069
341.432818	0.993922
341.824694	0.994488
342.216506	0.995392
342.608253	0.995193
342.999937	0.993958
343.391557	0.994332
343.783113	0.993954
344.174605	0.995849
344.566033	0.994758
344.957397	0.994189
345.348697	0.994472
345.739934	0.994128
346.131106	0.994492
346.522215	0.993695
346.913260	0.993991
347.304241	0.994208
347.695159	0.994131
348.086012	0.993377
348.476802	0.994728
348.867528	0.994813
349.258191	0.992037
349.648789	0.994594
350.039324	0.994392
350.429796	0.994985
350.820203	0.995328
351.210548	0.994525
351.600828	0.995951
351.991045	0.993954
352.381198	0.993137
352.771288	0.993597
353.161314	0.994310
353.551276	0.995309
353.941175	0.994326
354.331010	0.994325
354.720782	0.995269
355.110490	0.994901
355.500135	0.994953
355.889717	0.993458
356.279235	0.994688
356.668689	0.993777
357.058080	0.993349
357.447408	0.996075
357.836672	0.995306
358.225873	0.994239
358.615010	0.995063
359.004084	0.994607
359.393095	0.994171
359.782043	0.994547
360.170927	0.994865
360.559748	0.994888
360.948505	0.994142
361.337199	0.994571
361.725830	0.993906
362.114398	0.994271
362.502903	0.995379
362.891344	0.995322
363.279722	0.994822
363.668037	0.995001
364.056289	0.994916
364.444478	0.995775
364.832603	0.995669
365.220665	0.993438
365.608665	0.994397
365.996601	0.995288
366.384474	0.993742
366.772284	0.994659
367.160031	0.993008
367.547715	0.993708
367.935336	0.994387
368.322893	0.994364
368.710388	0.993039
369.097820	0.995009
369.485189	0.994784
369.872495	0.993820
370.259738	0.992942
370.646918	0.995238
371.034035	0.994902
371.421090	0.994934
371.808081	0.995220
372.195010	0.994004
372.581875	0.994787
372.968678	0.994041
373.355418	0.994610
373.742096	0.993688
374.128710	0.995296
374.515262	0.994192
374.901751	0.995603
375.288177	0.995034
375.674540	0.995235
376.060841	0.993855
376.447079	0.994214
376.833254	0.993956
377.219367	0.995738
377.605417	0.994643
377.991404	0.995593
378.377329	0.994177
378.763191	0.994102
379.148991	0.996057
379.534727	0.994832
379.920402	0.994937
380.306013	0.996229
380.691563	0.995641
381.077049	0.994713
381.462474	0.995742
381.847835	0.996124
382.233134	0.993971
382.618371	0.995285
383.003545	0.995203
383.388657	0.995272
383.773706	0.996663
384.158693	0.995346
384.543618	0.995589
384.928480	0.996206
385.313280	0.995126
385.698017	0.996560
386.082692	0.996129
386.467305	0.996589
386.851856	0.995677
387.236344	0.994942
387.620770	0.994891
388.005133	0.996044
388.389435	0.996606
388.773674	0.996158
389.157851	0.995775
389.541965	0.996451
389.926018	0.995641
390.310008	0.997179
390.693936	0.996036
391.077802	0.995834
391.461606	0.996009
391.845348	0.996252
392.229027	0.997694
392.612645	0.996336
392.996200	0.997242
393.379694	0.996209
393.763125	0.997196
394.146494	0.996832
394.529801	0.996805
394.913047	0.996957
395.296230	0.996285
395.679351	0.996368
396.062410	0.996385
396.445408	0.996830
396.828343	0.995919
397.211217	0.995846
397.594028	0.996886
397.976778	0.996335
398.359466	0.996546
398.742092	0.996076
399.124656	0.996214
399.507158	0.996394
399.889598	0.995990
400.271977	0.996098
400.654294	0.996365
401.036549	0.996309
401.418742	0.996554
401.800874	0.996083
402.182944	0.997663
402.564952	0.995347
402.946898	0.996702
403.328783	0.996692
403.710606	0.996831
404.092367	0.996960
404.474067	0.997039
404.855705	0.996145
405.237282	0.996874
405.618797	0.996651
406.000250	0.996220
406.381642	0.997565
406.762972	0.997068
407.144240	0.996934
407.525447	0.996258
407.906593	0.995750
408.287677	0.996474
408.668700	0.997331
409.049661	0.994966
409.430560	0.996309
409.811399	0.996696
410.192176	0.996353
410.572891	0.995883
410.953545	0.996169
411.334138	0.995065
411.714669	0.996635
412.095139	0.995976
412.475547	0.996633
412.855894	0.996460
413.236180	0.995927
413.616405	0.996484
413.996568	0.997022
414.376670	0.996324
414.756711	0.995596
415.136691	0.996533
415.516609	0.996513
415.896466	0.996497
416.276262	0.994767
416.655997	0.996055
417.035670	0.994928
417.415283	0.996112
417.794834	0.995995
418.174324	0.996776
418.553753	0.995442
418.933121	0.995535
419.312428	0.995477
419.691674	0.995339
420.070859	0.995333
420.449983	0.994450
420.829045	0.994242
421.208047	0.995371
421.586988	0.993807
421.965867	0.993181
422.344686	0.992400
422.723444	0.991361
423.102141	0.990750
423.480777	0.990196
423.859352	0.989571
424.237866	0.987183
424.616319	0.986480
424.994712	0.985304
425.373044	0.984464
425.751314	0.981351
426.129524	0.980466
426.507673	0.978682
426.885762	0.976898
427.263789	0.973650
427.641756	0.971877
428.019662	0.970509
428.397508	0.966322
428.775292	0.963981
429.153016	0.961447
429.530679	0.959006
429.908282	0.955372
430.285824	0.952174
430.663305	0.946964
431.040726	0.944302
431.418086	0.942533
431.795385	0.937953
432.172624	0.932887
432.549802	0.928874
432.926920	0.924063
433.303977	0.918621
433.680974	0.914489
434.057910	0.908913
434.434786	0.903077
434.811601	0.897919
435.188355	0.889626
435.565050	0.885372
435.941683	0.879541
436.318257	0.869533
436.694770	0.862827
437.071222	0.856545
437.447614	0.850677
437.823946	0.846208
438.200218	0.835795
438.576429	0.831592
438.952580	0.822085
439.328670	0.812924
439.704700	0.808059
440.080670	0.800861
440.456580	0.785588
440.832429	0.780887
441.208218	0.777176
441.583947	0.764857
441.959616	0.756413
442.335224	0.750911
442.710773	0.739094
443.086261	0.728289
443.461689	0.726983
443.837057	0.713068
444.212365	0.699720
444.587612	0.695358
444.962800	0.681181
445.337927	0.674037
445.712995	0.679848
446.088002	0.650115
446.462949	0.648456
446.837837	0.642007
447.212664	0.629025
447.587431	0.613222
447.962139	0.586870
448.336786	0.552805
448.711374	0.552361
449.085901	0.573055
449.460369	0.566955
449.834776	0.561156
450.209124	0.538806
450.583412	0.526244
450.957640	0.515557
451.331808	0.515394
451.705917	0.525933
452.079965	0.522170
452.453954	0.506397
452.827883	0.505158
453.201752	0.495409
453.575562	0.498724
453.949311	0.482792
454.323001	0.483332
454.696632	0.474294
455.070202	0.462219
455.443713	0.450926
455.817164	0.441835
456.190556	0.433067
456.563888	0.425486
456.937160	0.419068
457.310373	0.429538
457.683526	0.424525
458.056619	0.425311
458.429653	0.422532
458.802628	0.421490
459.175542	0.413337
459.548398	0.393957
459.921194	0.384651
460.293930	0.382066
460.666607	0.358545
461.039224	0.345098
461.411782	0.338446
461.784280	0.334960
462.156719	0.336074
462.529099	0.337068
462.901419	0.350065
463.273680	0.352681
463.645882	0.349972
464.018024	0.354238
464.390106	0.345826
464.762130	0.329251
465.134094	0.312208
465.505999	0.281918
465.877845	0.251941
466.249631	0.237667
466.621358	0.243451
466.993026	0.255474
467.364634	0.260576
467.736184	0.268463
468.107674	0.276454
468.479105	0.275041
468.850477	0.281284
469.221790	0.287314
469.593043	0.297011
469.964238	0.301458
470.335373	0.300298
470.706449	0.298114
471.077467	0.298431
471.448425	0.260477
471.819324	0.236398
472.190164	0.235478
472.560945	0.263701
472.931667	0.285740
473.302330	0.289411
473.672934	0.301445
474.043479	0.289356
474.413965	0.291303
474.784393	0.294306
475.154761	0.289448
475.525070	0.286412
475.895321	0.292159
476.265513	0.286428
476.635645	0.281668
477.005719	0.281515
477.375734	0.277904
477.745691	0.271190
478.115588	0.267650
478.485427	0.261299
478.855207	0.248127
479.224928	0.230466
479.594591	0.218720
479.964194	0.221849
480.333739	0.223175
480.703226	0.224665
481.072653	0.223278
481.442022	0.218622
481.811333	0.215300
482.180584	0.218746
482.549777	0.223906
482.918912	0.227255
483.287988	0.226747
483.657005	0.226556
484.025964	0.232796
484.394864	0.230285
484.763706	0.230963
485.132489	0.235596
485.501213	0.236350
485.869879	0.234830
486.238487	0.238150
486.607036	0.235870
486.975527	0.240374
487.343959	0.236244
487.712333	0.235593
488.080648	0.236904
488.448905	0.235953
488.817104	0.236954
489.185244	0.231474
489.553326	0.228742
489.921350	0.218511
490.289315	0.200948
490.657222	0.196191
491.025070	0.197373
491.392861	0.199070
491.760593	0.204854
492.128267	0.210652
492.495883	0.216025
492.863440	0.222311
493.230939	0.228594
493.598380	0.229904
493.965763	0.232174
494.333088	0.233975
494.700354	0.235737
495.067563	0.234649
495.434713	0.237961
495.801805	0.235588
496.168839	0.237351
496.535815	0.238638
496.902733	0.238517
497.269593	0.240206
497.636395	0.237705
498.003139	0.237982
498.369825	0.241217
498.736453	0.237441
499.103023	0.239333
499.469535	0.238508
499.835989	0.238795
500.202385	0.239514
500.568723	0.242679
500.935003	0.238048
501.301226	0.241988
501.667390	0.236404
502.033497	0.234647
502.399546	0.237492
502.765537	0.239368
503.131470	0.237963
503.497345	0.233893
503.863163	0.242763
504.228923	0.235695
504.594625	0.234325
504.960269	0.239622
505.325856	0.234905
505.691385	0.239309
506.056856	0.236037
506.422270	0.235301
506.787625	0.238042
507.152924	0.235451
507.518164	0.235496
507.883347	0.237621
508.248472	0.239312
508.613540	0.234242
508.978550	0.236414
509.343503	0.237070
509.708398	0.235022
510.073236	0.232645
510.438016	0.232585
510.802738	0.233159
511.167403	0.232393
511.532010	0.234496
511.896561	0.229930
512.261053	0.228664
512.625488	0.230553
512.989866	0.230909
513.354186	0.231427
513.718449	0.232936
514.082655	0.229592
514.446803	0.231624
514.810894	0.229206
515.174927	0.231889
515.538904	0.231700
515.902822	0.228436
516.266684	0.230799
516.630488	0.232005
516.994235	0.230581
517.357925	0.229183
517.721558	0.227943
518.085133	0.227341
518.448651	0.227452
518.812112	0.229723
519.175516	0.229410
519.538863	0.227150
519.902152	0.228688
520.265385	0.225341
520.628560	0.227214
520.991678	0.227575
521.354739	0.226480
521.717743	0.227811
522.080690	0.228372
522.443580	0.225774
522.806413	0.226489
523.169189	0.225927
523.531908	0.224812
523.894569	0.228158
524.257174	0.228125
524.619722	0.225898
524.982213	0.226848
525.344647	0.225931
525.707025	0.226720
526.069345	0.224914
526.431608	0.226726
526.793815	0.224685
527.155964	0.228606
527.518057	0.227664
527.880093	0.228994
528.242072	0.227088
528.603995	0.229093
528.965860	0.230245
529.327669	0.229469
529.689421	0.230677
530.051117	0.231524
530.412755	0.228916
530.774337	0.231426
531.135862	0.231855
531.497331	0.231204
531.858743	0.233837
532.220098	0.230923
532.581396	0.233052
532.942638	0.233795
533.303824	0.234727
533.664953	0.234257
534.026025	0.236300
534.387040	0.233890
534.747999	0.234435
535.108902	0.232963
535.469748	0.237943
535.830537	0.235904
536.191270	0.236237
536.551947	0.235657
536.912567	0.235912
537.273131	0.237577
537.633638	0.237757
537.994089	0.238084
538.354483	0.238985
538.714821	0.236097
539.075103	0.235851
539.435328	0.237015
539.795497	0.240429
540.155609	0.236863
540.515665	0.235333
540.875665	0.240870
541.235609	0.239461
541.595496	0.239555
541.955328	0.235952
542.315102	0.238600
542.674821	0.239684
543.034483	0.239658
543.394090	0.239317
543.753640	0.241204
544.113134	0.236212
544.472571	0.239596
544.831953	0.236553
545.191278	0.240318
545.550548	0.240314
545.909761	0.236908
546.268918	0.237398
546.628019	0.235670
546.987064	0.238497
547.346053	0.240605
547.704986	0.238383
548.063863	0.238733
548.422684	0.238612
548.781449	0.240631
549.140158	0.238113
549.498811	0.241131
549.857408	0.244213
550.215949	0.239038
550.574434	0.242000
550.932864	0.240191
551.291237	0.238941
551.649555	0.240358
552.007817	0.240147
552.366022	0.240414
552.724173	0.240839
553.082267	0.241172
553.440305	0.237921
553.798288	0.242536
554.156215	0.238909
554.514086	0.239868
554.871902	0.242876
555.229661	0.242250
555.587365	0.242768
555.945014	0.245148
556.302606	0.242029
556.660143	0.244745
557.017625	0.240948
557.375050	0.243374
557.732421	0.240253
558.089735	0.242483
558.446994	0.242497
558.804197	0.241738
559.161345	0.241624
559.518437	0.245283
559.875474	0.242977
560.232455	0.242221
560.589381	0.243441
560.946251	0.243563
561.303065	0.241067
561.659825	0.242600
562.016528	0.244121
562.373177	0.247122
562.729770	0.244306
563.086307	0.246266
563.442789	0.244263
563.799216	0.246817
564.155587	0.245934
564.511904	0.246788
564.868164	0.247084
565.224370	0.246946
565.580520	0.248559
565.936615	0.248484
566.292654	0.251482
566.648638	0.248387
567.004567	0.249195
567.360441	0.249878
567.716260	0.251997
568.072023	0.249733
568.427732	0.250317
568.783385	0.252830
569.138982	0.251172
569.494525	0.250644
569.850013	0.253445
570.205445	0.251791
570.560823	0.254461
570.916145	0.256353
571.271412	0.254627
571.626625	0.256028
571.981782	0.256512
572.336884	0.257623
572.691931	0.257118
573.046923	0.258211
573.401860	0.259549
573.756743	0.261118
574.111570	0.260056
574.466342	0.260854
574.821059	0.259806
575.175722	0.262580
575.530330	0.262539
575.884882	0.262597
576.239380	0.264777
576.593823	0.265205
576.948211	0.264497
577.302544	0.268068
577.656823	0.267591
578.011047	0.267670
578.365216	0.268164
578.719330	0.270220
579.073389	0.269868
579.427394	0.271490
579.781344	0.272284
580.135239	0.273407
580.489080	0.273395
580.842866	0.276242
581.196597	0.275953
581.550273	0.274779
581.903895	0.275808
582.257463	0.273666
582.610975	0.277359
582.964434	0.276219
583.317837	0.278999
583.671186	0.279528
584.024481	0.279344
584.377721	0.282048
584.730906	0.282771
585.084037	0.281505
585.437113	0.283553
585.790135	0.283132
586.143103	0.286318
586.496016	0.287012
586.848874	0.284483
587.201679	0.285159
587.554428	0.288660
587.907124	0.287633
588.259765	0.287919
588.612352	0.288695
588.964884	0.292802
589.317362	0.291999
589.669786	0.291800
590.022155	0.290305
590.374470	0.289704
590.726731	0.291788
591.078937	0.296407
591.431090	0.292828
591.783188	0.297158
592.135232	0.297858
592.487222	0.297623
592.839157	0.295563
593.191038	0.297970
593.542866	0.299623
593.894639	0.303245
594.246358	0.301137
594.598022	0.300896
594.949633	0.304544
595.301190	0.305298
595.652692	0.304518
596.004141	0.300789
596.355535	0.308473
596.706876	0.308864
597.058162	0.311805
597.409395	0.308378
597.760573	0.306311
598.111698	0.309551
598.462768	0.310333
598.813785	0.311788
599.164748	0.312738
599.515657	0.312808
599.866511	0.316670
600.217312	0.311413
600.568060	0.317175
600.918753	0.312890
601.269392	0.314401
601.619978	0.317852
601.970510	0.315056
602.320988	0.315531
602.671412	0.313186
603.021783	0.315143
603.372100	0.316810
603.722363	0.316544
604.072572	0.317437
604.422728	0.317133
604.772830	0.319411
605.122878	0.318767
605.472872	0.319282
605.822813	0.317644
606.172701	0.320589
606.522534	0.317658
606.872314	0.317806
607.222041	0.318372
607.571714	0.316947
607.921333	0.318236
608.270899	0.317863
608.620411	0.314839
608.969870	0.318669
609.319276	0.318573
609.668627	0.318772
610.017926	0.317205
610.367171	0.315843
610.716362	0.316557
611.065500	0.316697
611.414585	0.315440
611.763616	0.316189
612.112594	0.316492
612.461518	0.316010
612.810389	0.313635
613.159207	0.315915
613.507971	0.317350
613.856682	0.313404
614.205340	0.315054
614.553945	0.311910
614.902496	0.315550
615.250994	0.313705
615.599439	0.314357
615.947830	0.313840
616.296169	0.315166
616.644454	0.314110
616.992686	0.314324
617.340864	0.312172
617.688990	0.316287
618.037063	0.312577
618.385082	0.314061
618.733048	0.311387
619.080961	0.313668
619.428821	0.312901
619.776628	0.312595
620.124382	0.314502
620.472083	0.314893
620.819731	0.314063
621.167326	0.317981
621.514868	0.317557
621.862357	0.321924
622.209793	0.321434
622.557176	0.323765
622.904506	0.324732
623.251783	0.327160
623.599007	0.329566
623.946179	0.329468
624.293297	0.330961
624.640363	0.334773
624.987376	0.335072
625.334336	0.337613
625.681243	0.340124
626.028097	0.340693
626.374899	0.341891
626.721647	0.341893
627.068343	0.344825
627.414987	0.346453
627.761577	0.348287
628.108115	0.346504
628.454600	0.351660
628.801032	0.349305
629.147412	0.351305
629.493739	0.351661
629.840014	0.354845
630.186236	0.352284
630.532405	0.357904
630.878521	0.354916
631.224585	0.357240
631.570597	0.360812
631.916556	0.359374
632.262462	0.359562
632.608316	0.361567
632.954117	0.362791
633.299866	0.363230
633.645562	0.363567
633.991206	0.367933
634.336797	0.370628
634.682336	0.373541
635.027823	0.374820
635.373257	0.375759
635.718639	0.379000
636.063968	0.378108
636.409245	0.383724
636.754470	0.384102
637.099642	0.386730
637.444762	0.390178
637.789829	0.389033
638.134845	0.392920
638.479808	0.393584
638.824719	0.393400
639.169577	0.397490
639.514383	0.396227
639.859137	0.400302
640.203839	0.400323
640.548489	0.401414
640.893086	0.401921
641.237632	0.403771
641.582125	0.402235
641.926566	0.403810
642.270955	0.404380
642.615292	0.404221
642.959576	0.403963
643.303809	0.403379
643.647990	0.403130
643.992118	0.404008
644.336195	0.407902
644.680219	0.405694
645.024192	0.406579
645.368112	0.400339
645.711981	0.399438
646.055797	0.394523
646.399562	0.397117
646.743274	0.388826
647.086935	0.386346
647.430544	0.386534
647.774101	0.385388
648.117606	0.384888
648.461059	0.385648
648.804460	0.387881
649.147810	0.393011
649.491108	0.395262
649.834354	0.395924
650.177548	0.401500
650.520690	0.407327
650.863781	0.408252
651.206820	0.407807
651.549807	0.412655
651.892742	0.416317
652.235626	0.415627
652.578458	0.416654
652.921238	0.422271
653.263967	0.420484
653.606644	0.424695
653.949269	0.424584
654.291843	0.428184
654.634365	0.425087
654.976836	0.427804
655.319255	0.428056
655.661622	0.429794
656.003938	0.430343
656.346203	0.433048
656.688416	0.430698
657.030577	0.434228
657.372687	0.436561
657.714746	0.436887
658.056753	0.433819
658.398708	0.437727
658.740612	0.438809
659.082465	0.435472
659.424266	0.435538
659.766016	0.435101
660.107715	0.437623
660.449362	0.436427
660.790958	0.437215
661.132503	0.438134
661.473996	0.435151
661.815438	0.436208
662.156829	0.436793
662.498168	0.437394
662.839456	0.438862
663.180693	0.436739
663.521879	0.436118
663.863013	0.437073
664.204097	0.435794
664.545129	0.433249
664.886110	0.432729
665.227040	0.430077
665.567918	0.433141
665.908746	0.430895
666.249522	0.430099
666.590248	0.431516
666.930922	0.429830
667.271545	0.428726
667.612118	0.428663
667.952639	0.430289
668.293109	0.429120
668.633528	0.431861
668.973896	0.431784
669.314213	0.432290
669.654480	0.434037
669.994695	0.434329
670.334859	0.435110
670.674973	0.435548
671.015035	0.435242
671.355047	0.435037
671.695008	0.436648
672.034918	0.438054
672.374777	0.437675
672.714585	0.438291
673.054342	0.438589
673.394049	0.438462
673.733705	0.436467
674.073310	0.437702
674.412864	0.440345
674.752368	0.440852
675.091820	0.441289
675.431223	0.445961
675.770574	0.445628
676.109875	0.448341
676.449125	0.448627
676.788324	0.450814
677.127473	0.455995
677.466571	0.455969
677.805619	0.457733
678.144616	0.458286
678.483562	0.460089
678.822458	0.462749
679.161303	0.463670
679.500098	0.464013
679.838842	0.466286
680.177535	0.465913
680.516179	0.463791
680.854771	0.463227
681.193314	0.456772
681.531805	0.447584
681.870247	0.436262
682.208638	0.428389
682.546978	0.428243
682.885268	0.429672
683.223508	0.435911
683.561697	0.439545
683.899836	0.442754
684.237925	0.445569
684.575963	0.447970
684.913951	0.451233
685.251889	0.447291
685.589776	0.449038
685.927614	0.451659
686.265401	0.445396
686.603137	0.447108
686.940824	0.440918
687.278460	0.439184
687.616046	0.438411
687.953582	0.433475
688.291068	0.434763
688.628504	0.430230
688.965889	0.432742
689.303224	0.436840
689.640510	0.440501
689.977745	0.446181
690.314930	0.454918
690.652065	0.459214
690.989150	0.466856
691.326185	0.473067
691.663170	0.477785
692.000105	0.484511
692.336990	0.491825
692.673825	0.494257
693.010610	0.501421
693.347345	0.506575
693.684030	0.508229
694.020665	0.512769
694.357251	0.521990
694.693786	0.521267
695.030272	0.525367
695.366707	0.528651
695.703093	0.532363
696.039429	0.530251
696.375716	0.531469
696.711952	0.534315
697.048139	0.536464
697.384276	0.538192
697.720363	0.537185
698.056400	0.535466
698.392388	0.541198
698.728326	0.544545
699.064214	0.547556
699.400053	0.548016
699.735842	0.551729
700.071581	0.554793
700.407270	0.557225
700.742910	0.560176
701.078501	0.566363
701.414042	0.566257
701.749533	0.569231
702.084974	0.578393
702.420366	0.571132
702.755709	0.578754
703.091002	0.586072
703.426246	0.579089
703.761440	0.585244
704.096584	0.590495
704.431679	0.587158
704.766725	0.589478
705.101721	0.591182
705.436668	0.586993
705.771565	0.593681
706.106413	0.590894
706.441212	0.586000
706.775961	0.584760
707.110661	0.587760
707.445311	0.584004
707.779913	0.581114
708.114465	0.579488
708.448967	0.576098
708.783421	0.568621
709.117825	0.562857
709.452180	0.563431
709.786485	0.557092
710.120742	0.546447
710.454949	0.548687
710.789107	0.540890
711.123216	0.532143
711.457275	0.533983
711.791286	0.524605
712.125247	0.524038
712.459159	0.534820
712.793023	0.527031
713.126837	0.531203
713.460602	0.531514
713.794318	0.541354
714.127985	0.539924
714.461602	0.549446
714.795171	0.552799
715.128691	0.560303
715.462162	0.567844
715.795584	0.573979
716.128957	0.576780
716.462281	0.583745
716.795556	0.586686
717.128782	0.591438
717.461960	0.601271
717.795088	0.599557
718.128167	0.605321
718.461198	0.614435
718.794180	0.615333
719.127113	0.618384
719.459997	0.621680
719.792833	0.627670
720.125619	0.629151
720.458357	0.634545
720.791046	0.634279
721.123686	0.637610
721.456278	0.644437
721.788821	0.641953
722.121315	0.646403
722.453761	0.650730
722.786158	0.648206
723.118506	0.644560
723.450805	0.652709
723.783056	0.649196
724.115259	0.646294
724.447412	0.645779
724.779518	0.646197
725.111574	0.645914
725.443582	0.641648
725.775542	0.643199
726.107453	0.636114
726.439315	0.636316
726.771129	0.633824
727.102895	0.627630
727.434612	0.620035
727.766281	0.618409
728.097901	0.618094
728.429473	0.617177
728.760996	0.616001
729.092471	0.615275
729.423897	0.620173
729.755276	0.618838
730.086606	0.618956
730.417887	0.613207
730.749120	0.604052
731.080305	0.594962
731.411442	0.590443
731.742530	0.595774
732.073570	0.594667
732.404562	0.587368
732.735506	0.589140
733.066401	0.593415
733.397249	0.602769
733.728048	0.613684
734.058798	0.626206
734.389501	0.637165
734.720156	0.646830
735.050762	0.654041
735.381320	0.655113
735.711831	0.664857
736.042293	0.669464
736.372707	0.665322
736.703073	0.670506
737.033391	0.672456
737.363661	0.669874
737.693883	0.664566
738.024056	0.663473
738.354182	0.663949
738.684260	0.653643
739.014290	0.648836
739.344272	0.650689
739.674207	0.643715
740.004093	0.642839
740.333931	0.643744
740.663722	0.643483
740.993464	0.643884
741.323159	0.648125
741.652806	0.652595
741.982405	0.658034
742.311956	0.662607
742.641460	0.663666
742.970915	0.668098
743.300323	0.675722
743.629683	0.681816
743.958996	0.684242
744.288260	0.688602
744.617477	0.694577
744.946647	0.696227
745.275768	0.700543
745.604842	0.701125
745.933869	0.711268
746.262847	0.711775
746.591778	0.704902
746.920662	0.712436
747.249498	0.718043
747.578286	0.708644
747.907027	0.704205
748.235720	0.706508
748.564365	0.700414
748.892963	0.700848
749.221514	0.702999
749.550017	0.708099
749.878473	0.708045
750.206881	0.714655
750.535242	0.715881
750.863555	0.715767
751.191821	0.717224
751.520039	0.720563
751.848210	0.724718
752.176334	0.716910
752.504411	0.716703
752.832440	0.724206
753.160421	0.728607
753.488356	0.726003
753.816243	0.723998
754.144082	0.732365
754.471875	0.736004
754.799620	0.731333
755.127318	0.732648
755.454969	0.733598
755.782572	0.732049
756.110129	0.736939
756.437638	0.739450
756.765100	0.735912
757.092515	0.734181
757.419882	0.732760
757.747203	0.738355
758.074477	0.737845
758.401703	0.735644
758.728882	0.729990
759.056014	0.729329
759.383099	0.727897
759.710138	0.729475
760.037129	0.726020
760.364073	0.719525
760.690970	0.722548
761.017820	0.727239
761.344623	0.723619
761.671379	0.714503
761.998088	0.702617
762.324751	0.680354
762.651366	0.638564
762.977935	0.571959
763.304456	0.519805
763.630931	0.510180
763.957359	0.549352
764.283740	0.593741
764.610074	0.620476
764.936362	0.651876
765.262602	0.677637
765.588796	0.699101
765.914943	0.717303
766.241044	0.735176
766.567097	0.741825
766.893104	0.751614
767.219064	0.758302
767.544978	0.764664
767.870845	0.777946
768.196665	0.781699
768.522438	0.779769
768.848165	0.780772
769.173846	0.789207
769.499479	0.794949
769.825066	0.797741
770.150607	0.802863
770.476101	0.797586
770.801548	0.799112
771.126949	0.810678
771.452303	0.814387
771.777611	0.813475
772.102872	0.813173
772.428087	0.817211
772.753256	0.820447
773.078378	0.822925
773.403453	0.832603
773.728482	0.836573
774.053465	0.830753
774.378401	0.833059
774.703291	0.841886
775.028135	0.841479
775.352932	0.843789
775.677683	0.846096
776.002388	0.846284
776.327046	0.845623
776.651658	0.849006
776.976224	0.852265
777.300743	0.851974
777.625216	0.855305
777.949643	0.856750
778.274024	0.856601
778.598359	0.858773
778.922647	0.857303
779.246889	0.857631
779.571086	0.861780
779.895236	0.863941
780.219339	0.861458
780.543397	0.858278
780.867409	0.856171
781.191374	0.859353
781.515294	0.860389
781.839167	0.858893
782.162995	0.862698
782.486776	0.859986
782.810511	0.860384
783.134201	0.864119
783.457844	0.862389
783.781441	0.864295
784.104993	0.870641
784.428498	0.869966
784.751958	0.866514
785.075372	0.868878
785.398739	0.872341
785.722061	0.869046
786.045337	0.864296
786.368568	0.869685
786.691752	0.871915
787.014891	0.857108
787.337983	0.848750
787.661030	0.840753
787.984031	0.823907
788.306987	0.810898
788.629897	0.812879
788.952760	0.817207
789.275579	0.821196
789.598351	0.836118
789.921078	0.849518
790.243759	0.852635
790.566395	0.856973
790.888984	0.863634
791.211529	0.868504
791.534027	0.871299
791.856480	0.874469
792.178888	0.878819
792.501249	0.882399
792.823566	0.883219
793.145836	0.882657
793.468062	0.884978
793.790241	0.885113
794.112375	0.882511
794.434464	0.878831
794.756507	0.878137
795.078505	0.878853
795.400457	0.872445
795.722364	0.859642
796.044226	0.852561
796.366042	0.852126
796.687812	0.855166
797.009538	0.851484
797.331218	0.854679
797.652852	0.859793
797.974442	0.864009
798.295986	0.863880
798.617484	0.866898
798.938938	0.871202
799.260346	0.875388
799.581709	0.878087
799.903026	0.879505
800.224299	0.880548
800.545526	0.883979
800.866708	0.888585
801.187845	0.892376
801.508936	0.891893
801.829983	0.889801
802.150984	0.893380
802.471940	0.898597
802.792851	0.897562
803.113717	0.898428
803.434538	0.896717
803.755314	0.898100
804.076045	0.899837
804.396731	0.899008
804.717372	0.899415
805.037967	0.901571
805.358518	0.900028
805.679024	0.897475
805.999485	0.896981
806.319901	0.897141
806.640272	0.898261
806.960598	0.896464
807.280879	0.893635
807.601115	0.892794
807.921306	0.895598
808.241453	0.896726
808.561554	0.894662
808.881611	0.894348
809.201623	0.896634
809.521590	0.895412
809.841513	0.897649
810.161390	0.895975
810.481223	0.897744
810.801011	0.901504
811.120755	0.903094
811.440453	0.901867
811.760107	0.899881
812.079716	0.900555
812.399281	0.903339
812.718801	0.906732
813.038276	0.907677
813.357707	0.906472
813.677093	0.904472
813.996434	0.907318
814.315731	0.909072
814.634983	0.910293
814.954191	0.907481
815.273354	0.905702
815.592473	0.901742
815.911547	0.901990
816.230577	0.899068
816.549562	0.896156
816.868502	0.897591
817.187399	0.892428
817.506250	0.888383
817.825058	0.889839
818.143821	0.886681
818.462539	0.880420
818.781213	0.873417
819.099843	0.862216
819.418429	0.846543
819.736970	0.830221
820.055466	0.810102
820.373919	0.784798
820.692327	0.752097
821.010691	0.717614
821.329011	0.640330
821.647286	0.525319
821.965517	0.412520
822.283704	0.369418
822.601847	0.370754
822.919945	0.406321
823.237999	0.440172
823.556010	0.486195
823.873976	0.541976
824.191897	0.592313
824.509775	0.634346
824.827609	0.680085
825.145398	0.702791
825.463144	0.705701
825.780845	0.688439
826.098502	0.669467
826.416116	0.623620
826.733685	0.580353
827.051210	0.572638
827.368692	0.586953
827.686129	0.624644
828.003522	0.676641
828.320872	0.723599
828.638177	0.767556
828.955439	0.799778
829.272656	0.821986
829.589830	0.839506
829.906960	0.855116
830.224046	0.866614
830.541088	0.877324
830.858086	0.881390
831.175041	0.887994
831.491952	0.887414
831.808819	0.884293
832.125642	0.877355
832.442421	0.862880
832.759157	0.840768
833.075849	0.794520
833.392497	0.731551
833.709101	0.689831
834.025662	0.699505
834.342179	0.731885
834.658653	0.770537
834.975083	0.806528
835.291469	0.832691
835.607811	0.855242
835.924110	0.871182
836.240366	0.888256
836.556578	0.900768
836.872746	0.908859
837.188871	0.914506
837.504952	0.920362
837.820990	0.924529
838.136984	0.927519
838.452935	0.930273
838.768842	0.932096
839.084706	0.925145
839.400526	0.898296
839.716303	0.859591
840.032037	0.836742
840.347727	0.840955
840.663373	0.858751
840.978977	0.879890
841.294537	0.902075
841.610054	0.918857
841.925527	0.925956
842.240957	0.933631
842.556344	0.939910
842.871687	0.946707
843.186987	0.950329
843.502244	0.951050
843.817458	0.951702
844.132629	0.955923
844.447756	0.961280
844.762840	0.961307
845.077881	0.960699
845.392879	0.959805
845.707833	0.962639
846.022745	0.964097
846.337613	0.964561
846.652438	0.964724
846.967221	0.965384
847.281960	0.965258
847.596656	0.967746
847.911309	0.966286
848.225919	0.968480
848.540485	0.968435
848.855009	0.968747
849.169490	0.968558
849.483928	0.969640
849.798323	0.969523
850.112675	0.969762
850.426984	0.968572
850.741251	0.969823
851.055474	0.971410
851.369654	0.967812
851.683792	0.969483
851.997887	0.969546
852.311938	0.969740
852.625947	0.969958
852.939914	0.967685
853.253837	0.970605
853.567718	0.970573
853.881555	0.971884
854.195350	0.968691
854.509103	0.969865
854.822812	0.970192
855.136479	0.970399
855.450103	0.970353
855.763685	0.968818
856.077224	0.968727
856.390720	0.970833
856.704173	0.971148
857.017584	0.968795
857.330953	0.967217
857.644278	0.967021
857.957561	0.969007
858.270802	0.969247
858.584000	0.967730
858.897155	0.966797
859.210268	0.967470
859.523339	0.969328
859.836367	0.970642
860.149352	0.969718
860.462295	0.968307
860.775195	0.970671
861.088054	0.969435
861.400869	0.969975
861.713642	0.970691
862.026373	0.970154
862.339062	0.969962
862.651708	0.968941
862.964312	0.967240
863.276873	0.969063
863.589392	0.968687
863.901869	0.967707
864.214303	0.964555
864.526696	0.963889
864.839045	0.963445
865.151353	0.961864
865.463619	0.963496
865.775842	0.962785
866.088023	0.963054
866.400162	0.961989
866.712258	0.962570
867.024313	0.962783
867.336325	0.963472
867.648296	0.963551
867.960224	0.963191
868.272110	0.960882
868.583954	0.964359
868.895755	0.964072
869.207515	0.962277
869.519233	0.959773
869.830909	0.960929
870.142542	0.962093
870.454134	0.961601
870.765684	0.961939
871.077191	0.958276
871.388657	0.959660
871.700081	0.957571
872.011463	0.958423
872.322803	0.958149
872.634101	0.956207
872.945357	0.954727
873.256571	0.952959
873.567744	0.952723
873.878874	0.953591
874.189963	0.951419
874.501010	0.951500
874.812015	0.950517
875.122979	0.951728
875.433900	0.954093
875.744780	0.953317
876.055618	0.952070
876.366415	0.950498
876.677169	0.950701
876.987882	0.952487
877.298554	0.950446
877.609183	0.948124
877.919771	0.945174
878.230317	0.942430
878.540822	0.940346
878.851285	0.935180
879.161707	0.927975
879.472087	0.915798
879.782425	0.899602
880.092722	0.865423
880.402977	0.814117
880.713191	0.754622
881.023363	0.694811
881.333494	0.661630
881.643583	0.633582
881.953631	0.633210
882.263637	0.662268
882.573602	0.701400
882.883526	0.726987
883.193408	0.750075
883.503248	0.771968
883.813048	0.799314
884.122806	0.828283
884.432522	0.853086
884.742197	0.872254
885.051831	0.881639
885.361424	0.892219
885.670975	0.903944
885.980485	0.915214
886.289954	0.919522
886.599382	0.925582
886.908768	0.929457
887.218113	0.934549
887.527417	0.939476
887.836680	0.942454
888.145901	0.944399
888.455082	0.946317
888.764221	0.951660
889.073319	0.952218
889.382376	0.953356
889.691392	0.953727
890.000366	0.951760
890.309300	0.954235
890.618193	0.953643
890.927044	0.951411
891.235855	0.951526
891.544625	0.951509
891.853353	0.951950
892.162041	0.950169
892.470687	0.943417
892.779293	0.938483
893.087858	0.934796
893.396381	0.926534
893.704864	0.913757
894.013306	0.889839
894.321707	0.862530
894.630068	0.849615
894.938387	0.844655
895.246665	0.845656
895.554903	0.858374
895.863100	0.871163
896.171256	0.888131
896.479371	0.906661
896.787446	0.920196
897.095480	0.926169
897.403473	0.929129
897.711425	0.932624
898.019336	0.939805
898.327207	0.943781
898.635038	0.945523
898.942827	0.945503
899.250576	0.949424
899.558284	0.952402
899.865952	0.953709
900.173579	0.954498
900.481165	0.956885
900.788711	0.960523
901.096216	0.961614
901.403681	0.962693
901.711105	0.962614
902.018489	0.964068
902.325832	0.962710
902.633135	0.961780
902.940397	0.955305
903.247619	0.945026
903.554800	0.919331
903.861941	0.880451
904.169041	0.844258
904.476101	0.827062
904.783121	0.829329
905.090100	0.843816
905.397039	0.866066
905.703938	0.886588
906.010796	0.907249
906.317614	0.923643
906.624391	0.935091
906.931129	0.945212
907.237826	0.952106
907.544483	0.959422
907.851099	0.962300
908.157675	0.969122
908.464211	0.970249
908.770707	0.972424
909.077163	0.973915
909.383578	0.974522
909.689954	0.974993
909.996289	0.974951
910.302584	0.978297
910.608839	0.979519
910.915054	0.978844
911.221229	0.978590
911.527363	0.976913
911.833458	0.976600
912.139513	0.977535
912.445527	0.975154
912.751502	0.974694
913.057436	0.972534
913.363331	0.969771
913.669186	0.965809
913.975000	0.961512
914.280775	0.955521
914.586510	0.949231
914.892205	0.936452
915.197859	0.914747
915.503475	0.887595
915.809050	0.868405
916.114585	0.863052
916.420081	0.860642
916.725536	0.856519
917.030952	0.866115
917.336328	0.878500
917.641665	0.892724
917.946961	0.909273
918.252218	0.919968
918.557435	0.928920
918.862612	0.936839
919.167750	0.942965
919.472848	0.948136
919.777906	0.952745
920.082925	0.959448
920.387904	0.962115
920.692843	0.963576
920.997743	0.964427
921.302603	0.968053
921.607423	0.969361
921.912204	0.972230
922.216946	0.972209
922.521647	0.973892
922.826310	0.975353
923.130932	0.976849
923.435516	0.978670
923.740059	0.979994
924.044564	0.978218
924.349028	0.980757
924.653454	0.983217
924.957840	0.984643
925.262186	0.984426
925.566493	0.984277
925.870761	0.986168
926.174989	0.986157
926.479178	0.988095
926.783328	0.988746
927.087438	0.988546
927.391509	0.988145
927.695541	0.989878
927.999533	0.989874
928.303486	0.990194
928.607400	0.990621
928.911275	0.989513
929.215110	0.990613
929.518906	0.991918
929.822663	0.989546
930.126381	0.991043
930.430060	0.990905
930.733699	0.989650
931.037299	0.989653
931.340861	0.990370
931.644383	0.989943
931.947866	0.988996
932.251309	0.990457
932.554714	0.990051
932.858080	0.990271
933.161407	0.990188
933.464694	0.990779
933.767943	0.989163
934.071153	0.991181
934.374323	0.991784
934.677455	0.990676
934.980548	0.991503
935.283602	0.991079
935.586617	0.991374
935.889593	0.990828
936.192530	0.991423
936.495428	0.990393
936.798287	0.991254
937.101108	0.991231
937.403890	0.989183
937.706632	0.988212
938.009336	0.987156
938.312002	0.986481
938.614628	0.984435
938.917216	0.983899
939.219765	0.981445
939.522275	0.984401
939.824747	0.982618
940.127179	0.984188
940.429573	0.984407
940.731929	0.983734
941.034246	0.984150
941.336524	0.987086
941.638763	0.985696
941.940964	0.987739
942.243126	0.987346
942.545250	0.987033
942.847335	0.988136
943.149381	0.987289
943.451389	0.990061
943.753359	0.989292
944.055290	0.990619
944.357182	0.990112
944.659036	0.988648
944.960851	0.990063
945.262628	0.990264
945.564367	0.990812
945.866067	0.989753
946.167729	0.991152
946.469352	0.990399
946.770937	0.987888
947.072484	0.990721
947.373992	0.991017
947.675462	0.989816
947.976893	0.990747
948.278286	0.990199
948.579641	0.990990
948.880958	0.991294
949.182236	0.990955
949.483476	0.992763
949.784678	0.990689
950.085841	0.991069
950.386967	0.990576
950.688054	0.990766
950.989103	0.991480
951.290114	0.989323
951.591087	0.989813
951.892021	0.990882
952.192917	0.988142
952.493776	0.989579
952.794596	0.988511
953.095378	0.988352
953.396122	0.987863
953.696828	0.988207
953.997496	0.988691
954.298126	0.990907
954.598718	0.990369
954.899272	0.991236
955.199788	0.990654
955.500266	0.991016
955.800706	0.992983
956.101108	0.993383
956.401472	0.993729
956.701798	0.994088
957.002087	0.993660
957.302337	0.993251
957.602550	0.995444
957.902724	0.994579
958.202861	0.994789
958.502960	0.995912
958.803022	0.993909
959.103045	0.995989
959.403031	0.995523
959.702979	0.994216
960.002889	0.996349
960.302762	0.994585
960.602596	0.996607
960.902393	0.994388
961.202153	0.996667
961.501875	0.996714
961.801559	0.995894
962.101205	0.995752
962.400814	0.996593
962.700385	0.996199
962.999918	0.997176
963.299414	0.996472
963.598873	0.996080
963.898293	0.996099
964.197677	0.996252
964.497022	0.997122
964.796331	0.998037
965.095601	0.996631
965.394835	0.995876
965.694030	0.997328
965.993189	0.996195
966.292309	0.996339
966.591393	0.997938
966.890439	0.997909
967.189447	0.997544
967.488419	0.998049
967.787353	0.996284
968.086249	0.995967
968.385108	0.997423
968.683930	0.998357
968.982714	0.998172
969.281462	0.996939
969.580172	0.996162
969.878844	0.997429
970.177480	0.996261
970.476078	0.997023
970.774639	0.996675
971.073162	0.998064
971.371649	0.995664
971.670098	0.996919
971.968510	0.996739
972.266885	0.996284
972.565223	0.997207
972.863524	0.995886
973.161788	0.995874
973.460014	0.997044
973.758204	0.995513
974.056356	0.996836
974.354471	0.994037
974.652550	0.997699
974.950591	0.995929
975.248595	0.996586
975.546563	0.995877
975.844493	0.998150
976.142386	0.997203
976.440243	0.996740
976.738062	0.997415
977.035845	0.997743
977.333590	0.996292
977.631299	0.997007
977.928971	0.996423
978.226606	0.997079
978.524204	0.996171
978.821765	0.997603
979.119290	0.997280
979.416777	0.996966
979.714228	0.997336
980.011642	0.996238
980.309020	0.997988
980.606360	0.997889
980.903664	0.997884
981.200931	0.997081
981.498162	0.994644
981.795356	0.995114
982.092513	0.993672
982.389633	0.994948
982.686717	0.990907
982.983764	0.992327
983.280775	0.990813
983.577749	0.990387
983.874686	0.992477
984.171587	0.991620
984.468451	0.994852
984.765279	0.995181
985.062070	0.994792
985.358824	0.995646
985.655543	0.995740
985.952224	0.995401
986.248869	0.996535
986.545478	0.997058
986.842050	0.997398
987.138586	0.995887
987.435086	0.997772
987.731549	0.999803
988.027975	0.997952
988.324366	0.998850
988.620719	0.997339
988.917037	0.995396
989.213318	0.998190
989.509563	0.999066
989.805772	0.997935
990.101944	0.998252
990.398080	0.997834
990.694180	0.997584
990.990244	0.997298
991.286271	0.998270
991.582262	0.998464
991.878217	0.998030
992.174136	0.997011
992.470019	0.999012
992.765865	0.997149
993.061676	0.998450
993.357450	0.997067
993.653188	0.996621
993.948890	0.996794
994.244556	0.997244
994.540186	0.997174
994.835780	0.996103
995.131337	0.997356
995.426859	0.996937
995.722345	0.997221
996.017795	0.995650
996.313208	0.996630
996.608586	0.995630
996.903928	0.997034
997.199234	0.996143
997.494504	0.995881
997.789738	0.996680
998.084936	0.995860
998.380099	0.996870
998.675225	0.997366
998.970316	0.999543
999.265371	0.997729
999.560390	0.997740
999.855373	0.998921
1000.150320	0.999005
1000.445232	0.998120
1000.740108	0.998219
1001.034948	0.997897
1001.329752	0.999739
1001.624521	0.998526
1001.919254	0.997873
1002.213951	0.998508
1002.508613	0.997500
1002.803239	0.999678
1003.097829	0.998696
1003.392384	0.999445
1003.686903	0.998282
1003.981386	0.999739
1004.275834	0.998571
1004.570246	0.999574
1004.864623	0.998804
1005.158964	0.999670
1005.453270	0.998499
1005.747540	0.997137
1006.041775	0.999204
1006.335974	0.999880
1006.630138	0.999503
1006.924266	0.999503
1007.218359	1.000164
1007.512416	0.999120
1007.806438	0.998941
1008.100425	1.000423
1008.394376	0.997590
1008.688292	0.998698
1008.982172	1.000318
1009.276017	0.999371
1009.569827	0.998145
1009.863602	0.999008
1010.157341	1.000196
1010.451045	0.999021
1010.744714	0.998885
1011.038347	0.999225
1011.331945	0.999420
1011.625508	0.997474
1011.919036	0.998906
1012.212528	0.998768
1012.505986	0.997460
1012.799408	0.998788
1013.092795	0.999260
1013.386147	0.999010
1013.679464	0.999164
1013.972745	0.997953
1014.265992	0.997641
1014.559204	0.998906
1014.852380	0.998352
1015.145521	0.998560
1015.438628	0.999286
1015.731699	0.998307
1016.024736	0.999155
1016.317737	0.998906
1016.610703	0.999218
1016.903635	0.998709
1017.196531	0.998770
1017.489393	0.999853
1017.782219	0.999231
1018.075011	0.997238
1018.367768	0.997957
1018.660490	0.998855
1018.953177	0.998855
1019.245829	0.998855
