Dividing Wavelength (nm)	Counts (n)	Blue Motor Position (mm): 0.000000	Red Motor Position (mm): 11.600000	
326.493990	1.001164
326.888308	1.001164
327.282561	1.001164
327.676750	0.998968
328.070874	0.998374
328.464933	1.000269
328.858929	1.000145
329.252859	0.998798
329.646726	0.999050
330.040528	1.000849
330.434265	0.999490
330.827938	0.999778
331.221547	1.001538
331.615091	0.998449
332.008571	0.999202
332.401986	0.999996
332.795338	1.000231
333.188625	0.998778
333.581847	0.999977
333.975006	0.999279
334.368100	0.999973
334.761129	0.999852
335.154095	1.000358
335.546996	0.997732
335.939833	0.991514
336.332606	0.993235
336.725315	0.992912
337.117960	0.995364
337.510540	0.993233
337.903056	0.995306
338.295508	0.992930
338.687896	0.993226
339.080220	0.993432
339.472480	0.993438
339.864676	0.993902
340.256807	0.993624
340.648875	0.994696
341.040879	0.994885
341.432818	0.992658
341.824694	0.993908
342.216506	0.993705
342.608253	0.993378
342.999937	0.993563
343.391557	0.992939
343.783113	0.993388
344.174605	0.993530
344.566033	0.994222
344.957397	0.992864
345.348697	0.992805
345.739934	0.993476
346.131106	0.993342
346.522215	0.991301
346.913260	0.993994
347.304241	0.994095
347.695159	0.993248
348.086012	0.993061
348.476802	0.993341
348.867528	0.993623
349.258191	0.992513
349.648789	0.994236
350.039324	0.993078
350.429796	0.993065
350.820203	0.993491
351.210548	0.993545
351.600828	0.992726
351.991045	0.992628
352.381198	0.993212
352.771288	0.993182
353.161314	0.992325
353.551276	0.993935
353.941175	0.992511
354.331010	0.993277
354.720782	0.994665
355.110490	0.993527
355.500135	0.994486
355.889717	0.993713
356.279235	0.994155
356.668689	0.992152
357.058080	0.992589
357.447408	0.994093
357.836672	0.994221
358.225873	0.994476
358.615010	0.993497
359.004084	0.994826
359.393095	0.994058
359.782043	0.993872
360.170927	0.994275
360.559748	0.993539
360.948505	0.992641
361.337199	0.992029
361.725830	0.994264
362.114398	0.993211
362.502903	0.993586
362.891344	0.994099
363.279722	0.992810
363.668037	0.993102
364.056289	0.992947
364.444478	0.993996
364.832603	0.994270
365.220665	0.992686
365.608665	0.992315
365.996601	0.991384
366.384474	0.993111
366.772284	0.991414
367.160031	0.991373
367.547715	0.991928
367.935336	0.993385
368.322893	0.992323
368.710388	0.991786
369.097820	0.991407
369.485189	0.992474
369.872495	0.992041
370.259738	0.990913
370.646918	0.992349
371.034035	0.992448
371.421090	0.992370
371.808081	0.990498
372.195010	0.993037
372.581875	0.991333
372.968678	0.992115
373.355418	0.991369
373.742096	0.991199
374.128710	0.993999
374.515262	0.990724
374.901751	0.992842
375.288177	0.993402
375.674540	0.992714
376.060841	0.991703
376.447079	0.992647
376.833254	0.992528
377.219367	0.993253
377.605417	0.991452
377.991404	0.992201
378.377329	0.991661
378.763191	0.991827
379.148991	0.992385
379.534727	0.992523
379.920402	0.992847
380.306013	0.992272
380.691563	0.992666
381.077049	0.991085
381.462474	0.992494
381.847835	0.991866
382.233134	0.991103
382.618371	0.992102
383.003545	0.991297
383.388657	0.990310
383.773706	0.990254
384.158693	0.987710
384.543618	0.988221
384.928480	0.985582
385.313280	0.983802
385.698017	0.981931
386.082692	0.979554
386.467305	0.975959
386.851856	0.972651
387.236344	0.968519
387.620770	0.964769
388.005133	0.960748
388.389435	0.955883
388.773674	0.951282
389.157851	0.945421
389.541965	0.939690
389.926018	0.936476
390.310008	0.929790
390.693936	0.922040
391.077802	0.914399
391.461606	0.908418
391.845348	0.899407
392.229027	0.893503
392.612645	0.885710
392.996200	0.875489
393.379694	0.864836
393.763125	0.854113
394.146494	0.846974
394.529801	0.835259
394.913047	0.824018
395.296230	0.818353
395.679351	0.806238
396.062410	0.795016
396.445408	0.789013
396.828343	0.777765
397.211217	0.766740
397.594028	0.765964
397.976778	0.751347
398.359466	0.741916
398.742092	0.730206
399.124656	0.730783
399.507158	0.715222
399.889598	0.706137
400.271977	0.692221
400.654294	0.689538
401.036549	0.681068
401.418742	0.678351
401.800874	0.660284
402.182944	0.652059
402.564952	0.638796
402.946898	0.635845
403.328783	0.629967
403.710606	0.635318
404.092367	0.608959
404.474067	0.608780
404.855705	0.604066
405.237282	0.608821
405.618797	0.591478
406.000250	0.585311
406.381642	0.573462
406.762972	0.574400
407.144240	0.571066
407.525447	0.568111
407.906593	0.559124
408.287677	0.552363
408.668700	0.558345
409.049661	0.550455
409.430560	0.544581
409.811399	0.551020
410.192176	0.532454
410.572891	0.537781
410.953545	0.526120
411.334138	0.537766
411.714669	0.530548
412.095139	0.541098
412.475547	0.525784
412.855894	0.526679
413.236180	0.525341
413.616405	0.530286
413.996568	0.520767
414.376670	0.526431
414.756711	0.531071
415.136691	0.527843
415.516609	0.519260
415.896466	0.515383
416.276262	0.511174
416.655997	0.512829
417.035670	0.494031
417.415283	0.486503
417.794834	0.490556
418.174324	0.496146
418.553753	0.505258
418.933121	0.487266
419.312428	0.480696
419.691674	0.486476
420.070859	0.475166
420.449983	0.483331
420.829045	0.473008
421.208047	0.481129
421.586988	0.474744
421.965867	0.473879
422.344686	0.462634
422.723444	0.475505
423.102141	0.491405
423.480777	0.464924
423.859352	0.485365
424.237866	0.462122
424.616319	0.463377
424.994712	0.453761
425.373044	0.464762
425.751314	0.452685
426.129524	0.468972
426.507673	0.452981
426.885762	0.446468
427.263789	0.451509
427.641756	0.461088
428.019662	0.451809
428.397508	0.450615
428.775292	0.454672
429.153016	0.447450
429.530679	0.453588
429.908282	0.446383
430.285824	0.456287
430.663305	0.435201
431.040726	0.455891
431.418086	0.456101
431.795385	0.447590
432.172624	0.446457
432.549802	0.447135
432.926920	0.446206
433.303977	0.445044
433.680974	0.442706
434.057910	0.441307
434.434786	0.440434
434.811601	0.443030
435.188355	0.425100
435.565050	0.434677
435.941683	0.436181
436.318257	0.421047
436.694770	0.420787
437.071222	0.419239
437.447614	0.423770
437.823946	0.430280
438.200218	0.419662
438.576429	0.429146
438.952580	0.422488
439.328670	0.418726
439.704700	0.426146
440.080670	0.426841
440.456580	0.407546
440.832429	0.415889
441.208218	0.426681
441.583947	0.415961
441.959616	0.415529
442.335224	0.420480
442.710773	0.411344
443.086261	0.409551
443.461689	0.423470
443.837057	0.413276
444.212365	0.403257
444.587612	0.410281
444.962800	0.399985
445.337927	0.401354
445.712995	0.427861
446.088002	0.390348
446.462949	0.400440
446.837837	0.404776
447.212664	0.393979
447.587431	0.385726
447.962139	0.355653
448.336786	0.315670
448.711374	0.325824
449.085901	0.369831
449.460369	0.374040
449.834776	0.377603
450.209124	0.357206
450.583412	0.349418
450.957640	0.342969
451.331808	0.353745
451.705917	0.377563
452.079965	0.381936
452.453954	0.370213
452.827883	0.376912
453.201752	0.371909
453.575562	0.383364
453.949311	0.371676
454.323001	0.377424
454.696632	0.373619
455.070202	0.366269
455.443713	0.358164
455.817164	0.353279
456.190556	0.349001
456.563888	0.345443
456.937160	0.343349
457.310373	0.360486
457.683526	0.358835
458.056619	0.364717
458.429653	0.365479
458.802628	0.369193
459.175542	0.362988
459.548398	0.345725
459.921194	0.338081
460.293930	0.338300
460.666607	0.315899
461.039224	0.304138
461.411782	0.299846
461.784280	0.299275
462.156719	0.303739
462.529099	0.307548
462.901419	0.324015
463.273680	0.328458
463.645882	0.327789
464.018024	0.333268
464.390106	0.326258
464.762130	0.311279
465.134094	0.294019
465.505999	0.263515
465.877845	0.234089
466.249631	0.221210
466.621358	0.228389
466.993026	0.242487
467.364634	0.248298
467.736184	0.257064
468.107674	0.266158
468.479105	0.264993
468.850477	0.271335
469.221790	0.278431
469.593043	0.288808
469.964238	0.293416
470.335373	0.292658
470.706449	0.291198
471.077467	0.291731
471.448425	0.254132
471.819324	0.229858
472.190164	0.228952
472.560945	0.257829
472.931667	0.279912
473.302330	0.284039
473.672934	0.295756
474.043479	0.284045
474.413965	0.285861
474.784393	0.289284
475.154761	0.284248
475.525070	0.281506
475.895321	0.287156
476.265513	0.281166
476.635645	0.276669
477.005719	0.276598
477.375734	0.273389
477.745691	0.266559
478.115588	0.262803
478.485427	0.256563
478.855207	0.243517
479.224928	0.226078
479.594591	0.213904
479.964194	0.217447
480.333739	0.218679
480.703226	0.220091
481.072653	0.218704
481.442022	0.214328
481.811333	0.210749
482.180584	0.214312
482.549777	0.219585
482.918912	0.222766
483.287988	0.222373
483.657005	0.222047
484.025964	0.228710
484.394864	0.225958
484.763706	0.226661
485.132489	0.231690
485.501213	0.232376
485.869879	0.230806
486.238487	0.233958
486.607036	0.232058
486.975527	0.236345
487.343959	0.232484
487.712333	0.231186
488.080648	0.232635
488.448905	0.232146
488.817104	0.233183
489.185244	0.227795
489.553326	0.224708
489.921350	0.214638
490.289315	0.197326
490.657222	0.192035
491.025070	0.193424
491.392861	0.195377
491.760593	0.201145
492.128267	0.206887
492.495883	0.212125
492.863440	0.218394
493.230939	0.224748
493.598380	0.225789
493.965763	0.228330
494.333088	0.230672
494.700354	0.231954
495.067563	0.231130
495.434713	0.234229
495.801805	0.232070
496.168839	0.233615
496.535815	0.234860
496.902733	0.235018
497.269593	0.236762
497.636395	0.234520
498.003139	0.234654
498.369825	0.237611
498.736453	0.233837
499.103023	0.235589
499.469535	0.234858
499.835989	0.235214
500.202385	0.236307
500.568723	0.239342
500.935003	0.234551
501.301226	0.239020
501.667390	0.233496
502.033497	0.231296
502.399546	0.234054
502.765537	0.236188
503.131470	0.234220
503.497345	0.230703
503.863163	0.239486
504.228923	0.232617
504.594625	0.231213
504.960269	0.236264
505.325856	0.231846
505.691385	0.236116
506.056856	0.232701
506.422270	0.232223
506.787625	0.235018
507.152924	0.232093
507.518164	0.232485
507.883347	0.234322
508.248472	0.235991
508.613540	0.231225
508.978550	0.233625
509.343503	0.234166
509.708398	0.231809
510.073236	0.229402
510.438016	0.229435
510.802738	0.230016
511.167403	0.229259
511.532010	0.231459
511.896561	0.226494
512.261053	0.225525
512.625488	0.227490
512.989866	0.227873
513.354186	0.228348
513.718449	0.229835
514.082655	0.226441
514.446803	0.228592
514.810894	0.226399
515.174927	0.228863
515.538904	0.228372
515.902822	0.224993
516.266684	0.227637
516.630488	0.228873
516.994235	0.227349
517.357925	0.226394
517.721558	0.224728
518.085133	0.224173
518.448651	0.224391
518.812112	0.226338
519.175516	0.226020
519.538863	0.223833
519.902152	0.225229
520.265385	0.222122
520.628560	0.224080
520.991678	0.224382
521.354739	0.223344
521.717743	0.224435
522.080690	0.224991
522.443580	0.222432
522.806413	0.223180
523.169189	0.222502
523.531908	0.221530
523.894569	0.225130
524.257174	0.224880
524.619722	0.222513
524.982213	0.223610
525.344647	0.222478
525.707025	0.223620
526.069345	0.221396
526.431608	0.223323
526.793815	0.221312
527.155964	0.225249
527.518057	0.224327
527.880093	0.225466
528.242072	0.223929
528.603995	0.225847
528.965860	0.227723
529.327669	0.226499
529.689421	0.227198
530.051117	0.227960
530.412755	0.225758
530.774337	0.228243
531.135862	0.228472
531.497331	0.227851
531.858743	0.230531
532.220098	0.227332
532.581396	0.230049
532.942638	0.230452
533.303824	0.231500
533.664953	0.231165
534.026025	0.232830
534.387040	0.230815
534.747999	0.230789
535.108902	0.229677
535.469748	0.234553
535.830537	0.232333
536.191270	0.232915
536.551947	0.232377
536.912567	0.232599
537.273131	0.234124
537.633638	0.234504
537.994089	0.234623
538.354483	0.236054
538.714821	0.233001
539.075103	0.232690
539.435328	0.233421
539.795497	0.236813
540.155609	0.233474
540.515665	0.231839
540.875665	0.237432
541.235609	0.236004
541.595496	0.236153
541.955328	0.232654
542.315102	0.235157
542.674821	0.236124
543.034483	0.236374
543.394090	0.235647
543.753640	0.237750
544.113134	0.232939
544.472571	0.236291
544.831953	0.232960
545.191278	0.237375
545.550548	0.236685
545.909761	0.233567
546.268918	0.234086
546.628019	0.232533
546.987064	0.235244
547.346053	0.237117
547.704986	0.235035
548.063863	0.235089
548.422684	0.235237
548.781449	0.237180
549.140158	0.234840
549.498811	0.237668
549.857408	0.240921
550.215949	0.235948
550.574434	0.238835
550.932864	0.236897
551.291237	0.235196
551.649555	0.236496
552.007817	0.236449
552.366022	0.237236
552.724173	0.237556
553.082267	0.237794
553.440305	0.234756
553.798288	0.239119
554.156215	0.235905
554.514086	0.236288
554.871902	0.239581
555.229661	0.238966
555.587365	0.239340
555.945014	0.241909
556.302606	0.238576
556.660143	0.241540
557.017625	0.237890
557.375050	0.239933
557.732421	0.237092
558.089735	0.239052
558.446994	0.239185
558.804197	0.238189
559.161345	0.238322
559.518437	0.241936
559.875474	0.239467
560.232455	0.238928
560.589381	0.240020
560.946251	0.240252
561.303065	0.237276
561.659825	0.239036
562.016528	0.240377
562.373177	0.243466
562.729770	0.240725
563.086307	0.242661
563.442789	0.240483
563.799216	0.243294
564.155587	0.242282
564.511904	0.243360
564.868164	0.243571
565.224370	0.243268
565.580520	0.245069
565.936615	0.244986
566.292654	0.247923
566.648638	0.244993
567.004567	0.245838
567.360441	0.246207
567.716260	0.248475
568.072023	0.246011
568.427732	0.247074
568.783385	0.249377
569.138982	0.247543
569.494525	0.247334
569.850013	0.249810
570.205445	0.248602
570.560823	0.250612
570.916145	0.252819
571.271412	0.251017
571.626625	0.252264
571.981782	0.252786
572.336884	0.253961
572.691931	0.253932
573.046923	0.254979
573.401860	0.256266
573.756743	0.257719
574.111570	0.256771
574.466342	0.257315
574.821059	0.256284
575.175722	0.259037
575.530330	0.259318
575.884882	0.259146
576.239380	0.261189
576.593823	0.261684
576.948211	0.260882
577.302544	0.264592
577.656823	0.263978
578.011047	0.264267
578.365216	0.265001
578.719330	0.266779
579.073389	0.266914
579.427394	0.267979
579.781344	0.268589
580.135239	0.269985
580.489080	0.269664
580.842866	0.272883
581.196597	0.272834
581.550273	0.270961
581.903895	0.272198
582.257463	0.270378
582.610975	0.274019
582.964434	0.273128
583.317837	0.275762
583.671186	0.276073
584.024481	0.275974
584.377721	0.278585
584.730906	0.279039
585.084037	0.278426
585.437113	0.280171
585.790135	0.279655
586.143103	0.282619
586.496016	0.283808
586.848874	0.281249
587.201679	0.281841
587.554428	0.285230
587.907124	0.284167
588.259765	0.284584
588.612352	0.285199
588.964884	0.288940
589.317362	0.288577
589.669786	0.288875
590.022155	0.287256
590.374470	0.286541
590.726731	0.288399
591.078937	0.293179
591.431090	0.289414
591.783188	0.293847
592.135232	0.293873
592.487222	0.294315
592.839157	0.292345
593.191038	0.294663
593.542866	0.296477
593.894639	0.300358
594.246358	0.298138
594.598022	0.297581
594.949633	0.301442
595.301190	0.302087
595.652692	0.301092
596.004141	0.297394
596.355535	0.305264
596.706876	0.305829
597.058162	0.308551
597.409395	0.305641
597.760573	0.303326
598.111698	0.306556
598.462768	0.306930
598.813785	0.308305
599.164748	0.309475
599.515657	0.309577
599.866511	0.313008
600.217312	0.308356
600.568060	0.313975
600.918753	0.310107
601.269392	0.311038
601.619978	0.314267
601.970510	0.311664
602.320988	0.312302
602.671412	0.309803
603.021783	0.312295
603.372100	0.313487
603.722363	0.313440
604.072572	0.314288
604.422728	0.313946
604.772830	0.316355
605.122878	0.315580
605.472872	0.316136
605.822813	0.314429
606.172701	0.317180
606.522534	0.314648
606.872314	0.314912
607.222041	0.315639
607.571714	0.313613
607.921333	0.315076
608.270899	0.314715
608.620411	0.311367
608.969870	0.315462
609.319276	0.315759
609.668627	0.315164
610.017926	0.313861
610.367171	0.312327
610.716362	0.313456
611.065500	0.313576
611.414585	0.312433
611.763616	0.312678
612.112594	0.313050
612.461518	0.312694
612.810389	0.310160
613.159207	0.312886
613.507971	0.314408
613.856682	0.309864
614.205340	0.311868
614.553945	0.308751
614.902496	0.312485
615.250994	0.310549
615.599439	0.311378
615.947830	0.310962
616.296169	0.311686
616.644454	0.311147
616.992686	0.311621
617.340864	0.308871
617.688990	0.312614
618.037063	0.309516
618.385082	0.311013
618.733048	0.308204
619.080961	0.310335
619.428821	0.309860
619.776628	0.309417
620.124382	0.311286
620.472083	0.311705
620.819731	0.310876
621.167326	0.314930
621.514868	0.314513
621.862357	0.318802
622.209793	0.318406
622.557176	0.320367
622.904506	0.321945
623.251783	0.324333
623.599007	0.326117
623.946179	0.325859
624.293297	0.328000
624.640363	0.331700
624.987376	0.332371
625.334336	0.334804
625.681243	0.337123
626.028097	0.337461
626.374899	0.338689
626.721647	0.339048
627.068343	0.342155
627.414987	0.343256
627.761577	0.345459
628.108115	0.343843
628.454600	0.348814
628.801032	0.346057
629.147412	0.348213
629.493739	0.348742
629.840014	0.351911
630.186236	0.349374
630.532405	0.354461
630.878521	0.351855
631.224585	0.354243
631.570597	0.357911
631.916556	0.356298
632.262462	0.356507
632.608316	0.358674
632.954117	0.359307
633.299866	0.360226
633.645562	0.360744
633.991206	0.364820
634.336797	0.368361
634.682336	0.370588
635.027823	0.372216
635.373257	0.372150
635.718639	0.376120
636.063968	0.375149
636.409245	0.380581
636.754470	0.381678
637.099642	0.383984
637.444762	0.387516
637.789829	0.385954
638.134845	0.390111
638.479808	0.390985
638.824719	0.390423
639.169577	0.394861
639.514383	0.393720
639.859137	0.397897
640.203839	0.397838
640.548489	0.397960
640.893086	0.399365
641.237632	0.401056
641.582125	0.399546
641.926566	0.401121
642.270955	0.401343
642.615292	0.401455
642.959576	0.400821
643.303809	0.401092
643.647990	0.400796
643.992118	0.401403
644.336195	0.405027
644.680219	0.403097
645.024192	0.403816
645.368112	0.397277
645.711981	0.396493
646.055797	0.391608
646.399562	0.394463
646.743274	0.386624
647.086935	0.383845
647.430544	0.383734
647.774101	0.383184
648.117606	0.382410
648.461059	0.382597
648.804460	0.384984
649.147810	0.390596
649.491108	0.392524
649.834354	0.393538
650.177548	0.399322
650.520690	0.403948
650.863781	0.405765
651.206820	0.404785
651.549807	0.409834
651.892742	0.413594
652.235626	0.412757
652.578458	0.413843
652.921238	0.419808
653.263967	0.418159
653.606644	0.421984
653.949269	0.421835
654.291843	0.425794
654.634365	0.422322
654.976836	0.425376
655.319255	0.425654
655.661622	0.427011
656.003938	0.427402
656.346203	0.430368
656.688416	0.427870
657.030577	0.431482
657.372687	0.433040
657.714746	0.434152
658.056753	0.431576
658.398708	0.434966
658.740612	0.436389
659.082465	0.432191
659.424266	0.433032
659.766016	0.432068
660.107715	0.434946
660.449362	0.433975
660.790958	0.434410
661.132503	0.434825
661.473996	0.433291
661.815438	0.433577
662.156829	0.433340
662.498168	0.434739
662.839456	0.436060
663.180693	0.433980
663.521879	0.433536
663.863013	0.434801
664.204097	0.433185
664.545129	0.430178
664.886110	0.430730
665.227040	0.427533
665.567918	0.430491
665.908746	0.428191
666.249522	0.428474
666.590248	0.428984
666.930922	0.427071
667.271545	0.426314
667.612118	0.426018
667.952639	0.427627
668.293109	0.426502
668.633528	0.429094
668.973896	0.428903
669.314213	0.429422
669.654480	0.431474
669.994695	0.431729
670.334859	0.432527
670.674973	0.432454
671.015035	0.432812
671.355047	0.432180
671.695008	0.434008
672.034918	0.435479
672.374777	0.434511
672.714585	0.435763
673.054342	0.436094
673.394049	0.436385
673.733705	0.433778
674.073310	0.434892
674.412864	0.438063
674.752368	0.438347
675.091820	0.439255
675.431223	0.443051
675.770574	0.442535
676.109875	0.445788
676.449125	0.445835
676.788324	0.448160
677.127473	0.453144
677.466571	0.453479
677.805619	0.455231
678.144616	0.456236
678.483562	0.457805
678.822458	0.459966
679.161303	0.461414
679.500098	0.461951
679.838842	0.463335
680.177535	0.462702
680.516179	0.461230
680.854771	0.460425
681.193314	0.454165
681.531805	0.445088
681.870247	0.433907
682.208638	0.426319
682.546978	0.425124
682.885268	0.426799
683.223508	0.433126
683.561697	0.436747
683.899836	0.439464
684.237925	0.442991
684.575963	0.445720
684.913951	0.448870
685.251889	0.444578
685.589776	0.446333
685.927614	0.448821
686.265401	0.443017
686.603137	0.444632
686.940824	0.438480
687.278460	0.436687
687.616046	0.435919
687.953582	0.430691
688.291068	0.432279
688.628504	0.428197
688.965889	0.430040
689.303224	0.434468
689.640510	0.437848
689.977745	0.444279
690.314930	0.452057
690.652065	0.456497
690.989150	0.464364
691.326185	0.470398
691.663170	0.474902
692.000105	0.482255
692.336990	0.489513
692.673825	0.491803
693.010610	0.498907
693.347345	0.504230
693.684030	0.506104
694.020665	0.510360
694.357251	0.519772
694.693786	0.519032
695.030272	0.522599
695.366707	0.526944
695.703093	0.529792
696.039429	0.527629
696.375716	0.529539
696.711952	0.531920
697.048139	0.534696
697.384276	0.536455
697.720363	0.534068
698.056400	0.533906
698.392388	0.538933
698.728326	0.542231
699.064214	0.544929
699.400053	0.545176
699.735842	0.549376
700.071581	0.552178
700.407270	0.555546
700.742910	0.556980
701.078501	0.563753
701.414042	0.564206
701.749533	0.567249
702.084974	0.576389
702.420366	0.568707
702.755709	0.576203
703.091002	0.583743
703.426246	0.577328
703.761440	0.583410
704.096584	0.587775
704.431679	0.584705
704.766725	0.587048
705.101721	0.588954
705.436668	0.584936
705.771565	0.592297
706.106413	0.588473
706.441212	0.583710
706.775961	0.582865
707.110661	0.585287
707.445311	0.581275
707.779913	0.577994
708.114465	0.577949
708.448967	0.573767
708.783421	0.566771
709.117825	0.560503
709.452180	0.561062
709.786485	0.554372
710.120742	0.544712
710.454949	0.546299
710.789107	0.538400
711.123216	0.529163
711.457275	0.531000
711.791286	0.522502
712.125247	0.520997
712.459159	0.531646
712.793023	0.524783
713.126837	0.528656
713.460602	0.529551
713.794318	0.538276
714.127985	0.537400
714.461602	0.547207
714.795171	0.550530
715.128691	0.558398
715.462162	0.565303
715.795584	0.571608
716.128957	0.573963
716.462281	0.581210
716.795556	0.584376
717.128782	0.589430
717.461960	0.599062
717.795088	0.597178
718.128167	0.603739
718.461198	0.611958
718.794180	0.613457
719.127113	0.616160
719.459997	0.619343
719.792833	0.625840
720.125619	0.627221
720.458357	0.632840
720.791046	0.632489
721.123686	0.635472
721.456278	0.643362
721.788821	0.639812
722.121315	0.644067
722.453761	0.648264
722.786158	0.646371
723.118506	0.643180
723.450805	0.650469
723.783056	0.646915
724.115259	0.644070
724.447412	0.643678
724.779518	0.645037
725.111574	0.643168
725.443582	0.639194
725.775542	0.641029
726.107453	0.633167
726.439315	0.633702
726.771129	0.632019
727.102895	0.624934
727.434612	0.617995
727.766281	0.616021
728.097901	0.615542
728.429473	0.614998
728.760996	0.613077
729.092471	0.613009
729.423897	0.617026
729.755276	0.616574
730.086606	0.616369
730.417887	0.611104
730.749120	0.601146
731.080305	0.591644
731.411442	0.588966
731.742530	0.593282
732.073570	0.591900
732.404562	0.584971
732.735506	0.586332
733.066401	0.590615
733.397249	0.599985
733.728048	0.611483
734.058798	0.624159
734.389501	0.634890
734.720156	0.644670
735.050762	0.652628
735.381320	0.654078
735.711831	0.662702
736.042293	0.667689
736.372707	0.663273
736.703073	0.668060
737.033391	0.670251
737.363661	0.667399
737.693883	0.661681
738.024056	0.662406
738.354182	0.661950
738.684260	0.651247
739.014290	0.647072
739.344272	0.648187
739.674207	0.641363
740.004093	0.640917
740.333931	0.641116
740.663722	0.641585
740.993464	0.641709
741.323159	0.645619
741.652806	0.651022
741.982405	0.655239
742.311956	0.659951
742.641460	0.661564
742.970915	0.665623
743.300323	0.672969
743.629683	0.680208
743.958996	0.681431
744.288260	0.685928
744.617477	0.692586
744.946647	0.693743
745.275768	0.699331
745.604842	0.699112
745.933869	0.708729
746.262847	0.709689
746.591778	0.703822
746.920662	0.708910
747.249498	0.716182
747.578286	0.707349
747.907027	0.702523
748.235720	0.703133
748.564365	0.698884
748.892963	0.698299
749.221514	0.700879
749.550017	0.706579
749.878473	0.706062
750.206881	0.713006
750.535242	0.713942
750.863555	0.712988
751.191821	0.715017
751.520039	0.717792
751.848210	0.722479
752.176334	0.715241
752.504411	0.714891
752.832440	0.722293
753.160421	0.726131
753.488356	0.725268
753.816243	0.722790
754.144082	0.729969
754.471875	0.733941
754.799620	0.729263
755.127318	0.730510
755.454969	0.731244
755.782572	0.730578
756.110129	0.734605
756.437638	0.737820
756.765100	0.733681
757.092515	0.731433
757.419882	0.731193
757.747203	0.737098
758.074477	0.734878
758.401703	0.733111
758.728882	0.728317
759.056014	0.726826
759.383099	0.726241
759.710138	0.727221
760.037129	0.723819
760.364073	0.718024
760.690970	0.719867
761.017820	0.725596
761.344623	0.720968
761.671379	0.712022
761.998088	0.701068
762.324751	0.676987
762.651366	0.635948
762.977935	0.568840
763.304456	0.516064
763.630931	0.506381
763.957359	0.545994
764.283740	0.590687
764.610074	0.618492
764.936362	0.649319
765.262602	0.675421
765.588796	0.696844
765.914943	0.715445
766.241044	0.733014
766.567097	0.739323
766.893104	0.749535
767.219064	0.756170
767.544978	0.761931
767.870845	0.775944
768.196665	0.779496
768.522438	0.777806
768.848165	0.779298
769.173846	0.788024
769.499479	0.792829
769.825066	0.795774
770.150607	0.801640
770.476101	0.796202
770.801548	0.797755
771.126949	0.808550
771.452303	0.812733
771.777611	0.811537
772.102872	0.810920
772.428087	0.816706
772.753256	0.819281
773.078378	0.821343
773.403453	0.830334
773.728482	0.835485
774.053465	0.828617
774.378401	0.831831
774.703291	0.839812
775.028135	0.841324
775.352932	0.840960
775.677683	0.843646
776.002388	0.846299
776.327046	0.843652
776.651658	0.847341
776.976224	0.851866
777.300743	0.851169
777.625216	0.854494
777.949643	0.854451
778.274024	0.855048
778.598359	0.856994
778.922647	0.855121
779.246889	0.856619
779.571086	0.860757
779.895236	0.863089
780.219339	0.860464
780.543397	0.856528
780.867409	0.854856
781.191374	0.857950
781.515294	0.859125
781.839167	0.857143
782.162995	0.861196
782.486776	0.858604
782.810511	0.858860
783.134201	0.862296
783.457844	0.860416
783.781441	0.862734
784.104993	0.867920
784.428498	0.870014
784.751958	0.865323
785.075372	0.867368
785.398739	0.870956
785.722061	0.868135
786.045337	0.862528
786.368568	0.867686
786.691752	0.870991
787.014891	0.856035
787.337983	0.848198
787.661030	0.839776
787.984031	0.822558
788.306987	0.809160
788.629897	0.811587
788.952760	0.815822
789.275579	0.819947
789.598351	0.834883
789.921078	0.848977
790.243759	0.849954
790.566395	0.855854
790.888984	0.862934
791.211529	0.867179
791.534027	0.870969
791.856480	0.873548
792.178888	0.877747
792.501249	0.880601
792.823566	0.880969
793.145836	0.879502
793.468062	0.883500
793.790241	0.883300
794.112375	0.882084
794.434464	0.877398
794.756507	0.876537
795.078505	0.876048
795.400457	0.871072
795.722364	0.858906
796.044226	0.851514
796.366042	0.850669
796.687812	0.853280
797.009538	0.850434
797.331218	0.853644
797.652852	0.858189
797.974442	0.862691
798.295986	0.862586
798.617484	0.865625
798.938938	0.869129
799.260346	0.874667
799.581709	0.876215
799.903026	0.878242
800.224299	0.879667
800.545526	0.883032
800.866708	0.886769
801.187845	0.892062
801.508936	0.890959
801.829983	0.888539
802.150984	0.891097
802.471940	0.896522
802.792851	0.895384
803.113717	0.898062
803.434538	0.894294
803.755314	0.897225
804.076045	0.898498
804.396731	0.898828
804.717372	0.897813
805.037967	0.900660
805.358518	0.898666
805.679024	0.895367
805.999485	0.896585
806.319901	0.895544
806.640272	0.896450
806.960598	0.894686
807.280879	0.892574
807.601115	0.891434
807.921306	0.893584
808.241453	0.895503
808.561554	0.892387
808.881611	0.891907
809.201623	0.894765
809.521590	0.895246
809.841513	0.894902
810.161390	0.895823
810.481223	0.897029
810.801011	0.900374
811.120755	0.901898
811.440453	0.900559
811.760107	0.898886
812.079716	0.898057
812.399281	0.902906
812.718801	0.905597
813.038276	0.906354
813.357707	0.905650
813.677093	0.902664
813.996434	0.904983
814.315731	0.906826
814.634983	0.908766
814.954191	0.906825
815.273354	0.904008
815.592473	0.900362
815.911547	0.900465
816.230577	0.898185
816.549562	0.894604
816.868502	0.895475
817.187399	0.891094
817.506250	0.886870
817.825058	0.888479
818.143821	0.885536
818.462539	0.879510
818.781213	0.871472
819.099843	0.860637
819.418429	0.844451
819.736970	0.827714
820.055466	0.807911
820.373919	0.781652
820.692327	0.749516
821.010691	0.712938
821.329011	0.635730
821.647286	0.518083
821.965517	0.404765
822.283704	0.361527
822.601847	0.362006
822.919945	0.397606
823.237999	0.432273
823.556010	0.479750
823.873976	0.535602
824.191897	0.586876
824.509775	0.629835
824.827609	0.674864
825.145398	0.698122
825.463144	0.701123
825.780845	0.683571
826.098502	0.665300
826.416116	0.618635
826.733685	0.574853
827.051210	0.565940
827.368692	0.580748
827.686129	0.618615
828.003522	0.671898
828.320872	0.720074
828.638177	0.764264
828.955439	0.797674
829.272656	0.819037
829.589830	0.835837
829.906960	0.852764
830.224046	0.865350
830.541088	0.875171
830.858086	0.879019
831.175041	0.885481
831.491952	0.885068
831.808819	0.881511
832.125642	0.874109
832.442421	0.860198
832.759157	0.836852
833.075849	0.791382
833.392497	0.726887
833.709101	0.686238
834.025662	0.695231
834.342179	0.727439
834.658653	0.765872
834.975083	0.803568
835.291469	0.828578
835.607811	0.852527
835.924110	0.868575
836.240366	0.886410
836.556578	0.899494
836.872746	0.906834
837.188871	0.913009
837.504952	0.918291
837.820990	0.921825
838.136984	0.926144
838.452935	0.929702
838.768842	0.929647
839.084706	0.924686
839.400526	0.897911
839.716303	0.857008
840.032037	0.834920
840.347727	0.836442
840.663373	0.855858
840.978977	0.877356
841.294537	0.900345
841.610054	0.916273
841.925527	0.924695
842.240957	0.930934
842.556344	0.938335
842.871687	0.944892
843.186987	0.949644
843.502244	0.949983
843.817458	0.951517
844.132629	0.954692
844.447756	0.958651
844.762840	0.960121
845.077881	0.957897
845.392879	0.959821
845.707833	0.961318
846.022745	0.963897
846.337613	0.964509
846.652438	0.966127
846.967221	0.964604
847.281960	0.963986
847.596656	0.966226
847.911309	0.964345
848.225919	0.967469
848.540485	0.967271
848.855009	0.967629
849.169490	0.967533
849.483928	0.968378
849.798323	0.968997
850.112675	0.968409
850.426984	0.968952
850.741251	0.968414
851.055474	0.969983
851.369654	0.965720
851.683792	0.968258
851.997887	0.969416
852.311938	0.970808
852.625947	0.968525
852.939914	0.967639
853.253837	0.968109
853.567718	0.970574
853.881555	0.970144
854.195350	0.967839
854.509103	0.968914
854.822812	0.969767
855.136479	0.969831
855.450103	0.967994
855.763685	0.967749
856.077224	0.968522
856.390720	0.969594
856.704173	0.969688
857.017584	0.966383
857.330953	0.966331
857.644278	0.967341
857.957561	0.969353
858.270802	0.968531
858.584000	0.967247
858.897155	0.965693
859.210268	0.966993
859.523339	0.966798
859.836367	0.968834
860.149352	0.969355
860.462295	0.967736
860.775195	0.969493
861.088054	0.968503
861.400869	0.969441
861.713642	0.969514
862.026373	0.970577
862.339062	0.970319
862.651708	0.966909
862.964312	0.967513
863.276873	0.968762
863.589392	0.967700
863.901869	0.964981
864.214303	0.964527
864.526696	0.964095
864.839045	0.963252
865.151353	0.960870
865.463619	0.962740
865.775842	0.962638
866.088023	0.961426
866.400162	0.962305
866.712258	0.961478
867.024313	0.961711
867.336325	0.962846
867.648296	0.962676
867.960224	0.961973
868.272110	0.960470
868.583954	0.963489
868.895755	0.963496
869.207515	0.959851
869.519233	0.958018
869.830909	0.960283
870.142542	0.961007
870.454134	0.960444
870.765684	0.960943
871.077191	0.957621
871.388657	0.957456
871.700081	0.956586
872.011463	0.956236
872.322803	0.958288
872.634101	0.955592
872.945357	0.952765
873.256571	0.952381
873.567744	0.952014
873.878874	0.952745
874.189963	0.950829
874.501010	0.949092
874.812015	0.948958
875.122979	0.949574
875.433900	0.951594
875.744780	0.952466
876.055618	0.950820
876.366415	0.949086
876.677169	0.948292
876.987882	0.949865
877.298554	0.948733
877.609183	0.946561
877.919771	0.943991
878.230317	0.941554
878.540822	0.939169
878.851285	0.934238
879.161707	0.925145
879.472087	0.914268
879.782425	0.896580
880.092722	0.862738
880.402977	0.808005
880.713191	0.747479
881.023363	0.687029
881.333494	0.651765
881.643583	0.624946
881.953631	0.624663
882.263637	0.652561
882.573602	0.691314
882.883526	0.718071
883.193408	0.743248
883.503248	0.765257
883.813048	0.794540
884.122806	0.823793
884.432522	0.847356
884.742197	0.867062
885.051831	0.878929
885.361424	0.889027
885.670975	0.900790
885.980485	0.911678
886.289954	0.917835
886.599382	0.923002
886.908768	0.926284
887.218113	0.933373
887.527417	0.937087
887.836680	0.940219
888.145901	0.942730
888.455082	0.945576
888.764221	0.949212
889.073319	0.951336
889.382376	0.951760
889.691392	0.951513
890.000366	0.951459
890.309300	0.952408
890.618193	0.951556
890.927044	0.950322
891.235855	0.950134
891.544625	0.951135
891.853353	0.951173
892.162041	0.946884
892.470687	0.942185
892.779293	0.936613
893.087858	0.931533
893.396381	0.924001
893.704864	0.910453
894.013306	0.886611
894.321707	0.860063
894.630068	0.843833
894.938387	0.839605
895.246665	0.840484
895.554903	0.853578
895.863100	0.866808
896.171256	0.884659
896.479371	0.904331
896.787446	0.915818
897.095480	0.923581
897.403473	0.926651
897.711425	0.930176
898.019336	0.937543
898.327207	0.942024
898.635038	0.943839
898.942827	0.943659
899.250576	0.946719
899.558284	0.951311
899.865952	0.952159
900.173579	0.953900
900.481165	0.954687
900.788711	0.959097
901.096216	0.960241
901.403681	0.960157
901.711105	0.962219
902.018489	0.962629
902.325832	0.962386
902.633135	0.960713
902.940397	0.953457
903.247619	0.941567
903.554800	0.916555
903.861941	0.876219
904.169041	0.838674
904.476101	0.820898
904.783121	0.821136
905.090100	0.838071
905.397039	0.860434
905.703938	0.883570
906.010796	0.902947
906.317614	0.920155
906.624391	0.932628
906.931129	0.942490
907.237826	0.949349
907.544483	0.957379
907.851099	0.961314
908.157675	0.965981
908.464211	0.968809
908.770707	0.971422
909.077163	0.973959
909.383578	0.973563
909.689954	0.973628
909.996289	0.974940
910.302584	0.976118
910.608839	0.978985
910.915054	0.977815
911.221229	0.976255
911.527363	0.976320
911.833458	0.976196
912.139513	0.976506
912.445527	0.973935
912.751502	0.972235
913.057436	0.970830
913.363331	0.968800
913.669186	0.965469
913.975000	0.960098
914.280775	0.953391
914.586510	0.946193
914.892205	0.933864
915.197859	0.911602
915.503475	0.882785
915.809050	0.862958
916.114585	0.857052
916.420081	0.854314
916.725536	0.851808
917.030952	0.860318
917.336328	0.872518
917.641665	0.889016
917.946961	0.903894
918.252218	0.916088
918.557435	0.924271
918.862612	0.933843
919.167750	0.940588
919.472848	0.944669
919.777906	0.951088
920.082925	0.957570
920.387904	0.960665
920.692843	0.960828
920.997743	0.962137
921.302603	0.965335
921.607423	0.967277
921.912204	0.970302
922.216946	0.971117
922.521647	0.972241
922.826310	0.973487
923.130932	0.975795
923.435516	0.977989
923.740059	0.979027
924.044564	0.977035
924.349028	0.979405
924.653454	0.981904
924.957840	0.984028
925.262186	0.984588
925.566493	0.982801
925.870761	0.984353
926.174989	0.985625
926.479178	0.987428
926.783328	0.989158
927.087438	0.987455
927.391509	0.987447
927.695541	0.990535
927.999533	0.988004
928.303486	0.989771
928.607400	0.991457
928.911275	0.988671
929.215110	0.989299
929.518906	0.990773
929.822663	0.989222
930.126381	0.990107
930.430060	0.989287
930.733699	0.990067
931.037299	0.989246
931.340861	0.990407
931.644383	0.988949
931.947866	0.989861
932.251309	0.990211
932.554714	0.989899
932.858080	0.989697
933.161407	0.988765
933.464694	0.989732
933.767943	0.989095
934.071153	0.990978
934.374323	0.990143
934.677455	0.991552
934.980548	0.991565
935.283602	0.990244
935.586617	0.989773
935.889593	0.990120
936.192530	0.990336
936.495428	0.990235
936.798287	0.990368
937.101108	0.990035
937.403890	0.988788
937.706632	0.988030
938.009336	0.985387
938.312002	0.985522
938.614628	0.983383
938.917216	0.982564
939.219765	0.980884
939.522275	0.982617
939.824747	0.982211
940.127179	0.982506
940.429573	0.983618
940.731929	0.984033
941.034246	0.984237
941.336524	0.984109
941.638763	0.985877
941.940964	0.986076
942.243126	0.985900
942.545250	0.986384
942.847335	0.986985
943.149381	0.987465
943.451389	0.987527
943.753359	0.987997
944.055290	0.990086
944.357182	0.990034
944.659036	0.988239
944.960851	0.989387
945.262628	0.989744
945.564367	0.989604
945.866067	0.989223
946.167729	0.989234
946.469352	0.989543
946.770937	0.988422
947.072484	0.990518
947.373992	0.988622
947.675462	0.990166
947.976893	0.989822
948.278286	0.990261
948.579641	0.990409
948.880958	0.989703
949.182236	0.990993
949.483476	0.990565
949.784678	0.989129
950.085841	0.991460
950.386967	0.990805
950.688054	0.990039
950.989103	0.990226
951.290114	0.988219
951.591087	0.988969
951.892021	0.989016
952.192917	0.988734
952.493776	0.987748
952.794596	0.987952
953.095378	0.987333
953.396122	0.988415
953.696828	0.986783
953.997496	0.989797
954.298126	0.990069
954.598718	0.988613
954.899272	0.990305
955.199788	0.990333
955.500266	0.992586
955.800706	0.991954
956.101108	0.992445
956.401472	0.993221
956.701798	0.993452
957.002087	0.992394
957.302337	0.993765
957.602550	0.994168
957.902724	0.994651
958.202861	0.993922
958.502960	0.994739
958.803022	0.992933
959.103045	0.995275
959.403031	0.995480
959.702979	0.994254
960.002889	0.995929
960.302762	0.993548
960.602596	0.995515
960.902393	0.994626
961.202153	0.996437
961.501875	0.997039
961.801559	0.994963
962.101205	0.996321
962.400814	0.995175
962.700385	0.995613
962.999918	0.996920
963.299414	0.996661
963.598873	0.995666
963.898293	0.995429
964.197677	0.995020
964.497022	0.994499
964.796331	0.997354
965.095601	0.996304
965.394835	0.996352
965.694030	0.997136
965.993189	0.996646
966.292309	0.996612
966.591393	0.995804
966.890439	0.996780
967.189447	0.996135
967.488419	0.996369
967.787353	0.995681
968.086249	0.995946
968.385108	0.996834
968.683930	0.996699
968.982714	0.997025
969.281462	0.996945
969.580172	0.996073
969.878844	0.997507
970.177480	0.996045
970.476078	0.996795
970.774639	0.996651
971.073162	0.997358
971.371649	0.995774
971.670098	0.995702
971.968510	0.997414
972.266885	0.994786
972.565223	0.996107
972.863524	0.995183
973.161788	0.995240
973.460014	0.997978
973.758204	0.996074
974.056356	0.996229
974.354471	0.993686
974.652550	0.996036
974.950591	0.995338
975.248595	0.995540
975.546563	0.995859
975.844493	0.997393
976.142386	0.996024
976.440243	0.997181
976.738062	0.996615
977.035845	0.998189
977.333590	0.996888
977.631299	0.998164
977.928971	0.997043
978.226606	0.996338
978.524204	0.995315
978.821765	0.997935
979.119290	0.996321
979.416777	0.996199
979.714228	0.997020
980.011642	0.995589
980.309020	0.997499
980.606360	0.995987
980.903664	0.998190
981.200931	0.996562
981.498162	0.994844
981.795356	0.994300
982.092513	0.992996
982.389633	0.993249
982.686717	0.990781
982.983764	0.990494
983.280775	0.989859
983.577749	0.990204
983.874686	0.991082
984.171587	0.990877
984.468451	0.993770
984.765279	0.993481
985.062070	0.994298
985.358824	0.994660
985.655543	0.994750
985.952224	0.995813
986.248869	0.996497
986.545478	0.995460
986.842050	0.997992
987.138586	0.994464
987.435086	0.997368
987.731549	0.998734
988.027975	0.998042
988.324366	0.996679
988.620719	0.997383
988.917037	0.995261
989.213318	0.997238
989.509563	0.998934
989.805772	0.998245
990.101944	0.998397
990.398080	0.996692
990.694180	0.997140
990.990244	0.998294
991.286271	0.997724
991.582262	0.997512
991.878217	0.998289
992.174136	0.998598
992.470019	0.998426
992.765865	0.997146
993.061676	0.997141
993.357450	0.998142
993.653188	0.996712
993.948890	0.997255
994.244556	0.997079
994.540186	0.996515
994.835780	0.996180
995.131337	0.996877
995.426859	0.996269
995.722345	0.997308
996.017795	0.995709
996.313208	0.995842
996.608586	0.995151
996.903928	0.995267
997.199234	0.995085
997.494504	0.996603
997.789738	0.996352
998.084936	0.996150
998.380099	0.997560
998.675225	0.997169
998.970316	0.997305
999.265371	0.998435
999.560390	0.996883
999.855373	0.997734
1000.150320	0.998377
1000.445232	0.996893
1000.740108	0.997856
1001.034948	0.997378
1001.329752	0.999168
1001.624521	0.998600
1001.919254	0.997755
1002.213951	0.996746
1002.508613	0.997915
1002.803239	0.999486
1003.097829	0.998433
1003.392384	0.999280
1003.686903	0.998465
1003.981386	0.997680
1004.275834	0.998949
1004.570246	0.998332
1004.864623	0.998522
1005.158964	0.998685
1005.453270	0.998677
1005.747540	0.997374
1006.041775	0.998546
1006.335974	0.998748
1006.630138	0.998522
1006.924266	0.999180
1007.218359	0.999229
1007.512416	1.000029
1007.806438	0.998687
1008.100425	0.998299
1008.394376	0.998641
1008.688292	0.998347
1008.982172	1.001206
1009.276017	0.998733
1009.569827	0.999287
1009.863602	0.998445
1010.157341	0.999443
1010.451045	0.998233
1010.744714	0.998385
1011.038347	0.998642
1011.331945	0.999104
1011.625508	0.997638
1011.919036	0.997924
1012.212528	0.998605
1012.505986	0.997898
1012.799408	0.997550
1013.092795	0.999023
1013.386147	0.998723
1013.679464	0.998801
1013.972745	0.997425
1014.265992	0.997610
1014.559204	0.999245
1014.852380	0.999523
1015.145521	0.998684
1015.438628	0.998911
1015.731699	0.997795
1016.024736	0.998088
1016.317737	0.998279
1016.610703	0.999405
1016.903635	0.999518
1017.196531	0.998033
1017.489393	1.000082
1017.782219	0.998375
1018.075011	0.998079
1018.367768	0.998589
1018.660490	0.999738
1018.953177	0.999738
1019.245829	0.999738
