Dividing Wavelength (nm)	Counts (n)	Blue Motor Position (mm): 0.000000	Red Motor Position (mm): 42.700000	
326.493990	1.001255
326.888308	1.001255
327.282561	1.001255
327.676750	0.998717
328.070874	0.997812
328.464933	0.999945
328.858929	0.998281
329.252859	1.000093
329.646726	0.998925
330.040528	0.999373
330.434265	0.999284
330.827938	0.999163
331.221547	1.000120
331.615091	1.000208
332.008571	0.999647
332.401986	1.000465
332.795338	1.000466
333.188625	0.997874
333.581847	0.999920
333.975006	0.999896
334.368100	0.998407
334.761129	0.999054
335.154095	1.000339
335.546996	0.998475
335.939833	0.998071
336.332606	0.998134
336.725315	0.998595
337.117960	0.998727
337.510540	0.999481
337.903056	0.998998
338.295508	0.996701
338.687896	0.997071
339.080220	0.997133
339.472480	0.997309
339.864676	0.998260
340.256807	0.998161
340.648875	0.999295
341.040879	0.999430
341.432818	0.997712
341.824694	0.997957
342.216506	0.998374
342.608253	0.998821
342.999937	0.998132
343.391557	0.998324
343.783113	0.997648
344.174605	0.997934
344.566033	0.999121
344.957397	0.996943
345.348697	0.997837
345.739934	0.998863
346.131106	0.997552
346.522215	0.997602
346.913260	0.997482
347.304241	0.997959
347.695159	0.998476
348.086012	0.997038
348.476802	0.997981
348.867528	0.998860
349.258191	0.996565
349.648789	0.998178
350.039324	0.996756
350.429796	0.999115
350.820203	0.998611
351.210548	0.998504
351.600828	0.997178
351.991045	0.997487
352.381198	0.996759
352.771288	0.997336
353.161314	0.998312
353.551276	0.998432
353.941175	0.997987
354.331010	0.997022
354.720782	0.997773
355.110490	0.998080
355.500135	0.999557
355.889717	0.997924
356.279235	0.998358
356.668689	0.997748
357.058080	0.998031
357.447408	0.998133
357.836672	0.998724
358.225873	0.999022
358.615010	0.997588
359.004084	0.999638
359.393095	0.998891
359.782043	0.998244
360.170927	0.999590
360.559748	0.998529
360.948505	0.997480
361.337199	0.998167
361.725830	0.997749
362.114398	0.998133
362.502903	0.998798
362.891344	0.998164
363.279722	0.997719
363.668037	0.998934
364.056289	0.996311
364.444478	1.000068
364.832603	0.998082
365.220665	0.996990
365.608665	0.998053
365.996601	0.997738
366.384474	0.998400
366.772284	0.997764
367.160031	0.996808
367.547715	0.996176
367.935336	0.997471
368.322893	0.998863
368.710388	0.997245
369.097820	0.997473
369.485189	0.998166
369.872495	0.997075
370.259738	0.996767
370.646918	0.998228
371.034035	0.998873
371.421090	0.997077
371.808081	0.998661
372.195010	0.998656
372.581875	0.998344
372.968678	0.997160
373.355418	0.998806
373.742096	0.997811
374.128710	0.999025
374.515262	0.997729
374.901751	0.998536
375.288177	0.998709
375.674540	0.998903
376.060841	0.997912
376.447079	0.999617
376.833254	0.998364
377.219367	0.999107
377.605417	0.999075
377.991404	0.998824
378.377329	0.998457
378.763191	0.997972
379.148991	0.999227
379.534727	0.998512
379.920402	0.998302
380.306013	0.998627
380.691563	0.998627
381.077049	0.998507
381.462474	0.999659
381.847835	0.998988
382.233134	0.998829
382.618371	0.998847
383.003545	0.997973
383.388657	0.998705
383.773706	0.999667
384.158693	0.998547
384.543618	0.998773
384.928480	0.999224
385.313280	0.998782
385.698017	1.000195
386.082692	1.000093
386.467305	0.998901
386.851856	0.998339
387.236344	0.998208
387.620770	0.998286
388.005133	0.999093
388.389435	1.001339
388.773674	0.998698
389.157851	0.999239
389.541965	0.999821
389.926018	0.998759
390.310008	1.000096
390.693936	0.998732
391.077802	0.999056
391.461606	0.998637
391.845348	1.000510
392.229027	1.000242
392.612645	0.999060
392.996200	1.000669
393.379694	0.998690
393.763125	1.001195
394.146494	0.999297
394.529801	0.999007
394.913047	1.000185
395.296230	0.999512
395.679351	0.999374
396.062410	0.998858
396.445408	1.000316
396.828343	0.998869
397.211217	1.000065
397.594028	1.000336
397.976778	0.998709
398.359466	0.999042
398.742092	0.998351
399.124656	0.998963
399.507158	0.999355
399.889598	0.998770
400.271977	0.999634
400.654294	1.000099
401.036549	1.000145
401.418742	1.000517
401.800874	0.999117
402.182944	0.999363
402.564952	0.998918
402.946898	1.000596
403.328783	0.998827
403.710606	0.999723
404.092367	0.999849
404.474067	0.999725
404.855705	0.999160
405.237282	1.000406
405.618797	0.999260
406.000250	0.998995
406.381642	1.000474
406.762972	1.000067
407.144240	1.000438
407.525447	1.000179
407.906593	0.999364
408.287677	0.999700
408.668700	1.000184
409.049661	0.999424
409.430560	0.999361
409.811399	0.999266
410.192176	0.999355
410.572891	0.999483
410.953545	0.999728
411.334138	0.999365
411.714669	1.000675
412.095139	0.999374
412.475547	1.000826
412.855894	1.000097
413.236180	1.000241
413.616405	1.000083
413.996568	0.999596
414.376670	0.999212
414.756711	0.999822
415.136691	0.999681
415.516609	0.999334
415.896466	0.999226
416.276262	0.999300
416.655997	1.000483
417.035670	1.000054
417.415283	1.000092
417.794834	1.000057
418.174324	0.999336
418.553753	0.999667
418.933121	0.999607
419.312428	0.999343
419.691674	0.999382
420.070859	1.000061
420.449983	0.999789
420.829045	1.000172
421.208047	1.000533
421.586988	1.000477
421.965867	0.999451
422.344686	1.000134
422.723444	0.999695
423.102141	0.999145
423.480777	0.999948
423.859352	1.000283
424.237866	1.000028
424.616319	1.000449
424.994712	1.000438
425.373044	1.000623
425.751314	1.000191
426.129524	0.999623
426.507673	1.000034
426.885762	1.000286
427.263789	1.000250
427.641756	1.000095
428.019662	1.000483
428.397508	0.999384
428.775292	0.998927
429.153016	0.999760
429.530679	1.000530
429.908282	1.000993
430.285824	0.999664
430.663305	0.999153
431.040726	1.000042
431.418086	1.001006
431.795385	1.000099
432.172624	0.999525
432.549802	1.000064
432.926920	1.000006
433.303977	0.999773
433.680974	1.000485
434.057910	1.000437
434.434786	1.000551
434.811601	1.000326
435.188355	0.999665
435.565050	0.999487
435.941683	0.999571
436.318257	1.000706
436.694770	0.999443
437.071222	1.000276
437.447614	1.000708
437.823946	1.000601
438.200218	1.000220
438.576429	1.000650
438.952580	1.000043
439.328670	0.999621
439.704700	0.999840
440.080670	0.999982
440.456580	1.000697
440.832429	0.998961
441.208218	0.999974
441.583947	1.000437
441.959616	1.000543
442.335224	1.000383
442.710773	1.000597
443.086261	0.999433
443.461689	0.999276
443.837057	1.000139
444.212365	1.000479
444.587612	0.999761
444.962800	1.000520
445.337927	0.999371
445.712995	1.000725
446.088002	1.000575
446.462949	1.000508
446.837837	1.000579
447.212664	1.000238
447.587431	1.000421
447.962139	1.000223
448.336786	1.000802
448.711374	1.000232
449.085901	0.999848
449.460369	1.000505
449.834776	0.999982
450.209124	1.000751
450.583412	1.000530
450.957640	1.000502
451.331808	1.000456
451.705917	0.999693
452.079965	0.999990
452.453954	1.000084
452.827883	1.000258
453.201752	0.999952
453.575562	1.000531
453.949311	1.000313
454.323001	1.000011
454.696632	0.999978
455.070202	0.999444
455.443713	1.000391
455.817164	1.000346
456.190556	1.000454
456.563888	0.999694
456.937160	1.000062
457.310373	0.999422
457.683526	0.999943
458.056619	0.999292
458.429653	0.999593
458.802628	0.999484
459.175542	0.999486
459.548398	1.000119
459.921194	1.000442
460.293930	0.999831
460.666607	0.999388
461.039224	0.998950
461.411782	1.000787
461.784280	1.000209
462.156719	1.000348
462.529099	1.000288
462.901419	1.000808
463.273680	0.999497
463.645882	0.999983
464.018024	1.000496
464.390106	1.000463
464.762130	1.000407
465.134094	1.000587
465.505999	1.000800
465.877845	1.000541
466.249631	1.001071
466.621358	0.999716
466.993026	0.999911
467.364634	1.000717
467.736184	1.000384
468.107674	0.999915
468.479105	0.999526
468.850477	1.000693
469.221790	1.000027
469.593043	1.000690
469.964238	1.001440
470.335373	0.999977
470.706449	1.000841
471.077467	1.000760
471.448425	1.000401
471.819324	1.001484
472.190164	1.000563
472.560945	1.000364
472.931667	1.000314
473.302330	0.999582
473.672934	1.000210
474.043479	1.000550
474.413965	1.000137
474.784393	1.000559
475.154761	1.000319
475.525070	0.999806
475.895321	1.000452
476.265513	1.000333
476.635645	1.000522
477.005719	1.000518
477.375734	1.000079
477.745691	1.000192
478.115588	1.000431
478.485427	1.000692
478.855207	0.999976
479.224928	1.000087
479.594591	1.000336
479.964194	1.000136
480.333739	1.000868
480.703226	1.000132
481.072653	1.000936
481.442022	1.001294
481.811333	0.999818
482.180584	1.000404
482.549777	1.000402
482.918912	1.000530
483.287988	1.000521
483.657005	0.999961
484.025964	1.001275
484.394864	1.001146
484.763706	1.001078
485.132489	1.000979
485.501213	1.000483
485.869879	1.000463
486.238487	1.000861
486.607036	1.001249
486.975527	1.000162
487.343959	0.999817
487.712333	0.999991
488.080648	1.000540
488.448905	1.000523
488.817104	1.000645
489.185244	1.000511
489.553326	1.000332
489.921350	1.000265
490.289315	1.000550
490.657222	1.000749
491.025070	1.000647
491.392861	1.000932
491.760593	1.000704
492.128267	1.000605
492.495883	1.000506
492.863440	1.000644
493.230939	1.000606
493.598380	1.000506
493.965763	1.000609
494.333088	1.001017
494.700354	0.999475
495.067563	1.001011
495.434713	1.000371
495.801805	1.000697
496.168839	1.000747
496.535815	0.999699
496.902733	1.000621
497.269593	1.000156
497.636395	1.000539
498.003139	1.000704
498.369825	1.001288
498.736453	1.000935
499.103023	0.999616
499.469535	1.000212
499.835989	1.000122
500.202385	1.000835
500.568723	1.000576
500.935003	1.000725
501.301226	1.000351
501.667390	1.000011
502.033497	0.999992
502.399546	1.001247
502.765537	0.999843
503.131470	0.999612
503.497345	1.000039
503.863163	1.001203
504.228923	1.000667
504.594625	1.001320
504.960269	1.000644
505.325856	1.000606
505.691385	0.999841
506.056856	0.999689
506.422270	1.000125
506.787625	1.000750
507.152924	1.000779
507.518164	1.000032
507.883347	1.000442
508.248472	0.999928
508.613540	1.000663
508.978550	1.000417
509.343503	0.999631
509.708398	1.000305
510.073236	1.000246
510.438016	1.000599
510.802738	1.001210
511.167403	1.001142
511.532010	1.000561
511.896561	1.000590
512.261053	1.001234
512.625488	1.000565
512.989866	1.000206
513.354186	1.000337
513.718449	1.000017
514.082655	1.000082
514.446803	1.000041
514.810894	1.001207
515.174927	1.000357
515.538904	1.000070
515.902822	1.000925
516.266684	1.000439
516.630488	1.001113
516.994235	0.999961
517.357925	1.000244
517.721558	1.000100
518.085133	0.999737
518.448651	1.001267
518.812112	1.000236
519.175516	0.999884
519.538863	1.000941
519.902152	0.999206
520.265385	0.999555
520.628560	0.999730
520.991678	1.000212
521.354739	1.000386
521.717743	0.999959
522.080690	1.000673
522.443580	0.999851
522.806413	0.999838
523.169189	0.999506
523.531908	0.999754
523.894569	1.000234
524.257174	1.000193
524.619722	0.999806
524.982213	1.000517
525.344647	1.000474
525.707025	0.999308
526.069345	0.999976
526.431608	0.999888
526.793815	1.000083
527.155964	0.999804
527.518057	1.000430
527.880093	1.000053
528.242072	0.999725
528.603995	0.998764
528.965860	1.000571
529.327669	0.999599
529.689421	1.000032
530.051117	1.000310
530.412755	1.000072
530.774337	1.000368
531.135862	0.999257
531.497331	1.000289
531.858743	1.000345
532.220098	0.999585
532.581396	1.000079
532.942638	0.999931
533.303824	0.999906
533.664953	0.999474
534.026025	0.999683
534.387040	0.999614
534.747999	1.000034
535.108902	0.999979
535.469748	0.999574
535.830537	0.999252
536.191270	1.000263
536.551947	0.999242
536.912567	0.999270
537.273131	1.000589
537.633638	0.999101
537.994089	0.999379
538.354483	0.999575
538.714821	0.999925
539.075103	0.999237
539.435328	0.999612
539.795497	0.999047
540.155609	0.999079
540.515665	0.999418
540.875665	0.998960
541.235609	0.999138
541.595496	0.998673
541.955328	0.998673
542.315102	0.998938
542.674821	0.999329
543.034483	0.998887
543.394090	0.998549
543.753640	0.998791
544.113134	0.999435
544.472571	0.999240
544.831953	0.999114
545.191278	0.999541
545.550548	1.000060
545.909761	0.998028
546.268918	0.999062
546.628019	0.999218
546.987064	0.998283
547.346053	0.998963
547.704986	0.999244
548.063863	0.998858
548.422684	0.999066
548.781449	0.999811
549.140158	0.998788
549.498811	0.998905
549.857408	0.998625
550.215949	0.999434
550.574434	0.998957
550.932864	0.998758
551.291237	0.999687
551.649555	0.998859
552.007817	0.998485
552.366022	0.998572
552.724173	0.999725
553.082267	0.999364
553.440305	0.998966
553.798288	0.998535
554.156215	0.998347
554.514086	0.999010
554.871902	0.999334
555.229661	0.999034
555.587365	0.998910
555.945014	0.999561
556.302606	0.998862
556.660143	0.999114
557.017625	0.998729
557.375050	0.999031
557.732421	0.999310
558.089735	0.998753
558.446994	0.999841
558.804197	0.999887
559.161345	0.999702
559.518437	0.999966
559.875474	0.998764
560.232455	0.998415
560.589381	0.999628
560.946251	0.998239
561.303065	0.998281
561.659825	0.999110
562.016528	0.999521
562.373177	0.999336
562.729770	0.998382
563.086307	0.998837
563.442789	0.999069
563.799216	0.999040
564.155587	0.998192
564.511904	0.998876
564.868164	0.998071
565.224370	0.998527
565.580520	0.998840
565.936615	0.998688
566.292654	0.998870
566.648638	0.998903
567.004567	0.998920
567.360441	0.999054
567.716260	0.999325
568.072023	0.999071
568.427732	0.998547
568.783385	0.998992
569.138982	0.999002
569.494525	0.998542
569.850013	0.998562
570.205445	0.998665
570.560823	0.999074
570.916145	0.998903
571.271412	0.998820
571.626625	0.998833
571.981782	0.998715
572.336884	0.999818
572.691931	0.999435
573.046923	0.998491
573.401860	0.998719
573.756743	0.998434
574.111570	0.998933
574.466342	0.999607
574.821059	0.999147
575.175722	0.999146
575.530330	0.999496
575.884882	0.999186
576.239380	0.999325
576.593823	0.998893
576.948211	0.998447
577.302544	0.998684
577.656823	0.998593
578.011047	0.999307
578.365216	0.999107
578.719330	0.999038
579.073389	0.998958
579.427394	0.998378
579.781344	0.999094
580.135239	0.998943
580.489080	0.999245
580.842866	0.998568
581.196597	0.998442
581.550273	0.998118
581.903895	0.999177
582.257463	0.998373
582.610975	0.998529
582.964434	0.999054
583.317837	0.998924
583.671186	0.998353
584.024481	0.998712
584.377721	0.998675
584.730906	0.998621
585.084037	0.998697
585.437113	0.998421
585.790135	0.998586
586.143103	0.998494
586.496016	0.999373
586.848874	0.998468
587.201679	0.998775
587.554428	0.998557
587.907124	0.998604
588.259765	0.998252
588.612352	0.999737
588.964884	0.998295
589.317362	0.999097
589.669786	0.998577
590.022155	0.998819
590.374470	0.998001
590.726731	0.997764
591.078937	0.997633
591.431090	0.997715
591.783188	0.997741
592.135232	0.998097
592.487222	0.998402
592.839157	0.997453
593.191038	0.998383
593.542866	0.996973
593.894639	0.998443
594.246358	0.997340
594.598022	0.997437
594.949633	0.998361
595.301190	0.997217
595.652692	0.998135
596.004141	0.998077
596.355535	0.998104
596.706876	0.998123
597.058162	0.997697
597.409395	0.998320
597.760573	0.997667
598.111698	0.996785
598.462768	0.996967
598.813785	0.997203
599.164748	0.997395
599.515657	0.996897
599.866511	0.997109
600.217312	0.997499
600.568060	0.996990
600.918753	0.997198
601.269392	0.997226
601.619978	0.996557
601.970510	0.997073
602.320988	0.997593
602.671412	0.996758
603.021783	0.997366
603.372100	0.997794
603.722363	0.997051
604.072572	0.996293
604.422728	0.996602
604.772830	0.995963
605.122878	0.996243
605.472872	0.996686
605.822813	0.996256
606.172701	0.996181
606.522534	0.996640
606.872314	0.996274
607.222041	0.995305
607.571714	0.996091
607.921333	0.995217
608.270899	0.995058
608.620411	0.996288
608.969870	0.996154
609.319276	0.994577
609.668627	0.996218
610.017926	0.994373
610.367171	0.994816
610.716362	0.994589
611.065500	0.995010
611.414585	0.994348
611.763616	0.994509
612.112594	0.994149
612.461518	0.993568
612.810389	0.993879
613.159207	0.993451
613.507971	0.993377
613.856682	0.993050
614.205340	0.993640
614.553945	0.992095
614.902496	0.992128
615.250994	0.991859
615.599439	0.992324
615.947830	0.991718
616.296169	0.991622
616.644454	0.990824
616.992686	0.990680
617.340864	0.990088
617.688990	0.990660
618.037063	0.990428
618.385082	0.990442
618.733048	0.990146
619.080961	0.989985
619.428821	0.989656
619.776628	0.988646
620.124382	0.988729
620.472083	0.986542
620.819731	0.988609
621.167326	0.987277
621.514868	0.987136
621.862357	0.987696
622.209793	0.987507
622.557176	0.985516
622.904506	0.986042
623.251783	0.985257
623.599007	0.985836
623.946179	0.985480
624.293297	0.984811
624.640363	0.984995
624.987376	0.983517
625.334336	0.984414
625.681243	0.984000
626.028097	0.984211
626.374899	0.983620
626.721647	0.982391
627.068343	0.983135
627.414987	0.981244
627.761577	0.981664
628.108115	0.980328
628.454600	0.980865
628.801032	0.979924
629.147412	0.979562
629.493739	0.977456
629.840014	0.977609
630.186236	0.977821
630.532405	0.976873
630.878521	0.975976
631.224585	0.975013
631.570597	0.975277
631.916556	0.973409
632.262462	0.973569
632.608316	0.972382
632.954117	0.972397
633.299866	0.971806
633.645562	0.971687
633.991206	0.970666
634.336797	0.970704
634.682336	0.969533
635.027823	0.969535
635.373257	0.968796
635.718639	0.968356
636.063968	0.967688
636.409245	0.967259
636.754470	0.967414
637.099642	0.966936
637.444762	0.965727
637.789829	0.964282
638.134845	0.964408
638.479808	0.963146
638.824719	0.963613
639.169577	0.962971
639.514383	0.962227
639.859137	0.961037
640.203839	0.959642
640.548489	0.959193
640.893086	0.958775
641.237632	0.958530
641.582125	0.955960
641.926566	0.955082
642.270955	0.955777
642.615292	0.955080
642.959576	0.952985
643.303809	0.952507
643.647990	0.951056
643.992118	0.950569
644.336195	0.950317
644.680219	0.948313
645.024192	0.948807
645.368112	0.945768
645.711981	0.944716
646.055797	0.943310
646.399562	0.940802
646.743274	0.938519
647.086935	0.937458
647.430544	0.935647
647.774101	0.934147
648.117606	0.934535
648.461059	0.932889
648.804460	0.932112
649.147810	0.932138
649.491108	0.932168
649.834354	0.931056
650.177548	0.930859
650.520690	0.930757
650.863781	0.929433
651.206820	0.928217
651.549807	0.928801
651.892742	0.927652
652.235626	0.926573
652.578458	0.925474
652.921238	0.924720
653.263967	0.924388
653.606644	0.923777
653.949269	0.921291
654.291843	0.922150
654.634365	0.920393
654.976836	0.918755
655.319255	0.917595
655.661622	0.917510
656.003938	0.914933
656.346203	0.916117
656.688416	0.914540
657.030577	0.913876
657.372687	0.912830
657.714746	0.911988
658.056753	0.910613
658.398708	0.908997
658.740612	0.909024
659.082465	0.905785
659.424266	0.906141
659.766016	0.904568
660.107715	0.902882
660.449362	0.901346
660.790958	0.900513
661.132503	0.898181
661.473996	0.896721
661.815438	0.896504
662.156829	0.895653
662.498168	0.894085
662.839456	0.893784
663.180693	0.892543
663.521879	0.891382
663.863013	0.890149
664.204097	0.886993
664.545129	0.886011
664.886110	0.883301
665.227040	0.880987
665.567918	0.881040
665.908746	0.878422
666.249522	0.877300
666.590248	0.877022
666.930922	0.875721
667.271545	0.872910
667.612118	0.872073
667.952639	0.870747
668.293109	0.868947
668.633528	0.868707
668.973896	0.868601
669.314213	0.866399
669.654480	0.865047
669.994695	0.864724
670.334859	0.863421
670.674973	0.859701
671.015035	0.860287
671.355047	0.857244
671.695008	0.856982
672.034918	0.857600
672.374777	0.854939
672.714585	0.854176
673.054342	0.853242
673.394049	0.851007
673.733705	0.848699
674.073310	0.846662
674.412864	0.848043
674.752368	0.845613
675.091820	0.844739
675.431223	0.846340
675.770574	0.844237
676.109875	0.843982
676.449125	0.842391
676.788324	0.840960
677.127473	0.842852
677.466571	0.841228
677.805619	0.839855
678.144616	0.838411
678.483562	0.837739
678.822458	0.837582
679.161303	0.836899
679.500098	0.834402
679.838842	0.835788
680.177535	0.833695
680.516179	0.832655
680.854771	0.830318
681.193314	0.826964
681.531805	0.823190
681.870247	0.815315
682.208638	0.812433
682.546978	0.810745
682.885268	0.810056
683.223508	0.810495
683.561697	0.809940
683.899836	0.810223
684.237925	0.810096
684.575963	0.810569
684.913951	0.810059
685.251889	0.805754
685.589776	0.807376
685.927614	0.807340
686.265401	0.801992
686.603137	0.801771
686.940824	0.796333
687.278460	0.795284
687.616046	0.793935
687.953582	0.790641
688.291068	0.791089
688.628504	0.786398
688.965889	0.786896
689.303224	0.787263
689.640510	0.786962
689.977745	0.788574
690.314930	0.789803
690.652065	0.790409
690.989150	0.793659
691.326185	0.793373
691.663170	0.792755
692.000105	0.794268
692.336990	0.796580
692.673825	0.794713
693.010610	0.797927
693.347345	0.799399
693.684030	0.795617
694.020665	0.798166
694.357251	0.802127
694.693786	0.800576
695.030272	0.800821
695.366707	0.800307
695.703093	0.801262
696.039429	0.798380
696.375716	0.796403
696.711952	0.797257
697.048139	0.799030
697.384276	0.798341
697.720363	0.796191
698.056400	0.792875
698.392388	0.795440
698.728326	0.796688
699.064214	0.798046
699.400053	0.796534
699.735842	0.795847
700.071581	0.797252
700.407270	0.796846
700.742910	0.796306
701.078501	0.799355
701.414042	0.797351
701.749533	0.797290
702.084974	0.803268
702.420366	0.794895
702.755709	0.799293
703.091002	0.803613
703.426246	0.795505
703.761440	0.799952
704.096584	0.803034
704.431679	0.798245
704.766725	0.798247
705.101721	0.798506
705.436668	0.794509
705.771565	0.799219
706.106413	0.796870
706.441212	0.792093
706.775961	0.788729
707.110661	0.792468
707.445311	0.790186
707.779913	0.785290
708.114465	0.784340
708.448967	0.783840
708.783421	0.777909
709.117825	0.774378
709.452180	0.774121
709.786485	0.770161
710.120742	0.764089
710.454949	0.766364
710.789107	0.761826
711.123216	0.755611
711.457275	0.757608
711.791286	0.751278
712.125247	0.749334
712.459159	0.756317
712.793023	0.753196
713.126837	0.749903
713.460602	0.749266
713.794318	0.757102
714.127985	0.752619
714.461602	0.756067
714.795171	0.757839
715.128691	0.759487
715.462162	0.762078
715.795584	0.763682
716.128957	0.764698
716.462281	0.767504
716.795556	0.768060
717.128782	0.769175
717.461960	0.773362
717.795088	0.771026
718.128167	0.774505
718.461198	0.778853
718.794180	0.779491
719.127113	0.777671
719.459997	0.779884
719.792833	0.781559
720.125619	0.782995
720.458357	0.784791
720.791046	0.784037
721.123686	0.784951
721.456278	0.790275
721.788821	0.786941
722.121315	0.788419
722.453761	0.791934
722.786158	0.787786
723.118506	0.785304
723.450805	0.790230
723.783056	0.787010
724.115259	0.781804
724.447412	0.782146
724.779518	0.784124
725.111574	0.782097
725.443582	0.779045
725.775542	0.779268
726.107453	0.774296
726.439315	0.774615
726.771129	0.773035
727.102895	0.769568
727.434612	0.763811
727.766281	0.762044
728.097901	0.762321
728.429473	0.761493
728.760996	0.758464
729.092471	0.758502
729.423897	0.759685
729.755276	0.757556
730.086606	0.757643
730.417887	0.753664
730.749120	0.747021
731.080305	0.739137
731.411442	0.736025
731.742530	0.740266
732.073570	0.737894
732.404562	0.730813
732.735506	0.731853
733.066401	0.734803
733.397249	0.738610
733.728048	0.745475
734.058798	0.750272
734.389501	0.756199
734.720156	0.762676
735.050762	0.767589
735.381320	0.766360
735.711831	0.773568
736.042293	0.775655
736.372707	0.771209
736.703073	0.774335
737.033391	0.777067
737.363661	0.774161
737.693883	0.769090
738.024056	0.768887
738.354182	0.771380
738.684260	0.762252
739.014290	0.759691
739.344272	0.760833
739.674207	0.756857
740.004093	0.755958
740.333931	0.755942
740.663722	0.754490
740.993464	0.754714
741.323159	0.756811
741.652806	0.758951
741.982405	0.761670
742.311956	0.762858
742.641460	0.763594
742.970915	0.764943
743.300323	0.769684
743.629683	0.774159
743.958996	0.773952
744.288260	0.775922
744.617477	0.779459
744.946647	0.779835
745.275768	0.782812
745.604842	0.781376
745.933869	0.789797
746.262847	0.789627
746.591778	0.781919
746.920662	0.786942
747.249498	0.793265
747.578286	0.784778
747.907027	0.781948
748.235720	0.784558
748.564365	0.779238
748.892963	0.777696
749.221514	0.779834
749.550017	0.783734
749.878473	0.782567
750.206881	0.787060
750.535242	0.788151
750.863555	0.786926
751.191821	0.786826
751.520039	0.789757
751.848210	0.793031
752.176334	0.785595
752.504411	0.784466
752.832440	0.792150
753.160421	0.795546
753.488356	0.792844
753.816243	0.790615
754.144082	0.797783
754.471875	0.799793
754.799620	0.794959
755.127318	0.796317
755.454969	0.795316
755.782572	0.794574
756.110129	0.798925
756.437638	0.801207
756.765100	0.796665
757.092515	0.795476
757.419882	0.794759
757.747203	0.799380
758.074477	0.798219
758.401703	0.796096
758.728882	0.791701
759.056014	0.790497
759.383099	0.790363
759.710138	0.791395
760.037129	0.787588
760.364073	0.782150
760.690970	0.784562
761.017820	0.789717
761.344623	0.784887
761.671379	0.776590
761.998088	0.766342
762.324751	0.747987
762.651366	0.718377
762.977935	0.668729
763.304456	0.627289
763.630931	0.615393
763.957359	0.644540
764.283740	0.678603
764.610074	0.697608
764.936362	0.720800
765.262602	0.743213
765.588796	0.759446
765.914943	0.773755
766.241044	0.787636
766.567097	0.792521
766.893104	0.800205
767.219064	0.805476
767.544978	0.810044
767.870845	0.821406
768.196665	0.823658
768.522438	0.820992
768.848165	0.822310
769.173846	0.829899
769.499479	0.832204
769.825066	0.836004
770.150607	0.839269
770.476101	0.833711
770.801548	0.834733
771.126949	0.845015
771.452303	0.847724
771.777611	0.847664
772.102872	0.845091
772.428087	0.849682
772.753256	0.851602
773.078378	0.853801
773.403453	0.862268
773.728482	0.864444
774.053465	0.859440
774.378401	0.861353
774.703291	0.868748
775.028135	0.868253
775.352932	0.868796
775.677683	0.871174
776.002388	0.872048
776.327046	0.870826
776.651658	0.873738
776.976224	0.877476
777.300743	0.875974
777.625216	0.878931
777.949643	0.879343
778.274024	0.879097
778.598359	0.881261
778.922647	0.880093
779.246889	0.880348
779.571086	0.883876
779.895236	0.886273
780.219339	0.882771
780.543397	0.880359
780.867409	0.879438
781.191374	0.880819
781.515294	0.881981
781.839167	0.881051
782.162995	0.883913
782.486776	0.879644
782.810511	0.881054
783.134201	0.884302
783.457844	0.882155
783.781441	0.883771
784.104993	0.889624
784.428498	0.889932
784.751958	0.885254
785.075372	0.887650
785.398739	0.890372
785.722061	0.887853
786.045337	0.883398
786.368568	0.887525
786.691752	0.890334
787.014891	0.876914
787.337983	0.870194
787.661030	0.864228
787.984031	0.850338
788.306987	0.838502
788.629897	0.839684
788.952760	0.842247
789.275579	0.845810
789.598351	0.857980
789.921078	0.869692
790.243759	0.870824
790.566395	0.874619
790.888984	0.881463
791.211529	0.885756
791.534027	0.887913
791.856480	0.890431
792.178888	0.893565
792.501249	0.896904
792.823566	0.897390
793.145836	0.897201
793.468062	0.898788
793.790241	0.899511
794.112375	0.897520
794.434464	0.892499
794.756507	0.892090
795.078505	0.893353
795.400457	0.888662
795.722364	0.878170
796.044226	0.872042
796.366042	0.870736
796.687812	0.874692
797.009538	0.870518
797.331218	0.872235
797.652852	0.877392
797.974442	0.880711
798.295986	0.880169
798.617484	0.882001
798.938938	0.887305
799.260346	0.889300
799.581709	0.892687
799.903026	0.894894
800.224299	0.894648
800.545526	0.898202
800.866708	0.902162
801.187845	0.905559
801.508936	0.904954
801.829983	0.902346
802.150984	0.904882
802.471940	0.910444
802.792851	0.909633
803.113717	0.909592
803.434538	0.908139
803.755314	0.909458
804.076045	0.912053
804.396731	0.912132
804.717372	0.910174
805.037967	0.912496
805.358518	0.912107
805.679024	0.909892
805.999485	0.909077
806.319901	0.909830
806.640272	0.910315
806.960598	0.909559
807.280879	0.906693
807.601115	0.905041
807.921306	0.908582
808.241453	0.908164
808.561554	0.905884
808.881611	0.906372
809.201623	0.907874
809.521590	0.907747
809.841513	0.908934
810.161390	0.908065
810.481223	0.908587
810.801011	0.913370
811.120755	0.913465
811.440453	0.912517
811.760107	0.910802
812.079716	0.911324
812.399281	0.914493
812.718801	0.916757
813.038276	0.917775
813.357707	0.917193
813.677093	0.913667
813.996434	0.917555
814.315731	0.919290
814.634983	0.918724
814.954191	0.917652
815.273354	0.914784
815.592473	0.910862
815.911547	0.911481
816.230577	0.909353
816.549562	0.907410
816.868502	0.907678
817.187399	0.903489
817.506250	0.899162
817.825058	0.900839
818.143821	0.897670
818.462539	0.893411
818.781213	0.885804
819.099843	0.875103
819.418429	0.861604
819.736970	0.847246
820.055466	0.827991
820.373919	0.803979
820.692327	0.773415
821.010691	0.742997
821.329011	0.674613
821.647286	0.577782
821.965517	0.482942
822.283704	0.446959
822.601847	0.445938
822.919945	0.472652
823.237999	0.497124
823.556010	0.535953
823.873976	0.585850
824.191897	0.630073
824.509775	0.667543
824.827609	0.708964
825.145398	0.729643
825.463144	0.731768
825.780845	0.716007
826.098502	0.699067
826.416116	0.658445
826.733685	0.619384
827.051210	0.610944
827.368692	0.623900
827.686129	0.656146
828.003522	0.704311
828.320872	0.747948
828.638177	0.788492
828.955439	0.817502
829.272656	0.838665
829.589830	0.853704
829.906960	0.867134
830.224046	0.879033
830.541088	0.888287
830.858086	0.893066
831.175041	0.899080
831.491952	0.897144
831.808819	0.893795
832.125642	0.887965
832.442421	0.874292
832.759157	0.854587
833.075849	0.813011
833.392497	0.754062
833.709101	0.716201
834.025662	0.725082
834.342179	0.754008
834.658653	0.789540
834.975083	0.822441
835.291469	0.847218
835.607811	0.866287
835.924110	0.881559
836.240366	0.898336
836.556578	0.911106
836.872746	0.918305
837.188871	0.922823
837.504952	0.927683
837.820990	0.930483
838.136984	0.934098
838.452935	0.937313
838.768842	0.938897
839.084706	0.933254
839.400526	0.908853
839.716303	0.872184
840.032037	0.851970
840.347727	0.855317
840.663373	0.871440
840.978977	0.891249
841.294537	0.911574
841.610054	0.926988
841.925527	0.934437
842.240957	0.939357
842.556344	0.945755
842.871687	0.952104
843.186987	0.955125
843.502244	0.955609
843.817458	0.956682
844.132629	0.959951
844.447756	0.965390
844.762840	0.965379
845.077881	0.964652
845.392879	0.964554
845.707833	0.967113
846.022745	0.968886
846.337613	0.970209
846.652438	0.969767
846.967221	0.968574
847.281960	0.969351
847.596656	0.971608
847.911309	0.970551
848.225919	0.972151
848.540485	0.971361
848.855009	0.973658
849.169490	0.972281
849.483928	0.974578
849.798323	0.974131
850.112675	0.974545
850.426984	0.973721
850.741251	0.973166
851.055474	0.974809
851.369654	0.972265
851.683792	0.973366
851.997887	0.974161
852.311938	0.974183
852.625947	0.973198
852.939914	0.971964
853.253837	0.973976
853.567718	0.974568
853.881555	0.975074
854.195350	0.971981
854.509103	0.973794
854.822812	0.974852
855.136479	0.973987
855.450103	0.974505
855.763685	0.972629
856.077224	0.973112
856.390720	0.975643
856.704173	0.974618
857.017584	0.972575
857.330953	0.971446
857.644278	0.972315
857.957561	0.973703
858.270802	0.972603
858.584000	0.971430
858.897155	0.970593
859.210268	0.971306
859.523339	0.972320
859.836367	0.974617
860.149352	0.974968
860.462295	0.971700
860.775195	0.973897
861.088054	0.973218
861.400869	0.974122
861.713642	0.975388
862.026373	0.974841
862.339062	0.975140
862.651708	0.971632
862.964312	0.971485
863.276873	0.973849
863.589392	0.972533
863.901869	0.970670
864.214303	0.969076
864.526696	0.968419
864.839045	0.967700
865.151353	0.965208
865.463619	0.967442
865.775842	0.968075
866.088023	0.965615
866.400162	0.967220
866.712258	0.967194
867.024313	0.968103
867.336325	0.968912
867.648296	0.969276
867.960224	0.965615
868.272110	0.967031
868.583954	0.968973
868.895755	0.969345
869.207515	0.966519
869.519233	0.964433
869.830909	0.966844
870.142542	0.966899
870.454134	0.966950
870.765684	0.966148
871.077191	0.963152
871.388657	0.964825
871.700081	0.963745
872.011463	0.963807
872.322803	0.963404
872.634101	0.963018
872.945357	0.960289
873.256571	0.958160
873.567744	0.957064
873.878874	0.960039
874.189963	0.958565
874.501010	0.956236
874.812015	0.954593
875.122979	0.958261
875.433900	0.959689
875.744780	0.959952
876.055618	0.956571
876.366415	0.955841
876.677169	0.955760
876.987882	0.957625
877.298554	0.956732
877.609183	0.953712
877.919771	0.949917
878.230317	0.949270
878.540822	0.946578
878.851285	0.944132
879.161707	0.934887
879.472087	0.923700
879.782425	0.909173
880.092722	0.877365
880.402977	0.830457
880.713191	0.775313
881.023363	0.724066
881.333494	0.694436
881.643583	0.667302
881.953631	0.665758
882.263637	0.691864
882.573602	0.729167
882.883526	0.752578
883.193408	0.772787
883.503248	0.792664
883.813048	0.817400
884.122806	0.845221
884.432522	0.866795
884.742197	0.884786
885.051831	0.894070
885.361424	0.902955
885.670975	0.913964
885.980485	0.922886
886.289954	0.928977
886.599382	0.932950
886.908768	0.937045
887.218113	0.941263
887.527417	0.945386
887.836680	0.949529
888.145901	0.950014
888.455082	0.953551
888.764221	0.956510
889.073319	0.960011
889.382376	0.959406
889.691392	0.958666
890.000366	0.959836
890.309300	0.960650
890.618193	0.959231
890.927044	0.957522
891.235855	0.958134
891.544625	0.957303
891.853353	0.957369
892.162041	0.956287
892.470687	0.949805
892.779293	0.945405
893.087858	0.941548
893.396381	0.934778
893.704864	0.922297
894.013306	0.900395
894.321707	0.876140
894.630068	0.864713
894.938387	0.860637
895.246665	0.860664
895.554903	0.871584
895.863100	0.883596
896.171256	0.899337
896.479371	0.917274
896.787446	0.929063
897.095480	0.933708
897.403473	0.937990
897.711425	0.940786
898.019336	0.946863
898.327207	0.949942
898.635038	0.951288
898.942827	0.951505
899.250576	0.954372
899.558284	0.958697
899.865952	0.960382
900.173579	0.961327
900.481165	0.960605
900.788711	0.965045
901.096216	0.967043
901.403681	0.966348
901.711105	0.969204
902.018489	0.969075
902.325832	0.967321
902.633135	0.966648
902.940397	0.962050
903.247619	0.951045
903.554800	0.928389
903.861941	0.893149
904.169041	0.860377
904.476101	0.845428
904.783121	0.845985
905.090100	0.861609
905.397039	0.879226
905.703938	0.899628
906.010796	0.917597
906.317614	0.932720
906.624391	0.942356
906.931129	0.951533
907.237826	0.957531
907.544483	0.966471
907.851099	0.969217
908.157675	0.973285
908.464211	0.975970
908.770707	0.978140
909.077163	0.978912
909.383578	0.978611
909.689954	0.979620
909.996289	0.980208
910.302584	0.981902
910.608839	0.984459
910.915054	0.982627
911.221229	0.982299
911.527363	0.981308
911.833458	0.980898
912.139513	0.981374
912.445527	0.980288
912.751502	0.977674
913.057436	0.976410
913.363331	0.974903
913.669186	0.971612
913.975000	0.967721
914.280775	0.962275
914.586510	0.955908
914.892205	0.944889
915.197859	0.925564
915.503475	0.900614
915.809050	0.882720
916.114585	0.879878
916.420081	0.877755
916.725536	0.872535
917.030952	0.880375
917.336328	0.891183
917.641665	0.905183
917.946961	0.920074
918.252218	0.930423
918.557435	0.937867
918.862612	0.945663
919.167750	0.951319
919.472848	0.954010
919.777906	0.959743
920.082925	0.964930
920.387904	0.967630
920.692843	0.969444
920.997743	0.970786
921.302603	0.973394
921.607423	0.974566
921.912204	0.978504
922.216946	0.976845
922.521647	0.978531
922.826310	0.979683
923.130932	0.981395
923.435516	0.982127
923.740059	0.983797
924.044564	0.983611
924.349028	0.984558
924.653454	0.986738
924.957840	0.988826
925.262186	0.989108
925.566493	0.986998
925.870761	0.989106
926.174989	0.989089
926.479178	0.990461
926.783328	0.992469
927.087438	0.993321
927.391509	0.990654
927.695541	0.993351
927.999533	0.993160
928.303486	0.992982
928.607400	0.994377
928.911275	0.992246
929.215110	0.993415
929.518906	0.993814
929.822663	0.992568
930.126381	0.994382
930.430060	0.992707
930.733699	0.992871
931.037299	0.992218
931.340861	0.994285
931.644383	0.993680
931.947866	0.991414
932.251309	0.993139
932.554714	0.993921
932.858080	0.993471
933.161407	0.992942
933.464694	0.994737
933.767943	0.992550
934.071153	0.994795
934.374323	0.994052
934.677455	0.993517
934.980548	0.994982
935.283602	0.993386
935.586617	0.994343
935.889593	0.993802
936.192530	0.993632
936.495428	0.993940
936.798287	0.993292
937.101108	0.994720
937.403890	0.992433
937.706632	0.992876
938.009336	0.990208
938.312002	0.988815
938.614628	0.988690
938.917216	0.986498
939.219765	0.984784
939.522275	0.986363
939.824747	0.986885
940.127179	0.987930
940.429573	0.988054
940.731929	0.988493
941.034246	0.988415
941.336524	0.988201
941.638763	0.990064
941.940964	0.989631
942.243126	0.990643
942.545250	0.990395
942.847335	0.990567
943.149381	0.991588
943.451389	0.990273
943.753359	0.991956
944.055290	0.992934
944.357182	0.993423
944.659036	0.991289
944.960851	0.991987
945.262628	0.993259
945.564367	0.993543
945.866067	0.992896
946.167729	0.994067
946.469352	0.993574
946.770937	0.992084
947.072484	0.993724
947.373992	0.992522
947.675462	0.992396
947.976893	0.992532
948.278286	0.993425
948.579641	0.995044
948.880958	0.993825
949.182236	0.994098
949.483476	0.993660
949.784678	0.992761
950.085841	0.994130
950.386967	0.992095
950.688054	0.993579
950.989103	0.993841
951.290114	0.991694
951.591087	0.993612
951.892021	0.992241
952.192917	0.992926
952.493776	0.990424
952.794596	0.990827
953.095378	0.990680
953.396122	0.991226
953.696828	0.990557
953.997496	0.992890
954.298126	0.994029
954.598718	0.993286
954.899272	0.994399
955.199788	0.992462
955.500266	0.994392
955.800706	0.995053
956.101108	0.994546
956.401472	0.997453
956.701798	0.996047
957.002087	0.995429
957.302337	0.996527
957.602550	0.996910
957.902724	0.996521
958.202861	0.996476
958.502960	0.997267
958.803022	0.995434
959.103045	0.998273
959.403031	0.998231
959.702979	0.997697
960.002889	0.997940
960.302762	0.996481
960.602596	0.997212
960.902393	0.996249
961.202153	0.999547
961.501875	0.998232
961.801559	0.997701
962.101205	0.996711
962.400814	0.996752
962.700385	0.997012
962.999918	0.998902
963.299414	0.998447
963.598873	0.998723
963.898293	0.997759
964.197677	0.997676
964.497022	0.998086
964.796331	0.999285
965.095601	0.997083
965.394835	0.997788
965.694030	0.998221
965.993189	0.998466
966.292309	0.998338
966.591393	0.999371
966.890439	0.998374
967.189447	0.997824
967.488419	0.999063
967.787353	0.997185
968.086249	0.997800
968.385108	0.997605
968.683930	0.999678
968.982714	0.999227
969.281462	0.999331
969.580172	0.998123
969.878844	0.998669
970.177480	0.998691
970.476078	0.999553
970.774639	0.998626
971.073162	0.999755
971.371649	0.998386
971.670098	0.998135
971.968510	0.999069
972.266885	0.996779
972.565223	0.998771
972.863524	0.997271
973.161788	0.997037
973.460014	0.999761
973.758204	0.998480
974.056356	0.998927
974.354471	0.996753
974.652550	0.998283
974.950591	0.998501
975.248595	0.997884
975.546563	0.998493
975.844493	0.999773
976.142386	0.998126
976.440243	0.999227
976.738062	0.998793
977.035845	0.999711
977.333590	0.998090
977.631299	0.998940
977.928971	0.998280
978.226606	0.998780
978.524204	0.996989
978.821765	0.999657
979.119290	0.998097
979.416777	0.998013
979.714228	0.998429
980.011642	0.997092
980.309020	0.998883
980.606360	0.998635
980.903664	0.999148
981.200931	0.998590
981.498162	0.996783
981.795356	0.996589
982.092513	0.996113
982.389633	0.997174
982.686717	0.992477
982.983764	0.993781
983.280775	0.992138
983.577749	0.992177
983.874686	0.993465
984.171587	0.993294
984.468451	0.996365
984.765279	0.996698
985.062070	0.994735
985.358824	0.996419
985.655543	0.994725
985.952224	0.998550
986.248869	0.997340
986.545478	0.998848
986.842050	0.999837
987.138586	0.997495
987.435086	0.999230
987.731549	0.998769
988.027975	0.998298
988.324366	0.998454
988.620719	0.998964
988.917037	0.996893
989.213318	0.999537
989.509563	0.999943
989.805772	0.999589
990.101944	0.998459
990.398080	0.998317
990.694180	0.999041
990.990244	0.997848
991.286271	0.998604
991.582262	0.998569
991.878217	0.999477
992.174136	0.999633
992.470019	0.999730
992.765865	0.998595
993.061676	0.998472
993.357450	0.998968
993.653188	0.997241
993.948890	0.998361
994.244556	0.999647
994.540186	0.998637
994.835780	0.997713
995.131337	0.997481
995.426859	0.997856
995.722345	0.998746
996.017795	0.997264
996.313208	0.996518
996.608586	0.996654
996.903928	0.997598
997.199234	0.997782
997.494504	0.998497
997.789738	0.997699
998.084936	0.997084
998.380099	0.999215
998.675225	0.998507
998.970316	0.999217
999.265371	0.998156
999.560390	0.999134
999.855373	1.000243
1000.150320	0.997844
1000.445232	0.998342
1000.740108	0.999205
1001.034948	0.999647
1001.329752	0.998719
1001.624521	0.998722
1001.919254	0.998917
1002.213951	0.999296
1002.508613	0.998951
1002.803239	0.998597
1003.097829	1.000146
1003.392384	0.999214
1003.686903	0.998748
1003.981386	1.000058
1004.275834	0.999979
1004.570246	0.999649
1004.864623	0.999258
1005.158964	1.000817
1005.453270	0.998609
1005.747540	0.997932
1006.041775	0.999795
1006.335974	1.000564
1006.630138	1.000198
1006.924266	1.001148
1007.218359	1.000409
1007.512416	1.000845
1007.806438	0.998867
1008.100425	1.000430
1008.394376	0.999330
1008.688292	0.999581
1008.982172	1.001800
1009.276017	0.999217
1009.569827	0.999775
1009.863602	0.999855
1010.157341	0.999884
1010.451045	1.000387
1010.744714	1.000312
1011.038347	0.999786
1011.331945	0.999334
1011.625508	0.998282
1011.919036	0.998965
1012.212528	0.998746
1012.505986	0.999282
1012.799408	0.999741
1013.092795	0.999251
1013.386147	0.999518
1013.679464	0.998843
1013.972745	0.998328
1014.265992	0.997733
1014.559204	0.999644
1014.852380	1.000023
1015.145521	0.999399
1015.438628	0.999707
1015.731699	0.999734
1016.024736	0.999487
1016.317737	0.999650
1016.610703	0.999280
1016.903635	0.999347
1017.196531	0.999220
1017.489393	0.999729
1017.782219	0.999988
1018.075011	0.999239
1018.367768	0.999014
1018.660490	1.000808
1018.953177	1.000808
1019.245829	1.000808
