Dividing Wavelength (nm)	Counts (n)	Blue Motor Position (mm): 0.000000	Red Motor Position (mm): 28.900000	
326.493990	0.999476
326.888308	0.999476
327.282561	0.999476
327.676750	0.998595
328.070874	0.999128
328.464933	0.999802
328.858929	0.998974
329.252859	0.999048
329.646726	0.998291
330.040528	0.999465
330.434265	0.998136
330.827938	1.000091
331.221547	1.000170
331.615091	0.999799
332.008571	1.000113
332.401986	0.999322
332.795338	1.000502
333.188625	0.998143
333.581847	1.000321
333.975006	0.999256
334.368100	0.998954
334.761129	1.000969
335.154095	1.000830
335.546996	0.997939
335.939833	0.993831
336.332606	0.995031
336.725315	0.995233
337.117960	0.995060
337.510540	0.995953
337.903056	0.995346
338.295508	0.994077
338.687896	0.995689
339.080220	0.994801
339.472480	0.995459
339.864676	0.995619
340.256807	0.994978
340.648875	0.995689
341.040879	0.996323
341.432818	0.995801
341.824694	0.995357
342.216506	0.995797
342.608253	0.995252
342.999937	0.995351
343.391557	0.995431
343.783113	0.995971
344.174605	0.995634
344.566033	0.995276
344.957397	0.995297
345.348697	0.995288
345.739934	0.995963
346.131106	0.995760
346.522215	0.994687
346.913260	0.994216
347.304241	0.994966
347.695159	0.993898
348.086012	0.994780
348.476802	0.995231
348.867528	0.994998
349.258191	0.994213
349.648789	0.994551
350.039324	0.994816
350.429796	0.995820
350.820203	0.994216
351.210548	0.994870
351.600828	0.993989
351.991045	0.994096
352.381198	0.994971
352.771288	0.994895
353.161314	0.994475
353.551276	0.996218
353.941175	0.994080
354.331010	0.994682
354.720782	0.994506
355.110490	0.994475
355.500135	0.995950
355.889717	0.995029
356.279235	0.995463
356.668689	0.994500
357.058080	0.994626
357.447408	0.996334
357.836672	0.996214
358.225873	0.996582
358.615010	0.995140
359.004084	0.996537
359.393095	0.995781
359.782043	0.995495
360.170927	0.996138
360.559748	0.995250
360.948505	0.994303
361.337199	0.994910
361.725830	0.995468
362.114398	0.994409
362.502903	0.996109
362.891344	0.995356
363.279722	0.994997
363.668037	0.995680
364.056289	0.995908
364.444478	0.996195
364.832603	0.994714
365.220665	0.995413
365.608665	0.994276
365.996601	0.995787
366.384474	0.995166
366.772284	0.995690
367.160031	0.994358
367.547715	0.994540
367.935336	0.995452
368.322893	0.995685
368.710388	0.994697
369.097820	0.996049
369.485189	0.995018
369.872495	0.994981
370.259738	0.994059
370.646918	0.996218
371.034035	0.995931
371.421090	0.995439
371.808081	0.995873
372.195010	0.995383
372.581875	0.996235
372.968678	0.994844
373.355418	0.995539
373.742096	0.994757
374.128710	0.997214
374.515262	0.994643
374.901751	0.995516
375.288177	0.995441
375.674540	0.995511
376.060841	0.994685
376.447079	0.995887
376.833254	0.995330
377.219367	0.994297
377.605417	0.996171
377.991404	0.995278
378.377329	0.993950
378.763191	0.995363
379.148991	0.996245
379.534727	0.995575
379.920402	0.995920
380.306013	0.996304
380.691563	0.996567
381.077049	0.995110
381.462474	0.996132
381.847835	0.995894
382.233134	0.996787
382.618371	0.996001
383.003545	0.996563
383.388657	0.995948
383.773706	0.997140
384.158693	0.995940
384.543618	0.995947
384.928480	0.996732
385.313280	0.997426
385.698017	0.996343
386.082692	0.996891
386.467305	0.996955
386.851856	0.996011
387.236344	0.996623
387.620770	0.995890
388.005133	0.996857
388.389435	0.997775
388.773674	0.995972
389.157851	0.997133
389.541965	0.996924
389.926018	0.995728
390.310008	0.997806
390.693936	0.995860
391.077802	0.997079
391.461606	0.996682
391.845348	0.996957
392.229027	0.997855
392.612645	0.997137
392.996200	0.998665
393.379694	0.996850
393.763125	0.997784
394.146494	0.997405
394.529801	0.996999
394.913047	0.997396
395.296230	0.997353
395.679351	0.997215
396.062410	0.996463
396.445408	0.996902
396.828343	0.996524
397.211217	0.996745
397.594028	0.997370
397.976778	0.996984
398.359466	0.997014
398.742092	0.996945
399.124656	0.996487
399.507158	0.997109
399.889598	0.996200
400.271977	0.996873
400.654294	0.997626
401.036549	0.998234
401.418742	0.997780
401.800874	0.997021
402.182944	0.997636
402.564952	0.996604
402.946898	0.997867
403.328783	0.997700
403.710606	0.997259
404.092367	0.997523
404.474067	0.997503
404.855705	0.997247
405.237282	0.997554
405.618797	0.997022
406.000250	0.996252
406.381642	0.998202
406.762972	0.997265
407.144240	0.998903
407.525447	0.997132
407.906593	0.997301
408.287677	0.997012
408.668700	0.998359
409.049661	0.996341
409.430560	0.996891
409.811399	0.996652
410.192176	0.997187
410.572891	0.997088
410.953545	0.996961
411.334138	0.996789
411.714669	0.998046
412.095139	0.996282
412.475547	0.997659
412.855894	0.997755
413.236180	0.998380
413.616405	0.997611
413.996568	0.998959
414.376670	0.997050
414.756711	0.996894
415.136691	0.996523
415.516609	0.996716
415.896466	0.997525
416.276262	0.996253
416.655997	0.997834
417.035670	0.997310
417.415283	0.997370
417.794834	0.997426
418.174324	0.997782
418.553753	0.998246
418.933121	0.997604
419.312428	0.997882
419.691674	0.997398
420.070859	0.997218
420.449983	0.998306
420.829045	0.997543
421.208047	0.998025
421.586988	0.998017
421.965867	0.997791
422.344686	0.998669
422.723444	0.997982
423.102141	0.997645
423.480777	0.997997
423.859352	0.997091
424.237866	0.997048
424.616319	0.997517
424.994712	0.997172
425.373044	0.998051
425.751314	0.998277
426.129524	0.997701
426.507673	0.997519
426.885762	0.998373
427.263789	0.997759
427.641756	0.997708
428.019662	0.999028
428.397508	0.998106
428.775292	0.996808
429.153016	0.997877
429.530679	0.998840
429.908282	0.998461
430.285824	0.997780
430.663305	0.997091
431.040726	0.997755
431.418086	0.998327
431.795385	0.998256
432.172624	0.997630
432.549802	0.998341
432.926920	0.998465
433.303977	0.998054
433.680974	0.998039
434.057910	0.997996
434.434786	0.998871
434.811601	0.997181
435.188355	0.997892
435.565050	0.997107
435.941683	0.997477
436.318257	0.998583
436.694770	0.997248
437.071222	0.998312
437.447614	0.998056
437.823946	0.997574
438.200218	0.997384
438.576429	0.997901
438.952580	0.998616
439.328670	0.997673
439.704700	0.997715
440.080670	0.998063
440.456580	0.997774
440.832429	0.997749
441.208218	0.997780
441.583947	0.998344
441.959616	0.997946
442.335224	0.997351
442.710773	0.997032
443.086261	0.996898
443.461689	0.997392
443.837057	0.996825
444.212365	0.997832
444.587612	0.998518
444.962800	0.997215
445.337927	0.997204
445.712995	0.997597
446.088002	0.998515
446.462949	0.997383
446.837837	0.997391
447.212664	0.997614
447.587431	0.997565
447.962139	0.997375
448.336786	0.997482
448.711374	0.997780
449.085901	0.996781
449.460369	0.997214
449.834776	0.997324
450.209124	0.997423
450.583412	0.996621
450.957640	0.997234
451.331808	0.996796
451.705917	0.997037
452.079965	0.996018
452.453954	0.997020
452.827883	0.995917
453.201752	0.996118
453.575562	0.996559
453.949311	0.995828
454.323001	0.995496
454.696632	0.995382
455.070202	0.994371
455.443713	0.993633
455.817164	0.994661
456.190556	0.993029
456.563888	0.992864
456.937160	0.992800
457.310373	0.992059
457.683526	0.990989
458.056619	0.990755
458.429653	0.990925
458.802628	0.988798
459.175542	0.988542
459.548398	0.987807
459.921194	0.986747
460.293930	0.985424
460.666607	0.983880
461.039224	0.980794
461.411782	0.980669
461.784280	0.979415
462.156719	0.978889
462.529099	0.978676
462.901419	0.977062
463.273680	0.975114
463.645882	0.974464
464.018024	0.973035
464.390106	0.970625
464.762130	0.969103
465.134094	0.965101
465.505999	0.959212
465.877845	0.953925
466.249631	0.953014
466.621358	0.951664
466.993026	0.950370
467.364634	0.949411
467.736184	0.947825
468.107674	0.945375
468.479105	0.940603
468.850477	0.940057
469.221790	0.936887
469.593043	0.935096
469.964238	0.932124
470.335373	0.927799
470.706449	0.924294
471.077467	0.920465
471.448425	0.910806
471.819324	0.903256
472.190164	0.900317
472.560945	0.900574
472.931667	0.898062
473.302330	0.894974
473.672934	0.891531
474.043479	0.885340
474.413965	0.881064
474.784393	0.875528
475.154761	0.868671
475.525070	0.862930
475.895321	0.859096
476.265513	0.852682
476.635645	0.846838
477.005719	0.840826
477.375734	0.833532
477.745691	0.826423
478.115588	0.818971
478.485427	0.810421
478.855207	0.799935
479.224928	0.786379
479.594591	0.777041
479.964194	0.771876
480.333739	0.766996
480.703226	0.758708
481.072653	0.751797
481.442022	0.741303
481.811333	0.732337
482.180584	0.727455
482.549777	0.720503
482.918912	0.714709
483.287988	0.706608
483.657005	0.699185
484.025964	0.694102
484.394864	0.684897
484.763706	0.676819
485.132489	0.671543
485.501213	0.663534
485.869879	0.655731
486.238487	0.647441
486.607036	0.640962
486.975527	0.634052
487.343959	0.625108
487.712333	0.615718
488.080648	0.609743
488.448905	0.600017
488.817104	0.593958
489.185244	0.583072
489.553326	0.573287
489.921350	0.560071
490.289315	0.541359
490.657222	0.532587
491.025070	0.524716
491.392861	0.518872
491.760593	0.515047
492.128267	0.510041
492.495883	0.505835
492.863440	0.502279
493.230939	0.498597
493.598380	0.492158
493.965763	0.485564
494.333088	0.482072
494.700354	0.474623
495.067563	0.468406
495.434713	0.463282
495.801805	0.456204
496.168839	0.450391
496.535815	0.444698
496.902733	0.438833
497.269593	0.433229
497.636395	0.426124
498.003139	0.419679
498.369825	0.417037
498.736453	0.408098
499.103023	0.403747
499.469535	0.397564
499.835989	0.392867
500.202385	0.387876
500.568723	0.385615
500.935003	0.377475
501.301226	0.374477
501.667390	0.366652
502.033497	0.359636
502.399546	0.357939
502.765537	0.354442
503.131470	0.348536
503.497345	0.340837
503.863163	0.344481
504.228923	0.333910
504.594625	0.329098
504.960269	0.329992
505.325856	0.322113
505.691385	0.322208
506.056856	0.315946
506.422270	0.311666
506.787625	0.311269
507.152924	0.305213
507.518164	0.302776
507.883347	0.301067
508.248472	0.300145
508.613540	0.292721
508.978550	0.292213
509.343503	0.290326
509.708398	0.285120
510.073236	0.280449
510.438016	0.278224
510.802738	0.276788
511.167403	0.273811
511.532010	0.273528
511.896561	0.267480
512.261053	0.264311
512.625488	0.264407
512.989866	0.263085
513.354186	0.261710
513.718449	0.261792
514.082655	0.256803
514.446803	0.257509
514.810894	0.253958
515.174927	0.255121
515.538904	0.253537
515.902822	0.249323
516.266684	0.250580
516.630488	0.250574
516.994235	0.248595
517.357925	0.246364
517.721558	0.243810
518.085133	0.242628
518.448651	0.242042
518.812112	0.243526
519.175516	0.242206
519.538863	0.239286
519.902152	0.240338
520.265385	0.236430
520.628560	0.237946
520.991678	0.237625
521.354739	0.236104
521.717743	0.236748
522.080690	0.237260
522.443580	0.234211
522.806413	0.234804
523.169189	0.233482
523.531908	0.232012
523.894569	0.235467
524.257174	0.235094
524.619722	0.232416
524.982213	0.233752
525.344647	0.231992
525.707025	0.232715
526.069345	0.230827
526.431608	0.232153
526.793815	0.230026
527.155964	0.233846
527.518057	0.232820
527.880093	0.233541
528.242072	0.232069
528.603995	0.233782
528.965860	0.235169
529.327669	0.233792
529.689421	0.234691
530.051117	0.235640
530.412755	0.233140
530.774337	0.235602
531.135862	0.235580
531.497331	0.234760
531.858743	0.237596
532.220098	0.234421
532.581396	0.236782
532.942638	0.237247
533.303824	0.237779
533.664953	0.237813
534.026025	0.239164
534.387040	0.237043
534.747999	0.237153
535.108902	0.235929
535.469748	0.240769
535.830537	0.238771
536.191270	0.239058
536.551947	0.238466
536.912567	0.238285
537.273131	0.240218
537.633638	0.240347
537.994089	0.240726
538.354483	0.241603
538.714821	0.238528
539.075103	0.238413
539.435328	0.239028
539.795497	0.242907
540.155609	0.239273
540.515665	0.237661
540.875665	0.243197
541.235609	0.241571
541.595496	0.241616
541.955328	0.238022
542.315102	0.240769
542.674821	0.241842
543.034483	0.241884
543.394090	0.241712
543.753640	0.243257
544.113134	0.238403
544.472571	0.241473
544.831953	0.238543
545.191278	0.242601
545.550548	0.242003
545.909761	0.238912
546.268918	0.239633
546.628019	0.237942
546.987064	0.240345
547.346053	0.242329
547.704986	0.240168
548.063863	0.240468
548.422684	0.240735
548.781449	0.242541
549.140158	0.240244
549.498811	0.243156
549.857408	0.246054
550.215949	0.240842
550.574434	0.244052
550.932864	0.241941
551.291237	0.240640
551.649555	0.241948
552.007817	0.241800
552.366022	0.242346
552.724173	0.242670
553.082267	0.243028
553.440305	0.239742
553.798288	0.244625
554.156215	0.241196
554.514086	0.241308
554.871902	0.244593
555.229661	0.243904
555.587365	0.244555
555.945014	0.247049
556.302606	0.243875
556.660143	0.246339
557.017625	0.242816
557.375050	0.245145
557.732421	0.242096
558.089735	0.244159
558.446994	0.244328
558.804197	0.243671
559.161345	0.243318
559.518437	0.246725
559.875474	0.244399
560.232455	0.244161
560.589381	0.245313
560.946251	0.245277
561.303065	0.242727
561.659825	0.244198
562.016528	0.245638
562.373177	0.248786
562.729770	0.245932
563.086307	0.247957
563.442789	0.245766
563.799216	0.248626
564.155587	0.247371
564.511904	0.248342
564.868164	0.248810
565.224370	0.248622
565.580520	0.250171
565.936615	0.250084
566.292654	0.252895
566.648638	0.249896
567.004567	0.250945
567.360441	0.251317
567.716260	0.253553
568.072023	0.251280
568.427732	0.251954
568.783385	0.254479
569.138982	0.252467
569.494525	0.252059
569.850013	0.255338
570.205445	0.253461
570.560823	0.255890
570.916145	0.258007
571.271412	0.256439
571.626625	0.257931
571.981782	0.257961
572.336884	0.259188
572.691931	0.258820
573.046923	0.260038
573.401860	0.261031
573.756743	0.262664
574.111570	0.261820
574.466342	0.261907
574.821059	0.261445
575.175722	0.264279
575.530330	0.264110
575.884882	0.264323
576.239380	0.266384
576.593823	0.266813
576.948211	0.266247
577.302544	0.269494
577.656823	0.268657
578.011047	0.269158
578.365216	0.269915
578.719330	0.271954
579.073389	0.271577
579.427394	0.272952
579.781344	0.273909
580.135239	0.275177
580.489080	0.274758
580.842866	0.277586
581.196597	0.277511
581.550273	0.276595
581.903895	0.277650
582.257463	0.275550
582.610975	0.278701
582.964434	0.278125
583.317837	0.280644
583.671186	0.281315
584.024481	0.281167
584.377721	0.283653
584.730906	0.284117
585.084037	0.283167
585.437113	0.285335
585.790135	0.284482
586.143103	0.287699
586.496016	0.288968
586.848874	0.286275
587.201679	0.286856
587.554428	0.290109
587.907124	0.289043
588.259765	0.289757
588.612352	0.290122
588.964884	0.294105
589.317362	0.293449
589.669786	0.293331
590.022155	0.292012
590.374470	0.291410
590.726731	0.293353
591.078937	0.297746
591.431090	0.294336
591.783188	0.298539
592.135232	0.298948
592.487222	0.299258
592.839157	0.297488
593.191038	0.299616
593.542866	0.301188
593.894639	0.305330
594.246358	0.302830
594.598022	0.302528
594.949633	0.306295
595.301190	0.306789
595.652692	0.306074
596.004141	0.302552
596.355535	0.310440
596.706876	0.310696
597.058162	0.312998
597.409395	0.310690
597.760573	0.308172
598.111698	0.311588
598.462768	0.311711
598.813785	0.313201
599.164748	0.314689
599.515657	0.314628
599.866511	0.317861
600.217312	0.313250
600.568060	0.318895
600.918753	0.314969
601.269392	0.316185
601.619978	0.319502
601.970510	0.317159
602.320988	0.317233
602.671412	0.314535
603.021783	0.317529
603.372100	0.318686
603.722363	0.318619
604.072572	0.319330
604.422728	0.319167
604.772830	0.321085
605.122878	0.320364
605.472872	0.321146
605.822813	0.319359
606.172701	0.321968
606.522534	0.319860
606.872314	0.319347
607.222041	0.320752
607.571714	0.318792
607.921333	0.320075
608.270899	0.319705
608.620411	0.316217
608.969870	0.320103
609.319276	0.320614
609.668627	0.320529
610.017926	0.318980
610.367171	0.317181
610.716362	0.318487
611.065500	0.318419
611.414585	0.317296
611.763616	0.317496
612.112594	0.318139
612.461518	0.317606
612.810389	0.315126
613.159207	0.317526
613.507971	0.319362
613.856682	0.315112
614.205340	0.316622
614.553945	0.313592
614.902496	0.317822
615.250994	0.315551
615.599439	0.316108
615.947830	0.315564
616.296169	0.316741
616.644454	0.316256
616.992686	0.316019
617.340864	0.314058
617.688990	0.317736
618.037063	0.313993
618.385082	0.316267
618.733048	0.312959
619.080961	0.314996
619.428821	0.314728
619.776628	0.314289
620.124382	0.316333
620.472083	0.316436
620.819731	0.316086
621.167326	0.319803
621.514868	0.319652
621.862357	0.324138
622.209793	0.323634
622.557176	0.325478
622.904506	0.326490
623.251783	0.329118
623.599007	0.331421
623.946179	0.331058
624.293297	0.332877
624.640363	0.336544
624.987376	0.337189
625.334336	0.340058
625.681243	0.341677
626.028097	0.342805
626.374899	0.343813
626.721647	0.343894
627.068343	0.347057
627.414987	0.348442
627.761577	0.350173
628.108115	0.348552
628.454600	0.353532
628.801032	0.351214
629.147412	0.353126
629.493739	0.353703
629.840014	0.356767
630.186236	0.354351
630.532405	0.359486
630.878521	0.356478
631.224585	0.359070
631.570597	0.363022
631.916556	0.361523
632.262462	0.361223
632.608316	0.363566
632.954117	0.364535
633.299866	0.365063
633.645562	0.365455
633.991206	0.369857
634.336797	0.372772
634.682336	0.374521
635.027823	0.376527
635.373257	0.377341
635.718639	0.380759
636.063968	0.379920
636.409245	0.385799
636.754470	0.385856
637.099642	0.388386
637.444762	0.392085
637.789829	0.391062
638.134845	0.394571
638.479808	0.395290
638.824719	0.395082
639.169577	0.399292
639.514383	0.397577
639.859137	0.402450
640.203839	0.402296
640.548489	0.403236
640.893086	0.403951
641.237632	0.405723
641.582125	0.403979
641.926566	0.405229
642.270955	0.406010
642.615292	0.406237
642.959576	0.405308
643.303809	0.405964
643.647990	0.405427
643.992118	0.406278
644.336195	0.409370
644.680219	0.407827
645.024192	0.408665
645.368112	0.401921
645.711981	0.401110
646.055797	0.395945
646.399562	0.399010
646.743274	0.391272
647.086935	0.388655
647.430544	0.388848
647.774101	0.387524
648.117606	0.386800
648.461059	0.387635
648.804460	0.389762
649.147810	0.394663
649.491108	0.396995
649.834354	0.398098
650.177548	0.403466
650.520690	0.409334
650.863781	0.410414
651.206820	0.409533
651.549807	0.414478
651.892742	0.418117
652.235626	0.417740
652.578458	0.418407
652.921238	0.424888
653.263967	0.422775
653.606644	0.426892
653.949269	0.426203
654.291843	0.430325
654.634365	0.426608
654.976836	0.429854
655.319255	0.429935
655.661622	0.431789
656.003938	0.431935
656.346203	0.434503
656.688416	0.432648
657.030577	0.435959
657.372687	0.438097
657.714746	0.438909
658.056753	0.435656
658.398708	0.439279
658.740612	0.440775
659.082465	0.437132
659.424266	0.437642
659.766016	0.436254
660.107715	0.439374
660.449362	0.438733
660.790958	0.439249
661.132503	0.439708
661.473996	0.437383
661.815438	0.438220
662.156829	0.438231
662.498168	0.438868
662.839456	0.441091
663.180693	0.438290
663.521879	0.438724
663.863013	0.439152
664.204097	0.438049
664.545129	0.434962
664.886110	0.435043
665.227040	0.432356
665.567918	0.434966
665.908746	0.432809
666.249522	0.432189
666.590248	0.433260
666.930922	0.431860
667.271545	0.430632
667.612118	0.430729
667.952639	0.432184
668.293109	0.430792
668.633528	0.434563
668.973896	0.433552
669.314213	0.434363
669.654480	0.435671
669.994695	0.436221
670.334859	0.436868
670.674973	0.437325
671.015035	0.437099
671.355047	0.437042
671.695008	0.438166
672.034918	0.440092
672.374777	0.439442
672.714585	0.440570
673.054342	0.440366
673.394049	0.440617
673.733705	0.438653
674.073310	0.439353
674.412864	0.442289
674.752368	0.443087
675.091820	0.443370
675.431223	0.447533
675.770574	0.447518
676.109875	0.450372
676.449125	0.450386
676.788324	0.453078
677.127473	0.458610
677.466571	0.458374
677.805619	0.459542
678.144616	0.460323
678.483562	0.462365
678.822458	0.464674
679.161303	0.466219
679.500098	0.466315
679.838842	0.467892
680.177535	0.466861
680.516179	0.466340
680.854771	0.465380
681.193314	0.458453
681.531805	0.449652
681.870247	0.438774
682.208638	0.431059
682.546978	0.430099
682.885268	0.431638
683.223508	0.437863
683.561697	0.441502
683.899836	0.444204
684.237925	0.447362
684.575963	0.449627
684.913951	0.453088
685.251889	0.448840
685.589776	0.450991
685.927614	0.453640
686.265401	0.447788
686.603137	0.449470
686.940824	0.442934
687.278460	0.441841
687.616046	0.440985
687.953582	0.435335
688.291068	0.436631
688.628504	0.433006
688.965889	0.435285
689.303224	0.438972
689.640510	0.442853
689.977745	0.448923
690.314930	0.456937
690.652065	0.461215
690.989150	0.468819
691.326185	0.475280
691.663170	0.479216
692.000105	0.486576
692.336990	0.493825
692.673825	0.496286
693.010610	0.503701
693.347345	0.508328
693.684030	0.510269
694.020665	0.515036
694.357251	0.523353
694.693786	0.523593
695.030272	0.527072
695.366707	0.530720
695.703093	0.534844
696.039429	0.532000
696.375716	0.534066
696.711952	0.536637
697.048139	0.538635
697.384276	0.540449
697.720363	0.538640
698.056400	0.537666
698.392388	0.543188
698.728326	0.546783
699.064214	0.548939
699.400053	0.549381
699.735842	0.553662
700.071581	0.556615
700.407270	0.559074
700.742910	0.561834
701.078501	0.567928
701.414042	0.568359
701.749533	0.571426
702.084974	0.580064
702.420366	0.572894
702.755709	0.579752
703.091002	0.588048
703.426246	0.581325
703.761440	0.587124
704.096584	0.592025
704.431679	0.589413
704.766725	0.591080
705.101721	0.592492
705.436668	0.588811
705.771565	0.596084
706.106413	0.592418
706.441212	0.588135
706.775961	0.586889
707.110661	0.588409
707.445311	0.585781
707.779913	0.582625
708.114465	0.581747
708.448967	0.578201
708.783421	0.570296
709.117825	0.564872
709.452180	0.565194
709.786485	0.557967
710.120742	0.548723
710.454949	0.550760
710.789107	0.542553
711.123216	0.533763
711.457275	0.535723
711.791286	0.526706
712.125247	0.525290
712.459159	0.535808
712.793023	0.528624
713.126837	0.532887
713.460602	0.533543
713.794318	0.542744
714.127985	0.541519
714.461602	0.551122
714.795171	0.554055
715.128691	0.562349
715.462162	0.570014
715.795584	0.575502
716.128957	0.578414
716.462281	0.585051
716.795556	0.588646
717.128782	0.593887
717.461960	0.603369
717.795088	0.601505
718.128167	0.607533
718.461198	0.616587
718.794180	0.617040
719.127113	0.619795
719.459997	0.623216
719.792833	0.629277
720.125619	0.630416
720.458357	0.636761
720.791046	0.636263
721.123686	0.639831
721.456278	0.646455
721.788821	0.644493
722.121315	0.647760
722.453761	0.652190
722.786158	0.650085
723.118506	0.646532
723.450805	0.654552
723.783056	0.650160
724.115259	0.648214
724.447412	0.646898
724.779518	0.649035
725.111574	0.647821
725.443582	0.643320
725.775542	0.644740
726.107453	0.637547
726.439315	0.637381
726.771129	0.635787
727.102895	0.629084
727.434612	0.622443
727.766281	0.620003
728.097901	0.619139
728.429473	0.619334
728.760996	0.617346
729.092471	0.617039
729.423897	0.621253
729.755276	0.621017
730.086606	0.620379
730.417887	0.615233
730.749120	0.605882
731.080305	0.597153
731.411442	0.593346
731.742530	0.597922
732.073570	0.596413
732.404562	0.588462
732.735506	0.590338
733.066401	0.595691
733.397249	0.604588
733.728048	0.616217
734.058798	0.628449
734.389501	0.638938
734.720156	0.648393
735.050762	0.656354
735.381320	0.657078
735.711831	0.667606
736.042293	0.671499
736.372707	0.667678
736.703073	0.671777
737.033391	0.674044
737.363661	0.671334
737.693883	0.665911
738.024056	0.664719
738.354182	0.666268
738.684260	0.654452
739.014290	0.651153
739.344272	0.651769
739.674207	0.644678
740.004093	0.645269
740.333931	0.645145
740.663722	0.645308
740.993464	0.646676
741.323159	0.649672
741.652806	0.655352
741.982405	0.659501
742.311956	0.663755
742.641460	0.665899
742.970915	0.669405
743.300323	0.677290
743.629683	0.683822
743.958996	0.685628
744.288260	0.689621
744.617477	0.696239
744.946647	0.697295
745.275768	0.702350
745.604842	0.702896
745.933869	0.711740
746.262847	0.713338
746.591778	0.706753
746.920662	0.713269
747.249498	0.719259
747.578286	0.710054
747.907027	0.706163
748.235720	0.707661
748.564365	0.702020
748.892963	0.702200
749.221514	0.705216
749.550017	0.710338
749.878473	0.709473
750.206881	0.716075
750.535242	0.717530
750.863555	0.716683
751.191821	0.718834
751.520039	0.721068
751.848210	0.726169
752.176334	0.718822
752.504411	0.717288
752.832440	0.726169
753.160421	0.730289
753.488356	0.728628
753.816243	0.726037
754.144082	0.734547
754.471875	0.738422
754.799620	0.733075
755.127318	0.734515
755.454969	0.733503
755.782572	0.734119
756.110129	0.738632
756.437638	0.741365
756.765100	0.738272
757.092515	0.735839
757.419882	0.735261
757.747203	0.740675
758.074477	0.740188
758.401703	0.736488
758.728882	0.731723
759.056014	0.730320
759.383099	0.729271
759.710138	0.731000
760.037129	0.727023
760.364073	0.721408
760.690970	0.723907
761.017820	0.729660
761.344623	0.724491
761.671379	0.716546
761.998088	0.704285
762.324751	0.682151
762.651366	0.640078
762.977935	0.574124
763.304456	0.522069
763.630931	0.512811
763.957359	0.551628
764.283740	0.596190
764.610074	0.623018
764.936362	0.654198
765.262602	0.680629
765.588796	0.701456
765.914943	0.719101
766.241044	0.736844
766.567097	0.742857
766.893104	0.753078
767.219064	0.760181
767.544978	0.765643
767.870845	0.779205
768.196665	0.783266
768.522438	0.780837
768.848165	0.782192
769.173846	0.790863
769.499479	0.795170
769.825066	0.798680
770.150607	0.803663
770.476101	0.799430
770.801548	0.800816
771.126949	0.812213
771.452303	0.814725
771.777611	0.814702
772.102872	0.813002
772.428087	0.819612
772.753256	0.822513
773.078378	0.824179
773.403453	0.833255
773.728482	0.837888
774.053465	0.830809
774.378401	0.834457
774.703291	0.844163
775.028135	0.842533
775.352932	0.844247
775.677683	0.847325
776.002388	0.847535
776.327046	0.845988
776.651658	0.850545
776.976224	0.853391
777.300743	0.853795
777.625216	0.855808
777.949643	0.858300
778.274024	0.857265
778.598359	0.860464
778.922647	0.858251
779.246889	0.859111
779.571086	0.861841
779.895236	0.864664
780.219339	0.862733
780.543397	0.859576
780.867409	0.857845
781.191374	0.860302
781.515294	0.861524
781.839167	0.860225
782.162995	0.863565
782.486776	0.860628
782.810511	0.860785
783.134201	0.864005
783.457844	0.862234
783.781441	0.864910
784.104993	0.870532
784.428498	0.872436
784.751958	0.866793
785.075372	0.869648
785.398739	0.873456
785.722061	0.869775
786.045337	0.865304
786.368568	0.870527
786.691752	0.872308
787.014891	0.857776
787.337983	0.850350
787.661030	0.842633
787.984031	0.825523
788.306987	0.812325
788.629897	0.813649
788.952760	0.818330
789.275579	0.822850
789.598351	0.837997
789.921078	0.850647
790.243759	0.852729
790.566395	0.858122
790.888984	0.864643
791.211529	0.869830
791.534027	0.872651
791.856480	0.874953
792.178888	0.880061
792.501249	0.883160
792.823566	0.884145
793.145836	0.883508
793.468062	0.887021
793.790241	0.886342
794.112375	0.884115
794.434464	0.879751
794.756507	0.878550
795.078505	0.877797
795.400457	0.872775
795.722364	0.861682
796.044226	0.854235
796.366042	0.853867
796.687812	0.856666
797.009538	0.852762
797.331218	0.855595
797.652852	0.859919
797.974442	0.865137
798.295986	0.865617
798.617484	0.868103
798.938938	0.871961
799.260346	0.877080
799.581709	0.879950
799.903026	0.881271
800.224299	0.881852
800.545526	0.885333
800.866708	0.889801
801.187845	0.893035
801.508936	0.892703
801.829983	0.891540
802.150984	0.893704
802.471940	0.898838
802.792851	0.898268
803.113717	0.898803
803.434538	0.897072
803.755314	0.899733
804.076045	0.900740
804.396731	0.900596
804.717372	0.900648
805.037967	0.902628
805.358518	0.901195
805.679024	0.897612
805.999485	0.898157
806.319901	0.897823
806.640272	0.897787
806.960598	0.897422
807.280879	0.893448
807.601115	0.892640
807.921306	0.897260
808.241453	0.897390
808.561554	0.895530
808.881611	0.894162
809.201623	0.896955
809.521590	0.897552
809.841513	0.897661
810.161390	0.896846
810.481223	0.898422
810.801011	0.901657
811.120755	0.903011
811.440453	0.902560
811.760107	0.901144
812.079716	0.902088
812.399281	0.903733
812.718801	0.907394
813.038276	0.908522
813.357707	0.908372
813.677093	0.904604
813.996434	0.907949
814.315731	0.909931
814.634983	0.911188
814.954191	0.908394
815.273354	0.906425
815.592473	0.901845
815.911547	0.902924
816.230577	0.899600
816.549562	0.897409
816.868502	0.897959
817.187399	0.893164
817.506250	0.889006
817.825058	0.891471
818.143821	0.887834
818.462539	0.882586
818.781213	0.874883
819.099843	0.863314
819.418429	0.848443
819.736970	0.832032
820.055466	0.812697
820.373919	0.787647
820.692327	0.753882
821.010691	0.720045
821.329011	0.644020
821.647286	0.530184
821.965517	0.417316
822.283704	0.375098
822.601847	0.376735
822.919945	0.412448
823.237999	0.444689
823.556010	0.491437
823.873976	0.546434
824.191897	0.596193
824.509775	0.638235
824.827609	0.682650
825.145398	0.705670
825.463144	0.708226
825.780845	0.691615
826.098502	0.672911
826.416116	0.627617
826.733685	0.583589
827.051210	0.576092
827.368692	0.590814
827.686129	0.627455
828.003522	0.679765
828.320872	0.726124
828.638177	0.769622
828.955439	0.802172
829.272656	0.824057
829.589830	0.840534
829.906960	0.856396
830.224046	0.868345
830.541088	0.877985
830.858086	0.883002
831.175041	0.890169
831.491952	0.888364
831.808819	0.885937
832.125642	0.878323
832.442421	0.862950
832.759157	0.843400
833.075849	0.797443
833.392497	0.733628
833.709101	0.692948
834.025662	0.703819
834.342179	0.734031
834.658653	0.772610
834.975083	0.809027
835.291469	0.834262
835.607811	0.856125
835.924110	0.871951
836.240366	0.889066
836.556578	0.903255
836.872746	0.910066
837.188871	0.916069
837.504952	0.921164
837.820990	0.924089
838.136984	0.927325
838.452935	0.930990
838.768842	0.931222
839.084706	0.925215
839.400526	0.901259
839.716303	0.860849
840.032037	0.839076
840.347727	0.842573
840.663373	0.860477
840.978977	0.881174
841.294537	0.903528
841.610054	0.919856
841.925527	0.927565
842.240957	0.934356
842.556344	0.940223
842.871687	0.947429
843.186987	0.950614
843.502244	0.951778
843.817458	0.952185
844.132629	0.956674
844.447756	0.960714
844.762840	0.961889
845.077881	0.959397
845.392879	0.961023
845.707833	0.962899
846.022745	0.964722
846.337613	0.966001
846.652438	0.966401
846.967221	0.964769
847.281960	0.965808
847.596656	0.968351
847.911309	0.967375
848.225919	0.968059
848.540485	0.969596
848.855009	0.970179
849.169490	0.969958
849.483928	0.968855
849.798323	0.970249
850.112675	0.970156
850.426984	0.971166
850.741251	0.969897
851.055474	0.970796
851.369654	0.968447
851.683792	0.970122
851.997887	0.969942
852.311938	0.971446
852.625947	0.969930
852.939914	0.968697
853.253837	0.969819
853.567718	0.971786
853.881555	0.971172
854.195350	0.967501
854.509103	0.971129
854.822812	0.969832
855.136479	0.970801
855.450103	0.969606
855.763685	0.967792
856.077224	0.969208
856.390720	0.969728
856.704173	0.971299
857.017584	0.968964
857.330953	0.966879
857.644278	0.967944
857.957561	0.969958
858.270802	0.969583
858.584000	0.969074
858.897155	0.967200
859.210268	0.968585
859.523339	0.968795
859.836367	0.971115
860.149352	0.971780
860.462295	0.969581
860.775195	0.969289
861.088054	0.969426
861.400869	0.969716
861.713642	0.971482
862.026373	0.970533
862.339062	0.971731
862.651708	0.968787
862.964312	0.968327
863.276873	0.969193
863.589392	0.969352
863.901869	0.966951
864.214303	0.965103
864.526696	0.965019
864.839045	0.964115
865.151353	0.962713
865.463619	0.962817
865.775842	0.963041
866.088023	0.962799
866.400162	0.962822
866.712258	0.962228
867.024313	0.962774
867.336325	0.964322
867.648296	0.963373
867.960224	0.961859
868.272110	0.962592
868.583954	0.964420
868.895755	0.964086
869.207515	0.962589
869.519233	0.959925
869.830909	0.960767
870.142542	0.963406
870.454134	0.963137
870.765684	0.962638
871.077191	0.957944
871.388657	0.958857
871.700081	0.957995
872.011463	0.958926
872.322803	0.959230
872.634101	0.957851
872.945357	0.954387
873.256571	0.954942
873.567744	0.953148
873.878874	0.954103
874.189963	0.952795
874.501010	0.952056
874.812015	0.951145
875.122979	0.951366
875.433900	0.953794
875.744780	0.954586
876.055618	0.953333
876.366415	0.951130
876.677169	0.950707
876.987882	0.951735
877.298554	0.951833
877.609183	0.948074
877.919771	0.947450
878.230317	0.943307
878.540822	0.942537
878.851285	0.935100
879.161707	0.929514
879.472087	0.916481
879.782425	0.901565
880.092722	0.868233
880.402977	0.817203
880.713191	0.757968
881.023363	0.700309
881.333494	0.667148
881.643583	0.638757
881.953631	0.638048
882.263637	0.667328
882.573602	0.706741
882.883526	0.730729
883.193408	0.754566
883.503248	0.776295
883.813048	0.802806
884.122806	0.831141
884.432522	0.854743
884.742197	0.875025
885.051831	0.884328
885.361424	0.894494
885.670975	0.905332
885.980485	0.915616
886.289954	0.921740
886.599382	0.926316
886.908768	0.930410
887.218113	0.935790
887.527417	0.940440
887.836680	0.944656
888.145901	0.944879
888.455082	0.947572
888.764221	0.951615
889.073319	0.953412
889.382376	0.953637
889.691392	0.955853
890.000366	0.953305
890.309300	0.955532
890.618193	0.953927
890.927044	0.952927
891.235855	0.951909
891.544625	0.952642
891.853353	0.953171
892.162041	0.950733
892.470687	0.944583
892.779293	0.939869
893.087858	0.936367
893.396381	0.929225
893.704864	0.915767
894.013306	0.892685
894.321707	0.866196
894.630068	0.852863
894.938387	0.847300
895.246665	0.849108
895.554903	0.860909
895.863100	0.873939
896.171256	0.890518
896.479371	0.909808
896.787446	0.921705
897.095480	0.927510
897.403473	0.929765
897.711425	0.934854
898.019336	0.941126
898.327207	0.944163
898.635038	0.948173
898.942827	0.946618
899.250576	0.949524
899.558284	0.953551
899.865952	0.956282
900.173579	0.956729
900.481165	0.956273
900.788711	0.960268
901.096216	0.962470
901.403681	0.962957
901.711105	0.963073
902.018489	0.964275
902.325832	0.963672
902.633135	0.963165
902.940397	0.957088
903.247619	0.944963
903.554800	0.920529
903.861941	0.882838
904.169041	0.848898
904.476101	0.831201
904.783121	0.832540
905.090100	0.848953
905.397039	0.868618
905.703938	0.889912
906.010796	0.908504
906.317614	0.925602
906.624391	0.936912
906.931129	0.945499
907.237826	0.952840
907.544483	0.960693
907.851099	0.964087
908.157675	0.968657
908.464211	0.970407
908.770707	0.973550
909.077163	0.974907
909.383578	0.975245
909.689954	0.975563
909.996289	0.976847
910.302584	0.979176
910.608839	0.981163
910.915054	0.979198
911.221229	0.978849
911.527363	0.977286
911.833458	0.977748
912.139513	0.977344
912.445527	0.975182
912.751502	0.974912
913.057436	0.971794
913.363331	0.971056
913.669186	0.967405
913.975000	0.963231
914.280775	0.957103
914.586510	0.951395
914.892205	0.937651
915.197859	0.916847
915.503475	0.890204
915.809050	0.872325
916.114585	0.866992
916.420081	0.865174
916.725536	0.860957
917.030952	0.868210
917.336328	0.880849
917.641665	0.895706
917.946961	0.910355
918.252218	0.922149
918.557435	0.929450
918.862612	0.939741
919.167750	0.944520
919.472848	0.948591
919.777906	0.954386
920.082925	0.960386
920.387904	0.963259
920.692843	0.964413
920.997743	0.965915
921.302603	0.968883
921.607423	0.970333
921.912204	0.973605
922.216946	0.972488
922.521647	0.973515
922.826310	0.975056
923.130932	0.977464
923.435516	0.979895
923.740059	0.979594
924.044564	0.979097
924.349028	0.981178
924.653454	0.983623
924.957840	0.985175
925.262186	0.984870
925.566493	0.984707
925.870761	0.985923
926.174989	0.986542
926.479178	0.988414
926.783328	0.988545
927.087438	0.989579
927.391509	0.988001
927.695541	0.989542
927.999533	0.989442
928.303486	0.990097
928.607400	0.990749
928.911275	0.989379
929.215110	0.991043
929.518906	0.990090
929.822663	0.990294
930.126381	0.990953
930.430060	0.990466
930.733699	0.989650
931.037299	0.989766
931.340861	0.990606
931.644383	0.988501
931.947866	0.989662
932.251309	0.990934
932.554714	0.990674
932.858080	0.990206
933.161407	0.991344
933.464694	0.991065
933.767943	0.990031
934.071153	0.992132
934.374323	0.992117
934.677455	0.991007
934.980548	0.991689
935.283602	0.991189
935.586617	0.991351
935.889593	0.990974
936.192530	0.991438
936.495428	0.991233
936.798287	0.990036
937.101108	0.989849
937.403890	0.989108
937.706632	0.989375
938.009336	0.987225
938.312002	0.985917
938.614628	0.985136
938.917216	0.983531
939.219765	0.981951
939.522275	0.983851
939.824747	0.984586
940.127179	0.983580
940.429573	0.984733
940.731929	0.985760
941.034246	0.985867
941.336524	0.986227
941.638763	0.986551
941.940964	0.986119
942.243126	0.987043
942.545250	0.987795
942.847335	0.987287
943.149381	0.988820
943.451389	0.987841
943.753359	0.988578
944.055290	0.991175
944.357182	0.990847
944.659036	0.988331
944.960851	0.989701
945.262628	0.990012
945.564367	0.990459
945.866067	0.989892
946.167729	0.991852
946.469352	0.989978
946.770937	0.988779
947.072484	0.992769
947.373992	0.990529
947.675462	0.991717
947.976893	0.990488
948.278286	0.990075
948.579641	0.991822
948.880958	0.991157
949.182236	0.991130
949.483476	0.991710
949.784678	0.990833
950.085841	0.990942
950.386967	0.990618
950.688054	0.991328
950.989103	0.990806
951.290114	0.988969
951.591087	0.989676
951.892021	0.989654
952.192917	0.988479
952.493776	0.989838
952.794596	0.989123
953.095378	0.987704
953.396122	0.988015
953.696828	0.987182
953.997496	0.990042
954.298126	0.991279
954.598718	0.991229
954.899272	0.991900
955.199788	0.989799
955.500266	0.992546
955.800706	0.992758
956.101108	0.993627
956.401472	0.993804
956.701798	0.995109
957.002087	0.993463
957.302337	0.994373
957.602550	0.995801
957.902724	0.994304
958.202861	0.995678
958.502960	0.995719
958.803022	0.993536
959.103045	0.995687
959.403031	0.996210
959.702979	0.995244
960.002889	0.996325
960.302762	0.993089
960.602596	0.995612
960.902393	0.994199
961.202153	0.996842
961.501875	0.995939
961.801559	0.995352
962.101205	0.995371
962.400814	0.995197
962.700385	0.996930
962.999918	0.995506
963.299414	0.996123
963.598873	0.995853
963.898293	0.996358
964.197677	0.995979
964.497022	0.995980
964.796331	0.997886
965.095601	0.997162
965.394835	0.995549
965.694030	0.997228
965.993189	0.997646
966.292309	0.997020
966.591393	0.996763
966.890439	0.997032
967.189447	0.996307
967.488419	0.996845
967.787353	0.995839
968.086249	0.996764
968.385108	0.996435
968.683930	0.997261
968.982714	0.996558
969.281462	0.997215
969.580172	0.997304
969.878844	0.997236
970.177480	0.996525
970.476078	0.996936
970.774639	0.997486
971.073162	0.997326
971.371649	0.997071
971.670098	0.996791
971.968510	0.997075
972.266885	0.994298
972.565223	0.995296
972.863524	0.996646
973.161788	0.996286
973.460014	0.997797
973.758204	0.995294
974.056356	0.996582
974.354471	0.995015
974.652550	0.996048
974.950591	0.996706
975.248595	0.996981
975.546563	0.996776
975.844493	0.998182
976.142386	0.996649
976.440243	0.997523
976.738062	0.997315
977.035845	0.997429
977.333590	0.996598
977.631299	0.997141
977.928971	0.997361
978.226606	0.996237
978.524204	0.995875
978.821765	0.998049
979.119290	0.996816
979.416777	0.996541
979.714228	0.997677
980.011642	0.996056
980.309020	0.997896
980.606360	0.997171
980.903664	0.998811
981.200931	0.995140
981.498162	0.994933
981.795356	0.994330
982.092513	0.993895
982.389633	0.995265
982.686717	0.990681
982.983764	0.991426
983.280775	0.989448
983.577749	0.991455
983.874686	0.991404
984.171587	0.991835
984.468451	0.994650
984.765279	0.994049
985.062070	0.994198
985.358824	0.995631
985.655543	0.995298
985.952224	0.996844
986.248869	0.997072
986.545478	0.997807
986.842050	0.998700
987.138586	0.995949
987.435086	0.996645
987.731549	0.998278
988.027975	0.996956
988.324366	0.998202
988.620719	0.997447
988.917037	0.996210
989.213318	0.998826
989.509563	0.998449
989.805772	0.998242
990.101944	0.998162
990.398080	0.997395
990.694180	0.998172
990.990244	0.996627
991.286271	0.998892
991.582262	0.997850
991.878217	0.997681
992.174136	0.998549
992.470019	0.998443
992.765865	0.997521
993.061676	0.997945
993.357450	0.998447
993.653188	0.996321
993.948890	0.996897
994.244556	0.996964
994.540186	0.996748
994.835780	0.996580
995.131337	0.998518
995.426859	0.995892
995.722345	0.998828
996.017795	0.995983
996.313208	0.997077
996.608586	0.994683
996.903928	0.996249
997.199234	0.997745
997.494504	0.996505
997.789738	0.995925
998.084936	0.995675
998.380099	0.997548
998.675225	0.997240
998.970316	0.998407
999.265371	0.998191
999.560390	0.997802
999.855373	0.998391
1000.150320	0.997948
1000.445232	0.998293
1000.740108	0.997466
1001.034948	0.998717
1001.329752	0.998177
1001.624521	0.998753
1001.919254	0.997339
1002.213951	0.997742
1002.508613	0.998502
1002.803239	0.999007
1003.097829	0.998891
1003.392384	0.998451
1003.686903	0.996937
1003.981386	0.998463
1004.275834	0.997767
1004.570246	0.998020
1004.864623	0.998187
1005.158964	0.998787
1005.453270	0.998801
1005.747540	0.997922
1006.041775	0.998737
1006.335974	0.999494
1006.630138	0.997898
1006.924266	0.999576
1007.218359	0.998487
1007.512416	0.999295
1007.806438	0.999969
1008.100425	0.999195
1008.394376	0.998398
1008.688292	0.998866
1008.982172	1.000503
1009.276017	0.999482
1009.569827	0.998208
1009.863602	0.997842
1010.157341	0.999373
1010.451045	0.999693
1010.744714	0.998830
1011.038347	0.999991
1011.331945	0.998236
1011.625508	0.997738
1011.919036	0.998743
1012.212528	0.997913
1012.505986	0.998721
1012.799408	0.998804
1013.092795	0.998995
1013.386147	0.998745
1013.679464	0.999046
1013.972745	0.997600
1014.265992	0.996647
1014.559204	0.999481
1014.852380	0.999511
1015.145521	0.998988
1015.438628	0.998719
1015.731699	0.999183
1016.024736	0.998973
1016.317737	0.998692
1016.610703	0.997648
1016.903635	1.000360
1017.196531	0.998679
1017.489393	0.999037
1017.782219	0.997794
1018.075011	0.998197
1018.367768	0.998869
1018.660490	0.999831
1018.953177	0.999831
1019.245829	0.999831
