Dividing Wavelength (nm)	Counts (n)	Blue Motor Position (mm): 0.000000	Red Motor Position (mm): 42.500000	
326.493990	1.001604
326.888308	1.001604
327.282561	1.001604
327.676750	1.000669
328.070874	0.999216
328.464933	1.000057
328.858929	0.999136
329.252859	0.999798
329.646726	0.999287
330.040528	1.000782
330.434265	0.999595
330.827938	1.000397
331.221547	0.999901
331.615091	1.001537
332.008571	0.999883
332.401986	0.999582
332.795338	0.999356
333.188625	0.999127
333.581847	1.001108
333.975006	0.998744
334.368100	0.998968
334.761129	1.000752
335.154095	1.000807
335.546996	0.999530
335.939833	0.996821
336.332606	0.998511
336.725315	0.998784
337.117960	0.999394
337.510540	0.998063
337.903056	1.000455
338.295508	0.997377
338.687896	0.998816
339.080220	0.998912
339.472480	0.998431
339.864676	0.998524
340.256807	0.998884
340.648875	0.999027
341.040879	0.999058
341.432818	0.997466
341.824694	0.998778
342.216506	0.999146
342.608253	0.998831
342.999937	0.997501
343.391557	0.999498
343.783113	0.997605
344.174605	0.998719
344.566033	0.998429
344.957397	0.996813
345.348697	0.997243
345.739934	0.997432
346.131106	0.998633
346.522215	0.997061
346.913260	0.997329
347.304241	0.999000
347.695159	0.997260
348.086012	0.998580
348.476802	0.997764
348.867528	0.997870
349.258191	0.997602
349.648789	0.998445
350.039324	0.997783
350.429796	0.998796
350.820203	0.998541
351.210548	0.997305
351.600828	0.998152
351.991045	0.998179
352.381198	0.997228
352.771288	0.998307
353.161314	0.998848
353.551276	0.999278
353.941175	0.997893
354.331010	0.998080
354.720782	0.998963
355.110490	0.997426
355.500135	0.998564
355.889717	0.997405
356.279235	0.997272
356.668689	0.998215
357.058080	0.998523
357.447408	0.998694
357.836672	0.998742
358.225873	0.999387
358.615010	0.998582
359.004084	0.999618
359.393095	0.999047
359.782043	0.998245
360.170927	0.999214
360.559748	0.999276
360.948505	0.999221
361.337199	0.998676
361.725830	0.998973
362.114398	0.998300
362.502903	0.999466
362.891344	1.000666
363.279722	0.999513
363.668037	0.998203
364.056289	0.997854
364.444478	0.998711
364.832603	0.998737
365.220665	0.998392
365.608665	0.998226
365.996601	0.997864
366.384474	0.998851
366.772284	0.998355
367.160031	0.996287
367.547715	0.997451
367.935336	0.998915
368.322893	0.998165
368.710388	0.997387
369.097820	0.998393
369.485189	0.996950
369.872495	0.997478
370.259738	0.997796
370.646918	0.999439
371.034035	0.997086
371.421090	0.997880
371.808081	0.996910
372.195010	0.999047
372.581875	0.998099
372.968678	0.998427
373.355418	0.998757
373.742096	0.997949
374.128710	0.998697
374.515262	0.998309
374.901751	0.998455
375.288177	0.998115
375.674540	0.998598
376.060841	0.997320
376.447079	0.998845
376.833254	0.998701
377.219367	0.998901
377.605417	0.999064
377.991404	0.998528
378.377329	0.997999
378.763191	0.997779
379.148991	0.999660
379.534727	0.998929
379.920402	0.998617
380.306013	0.998236
380.691563	0.998813
381.077049	0.998147
381.462474	0.999320
381.847835	0.999531
382.233134	0.998810
382.618371	0.998684
383.003545	0.998810
383.388657	0.998015
383.773706	0.999099
384.158693	0.999485
384.543618	0.998603
384.928480	1.000105
385.313280	0.999505
385.698017	0.999192
386.082692	0.999847
386.467305	0.999053
386.851856	0.998217
387.236344	0.998416
387.620770	0.998455
388.005133	0.999505
388.389435	1.000565
388.773674	0.999426
389.157851	0.998759
389.541965	0.999254
389.926018	0.997545
390.310008	0.999605
390.693936	0.998985
391.077802	0.999218
391.461606	0.998512
391.845348	0.998552
392.229027	1.000751
392.612645	0.999918
392.996200	0.999833
393.379694	0.999514
393.763125	0.999949
394.146494	0.999772
394.529801	0.998622
394.913047	0.999708
395.296230	0.999535
395.679351	0.999303
396.062410	0.999740
396.445408	0.999916
396.828343	0.998894
397.211217	0.998956
397.594028	1.000061
397.976778	0.999381
398.359466	0.998393
398.742092	0.998455
399.124656	0.998418
399.507158	0.998728
399.889598	0.999231
400.271977	1.000054
400.654294	0.999802
401.036549	0.999759
401.418742	0.999416
401.800874	0.998838
402.182944	0.999253
402.564952	0.998167
402.946898	1.000246
403.328783	0.999180
403.710606	0.999486
404.092367	0.999320
404.474067	0.999340
404.855705	0.999648
405.237282	0.999808
405.618797	0.998917
406.000250	0.998694
406.381642	1.000189
406.762972	0.998824
407.144240	0.999245
407.525447	1.000197
407.906593	0.998734
408.287677	0.999710
408.668700	0.999447
409.049661	0.998449
409.430560	0.999895
409.811399	0.999061
410.192176	0.998540
410.572891	0.999512
410.953545	0.999386
411.334138	0.999120
411.714669	0.998469
412.095139	0.999326
412.475547	0.999855
412.855894	0.999240
413.236180	1.000081
413.616405	0.999471
413.996568	0.999707
414.376670	0.998966
414.756711	0.998889
415.136691	0.998262
415.516609	0.999037
415.896466	0.998912
416.276262	0.998066
416.655997	0.999616
417.035670	0.998781
417.415283	0.999607
417.794834	0.998383
418.174324	0.998645
418.553753	0.999591
418.933121	0.999006
419.312428	0.998811
419.691674	0.999300
420.070859	0.999114
420.449983	0.998925
420.829045	0.998983
421.208047	0.999619
421.586988	1.000123
421.965867	0.998762
422.344686	0.999803
422.723444	0.999363
423.102141	0.999868
423.480777	0.999445
423.859352	0.999138
424.237866	0.998026
424.616319	0.998831
424.994712	0.998988
425.373044	0.999664
425.751314	0.998606
426.129524	0.999549
426.507673	1.000124
426.885762	1.000772
427.263789	0.998615
427.641756	0.999115
428.019662	0.999582
428.397508	0.999447
428.775292	0.998706
429.153016	0.998382
429.530679	1.000526
429.908282	1.000748
430.285824	0.998648
430.663305	0.998542
431.040726	0.998814
431.418086	1.000665
431.795385	0.999618
432.172624	0.998852
432.549802	0.999237
432.926920	0.999370
433.303977	0.998686
433.680974	0.999995
434.057910	0.999212
434.434786	0.998946
434.811601	0.999227
435.188355	0.998554
435.565050	0.998878
435.941683	0.999407
436.318257	0.999874
436.694770	0.998890
437.071222	0.999927
437.447614	0.998743
437.823946	0.999268
438.200218	0.999616
438.576429	0.999624
438.952580	0.999374
439.328670	0.999045
439.704700	0.999940
440.080670	0.999527
440.456580	0.998839
440.832429	0.998967
441.208218	0.999106
441.583947	0.999816
441.959616	1.000321
442.335224	0.999505
442.710773	1.000018
443.086261	0.999162
443.461689	0.999299
443.837057	0.999451
444.212365	0.999145
444.587612	0.999306
444.962800	0.999234
445.337927	0.999526
445.712995	0.999269
446.088002	0.999548
446.462949	0.999722
446.837837	1.000019
447.212664	0.999930
447.587431	0.999285
447.962139	0.998792
448.336786	0.999644
448.711374	0.999545
449.085901	0.999061
449.460369	1.000075
449.834776	0.998921
450.209124	0.999761
450.583412	0.999538
450.957640	1.000156
451.331808	0.999021
451.705917	0.999718
452.079965	0.999056
452.453954	0.999281
452.827883	0.998669
453.201752	0.999424
453.575562	1.000385
453.949311	0.999552
454.323001	0.999309
454.696632	0.998507
455.070202	0.999260
455.443713	0.999112
455.817164	0.999949
456.190556	0.999355
456.563888	0.999339
456.937160	0.999280
457.310373	0.998926
457.683526	0.999592
458.056619	0.999181
458.429653	0.999626
458.802628	0.999028
459.175542	0.999067
459.548398	0.999561
459.921194	0.999463
460.293930	0.999982
460.666607	0.998486
461.039224	0.997963
461.411782	0.999357
461.784280	0.998593
462.156719	0.999999
462.529099	0.999539
462.901419	0.999385
463.273680	0.999606
463.645882	0.999288
464.018024	0.999155
464.390106	0.999797
464.762130	0.999955
465.134094	0.999286
465.505999	0.999868
465.877845	0.999976
466.249631	1.000000
466.621358	0.999626
466.993026	0.999458
467.364634	0.999424
467.736184	0.999495
468.107674	0.999016
468.479105	0.998281
468.850477	0.999551
469.221790	0.999624
469.593043	0.999432
469.964238	1.000476
470.335373	0.998429
470.706449	0.999491
471.077467	0.999637
471.448425	0.999653
471.819324	1.000345
472.190164	0.998557
472.560945	0.999185
472.931667	0.998833
473.302330	0.998873
473.672934	0.999499
474.043479	0.998895
474.413965	0.999031
474.784393	0.999859
475.154761	0.999085
475.525070	0.998725
475.895321	1.000061
476.265513	0.999751
476.635645	0.998642
477.005719	0.998949
477.375734	0.999049
477.745691	0.999179
478.115588	0.998965
478.485427	1.000390
478.855207	0.999466
479.224928	1.000089
479.594591	0.999763
479.964194	0.998859
480.333739	0.999764
480.703226	0.999455
481.072653	1.000386
481.442022	1.000405
481.811333	0.999058
482.180584	0.999937
482.549777	0.999013
482.918912	0.999278
483.287988	0.999783
483.657005	0.999382
484.025964	1.000080
484.394864	0.999949
484.763706	0.999585
485.132489	0.999942
485.501213	0.999455
485.869879	0.999757
486.238487	0.999609
486.607036	0.999917
486.975527	0.998975
487.343959	0.999430
487.712333	0.998939
488.080648	0.999428
488.448905	0.999735
488.817104	0.999245
489.185244	0.999662
489.553326	0.999743
489.921350	0.999802
490.289315	0.999768
490.657222	0.999791
491.025070	0.999458
491.392861	1.000334
491.760593	0.999440
492.128267	0.999284
492.495883	0.999395
492.863440	0.999518
493.230939	0.999689
493.598380	0.999387
493.965763	0.999109
494.333088	0.999908
494.700354	0.998639
495.067563	0.999265
495.434713	0.999064
495.801805	1.000199
496.168839	0.999523
496.535815	0.999064
496.902733	0.998912
497.269593	0.999379
497.636395	0.999261
498.003139	0.999407
498.369825	1.000088
498.736453	0.999084
499.103023	0.999054
499.469535	0.999249
499.835989	0.999421
500.202385	0.999714
500.568723	0.999161
500.935003	0.999222
501.301226	0.999528
501.667390	0.999666
502.033497	0.999583
502.399546	1.000400
502.765537	0.999096
503.131470	0.999089
503.497345	0.999148
503.863163	1.000521
504.228923	0.999401
504.594625	0.999687
504.960269	0.999475
505.325856	0.999965
505.691385	0.998978
506.056856	0.999297
506.422270	0.999634
506.787625	0.999784
507.152924	0.999276
507.518164	0.999042
507.883347	0.999808
508.248472	0.999250
508.613540	0.999290
508.978550	0.999844
509.343503	0.999636
509.708398	0.999159
510.073236	0.999316
510.438016	0.999640
510.802738	0.999677
511.167403	0.999842
511.532010	0.999435
511.896561	0.999261
512.261053	0.999864
512.625488	0.998882
512.989866	0.998996
513.354186	0.998697
513.718449	0.999491
514.082655	0.999577
514.446803	0.999174
514.810894	1.000137
515.174927	0.999748
515.538904	0.999272
515.902822	0.999627
516.266684	1.000165
516.630488	1.000238
516.994235	0.999576
517.357925	0.999573
517.721558	0.999663
518.085133	0.999042
518.448651	0.999886
518.812112	0.999162
519.175516	0.999020
519.538863	0.999656
519.902152	0.999207
520.265385	0.999161
520.628560	0.998692
520.991678	0.999270
521.354739	0.999755
521.717743	0.999249
522.080690	0.999322
522.443580	0.999037
522.806413	0.999043
523.169189	0.998625
523.531908	0.998733
523.894569	0.999205
524.257174	0.999069
524.619722	0.999193
524.982213	0.999014
525.344647	0.999488
525.707025	0.998242
526.069345	0.997834
526.431608	0.998796
526.793815	0.999279
527.155964	0.998342
527.518057	0.998663
527.880093	0.999795
528.242072	0.999163
528.603995	0.998434
528.965860	0.999726
529.327669	0.998657
529.689421	0.998645
530.051117	0.999170
530.412755	0.998939
530.774337	0.998649
531.135862	0.998443
531.497331	0.998990
531.858743	0.998592
532.220098	0.999179
532.581396	0.998546
532.942638	0.998795
533.303824	0.998430
533.664953	0.999167
534.026025	0.998452
534.387040	0.998312
534.747999	0.999142
535.108902	0.998756
535.469748	0.998784
535.830537	0.998227
536.191270	0.998269
536.551947	0.997752
536.912567	0.998645
537.273131	0.999113
537.633638	0.997523
537.994089	0.997726
538.354483	0.998702
538.714821	0.998301
539.075103	0.997917
539.435328	0.998589
539.795497	0.997973
540.155609	0.997591
540.515665	0.997914
540.875665	0.997326
541.235609	0.998087
541.595496	0.997619
541.955328	0.997500
542.315102	0.997681
542.674821	0.997846
543.034483	0.997781
543.394090	0.997613
543.753640	0.998432
544.113134	0.998038
544.472571	0.997955
544.831953	0.997962
545.191278	0.997977
545.550548	0.998574
545.909761	0.997847
546.268918	0.998763
546.628019	0.998536
546.987064	0.997548
547.346053	0.997238
547.704986	0.997938
548.063863	0.998238
548.422684	0.997763
548.781449	0.998358
549.140158	0.997531
549.498811	0.998821
549.857408	0.998311
550.215949	0.997718
550.574434	0.998150
550.932864	0.997994
551.291237	0.998149
551.649555	0.997643
552.007817	0.997678
552.366022	0.997249
552.724173	0.998494
553.082267	0.998245
553.440305	0.997595
553.798288	0.998335
554.156215	0.997476
554.514086	0.997882
554.871902	0.998181
555.229661	0.997951
555.587365	0.997776
555.945014	0.997995
556.302606	0.998035
556.660143	0.997760
557.017625	0.997961
557.375050	0.998252
557.732421	0.997878
558.089735	0.998205
558.446994	0.999120
558.804197	0.998866
559.161345	0.998387
559.518437	0.999210
559.875474	0.997605
560.232455	0.997924
560.589381	0.998230
560.946251	0.997526
561.303065	0.998206
561.659825	0.997543
562.016528	0.997437
562.373177	0.997700
562.729770	0.997783
563.086307	0.998017
563.442789	0.997907
563.799216	0.998121
564.155587	0.997815
564.511904	0.997353
564.868164	0.997794
565.224370	0.997787
565.580520	0.997311
565.936615	0.997656
566.292654	0.997220
566.648638	0.997983
567.004567	0.997598
567.360441	0.998323
567.716260	0.998224
568.072023	0.997858
568.427732	0.997759
568.783385	0.998508
569.138982	0.998260
569.494525	0.997695
569.850013	0.998171
570.205445	0.997710
570.560823	0.998498
570.916145	0.998254
571.271412	0.997911
571.626625	0.997643
571.981782	0.997550
572.336884	0.998752
572.691931	0.997346
573.046923	0.997035
573.401860	0.997802
573.756743	0.997833
574.111570	0.998431
574.466342	0.998797
574.821059	0.998092
575.175722	0.997670
575.530330	0.997624
575.884882	0.997633
576.239380	0.998284
576.593823	0.997986
576.948211	0.997412
577.302544	0.997528
577.656823	0.997841
578.011047	0.997476
578.365216	0.998126
578.719330	0.997405
579.073389	0.998516
579.427394	0.997509
579.781344	0.997581
580.135239	0.997732
580.489080	0.997641
580.842866	0.997652
581.196597	0.997052
581.550273	0.997778
581.903895	0.998136
582.257463	0.998013
582.610975	0.997413
582.964434	0.998075
583.317837	0.997950
583.671186	0.997717
584.024481	0.997842
584.377721	0.997975
584.730906	0.997584
585.084037	0.997446
585.437113	0.998064
585.790135	0.997167
586.143103	0.997026
586.496016	0.998093
586.848874	0.997519
587.201679	0.997679
587.554428	0.997195
587.907124	0.996727
588.259765	0.997855
588.612352	0.997584
588.964884	0.997338
589.317362	0.996981
589.669786	0.997656
590.022155	0.997315
590.374470	0.997012
590.726731	0.997395
591.078937	0.996683
591.431090	0.996499
591.783188	0.997217
592.135232	0.997686
592.487222	0.997532
592.839157	0.996786
593.191038	0.997569
593.542866	0.997022
593.894639	0.997058
594.246358	0.996250
594.598022	0.997285
594.949633	0.997080
595.301190	0.996675
595.652692	0.997248
596.004141	0.997369
596.355535	0.996958
596.706876	0.996119
597.058162	0.996642
597.409395	0.996866
597.760573	0.996298
598.111698	0.996426
598.462768	0.995527
598.813785	0.995569
599.164748	0.996288
599.515657	0.995569
599.866511	0.995915
600.217312	0.995539
600.568060	0.995964
600.918753	0.996122
601.269392	0.995782
601.619978	0.995638
601.970510	0.995977
602.320988	0.996107
602.671412	0.995094
603.021783	0.994528
603.372100	0.996646
603.722363	0.995691
604.072572	0.994922
604.422728	0.995154
604.772830	0.994406
605.122878	0.994839
605.472872	0.995248
605.822813	0.994475
606.172701	0.993859
606.522534	0.994472
606.872314	0.994550
607.222041	0.993896
607.571714	0.994913
607.921333	0.993486
608.270899	0.993740
608.620411	0.993603
608.969870	0.993828
609.319276	0.992551
609.668627	0.993674
610.017926	0.992295
610.367171	0.992144
610.716362	0.992499
611.065500	0.992441
611.414585	0.991621
611.763616	0.991984
612.112594	0.992085
612.461518	0.991545
612.810389	0.990736
613.159207	0.991455
613.507971	0.990884
613.856682	0.991198
614.205340	0.991567
614.553945	0.989255
614.902496	0.989831
615.250994	0.989847
615.599439	0.989123
615.947830	0.988928
616.296169	0.988836
616.644454	0.987885
616.992686	0.988406
617.340864	0.987465
617.688990	0.987199
618.037063	0.986824
618.385082	0.986605
618.733048	0.986009
619.080961	0.985566
619.428821	0.985016
619.776628	0.984171
620.124382	0.983494
620.472083	0.982704
620.819731	0.983881
621.167326	0.982470
621.514868	0.982389
621.862357	0.982818
622.209793	0.982646
622.557176	0.980775
622.904506	0.981003
623.251783	0.980149
623.599007	0.980360
623.946179	0.980460
624.293297	0.979086
624.640363	0.978814
624.987376	0.978129
625.334336	0.979156
625.681243	0.977887
626.028097	0.978325
626.374899	0.977697
626.721647	0.977240
627.068343	0.977094
627.414987	0.975440
627.761577	0.974980
628.108115	0.974665
628.454600	0.973638
628.801032	0.972093
629.147412	0.972647
629.493739	0.971281
629.840014	0.971028
630.186236	0.970397
630.532405	0.969185
630.878521	0.968547
631.224585	0.967492
631.570597	0.967706
631.916556	0.965916
632.262462	0.965497
632.608316	0.964649
632.954117	0.963250
633.299866	0.963223
633.645562	0.962206
633.991206	0.962374
634.336797	0.961771
634.682336	0.961155
635.027823	0.960453
635.373257	0.959948
635.718639	0.959132
636.063968	0.957281
636.409245	0.957475
636.754470	0.956769
637.099642	0.956333
637.444762	0.955731
637.789829	0.954711
638.134845	0.953986
638.479808	0.952759
638.824719	0.952649
639.169577	0.951150
639.514383	0.950327
639.859137	0.949642
640.203839	0.949148
640.548489	0.947582
640.893086	0.947279
641.237632	0.946631
641.582125	0.945026
641.926566	0.943774
642.270955	0.943069
642.615292	0.942498
642.959576	0.940718
643.303809	0.939868
643.647990	0.938468
643.992118	0.937845
644.336195	0.938273
644.680219	0.935591
645.024192	0.935974
645.368112	0.932119
645.711981	0.931838
646.055797	0.930229
646.399562	0.927567
646.743274	0.924784
647.086935	0.923886
647.430544	0.922482
647.774101	0.919786
648.117606	0.920032
648.461059	0.918642
648.804460	0.916551
649.147810	0.918013
649.491108	0.917139
649.834354	0.915782
650.177548	0.916030
650.520690	0.915923
650.863781	0.914756
651.206820	0.913643
651.549807	0.914225
651.892742	0.911872
652.235626	0.911440
652.578458	0.910226
652.921238	0.909101
653.263967	0.908908
653.606644	0.909101
653.949269	0.906234
654.291843	0.906637
654.634365	0.904228
654.976836	0.903086
655.319255	0.903148
655.661622	0.901714
656.003938	0.899305
656.346203	0.899136
656.688416	0.896849
657.030577	0.897630
657.372687	0.895195
657.714746	0.895176
658.056753	0.893520
658.398708	0.892016
658.740612	0.892443
659.082465	0.889532
659.424266	0.888894
659.766016	0.886462
660.107715	0.885173
660.449362	0.884099
660.790958	0.882783
661.132503	0.879855
661.473996	0.878596
661.815438	0.877988
662.156829	0.877459
662.498168	0.876393
662.839456	0.875304
663.180693	0.873581
663.521879	0.871776
663.863013	0.870922
664.204097	0.868098
664.545129	0.865983
664.886110	0.863884
665.227040	0.861344
665.567918	0.862239
665.908746	0.859323
666.249522	0.858326
666.590248	0.857383
666.930922	0.855109
667.271545	0.852481
667.612118	0.852507
667.952639	0.851182
668.293109	0.848179
668.633528	0.847880
668.973896	0.847198
669.314213	0.846378
669.654480	0.844144
669.994695	0.843728
670.334859	0.842522
670.674973	0.839626
671.015035	0.839792
671.355047	0.837298
671.695008	0.836717
672.034918	0.836548
672.374777	0.834651
672.714585	0.834322
673.054342	0.832351
673.394049	0.830100
673.733705	0.828008
674.073310	0.825797
674.412864	0.827695
674.752368	0.825189
675.091820	0.824401
675.431223	0.824769
675.770574	0.822312
676.109875	0.822729
676.449125	0.821055
676.788324	0.820096
677.127473	0.822149
677.466571	0.819891
677.805619	0.818689
678.144616	0.817426
678.483562	0.815875
678.822458	0.816777
679.161303	0.815445
679.500098	0.813708
679.838842	0.814404
680.177535	0.812033
680.516179	0.810885
680.854771	0.808585
681.193314	0.804521
681.531805	0.800350
681.870247	0.793053
682.208638	0.788764
682.546978	0.786986
682.885268	0.786686
683.223508	0.786655
683.561697	0.786762
683.899836	0.786374
684.237925	0.786793
684.575963	0.786805
684.913951	0.786427
685.251889	0.781475
685.589776	0.783525
685.927614	0.784282
686.265401	0.778840
686.603137	0.778262
686.940824	0.773158
687.278460	0.772114
687.616046	0.770553
687.953582	0.766925
688.291068	0.766976
688.628504	0.762563
688.965889	0.761918
689.303224	0.764268
689.640510	0.763788
689.977745	0.764879
690.314930	0.766695
690.652065	0.768566
690.989150	0.771019
691.326185	0.770399
691.663170	0.770182
692.000105	0.772186
692.336990	0.774837
692.673825	0.772743
693.010610	0.775942
693.347345	0.778551
693.684030	0.774832
694.020665	0.777546
694.357251	0.781452
694.693786	0.780026
695.030272	0.780501
695.366707	0.780442
695.703093	0.780618
696.039429	0.778712
696.375716	0.776626
696.711952	0.777895
697.048139	0.778783
697.384276	0.778190
697.720363	0.776055
698.056400	0.773466
698.392388	0.776073
698.728326	0.777431
699.064214	0.778324
699.400053	0.776890
699.735842	0.776751
700.071581	0.778017
700.407270	0.777688
700.742910	0.777602
701.078501	0.781402
701.414042	0.778911
701.749533	0.778332
702.084974	0.784061
702.420366	0.776446
702.755709	0.780000
703.091002	0.785188
703.426246	0.777463
703.761440	0.782267
704.096584	0.784013
704.431679	0.779722
704.766725	0.780561
705.101721	0.779944
705.436668	0.775528
705.771565	0.780449
706.106413	0.777791
706.441212	0.773184
706.775961	0.771074
707.110661	0.774007
707.445311	0.772228
707.779913	0.767325
708.114465	0.767024
708.448967	0.765494
708.783421	0.759343
709.117825	0.756304
709.452180	0.756796
709.786485	0.751916
710.120742	0.745356
710.454949	0.747451
710.789107	0.742346
711.123216	0.736781
711.457275	0.738337
711.791286	0.730930
712.125247	0.729032
712.459159	0.737401
712.793023	0.733136
713.126837	0.730181
713.460602	0.729540
713.794318	0.737410
714.127985	0.733124
714.461602	0.736028
714.795171	0.737614
715.128691	0.739916
715.462162	0.743011
715.795584	0.745064
716.128957	0.745464
716.462281	0.749692
716.795556	0.751103
717.128782	0.751508
717.461960	0.756497
717.795088	0.753670
718.128167	0.756801
718.461198	0.762531
718.794180	0.761263
719.127113	0.761296
719.459997	0.762217
719.792833	0.765971
720.125619	0.766175
720.458357	0.768818
720.791046	0.767350
721.123686	0.768989
721.456278	0.772788
721.788821	0.770420
722.121315	0.772285
722.453761	0.775698
722.786158	0.771432
723.118506	0.769008
723.450805	0.774354
723.783056	0.771540
724.115259	0.766956
724.447412	0.766380
724.779518	0.768164
725.111574	0.767179
725.443582	0.763590
725.775542	0.764123
726.107453	0.758423
726.439315	0.757653
726.771129	0.757873
727.102895	0.753866
727.434612	0.747792
727.766281	0.745023
728.097901	0.745491
728.429473	0.745068
728.760996	0.742036
729.092471	0.741753
729.423897	0.743161
729.755276	0.740906
730.086606	0.740073
730.417887	0.736505
730.749120	0.730535
731.080305	0.721840
731.411442	0.718219
731.742530	0.721872
732.073570	0.720439
732.404562	0.713100
732.735506	0.714079
733.066401	0.717570
733.397249	0.721741
733.728048	0.729170
734.058798	0.734268
734.389501	0.740350
734.720156	0.747815
735.050762	0.752342
735.381320	0.750885
735.711831	0.759110
736.042293	0.762286
736.372707	0.757830
736.703073	0.760823
737.033391	0.763491
737.363661	0.760079
737.693883	0.755966
738.024056	0.755508
738.354182	0.756921
738.684260	0.748304
739.014290	0.745348
739.344272	0.746510
739.674207	0.742535
740.004093	0.741169
740.333931	0.741174
740.663722	0.740156
740.993464	0.740579
741.323159	0.742128
741.652806	0.745246
741.982405	0.747535
742.311956	0.749042
742.641460	0.750809
742.970915	0.751694
743.300323	0.756477
743.629683	0.760874
743.958996	0.760880
744.288260	0.763765
744.617477	0.767381
744.946647	0.767816
745.275768	0.771094
745.604842	0.770684
745.933869	0.778230
746.262847	0.778996
746.591778	0.770730
746.920662	0.777204
747.249498	0.781231
747.578286	0.773933
747.907027	0.771188
748.235720	0.772667
748.564365	0.767739
748.892963	0.766833
749.221514	0.768620
749.550017	0.772598
749.878473	0.771714
750.206881	0.776073
750.535242	0.777628
750.863555	0.775783
751.191821	0.776776
751.520039	0.779789
751.848210	0.783499
752.176334	0.775260
752.504411	0.774262
752.832440	0.782330
753.160421	0.785459
753.488356	0.782988
753.816243	0.779388
754.144082	0.787685
754.471875	0.790450
754.799620	0.786062
755.127318	0.785961
755.454969	0.786564
755.782572	0.785228
756.110129	0.789381
756.437638	0.791117
756.765100	0.787068
757.092515	0.786477
757.419882	0.785521
757.747203	0.789382
758.074477	0.789161
758.401703	0.786841
758.728882	0.782071
759.056014	0.781644
759.383099	0.780219
759.710138	0.781347
760.037129	0.779088
760.364073	0.772021
760.690970	0.774332
761.017820	0.779352
761.344623	0.775578
761.671379	0.765907
761.998088	0.756307
762.324751	0.736846
762.651366	0.705001
762.977935	0.652506
763.304456	0.609349
763.630931	0.597940
763.957359	0.628502
764.283740	0.664278
764.610074	0.683851
764.936362	0.709478
765.262602	0.731409
765.588796	0.749202
765.914943	0.764234
766.241044	0.779435
766.567097	0.783790
766.893104	0.791406
767.219064	0.797366
767.544978	0.802391
767.870845	0.814262
768.196665	0.817861
768.522438	0.814805
768.848165	0.815666
769.173846	0.823319
769.499479	0.826309
769.825066	0.829176
770.150607	0.833375
770.476101	0.828076
770.801548	0.829011
771.126949	0.839739
771.452303	0.841862
771.777611	0.841200
772.102872	0.839458
772.428087	0.843929
772.753256	0.848036
773.078378	0.848505
773.403453	0.857382
773.728482	0.860410
774.053465	0.854175
774.378401	0.856982
774.703291	0.864935
775.028135	0.863423
775.352932	0.864945
775.677683	0.866742
776.002388	0.867963
776.327046	0.866881
776.651658	0.869458
776.976224	0.872676
777.300743	0.872807
777.625216	0.874074
777.949643	0.877171
778.274024	0.875964
778.598359	0.877444
778.922647	0.875658
779.246889	0.875762
779.571086	0.880843
779.895236	0.881462
780.219339	0.879809
780.543397	0.876514
780.867409	0.875260
781.191374	0.876754
781.515294	0.878799
781.839167	0.876957
782.162995	0.879410
782.486776	0.877082
782.810511	0.877699
783.134201	0.880873
783.457844	0.878521
783.781441	0.880929
784.104993	0.886103
784.428498	0.886433
784.751958	0.883333
785.075372	0.884249
785.398739	0.887066
785.722061	0.884586
786.045337	0.879994
786.368568	0.885997
786.691752	0.887765
787.014891	0.873441
787.337983	0.865836
787.661030	0.860697
787.984031	0.846639
788.306987	0.833136
788.629897	0.835993
788.952760	0.837691
789.275579	0.841558
789.598351	0.853969
789.921078	0.866966
790.243759	0.867563
790.566395	0.871454
790.888984	0.878918
791.211529	0.883089
791.534027	0.886846
791.856480	0.887479
792.178888	0.892437
792.501249	0.895372
792.823566	0.895605
793.145836	0.894851
793.468062	0.897310
793.790241	0.897357
794.112375	0.895318
794.434464	0.891364
794.756507	0.890747
795.078505	0.890765
795.400457	0.886490
795.722364	0.875216
796.044226	0.870100
796.366042	0.869662
796.687812	0.871138
797.009538	0.867488
797.331218	0.869973
797.652852	0.873774
797.974442	0.878588
798.295986	0.877718
798.617484	0.880355
798.938938	0.883432
799.260346	0.888629
799.581709	0.890415
799.903026	0.892650
800.224299	0.892514
800.545526	0.896001
800.866708	0.900340
801.187845	0.903573
801.508936	0.902352
801.829983	0.900602
802.150984	0.903696
802.471940	0.907392
802.792851	0.907767
803.113717	0.908144
803.434538	0.907561
803.755314	0.909126
804.076045	0.909880
804.396731	0.910128
804.717372	0.909672
805.037967	0.912612
805.358518	0.909465
805.679024	0.906833
805.999485	0.907066
806.319901	0.907361
806.640272	0.909644
806.960598	0.906949
807.280879	0.904397
807.601115	0.903643
807.921306	0.906415
808.241453	0.907275
808.561554	0.904896
808.881611	0.904368
809.201623	0.907260
809.521590	0.906357
809.841513	0.907463
810.161390	0.906130
810.481223	0.907290
810.801011	0.911206
811.120755	0.912683
811.440453	0.911084
811.760107	0.909806
812.079716	0.909664
812.399281	0.912275
812.718801	0.915361
813.038276	0.915918
813.357707	0.915569
813.677093	0.912321
813.996434	0.916827
814.315731	0.917676
814.634983	0.917485
814.954191	0.915815
815.273354	0.913723
815.592473	0.910348
815.911547	0.911222
816.230577	0.908136
816.549562	0.906125
816.868502	0.906376
817.187399	0.902394
817.506250	0.897317
817.825058	0.900130
818.143821	0.896514
818.462539	0.891805
818.781213	0.883972
819.099843	0.873471
819.418429	0.859723
819.736970	0.844174
820.055466	0.825277
820.373919	0.802497
820.692327	0.770787
821.010691	0.738707
821.329011	0.669612
821.647286	0.568166
821.965517	0.469846
822.283704	0.432590
822.601847	0.431707
822.919945	0.460513
823.237999	0.486826
823.556010	0.527356
823.873976	0.578682
824.191897	0.623722
824.509775	0.662958
824.827609	0.705125
825.145398	0.725453
825.463144	0.727666
825.780845	0.711665
826.098502	0.694832
826.416116	0.652802
826.733685	0.612692
827.051210	0.604565
827.368692	0.617623
827.686129	0.651333
828.003522	0.700461
828.320872	0.744008
828.638177	0.784912
828.955439	0.816253
829.272656	0.835938
829.589830	0.852686
829.906960	0.867000
830.224046	0.877589
830.541088	0.886798
830.858086	0.890836
831.175041	0.896642
831.491952	0.896053
831.808819	0.893025
832.125642	0.887207
832.442421	0.872413
832.759157	0.853226
833.075849	0.810052
833.392497	0.750777
833.709101	0.712032
834.025662	0.721128
834.342179	0.750769
834.658653	0.786590
834.975083	0.821079
835.291469	0.845685
835.607811	0.866201
835.924110	0.880066
836.240366	0.896332
836.556578	0.909550
836.872746	0.916487
837.188871	0.922784
837.504952	0.926834
837.820990	0.930411
838.136984	0.934272
838.452935	0.937149
838.768842	0.937805
839.084706	0.931240
839.400526	0.907993
839.716303	0.871384
840.032037	0.850182
840.347727	0.852823
840.663373	0.870435
840.978977	0.889785
841.294537	0.910699
841.610054	0.926252
841.925527	0.933223
842.240957	0.939745
842.556344	0.945774
842.871687	0.952069
843.186987	0.955906
843.502244	0.955970
843.817458	0.957362
844.132629	0.960850
844.447756	0.964833
844.762840	0.965344
845.077881	0.964721
845.392879	0.964391
845.707833	0.968045
846.022745	0.969196
846.337613	0.969453
846.652438	0.970646
846.967221	0.968929
847.281960	0.969928
847.596656	0.971620
847.911309	0.969757
848.225919	0.972446
848.540485	0.971745
848.855009	0.974692
849.169490	0.973346
849.483928	0.974111
849.798323	0.973510
850.112675	0.974187
850.426984	0.972649
850.741251	0.973842
851.055474	0.975171
851.369654	0.971831
851.683792	0.973434
851.997887	0.973933
852.311938	0.973862
852.625947	0.974410
852.939914	0.971604
853.253837	0.973909
853.567718	0.973677
853.881555	0.975253
854.195350	0.972592
854.509103	0.973537
854.822812	0.973871
855.136479	0.974749
855.450103	0.974066
855.763685	0.972546
856.077224	0.972989
856.390720	0.973566
856.704173	0.974099
857.017584	0.972793
857.330953	0.971833
857.644278	0.971748
857.957561	0.972794
858.270802	0.973206
858.584000	0.973189
858.897155	0.970524
859.210268	0.971836
859.523339	0.971377
859.836367	0.974763
860.149352	0.973660
860.462295	0.972807
860.775195	0.973675
861.088054	0.973506
861.400869	0.973965
861.713642	0.974050
862.026373	0.974517
862.339062	0.974916
862.651708	0.973057
862.964312	0.971356
863.276873	0.973565
863.589392	0.973918
863.901869	0.972118
864.214303	0.970365
864.526696	0.968733
864.839045	0.968057
865.151353	0.966815
865.463619	0.967064
865.775842	0.966402
866.088023	0.966675
866.400162	0.967286
866.712258	0.968001
867.024313	0.966749
867.336325	0.967699
867.648296	0.967645
867.960224	0.966596
868.272110	0.967429
868.583954	0.968911
868.895755	0.968905
869.207515	0.966488
869.519233	0.965014
869.830909	0.965840
870.142542	0.966623
870.454134	0.967206
870.765684	0.965802
871.077191	0.963482
871.388657	0.964836
871.700081	0.963216
872.011463	0.962900
872.322803	0.963192
872.634101	0.962216
872.945357	0.959614
873.256571	0.959484
873.567744	0.958068
873.878874	0.959527
874.189963	0.958503
874.501010	0.957238
874.812015	0.955912
875.122979	0.957747
875.433900	0.959916
875.744780	0.959953
876.055618	0.957217
876.366415	0.954866
876.677169	0.955258
876.987882	0.957746
877.298554	0.957268
877.609183	0.954108
877.919771	0.951141
878.230317	0.948878
878.540822	0.947694
878.851285	0.942325
879.161707	0.935394
879.472087	0.923844
879.782425	0.908728
880.092722	0.877562
880.402977	0.828946
880.713191	0.774033
881.023363	0.720643
881.333494	0.690479
881.643583	0.663093
881.953631	0.661402
882.263637	0.689529
882.573602	0.725937
882.883526	0.749661
883.193408	0.770533
883.503248	0.790288
883.813048	0.816397
884.122806	0.843856
884.432522	0.865605
884.742197	0.883698
885.051831	0.893053
885.361424	0.902103
885.670975	0.913401
885.980485	0.923354
886.289954	0.928527
886.599382	0.932820
886.908768	0.936321
887.218113	0.941276
887.527417	0.947222
887.836680	0.949250
888.145901	0.950845
888.455082	0.951736
888.764221	0.957793
889.073319	0.959503
889.382376	0.958564
889.691392	0.959210
890.000366	0.959080
890.309300	0.959996
890.618193	0.959109
890.927044	0.956941
891.235855	0.956902
891.544625	0.957979
891.853353	0.958271
892.162041	0.955756
892.470687	0.950117
892.779293	0.945274
893.087858	0.941801
893.396381	0.934852
893.704864	0.922533
894.013306	0.899952
894.321707	0.874988
894.630068	0.863096
894.938387	0.859471
895.246665	0.860554
895.554903	0.870539
895.863100	0.883200
896.171256	0.899425
896.479371	0.916820
896.787446	0.928575
897.095480	0.935125
897.403473	0.937072
897.711425	0.940348
898.019336	0.948063
898.327207	0.951034
898.635038	0.952484
898.942827	0.951941
899.250576	0.955658
899.558284	0.959104
899.865952	0.959987
900.173579	0.961453
900.481165	0.961987
900.788711	0.966023
901.096216	0.966602
901.403681	0.967772
901.711105	0.968039
902.018489	0.970312
902.325832	0.967556
902.633135	0.967287
902.940397	0.962510
903.247619	0.951495
903.554800	0.928650
903.861941	0.890852
904.169041	0.860297
904.476101	0.844306
904.783121	0.844602
905.090100	0.860708
905.397039	0.878494
905.703938	0.898287
906.010796	0.916524
906.317614	0.932401
906.624391	0.942870
906.931129	0.950924
907.237826	0.958860
907.544483	0.965514
907.851099	0.967897
908.157675	0.973610
908.464211	0.974719
908.770707	0.978274
909.077163	0.978426
909.383578	0.979159
909.689954	0.979067
909.996289	0.980337
910.302584	0.982046
910.608839	0.984360
910.915054	0.982601
911.221229	0.982847
911.527363	0.982405
911.833458	0.982343
912.139513	0.982371
912.445527	0.979799
912.751502	0.977962
913.057436	0.977674
913.363331	0.974616
913.669186	0.972654
913.975000	0.966841
914.280775	0.962193
914.586510	0.955201
914.892205	0.944117
915.197859	0.925303
915.503475	0.900398
915.809050	0.881810
916.114585	0.877891
916.420081	0.876255
916.725536	0.872593
917.030952	0.879599
917.336328	0.890611
917.641665	0.905429
917.946961	0.918840
918.252218	0.929727
918.557435	0.937654
918.862612	0.945337
919.167750	0.951407
919.472848	0.954423
919.777906	0.959634
920.082925	0.965524
920.387904	0.968430
920.692843	0.969175
920.997743	0.970875
921.302603	0.972877
921.607423	0.975660
921.912204	0.976880
922.216946	0.977597
922.521647	0.978501
922.826310	0.980545
923.130932	0.979946
923.435516	0.982472
923.740059	0.983270
924.044564	0.982493
924.349028	0.983654
924.653454	0.986656
924.957840	0.989776
925.262186	0.988294
925.566493	0.988456
925.870761	0.988922
926.174989	0.990035
926.479178	0.991676
926.783328	0.990909
927.087438	0.991507
927.391509	0.990033
927.695541	0.993135
927.999533	0.992823
928.303486	0.993242
928.607400	0.993788
928.911275	0.993528
929.215110	0.993492
929.518906	0.995032
929.822663	0.992688
930.126381	0.994452
930.430060	0.993330
930.733699	0.994022
931.037299	0.991801
931.340861	0.994178
931.644383	0.993548
931.947866	0.992992
932.251309	0.993311
932.554714	0.993837
932.858080	0.992967
933.161407	0.994372
933.464694	0.993328
933.767943	0.993186
934.071153	0.992602
934.374323	0.994716
934.677455	0.994876
934.980548	0.996104
935.283602	0.993451
935.586617	0.994578
935.889593	0.994083
936.192530	0.993258
936.495428	0.994096
936.798287	0.994182
937.101108	0.994324
937.403890	0.992102
937.706632	0.992874
938.009336	0.992183
938.312002	0.989998
938.614628	0.988244
938.917216	0.986983
939.219765	0.985719
939.522275	0.988248
939.824747	0.986767
940.127179	0.987206
940.429573	0.988245
940.731929	0.988268
941.034246	0.988276
941.336524	0.989906
941.638763	0.990384
941.940964	0.990972
942.243126	0.989564
942.545250	0.991715
942.847335	0.992135
943.149381	0.991346
943.451389	0.992202
943.753359	0.992659
944.055290	0.993719
944.357182	0.993235
944.659036	0.992478
944.960851	0.991585
945.262628	0.993598
945.564367	0.993964
945.866067	0.993271
946.167729	0.993735
946.469352	0.992330
946.770937	0.991161
947.072484	0.993732
947.373992	0.993408
947.675462	0.994016
947.976893	0.993150
948.278286	0.993903
948.579641	0.994943
948.880958	0.993883
949.182236	0.993922
949.483476	0.995395
949.784678	0.992248
950.085841	0.994291
950.386967	0.994281
950.688054	0.995207
950.989103	0.994328
951.290114	0.992450
951.591087	0.992596
951.892021	0.992696
952.192917	0.992554
952.493776	0.991145
952.794596	0.991360
953.095378	0.990779
953.396122	0.991928
953.696828	0.989951
953.997496	0.993837
954.298126	0.993758
954.598718	0.994142
954.899272	0.993972
955.199788	0.993126
955.500266	0.994393
955.800706	0.996133
956.101108	0.996115
956.401472	0.995835
956.701798	0.997413
957.002087	0.996155
957.302337	0.996555
957.602550	0.997985
957.902724	0.997933
958.202861	0.998010
958.502960	0.997267
958.803022	0.995703
959.103045	0.997693
959.403031	0.998719
959.702979	0.996306
960.002889	0.998090
960.302762	0.996701
960.602596	0.997634
960.902393	0.996587
961.202153	0.998371
961.501875	0.998900
961.801559	0.996895
962.101205	0.998057
962.400814	0.997279
962.700385	0.998549
962.999918	0.997680
963.299414	0.998917
963.598873	0.996360
963.898293	0.998088
964.197677	0.997754
964.497022	0.998612
964.796331	0.999993
965.095601	0.998344
965.394835	0.997732
965.694030	0.997438
965.993189	1.000096
966.292309	0.999307
966.591393	1.000355
966.890439	0.999922
967.189447	0.999489
967.488419	0.999532
967.787353	0.997728
968.086249	0.997005
968.385108	0.998669
968.683930	0.998625
968.982714	0.998928
969.281462	0.998085
969.580172	0.999119
969.878844	0.999663
970.177480	0.998346
970.476078	0.999063
970.774639	0.998103
971.073162	0.999062
971.371649	0.998055
971.670098	0.998920
971.968510	0.999974
972.266885	0.997600
972.565223	0.998326
972.863524	0.997564
973.161788	0.998265
973.460014	0.998504
973.758204	0.996909
974.056356	0.999331
974.354471	0.995599
974.652550	0.999105
974.950591	0.998191
975.248595	0.997387
975.546563	0.997862
975.844493	1.000239
976.142386	0.998740
976.440243	1.000228
976.738062	0.999506
977.035845	0.999005
977.333590	0.998874
977.631299	0.999239
977.928971	0.997754
978.226606	0.997908
978.524204	0.996687
978.821765	0.999750
979.119290	0.999139
979.416777	0.998747
979.714228	0.999186
980.011642	0.997399
980.309020	0.998655
980.606360	0.997608
980.903664	1.000990
981.200931	0.997748
981.498162	0.995985
981.795356	0.997064
982.092513	0.996771
982.389633	0.996977
982.686717	0.994495
982.983764	0.993566
983.280775	0.992297
983.577749	0.993682
983.874686	0.994393
984.171587	0.994215
984.468451	0.997179
984.765279	0.995535
985.062070	0.996329
985.358824	0.997725
985.655543	0.995778
985.952224	0.997759
986.248869	0.996882
986.545478	0.998548
986.842050	0.999961
987.138586	0.996921
987.435086	0.997791
987.731549	1.000376
988.027975	0.999046
988.324366	0.999416
988.620719	0.998356
988.917037	0.997404
989.213318	0.999170
989.509563	1.000783
989.805772	0.999745
990.101944	0.998767
990.398080	0.998952
990.694180	0.998671
990.990244	1.000030
991.286271	1.000132
991.582262	0.998893
991.878217	0.999187
992.174136	0.999857
992.470019	0.998939
992.765865	0.999304
993.061676	0.999084
993.357450	0.999580
993.653188	0.997668
993.948890	0.998665
994.244556	0.998566
994.540186	0.999119
994.835780	0.998440
995.131337	0.998570
995.426859	0.998554
995.722345	0.998778
996.017795	0.997286
996.313208	0.998310
996.608586	0.997149
996.903928	0.997267
997.199234	0.997050
997.494504	0.998934
997.789738	0.997889
998.084936	0.998437
998.380099	0.998233
998.675225	0.999348
998.970316	0.999897
999.265371	0.999379
999.560390	0.999118
999.855373	1.000214
1000.150320	0.998663
1000.445232	1.000006
1000.740108	0.998435
1001.034948	0.999396
1001.329752	0.999867
1001.624521	0.999144
1001.919254	0.999669
1002.213951	0.999526
1002.508613	0.999622
1002.803239	1.000597
1003.097829	1.000516
1003.392384	1.000396
1003.686903	0.999765
1003.981386	0.999695
1004.275834	1.001169
1004.570246	0.999486
1004.864623	0.999554
1005.158964	0.999458
1005.453270	0.999498
1005.747540	0.998972
1006.041775	1.000228
1006.335974	1.000738
1006.630138	1.000206
1006.924266	1.001308
1007.218359	1.001774
1007.512416	1.000155
1007.806438	0.999951
1008.100425	1.000340
1008.394376	0.998262
1008.688292	1.000152
1008.982172	1.001676
1009.276017	1.000069
1009.569827	0.998946
1009.863602	1.000301
1010.157341	1.001082
1010.451045	0.999481
1010.744714	0.999338
1011.038347	1.000261
1011.331945	1.000230
1011.625508	0.998690
1011.919036	0.999121
1012.212528	0.999721
1012.505986	0.998805
1012.799408	0.999097
1013.092795	1.000594
1013.386147	1.000174
1013.679464	1.001407
1013.972745	0.998049
1014.265992	0.997763
1014.559204	0.999837
1014.852380	1.000113
1015.145521	0.999009
1015.438628	0.999554
1015.731699	0.998596
1016.024736	0.999282
1016.317737	0.998768
1016.610703	0.999558
1016.903635	1.000130
1017.196531	0.998814
1017.489393	1.000233
1017.782219	0.999157
1018.075011	1.000162
1018.367768	0.999352
1018.660490	0.999863
1018.953177	0.999863
1019.245829	0.999863
