Dividing Wavelength (nm)	Counts (n)	Blue Motor Position (mm): 0.000000	Red Motor Position (mm): 27.700000	
326.493990	1.001041
326.888308	1.001041
327.282561	1.001041
327.676750	0.999331
328.070874	0.999534
328.464933	0.999081
328.858929	0.999414
329.252859	0.999360
329.646726	0.999056
330.040528	1.000761
330.434265	0.998710
330.827938	1.001145
331.221547	0.999801
331.615091	0.999513
332.008571	0.999680
332.401986	0.998604
332.795338	1.000138
333.188625	0.998203
333.581847	1.000676
333.975006	0.999512
334.368100	0.998884
334.761129	0.998746
335.154095	1.000531
335.546996	0.997618
335.939833	0.993671
336.332606	0.994705
336.725315	0.995055
337.117960	0.994894
337.510540	0.995055
337.903056	0.996024
338.295508	0.993966
338.687896	0.995353
339.080220	0.995045
339.472480	0.994594
339.864676	0.995020
340.256807	0.994194
340.648875	0.994481
341.040879	0.994900
341.432818	0.994799
341.824694	0.995060
342.216506	0.995082
342.608253	0.995167
342.999937	0.994430
343.391557	0.995246
343.783113	0.995481
344.174605	0.994499
344.566033	0.995225
344.957397	0.994381
345.348697	0.994665
345.739934	0.994645
346.131106	0.995148
346.522215	0.995519
346.913260	0.995401
347.304241	0.994257
347.695159	0.994820
348.086012	0.994366
348.476802	0.994703
348.867528	0.994783
349.258191	0.993779
349.648789	0.995465
350.039324	0.993919
350.429796	0.995551
350.820203	0.995221
351.210548	0.994326
351.600828	0.994357
351.991045	0.994392
352.381198	0.993931
352.771288	0.994666
353.161314	0.995090
353.551276	0.994169
353.941175	0.994823
354.331010	0.993944
354.720782	0.994842
355.110490	0.995260
355.500135	0.994920
355.889717	0.994429
356.279235	0.994396
356.668689	0.996016
357.058080	0.994878
357.447408	0.995557
357.836672	0.995305
358.225873	0.995294
358.615010	0.995498
359.004084	0.996316
359.393095	0.994872
359.782043	0.995097
360.170927	0.995857
360.559748	0.996291
360.948505	0.994494
361.337199	0.993900
361.725830	0.995907
362.114398	0.994487
362.502903	0.995333
362.891344	0.995406
363.279722	0.994878
363.668037	0.995791
364.056289	0.995560
364.444478	0.994258
364.832603	0.995574
365.220665	0.994033
365.608665	0.994226
365.996601	0.993708
366.384474	0.995981
366.772284	0.993771
367.160031	0.993466
367.547715	0.993590
367.935336	0.995551
368.322893	0.995032
368.710388	0.994314
369.097820	0.995207
369.485189	0.994569
369.872495	0.994007
370.259738	0.993571
370.646918	0.996042
371.034035	0.995216
371.421090	0.994732
371.808081	0.995173
372.195010	0.995138
372.581875	0.995818
372.968678	0.995319
373.355418	0.995398
373.742096	0.995753
374.128710	0.996582
374.515262	0.993608
374.901751	0.996308
375.288177	0.995559
375.674540	0.995438
376.060841	0.995262
376.447079	0.994919
376.833254	0.994749
377.219367	0.996094
377.605417	0.995532
377.991404	0.995521
378.377329	0.995227
378.763191	0.995413
379.148991	0.996642
379.534727	0.995683
379.920402	0.996047
380.306013	0.996084
380.691563	0.996275
381.077049	0.995559
381.462474	0.996005
381.847835	0.996652
382.233134	0.996365
382.618371	0.996806
383.003545	0.995784
383.388657	0.996861
383.773706	0.996008
384.158693	0.997017
384.543618	0.995302
384.928480	0.996407
385.313280	0.997224
385.698017	0.997547
386.082692	0.997393
386.467305	0.997240
386.851856	0.996749
387.236344	0.995898
387.620770	0.996244
388.005133	0.997592
388.389435	0.997363
388.773674	0.996333
389.157851	0.996780
389.541965	0.997206
389.926018	0.996769
390.310008	0.997709
390.693936	0.997084
391.077802	0.997325
391.461606	0.996847
391.845348	0.996732
392.229027	0.997987
392.612645	0.998273
392.996200	0.997636
393.379694	0.996651
393.763125	0.997473
394.146494	0.997581
394.529801	0.996766
394.913047	0.997763
395.296230	0.996757
395.679351	0.997081
396.062410	0.997208
396.445408	0.997186
396.828343	0.997710
397.211217	0.997322
397.594028	0.998140
397.976778	0.996882
398.359466	0.996859
398.742092	0.997126
399.124656	0.997166
399.507158	0.998320
399.889598	0.997100
400.271977	0.997718
400.654294	0.997754
401.036549	0.997677
401.418742	0.998438
401.800874	0.996944
402.182944	0.998088
402.564952	0.997406
402.946898	0.998901
403.328783	0.997878
403.710606	0.996873
404.092367	0.997896
404.474067	0.997352
404.855705	0.997493
405.237282	0.997302
405.618797	0.996944
406.000250	0.996392
406.381642	0.997973
406.762972	0.997468
407.144240	0.998686
407.525447	0.997557
407.906593	0.997654
408.287677	0.997879
408.668700	0.998124
409.049661	0.996038
409.430560	0.997172
409.811399	0.997662
410.192176	0.997785
410.572891	0.997224
410.953545	0.996723
411.334138	0.997149
411.714669	0.997605
412.095139	0.997145
412.475547	0.998152
412.855894	0.997741
413.236180	0.997962
413.616405	0.998043
413.996568	0.998133
414.376670	0.997822
414.756711	0.997170
415.136691	0.997274
415.516609	0.998003
415.896466	0.997872
416.276262	0.997276
416.655997	0.997590
417.035670	0.996839
417.415283	0.997195
417.794834	0.997892
418.174324	0.997541
418.553753	0.998355
418.933121	0.998023
419.312428	0.997761
419.691674	0.997615
420.070859	0.997546
420.449983	0.998101
420.829045	0.997948
421.208047	0.998877
421.586988	0.998969
421.965867	0.998068
422.344686	0.998201
422.723444	0.997844
423.102141	0.997794
423.480777	0.998472
423.859352	0.997580
424.237866	0.996995
424.616319	0.997506
424.994712	0.997678
425.373044	0.998365
425.751314	0.998352
426.129524	0.997879
426.507673	0.998273
426.885762	0.998850
427.263789	0.998167
427.641756	0.997674
428.019662	0.998275
428.397508	0.997322
428.775292	0.996558
429.153016	0.997712
429.530679	0.998629
429.908282	0.998445
430.285824	0.996967
430.663305	0.997451
431.040726	0.997315
431.418086	0.999236
431.795385	0.998199
432.172624	0.997322
432.549802	0.997743
432.926920	0.998771
433.303977	0.997538
433.680974	0.998159
434.057910	0.997448
434.434786	0.998065
434.811601	0.997802
435.188355	0.996968
435.565050	0.997145
435.941683	0.998128
436.318257	0.998828
436.694770	0.996724
437.071222	0.998462
437.447614	0.997756
437.823946	0.997302
438.200218	0.997572
438.576429	0.997294
438.952580	0.997699
439.328670	0.997311
439.704700	0.998118
440.080670	0.997573
440.456580	0.997704
440.832429	0.997631
441.208218	0.997080
441.583947	0.997528
441.959616	0.997226
442.335224	0.996705
442.710773	0.997630
443.086261	0.996919
443.461689	0.996653
443.837057	0.996741
444.212365	0.997198
444.587612	0.996761
444.962800	0.995685
445.337927	0.996481
445.712995	0.995970
446.088002	0.996961
446.462949	0.995724
446.837837	0.995578
447.212664	0.996045
447.587431	0.995232
447.962139	0.994305
448.336786	0.994002
448.711374	0.993923
449.085901	0.992860
449.460369	0.993257
449.834776	0.991322
450.209124	0.991762
450.583412	0.989710
450.957640	0.989524
451.331808	0.988711
451.705917	0.987468
452.079965	0.986878
452.453954	0.985993
452.827883	0.984548
453.201752	0.983653
453.575562	0.983346
453.949311	0.981901
454.323001	0.980644
454.696632	0.977986
455.070202	0.976292
455.443713	0.973736
455.817164	0.972927
456.190556	0.971006
456.563888	0.968396
456.937160	0.965960
457.310373	0.965222
457.683526	0.962949
458.056619	0.961308
458.429653	0.959287
458.802628	0.955821
459.175542	0.953031
459.548398	0.949713
459.921194	0.945111
460.293930	0.941547
460.666607	0.933790
461.039224	0.929529
461.411782	0.926402
461.784280	0.922525
462.156719	0.920959
462.529099	0.917756
462.901419	0.916137
463.273680	0.912623
463.645882	0.908971
464.018024	0.905166
464.390106	0.899260
464.762130	0.891702
465.134094	0.882147
465.505999	0.869499
465.877845	0.855891
466.249631	0.850009
466.621358	0.847664
466.993026	0.845696
467.364634	0.842070
467.736184	0.838980
468.107674	0.833171
468.479105	0.824746
468.850477	0.821675
469.221790	0.817017
469.593043	0.812738
469.964238	0.806305
470.335373	0.799060
470.706449	0.791551
471.077467	0.785264
471.448425	0.763902
471.819324	0.750135
472.190164	0.743113
472.560945	0.745635
472.931667	0.744602
473.302330	0.738364
473.672934	0.736016
474.043479	0.723371
474.413965	0.716737
474.784393	0.709090
475.154761	0.699993
475.525070	0.690118
475.895321	0.686457
476.265513	0.675571
476.635645	0.665895
477.005719	0.657322
477.375734	0.647745
477.745691	0.637214
478.115588	0.627159
478.485427	0.615646
478.855207	0.600656
479.224928	0.583450
479.594591	0.569669
479.964194	0.563042
480.333739	0.555382
480.703226	0.546577
481.072653	0.538452
481.442022	0.526948
481.811333	0.517269
482.180584	0.511750
482.549777	0.505782
482.918912	0.501229
483.287988	0.492993
483.657005	0.485778
484.025964	0.482300
484.394864	0.472290
484.763706	0.464805
485.132489	0.461702
485.501213	0.454560
485.869879	0.447139
486.238487	0.441606
486.607036	0.434334
486.975527	0.430021
487.343959	0.421049
487.712333	0.413664
488.080648	0.409293
488.448905	0.401317
488.817104	0.396558
489.185244	0.386574
489.553326	0.378234
489.921350	0.365334
490.289315	0.345827
490.657222	0.337086
491.025070	0.332351
491.392861	0.328890
491.760593	0.327750
492.128267	0.326936
492.495883	0.326130
492.863440	0.326345
493.230939	0.327353
493.598380	0.324253
493.965763	0.321897
494.333088	0.320533
494.700354	0.317491
495.067563	0.313259
495.434713	0.311912
495.801805	0.306771
496.168839	0.304558
496.535815	0.302321
496.902733	0.299494
497.269593	0.297399
497.636395	0.293097
498.003139	0.289871
498.369825	0.290355
498.736453	0.284359
499.103023	0.283253
499.469535	0.280185
499.835989	0.278113
500.202385	0.276822
500.568723	0.278079
500.935003	0.271550
501.301226	0.273391
501.667390	0.266919
502.033497	0.263086
502.399546	0.264277
502.765537	0.263954
503.131470	0.261093
503.497345	0.256111
503.863163	0.263580
504.228923	0.255364
504.594625	0.253015
504.960269	0.257322
505.325856	0.251665
505.691385	0.254949
506.056856	0.250776
506.422270	0.249564
506.787625	0.251136
507.152924	0.247970
507.518164	0.247397
507.883347	0.248693
508.248472	0.249735
508.613540	0.244420
508.978550	0.246279
509.343503	0.246122
509.708398	0.243495
510.073236	0.240676
510.438016	0.240335
510.802738	0.241022
511.167403	0.239524
511.532010	0.241132
511.896561	0.236321
512.261053	0.234848
512.625488	0.236523
512.989866	0.236656
513.354186	0.236878
513.718449	0.238335
514.082655	0.234674
514.446803	0.236787
514.810894	0.234302
515.174927	0.236639
515.538904	0.235884
515.902822	0.232733
516.266684	0.235093
516.630488	0.235970
516.994235	0.234648
517.357925	0.233051
517.721558	0.231781
518.085133	0.230894
518.448651	0.230792
518.812112	0.233075
519.175516	0.232659
519.538863	0.229888
519.902152	0.231600
520.265385	0.228448
520.628560	0.230241
520.991678	0.230513
521.354739	0.229334
521.717743	0.230445
522.080690	0.230901
522.443580	0.228055
522.806413	0.229251
523.169189	0.228403
523.531908	0.227043
523.894569	0.230422
524.257174	0.230710
524.619722	0.228124
524.982213	0.229157
525.344647	0.228187
525.707025	0.228875
526.069345	0.226880
526.431608	0.228706
526.793815	0.226411
527.155964	0.230748
527.518057	0.229827
527.880093	0.230691
528.242072	0.229198
528.603995	0.230941
528.965860	0.232544
529.327669	0.231433
529.689421	0.232356
530.051117	0.232948
530.412755	0.230760
530.774337	0.232831
531.135862	0.233538
531.497331	0.232764
531.858743	0.235464
532.220098	0.232479
532.581396	0.234867
532.942638	0.235536
533.303824	0.236283
533.664953	0.236169
534.026025	0.237965
534.387040	0.235751
534.747999	0.235828
535.108902	0.234590
535.469748	0.239426
535.830537	0.237392
536.191270	0.237872
536.551947	0.237408
536.912567	0.237232
537.273131	0.238973
537.633638	0.239266
537.994089	0.239415
538.354483	0.240665
538.714821	0.237575
539.075103	0.237272
539.435328	0.238342
539.795497	0.241688
540.155609	0.238356
540.515665	0.236389
540.875665	0.242309
541.235609	0.240695
541.595496	0.240735
541.955328	0.237273
542.315102	0.239945
542.674821	0.241128
543.034483	0.240924
543.394090	0.240871
543.753640	0.242717
544.113134	0.237514
544.472571	0.240864
544.831953	0.237788
545.191278	0.242033
545.550548	0.241349
545.909761	0.238201
546.268918	0.239006
546.628019	0.237431
546.987064	0.239923
547.346053	0.241596
547.704986	0.239525
548.063863	0.239650
548.422684	0.240010
548.781449	0.242139
549.140158	0.239570
549.498811	0.242503
549.857408	0.245659
550.215949	0.240400
550.574434	0.243286
550.932864	0.241413
551.291237	0.239947
551.649555	0.241541
552.007817	0.241029
552.366022	0.241949
552.724173	0.242413
553.082267	0.242579
553.440305	0.239494
553.798288	0.243816
554.156215	0.240537
554.514086	0.241339
554.871902	0.244260
555.229661	0.243538
555.587365	0.244077
555.945014	0.246737
556.302606	0.243537
556.660143	0.246148
557.017625	0.242313
557.375050	0.244601
557.732421	0.241990
558.089735	0.243729
558.446994	0.243513
558.804197	0.243171
559.161345	0.243024
559.518437	0.246440
559.875474	0.244160
560.232455	0.243734
560.589381	0.244625
560.946251	0.244880
561.303065	0.242421
561.659825	0.243765
562.016528	0.245273
562.373177	0.248231
562.729770	0.245542
563.086307	0.247561
563.442789	0.245434
563.799216	0.248254
564.155587	0.247014
564.511904	0.247980
564.868164	0.248173
565.224370	0.247961
565.580520	0.249955
565.936615	0.249788
566.292654	0.252449
566.648638	0.249700
567.004567	0.250601
567.360441	0.251039
567.716260	0.253250
568.072023	0.250921
568.427732	0.251619
568.783385	0.254042
569.138982	0.252254
569.494525	0.251776
569.850013	0.254722
570.205445	0.253144
570.560823	0.255788
570.916145	0.257890
571.271412	0.256085
571.626625	0.257380
571.981782	0.257610
572.336884	0.258418
572.691931	0.258436
573.046923	0.259725
573.401860	0.260904
573.756743	0.262478
574.111570	0.261247
574.466342	0.261796
574.821059	0.261057
575.175722	0.263552
575.530330	0.263526
575.884882	0.263703
576.239380	0.265993
576.593823	0.266257
576.948211	0.265889
577.302544	0.269128
577.656823	0.268631
578.011047	0.268919
578.365216	0.269223
578.719330	0.271612
579.073389	0.271331
579.427394	0.272730
579.781344	0.273425
580.135239	0.275033
580.489080	0.274526
580.842866	0.277389
581.196597	0.277529
581.550273	0.276144
581.903895	0.277165
582.257463	0.274985
582.610975	0.278520
582.964434	0.277607
583.317837	0.280378
583.671186	0.280776
584.024481	0.280585
584.377721	0.283179
584.730906	0.283606
585.084037	0.282895
585.437113	0.284957
585.790135	0.284087
586.143103	0.287458
586.496016	0.288539
586.848874	0.286034
587.201679	0.286669
587.554428	0.290117
587.907124	0.288632
588.259765	0.289704
588.612352	0.289991
588.964884	0.293560
589.317362	0.293320
589.669786	0.293235
590.022155	0.291817
590.374470	0.291032
590.726731	0.293267
591.078937	0.297856
591.431090	0.294028
591.783188	0.298657
592.135232	0.298478
592.487222	0.298918
592.839157	0.296989
593.191038	0.299238
593.542866	0.300967
593.894639	0.304835
594.246358	0.302795
594.598022	0.301898
594.949633	0.306175
595.301190	0.306667
595.652692	0.305765
596.004141	0.302329
596.355535	0.309767
596.706876	0.310327
597.058162	0.312877
597.409395	0.310373
597.760573	0.307743
598.111698	0.311105
598.462768	0.311665
598.813785	0.312977
599.164748	0.314075
599.515657	0.314576
599.866511	0.317893
600.217312	0.313220
600.568060	0.318525
600.918753	0.314349
601.269392	0.315786
601.619978	0.318762
601.970510	0.316809
602.320988	0.316923
602.671412	0.314542
603.021783	0.316934
603.372100	0.318386
603.722363	0.318147
604.072572	0.318794
604.422728	0.318638
604.772830	0.320622
605.122878	0.320265
605.472872	0.320931
605.822813	0.319058
606.172701	0.321594
606.522534	0.319087
606.872314	0.319274
607.222041	0.320157
607.571714	0.318693
607.921333	0.320011
608.270899	0.319697
608.620411	0.316097
608.969870	0.320218
609.319276	0.320365
609.668627	0.320028
610.017926	0.318709
610.367171	0.317124
610.716362	0.317729
611.065500	0.318326
611.414585	0.316680
611.763616	0.317247
612.112594	0.317582
612.461518	0.317477
612.810389	0.314604
613.159207	0.317370
613.507971	0.319000
613.856682	0.314853
614.205340	0.316539
614.553945	0.313366
614.902496	0.317131
615.250994	0.315186
615.599439	0.316135
615.947830	0.315159
616.296169	0.316110
616.644454	0.315855
616.992686	0.315825
617.340864	0.314111
617.688990	0.317306
618.037063	0.313802
618.385082	0.315859
618.733048	0.312888
619.080961	0.315002
619.428821	0.314327
619.776628	0.313935
620.124382	0.316166
620.472083	0.316639
620.819731	0.315737
621.167326	0.320000
621.514868	0.319337
621.862357	0.323450
622.209793	0.323156
622.557176	0.325474
622.904506	0.326369
623.251783	0.328624
623.599007	0.331133
623.946179	0.330456
624.293297	0.332619
624.640363	0.336530
624.987376	0.336616
625.334336	0.339257
625.681243	0.341732
626.028097	0.342378
626.374899	0.343456
626.721647	0.343340
627.068343	0.346705
627.414987	0.347827
627.761577	0.349916
628.108115	0.348228
628.454600	0.352857
628.801032	0.350569
629.147412	0.352903
629.493739	0.353090
629.840014	0.355985
630.186236	0.353327
630.532405	0.359187
630.878521	0.356710
631.224585	0.358990
631.570597	0.362654
631.916556	0.360738
632.262462	0.360889
632.608316	0.363352
632.954117	0.363945
633.299866	0.364940
633.645562	0.365034
633.991206	0.369702
634.336797	0.372403
634.682336	0.374914
635.027823	0.376332
635.373257	0.376772
635.718639	0.380348
636.063968	0.379653
636.409245	0.385393
636.754470	0.386045
637.099642	0.388154
637.444762	0.391795
637.789829	0.391288
638.134845	0.394149
638.479808	0.395498
638.824719	0.394740
639.169577	0.398919
639.514383	0.397265
639.859137	0.402443
640.203839	0.402063
640.548489	0.402445
640.893086	0.404044
641.237632	0.405526
641.582125	0.403917
641.926566	0.405186
642.270955	0.405531
642.615292	0.405805
642.959576	0.404696
643.303809	0.405715
643.647990	0.405245
643.992118	0.405915
644.336195	0.409257
644.680219	0.407562
645.024192	0.407967
645.368112	0.401705
645.711981	0.400833
646.055797	0.396471
646.399562	0.398915
646.743274	0.390652
647.086935	0.387750
647.430544	0.388162
647.774101	0.387632
648.117606	0.386635
648.461059	0.386895
648.804460	0.389823
649.147810	0.395297
649.491108	0.397036
649.834354	0.397836
650.177548	0.403813
650.520690	0.408763
650.863781	0.410116
651.206820	0.409031
651.549807	0.414305
651.892742	0.417592
652.235626	0.417463
652.578458	0.418353
652.921238	0.424401
653.263967	0.422120
653.606644	0.426138
653.949269	0.426290
654.291843	0.429966
654.634365	0.426590
654.976836	0.429686
655.319255	0.429832
655.661622	0.432109
656.003938	0.431376
656.346203	0.434341
656.688416	0.432462
657.030577	0.435726
657.372687	0.437639
657.714746	0.438422
658.056753	0.435464
658.398708	0.439245
658.740612	0.440709
659.082465	0.436639
659.424266	0.436995
659.766016	0.436745
660.107715	0.439563
660.449362	0.438284
660.790958	0.438694
661.132503	0.439094
661.473996	0.437150
661.815438	0.438619
662.156829	0.438118
662.498168	0.439106
662.839456	0.440137
663.180693	0.437927
663.521879	0.438111
663.863013	0.438566
664.204097	0.437643
664.545129	0.434051
664.886110	0.434706
665.227040	0.431726
665.567918	0.434725
665.908746	0.432724
666.249522	0.432090
666.590248	0.433061
666.930922	0.431702
667.271545	0.430306
667.612118	0.430594
667.952639	0.431795
668.293109	0.430315
668.633528	0.434027
668.973896	0.433352
669.314213	0.434053
669.654480	0.435442
669.994695	0.435879
670.334859	0.436723
670.674973	0.436946
671.015035	0.437390
671.355047	0.436761
671.695008	0.438195
672.034918	0.439745
672.374777	0.439261
672.714585	0.440870
673.054342	0.440420
673.394049	0.440417
673.733705	0.438060
674.073310	0.439004
674.412864	0.442456
674.752368	0.442304
675.091820	0.442676
675.431223	0.447633
675.770574	0.447328
676.109875	0.450028
676.449125	0.449957
676.788324	0.452248
677.127473	0.457972
677.466571	0.457256
677.805619	0.459438
678.144616	0.460317
678.483562	0.461763
678.822458	0.464882
679.161303	0.465476
679.500098	0.466318
679.838842	0.467446
680.177535	0.467100
680.516179	0.466172
680.854771	0.464917
681.193314	0.457677
681.531805	0.449694
681.870247	0.438183
682.208638	0.430733
682.546978	0.429847
682.885268	0.431198
683.223508	0.437455
683.561697	0.441426
683.899836	0.443901
684.237925	0.446971
684.575963	0.449245
684.913951	0.452757
685.251889	0.448613
685.589776	0.450590
685.927614	0.452878
686.265401	0.447211
686.603137	0.448800
686.940824	0.442710
687.278460	0.441354
687.616046	0.440321
687.953582	0.434728
688.291068	0.436657
688.628504	0.433066
688.965889	0.435007
689.303224	0.439204
689.640510	0.442311
689.977745	0.448549
690.314930	0.455902
690.652065	0.460740
690.989150	0.468833
691.326185	0.474633
691.663170	0.479168
692.000105	0.486061
692.336990	0.493092
692.673825	0.495176
693.010610	0.502932
693.347345	0.507448
693.684030	0.509282
694.020665	0.514458
694.357251	0.523299
694.693786	0.523200
695.030272	0.527181
695.366707	0.530335
695.703093	0.533560
696.039429	0.530966
696.375716	0.533918
696.711952	0.535858
697.048139	0.538230
697.384276	0.540095
697.720363	0.538164
698.056400	0.537838
698.392388	0.542922
698.728326	0.545804
699.064214	0.548484
699.400053	0.549463
699.735842	0.553077
700.071581	0.555177
700.407270	0.558158
700.742910	0.561227
701.078501	0.567726
701.414042	0.568451
701.749533	0.571256
702.084974	0.579531
702.420366	0.572033
702.755709	0.580169
703.091002	0.587704
703.426246	0.580777
703.761440	0.587112
704.096584	0.591897
704.431679	0.588342
704.766725	0.590313
705.101721	0.591503
705.436668	0.588142
705.771565	0.595540
706.106413	0.592223
706.441212	0.587027
706.775961	0.586113
707.110661	0.589143
707.445311	0.585510
707.779913	0.583102
708.114465	0.581133
708.448967	0.577810
708.783421	0.569371
709.117825	0.564359
709.452180	0.564769
709.786485	0.558638
710.120742	0.548369
710.454949	0.550559
710.789107	0.542522
711.123216	0.533316
711.457275	0.535337
711.791286	0.525875
712.125247	0.525041
712.459159	0.536097
712.793023	0.528819
713.126837	0.532464
713.460602	0.532833
713.794318	0.542034
714.127985	0.541121
714.461602	0.551095
714.795171	0.554450
715.128691	0.562163
715.462162	0.569805
715.795584	0.575019
716.128957	0.578554
716.462281	0.584658
716.795556	0.588690
717.128782	0.592525
717.461960	0.602855
717.795088	0.601647
718.128167	0.607612
718.461198	0.615960
718.794180	0.616670
719.127113	0.619478
719.459997	0.622903
719.792833	0.629787
720.125619	0.630018
720.458357	0.636471
720.791046	0.636435
721.123686	0.639731
721.456278	0.645526
721.788821	0.643789
722.121315	0.647520
722.453761	0.651511
722.786158	0.649654
723.118506	0.646307
723.450805	0.653440
723.783056	0.649622
724.115259	0.646508
724.447412	0.647018
724.779518	0.647849
725.111574	0.647302
725.443582	0.643239
725.775542	0.645173
726.107453	0.636643
726.439315	0.636282
726.771129	0.634635
727.102895	0.628470
727.434612	0.621476
727.766281	0.619598
728.097901	0.618874
728.429473	0.618661
728.760996	0.616894
729.092471	0.617148
729.423897	0.621481
729.755276	0.620792
730.086606	0.619790
730.417887	0.614623
730.749120	0.606283
731.080305	0.596227
731.411442	0.592141
731.742530	0.597391
732.073570	0.597076
732.404562	0.588678
732.735506	0.590504
733.066401	0.594699
733.397249	0.603834
733.728048	0.615481
734.058798	0.628290
734.389501	0.638701
734.720156	0.648813
735.050762	0.655991
735.381320	0.657037
735.711831	0.666605
736.042293	0.671569
736.372707	0.666755
736.703073	0.671559
737.033391	0.673947
737.363661	0.671024
737.693883	0.665766
738.024056	0.665095
738.354182	0.665583
738.684260	0.654415
739.014290	0.650746
739.344272	0.651494
739.674207	0.644855
740.004093	0.644662
740.333931	0.644946
740.663722	0.643959
740.993464	0.645821
741.323159	0.649905
741.652806	0.654027
741.982405	0.658427
742.311956	0.663304
742.641460	0.664866
742.970915	0.668812
743.300323	0.677479
743.629683	0.683945
743.958996	0.685301
744.288260	0.690561
744.617477	0.694906
744.946647	0.696927
745.275768	0.703195
745.604842	0.701316
745.933869	0.712044
746.262847	0.712022
746.591778	0.706074
746.920662	0.712618
747.249498	0.719202
747.578286	0.710098
747.907027	0.706498
748.235720	0.707340
748.564365	0.702294
748.892963	0.701950
749.221514	0.704338
749.550017	0.709284
749.878473	0.709255
750.206881	0.715803
750.535242	0.717051
750.863555	0.717179
751.191821	0.718055
751.520039	0.721735
751.848210	0.726295
752.176334	0.718694
752.504411	0.717499
752.832440	0.726081
753.160421	0.729487
753.488356	0.728545
753.816243	0.725062
754.144082	0.732976
754.471875	0.737509
754.799620	0.732633
755.127318	0.734463
755.454969	0.733778
755.782572	0.732906
756.110129	0.737982
756.437638	0.740810
756.765100	0.736973
757.092515	0.735722
757.419882	0.734327
757.747203	0.738844
758.074477	0.740058
758.401703	0.736276
758.728882	0.731397
759.056014	0.730350
759.383099	0.729055
759.710138	0.730586
760.037129	0.727137
760.364073	0.720258
760.690970	0.723188
761.017820	0.729138
761.344623	0.724506
761.671379	0.715105
761.998088	0.703779
762.324751	0.681307
762.651366	0.640206
762.977935	0.573493
763.304456	0.521459
763.630931	0.512045
763.957359	0.550547
764.283740	0.594711
764.610074	0.622525
764.936362	0.653442
765.262602	0.679607
765.588796	0.701069
765.914943	0.718972
766.241044	0.736181
766.567097	0.743083
766.893104	0.752174
767.219064	0.759066
767.544978	0.764667
767.870845	0.779038
768.196665	0.782782
768.522438	0.780242
768.848165	0.781550
769.173846	0.790495
769.499479	0.794778
769.825066	0.798420
770.150607	0.803677
770.476101	0.799236
770.801548	0.799973
771.126949	0.811248
771.452303	0.815371
771.777611	0.814628
772.102872	0.813384
772.428087	0.818697
772.753256	0.821410
773.078378	0.823143
773.403453	0.833988
773.728482	0.837801
774.053465	0.830011
774.378401	0.834601
774.703291	0.842286
775.028135	0.842309
775.352932	0.844269
775.677683	0.846514
776.002388	0.848165
776.327046	0.846099
776.651658	0.850282
776.976224	0.853252
777.300743	0.853177
777.625216	0.856239
777.949643	0.857715
778.274024	0.857937
778.598359	0.859344
778.922647	0.857990
779.246889	0.858612
779.571086	0.861379
779.895236	0.865387
780.219339	0.862061
780.543397	0.858969
780.867409	0.857099
781.191374	0.858949
781.515294	0.860482
781.839167	0.860271
782.162995	0.863279
782.486776	0.860259
782.810511	0.862139
783.134201	0.864832
783.457844	0.862804
783.781441	0.864728
784.104993	0.870707
784.428498	0.870880
784.751958	0.866879
785.075372	0.869378
785.398739	0.872863
785.722061	0.869583
786.045337	0.865069
786.368568	0.869527
786.691752	0.872484
787.014891	0.858568
787.337983	0.850144
787.661030	0.842206
787.984031	0.824431
788.306987	0.811743
788.629897	0.813771
788.952760	0.817465
789.275579	0.822004
789.598351	0.837603
789.921078	0.850088
790.243759	0.851624
790.566395	0.856722
790.888984	0.864343
791.211529	0.869801
791.534027	0.871770
791.856480	0.874789
792.178888	0.879378
792.501249	0.882525
792.823566	0.883358
793.145836	0.882344
793.468062	0.885162
793.790241	0.885804
794.112375	0.883404
794.434464	0.879126
794.756507	0.878001
795.078505	0.877976
795.400457	0.873543
795.722364	0.860811
796.044226	0.853920
796.366042	0.853026
796.687812	0.856935
797.009538	0.852213
797.331218	0.855916
797.652852	0.860003
797.974442	0.865775
798.295986	0.863930
798.617484	0.867745
798.938938	0.872063
799.260346	0.877140
799.581709	0.878645
799.903026	0.880799
800.224299	0.881184
800.545526	0.884903
800.866708	0.889322
801.187845	0.892307
801.508936	0.892425
801.829983	0.890987
802.150984	0.892861
802.471940	0.898789
802.792851	0.898469
803.113717	0.898898
803.434538	0.897183
803.755314	0.899767
804.076045	0.901189
804.396731	0.900689
804.717372	0.899736
805.037967	0.901541
805.358518	0.899136
805.679024	0.897834
805.999485	0.897478
806.319901	0.897825
806.640272	0.899806
806.960598	0.897184
807.280879	0.893809
807.601115	0.892341
807.921306	0.896839
808.241453	0.895578
808.561554	0.894984
808.881611	0.894471
809.201623	0.896966
809.521590	0.897108
809.841513	0.898121
810.161390	0.897081
810.481223	0.899288
810.801011	0.901937
811.120755	0.904503
811.440453	0.903001
811.760107	0.900531
812.079716	0.900535
812.399281	0.904122
812.718801	0.907665
813.038276	0.908236
813.357707	0.906339
813.677093	0.903630
813.996434	0.908249
814.315731	0.909023
814.634983	0.911031
814.954191	0.908732
815.273354	0.906045
815.592473	0.901146
815.911547	0.902027
816.230577	0.899309
816.549562	0.896173
816.868502	0.897674
817.187399	0.894033
817.506250	0.888374
817.825058	0.890212
818.143821	0.886904
818.462539	0.882576
818.781213	0.874091
819.099843	0.862753
819.418429	0.846842
819.736970	0.830611
820.055466	0.812292
820.373919	0.785935
820.692327	0.753810
821.010691	0.719529
821.329011	0.643282
821.647286	0.529560
821.965517	0.416240
822.283704	0.373538
822.601847	0.375532
822.919945	0.410969
823.237999	0.443956
823.556010	0.490321
823.873976	0.545206
824.191897	0.595437
824.509775	0.637641
824.827609	0.682691
825.145398	0.705383
825.463144	0.707946
825.780845	0.690685
826.098502	0.672635
826.416116	0.626587
826.733685	0.583234
827.051210	0.575746
827.368692	0.589411
827.686129	0.625243
828.003522	0.679088
828.320872	0.725468
828.638177	0.769380
828.955439	0.801067
829.272656	0.823580
829.589830	0.840052
829.906960	0.855629
830.224046	0.868467
830.541088	0.878164
830.858086	0.882622
831.175041	0.888777
831.491952	0.887816
831.808819	0.884683
832.125642	0.877653
832.442421	0.862699
832.759157	0.841875
833.075849	0.795956
833.392497	0.732707
833.709101	0.692237
834.025662	0.702000
834.342179	0.733384
834.658653	0.771567
834.975083	0.808176
835.291469	0.833416
835.607811	0.856300
835.924110	0.871769
836.240366	0.888596
836.556578	0.903237
836.872746	0.910278
837.188871	0.915987
837.504952	0.921761
837.820990	0.924093
838.136984	0.928551
838.452935	0.930937
838.768842	0.932288
839.084706	0.925165
839.400526	0.900017
839.716303	0.861429
840.032037	0.838620
840.347727	0.841697
840.663373	0.860512
840.978977	0.881388
841.294537	0.902655
841.610054	0.919005
841.925527	0.927261
842.240957	0.933807
842.556344	0.940776
842.871687	0.946302
843.186987	0.950454
843.502244	0.950296
843.817458	0.951586
844.132629	0.955833
844.447756	0.960288
844.762840	0.959674
845.077881	0.960931
845.392879	0.959162
845.707833	0.963639
846.022745	0.965567
846.337613	0.965610
846.652438	0.966431
846.967221	0.965247
847.281960	0.965466
847.596656	0.968798
847.911309	0.964877
848.225919	0.967033
848.540485	0.967695
848.855009	0.969335
849.169490	0.968785
849.483928	0.969557
849.798323	0.970013
850.112675	0.970090
850.426984	0.970176
850.741251	0.970221
851.055474	0.970401
851.369654	0.968803
851.683792	0.969675
851.997887	0.969831
852.311938	0.971712
852.625947	0.969170
852.939914	0.968077
853.253837	0.969300
853.567718	0.971147
853.881555	0.971599
854.195350	0.967749
854.509103	0.969375
854.822812	0.969973
855.136479	0.969816
855.450103	0.969112
855.763685	0.969085
856.077224	0.968381
856.390720	0.969934
856.704173	0.970141
857.017584	0.968358
857.330953	0.966863
857.644278	0.968111
857.957561	0.968928
858.270802	0.969725
858.584000	0.968495
858.897155	0.966036
859.210268	0.967926
859.523339	0.968605
859.836367	0.970839
860.149352	0.971622
860.462295	0.969457
860.775195	0.970321
861.088054	0.969308
861.400869	0.969239
861.713642	0.970886
862.026373	0.971189
862.339062	0.970338
862.651708	0.969121
862.964312	0.967588
863.276873	0.970186
863.589392	0.968769
863.901869	0.966362
864.214303	0.965241
864.526696	0.964312
864.839045	0.963735
865.151353	0.962346
865.463619	0.962784
865.775842	0.963943
866.088023	0.963058
866.400162	0.962058
866.712258	0.962857
867.024313	0.963351
867.336325	0.964144
867.648296	0.964645
867.960224	0.961249
868.272110	0.962357
868.583954	0.964247
868.895755	0.964620
869.207515	0.961748
869.519233	0.959145
869.830909	0.962018
870.142542	0.963197
870.454134	0.962882
870.765684	0.961480
871.077191	0.957438
871.388657	0.959937
871.700081	0.957867
872.011463	0.958129
872.322803	0.959267
872.634101	0.957389
872.945357	0.954366
873.256571	0.952981
873.567744	0.953572
873.878874	0.954022
874.189963	0.952953
874.501010	0.951569
874.812015	0.950308
875.122979	0.952319
875.433900	0.953658
875.744780	0.955392
876.055618	0.951748
876.366415	0.950260
876.677169	0.949992
876.987882	0.951977
877.298554	0.950912
877.609183	0.948156
877.919771	0.945869
878.230317	0.944114
878.540822	0.942480
878.851285	0.937620
879.161707	0.928189
879.472087	0.916234
879.782425	0.900436
880.092722	0.866808
880.402977	0.816244
880.713191	0.756712
881.023363	0.699624
881.333494	0.665379
881.643583	0.637226
881.953631	0.637499
882.263637	0.666003
882.573602	0.706078
882.883526	0.730346
883.193408	0.753651
883.503248	0.775420
883.813048	0.802233
884.122806	0.831026
884.432522	0.853790
884.742197	0.873487
885.051831	0.883323
885.361424	0.893185
885.670975	0.905576
885.980485	0.913708
886.289954	0.921569
886.599382	0.925521
886.908768	0.929212
887.218113	0.935934
887.527417	0.939721
887.836680	0.943254
888.145901	0.944355
888.455082	0.947803
888.764221	0.952144
889.073319	0.952837
889.382376	0.954323
889.691392	0.953468
890.000366	0.953287
890.309300	0.955145
890.618193	0.953673
890.927044	0.952224
891.235855	0.952787
891.544625	0.951880
891.853353	0.951947
892.162041	0.950270
892.470687	0.943799
892.779293	0.938819
893.087858	0.935417
893.396381	0.927276
893.704864	0.915490
894.013306	0.891267
894.321707	0.865036
894.630068	0.851386
894.938387	0.847742
895.246665	0.847768
895.554903	0.859730
895.863100	0.872918
896.171256	0.889952
896.479371	0.908672
896.787446	0.921135
897.095480	0.927488
897.403473	0.930733
897.711425	0.933279
898.019336	0.941699
898.327207	0.944515
898.635038	0.946972
898.942827	0.946126
899.250576	0.949555
899.558284	0.952852
899.865952	0.955082
900.173579	0.955306
900.481165	0.955250
900.788711	0.960916
901.096216	0.962217
901.403681	0.962876
901.711105	0.963811
902.018489	0.965073
902.325832	0.962473
902.633135	0.962841
902.940397	0.957744
903.247619	0.945268
903.554800	0.919845
903.861941	0.881755
904.169041	0.846714
904.476101	0.830611
904.783121	0.831706
905.090100	0.846756
905.397039	0.868041
905.703938	0.889066
906.010796	0.908110
906.317614	0.925407
906.624391	0.936448
906.931129	0.945474
907.237826	0.953460
907.544483	0.959680
907.851099	0.963805
908.157675	0.967851
908.464211	0.970505
908.770707	0.972591
909.077163	0.975731
909.383578	0.975387
909.689954	0.976183
909.996289	0.976148
910.302584	0.977523
910.608839	0.980860
910.915054	0.979406
911.221229	0.977906
911.527363	0.977753
911.833458	0.976925
912.139513	0.976302
912.445527	0.975491
912.751502	0.974295
913.057436	0.971993
913.363331	0.970477
913.669186	0.967205
913.975000	0.962074
914.280775	0.956822
914.586510	0.949459
914.892205	0.937612
915.197859	0.916514
915.503475	0.888664
915.809050	0.871481
916.114585	0.865618
916.420081	0.863199
916.725536	0.860514
917.030952	0.868194
917.336328	0.879763
917.641665	0.895757
917.946961	0.910373
918.252218	0.922374
918.557435	0.930270
918.862612	0.937881
919.167750	0.943389
919.472848	0.948765
919.777906	0.954880
920.082925	0.959869
920.387904	0.962603
920.692843	0.963353
920.997743	0.964256
921.302603	0.967776
921.607423	0.970512
921.912204	0.973139
922.216946	0.972405
922.521647	0.974142
922.826310	0.975620
923.130932	0.977797
923.435516	0.978828
923.740059	0.980747
924.044564	0.980168
924.349028	0.980993
924.653454	0.982231
924.957840	0.986110
925.262186	0.985078
925.566493	0.984013
925.870761	0.984669
926.174989	0.985804
926.479178	0.989313
926.783328	0.989397
927.087438	0.988755
927.391509	0.988073
927.695541	0.989926
927.999533	0.988904
928.303486	0.990232
928.607400	0.991167
928.911275	0.990516
929.215110	0.990639
929.518906	0.990322
929.822663	0.989693
930.126381	0.990740
930.430060	0.990654
930.733699	0.990183
931.037299	0.989180
931.340861	0.990469
931.644383	0.990149
931.947866	0.990142
932.251309	0.990649
932.554714	0.990484
932.858080	0.990223
933.161407	0.989857
933.464694	0.989859
933.767943	0.989979
934.071153	0.990883
934.374323	0.992647
934.677455	0.990976
934.980548	0.992578
935.283602	0.991860
935.586617	0.992285
935.889593	0.990697
936.192530	0.991175
936.495428	0.991423
936.798287	0.991407
937.101108	0.990927
937.403890	0.988606
937.706632	0.989015
938.009336	0.987265
938.312002	0.985307
938.614628	0.984602
938.917216	0.983952
939.219765	0.981308
939.522275	0.983410
939.824747	0.983280
940.127179	0.982890
940.429573	0.985554
940.731929	0.984660
941.034246	0.984092
941.336524	0.985336
941.638763	0.987055
941.940964	0.985294
942.243126	0.986700
942.545250	0.987438
942.847335	0.987945
943.149381	0.987464
943.451389	0.988626
943.753359	0.987426
944.055290	0.990475
944.357182	0.990664
944.659036	0.988806
944.960851	0.989716
945.262628	0.989472
945.564367	0.990115
945.866067	0.990634
946.167729	0.991764
946.469352	0.989448
946.770937	0.989804
947.072484	0.990833
947.373992	0.989406
947.675462	0.990335
947.976893	0.990020
948.278286	0.990965
948.579641	0.991753
948.880958	0.991708
949.182236	0.991318
949.483476	0.990741
949.784678	0.989281
950.085841	0.991047
950.386967	0.990770
950.688054	0.990589
950.989103	0.991052
951.290114	0.988646
951.591087	0.989798
951.892021	0.990100
952.192917	0.988798
952.493776	0.989154
952.794596	0.988513
953.095378	0.988427
953.396122	0.987416
953.696828	0.987457
953.997496	0.991023
954.298126	0.990307
954.598718	0.991270
954.899272	0.991885
955.199788	0.990396
955.500266	0.992252
955.800706	0.992756
956.101108	0.992868
956.401472	0.994544
956.701798	0.992981
957.002087	0.992188
957.302337	0.993794
957.602550	0.994561
957.902724	0.995083
958.202861	0.995401
958.502960	0.995777
958.803022	0.994249
959.103045	0.996096
959.403031	0.996714
959.702979	0.994434
960.002889	0.996297
960.302762	0.993872
960.602596	0.995472
960.902393	0.995457
961.202153	0.996355
961.501875	0.996072
961.801559	0.995447
962.101205	0.995055
962.400814	0.996671
962.700385	0.996401
962.999918	0.995511
963.299414	0.995555
963.598873	0.995125
963.898293	0.995666
964.197677	0.995610
964.497022	0.995276
964.796331	0.997929
965.095601	0.997483
965.394835	0.996821
965.694030	0.996401
965.993189	0.997522
966.292309	0.996382
966.591393	0.997589
966.890439	0.997343
967.189447	0.996382
967.488419	0.996601
967.787353	0.996123
968.086249	0.995550
968.385108	0.996338
968.683930	0.997040
968.982714	0.996348
969.281462	0.997476
969.580172	0.995929
969.878844	0.996624
970.177480	0.995842
970.476078	0.996709
970.774639	0.997576
971.073162	0.997779
971.371649	0.996696
971.670098	0.996350
971.968510	0.996870
972.266885	0.995103
972.565223	0.995004
972.863524	0.996087
973.161788	0.996089
973.460014	0.996966
973.758204	0.995053
974.056356	0.995470
974.354471	0.994002
974.652550	0.997485
974.950591	0.996495
975.248595	0.996156
975.546563	0.997051
975.844493	0.996745
976.142386	0.997191
976.440243	0.996701
976.738062	0.997214
977.035845	0.997801
977.333590	0.997434
977.631299	0.997824
977.928971	0.995814
978.226606	0.997770
978.524204	0.996355
978.821765	0.997646
979.119290	0.995982
979.416777	0.996455
979.714228	0.997685
980.011642	0.995528
980.309020	0.996484
980.606360	0.996886
980.903664	0.997185
981.200931	0.995851
981.498162	0.995777
981.795356	0.995418
982.092513	0.993711
982.389633	0.994665
982.686717	0.990581
982.983764	0.991236
983.280775	0.991344
983.577749	0.990176
983.874686	0.991382
984.171587	0.992158
984.468451	0.994022
984.765279	0.994724
985.062070	0.993840
985.358824	0.995724
985.655543	0.995218
985.952224	0.996454
986.248869	0.995967
986.545478	0.996963
986.842050	0.998811
987.138586	0.995597
987.435086	0.997180
987.731549	0.999257
988.027975	0.997849
988.324366	0.997212
988.620719	0.997171
988.917037	0.995729
989.213318	0.998844
989.509563	0.998417
989.805772	0.997697
990.101944	0.998784
990.398080	0.996862
990.694180	0.997385
990.990244	0.996922
991.286271	0.997800
991.582262	0.997821
991.878217	0.998189
992.174136	0.998760
992.470019	0.998387
992.765865	0.998268
993.061676	0.998420
993.357450	0.997695
993.653188	0.996297
993.948890	0.996868
994.244556	0.998208
994.540186	0.997441
994.835780	0.996785
995.131337	0.997331
995.426859	0.997022
995.722345	0.997378
996.017795	0.996612
996.313208	0.995531
996.608586	0.996247
996.903928	0.996414
997.199234	0.995522
997.494504	0.996067
997.789738	0.996182
998.084936	0.996314
998.380099	0.997851
998.675225	0.998167
998.970316	0.998061
999.265371	0.998452
999.560390	0.997619
999.855373	0.998068
1000.150320	0.998306
1000.445232	0.998793
1000.740108	0.998303
1001.034948	0.997853
1001.329752	0.998557
1001.624521	0.998254
1001.919254	0.996845
1002.213951	0.997137
1002.508613	0.997503
1002.803239	0.999574
1003.097829	0.998380
1003.392384	0.998789
1003.686903	0.997591
1003.981386	0.997540
1004.275834	0.998841
1004.570246	0.998032
1004.864623	0.998489
1005.158964	0.999347
1005.453270	0.997528
1005.747540	0.997988
1006.041775	0.998393
1006.335974	0.999430
1006.630138	0.999216
1006.924266	0.998766
1007.218359	1.000965
1007.512416	0.998603
1007.806438	0.999990
1008.100425	0.998630
1008.394376	0.999071
1008.688292	0.997455
1008.982172	1.000246
1009.276017	0.999534
1009.569827	0.998136
1009.863602	0.999118
1010.157341	0.999297
1010.451045	0.998975
1010.744714	0.998087
1011.038347	0.998564
1011.331945	1.000281
1011.625508	0.997680
1011.919036	0.998611
1012.212528	0.998450
1012.505986	0.996803
1012.799408	0.997284
1013.092795	0.998966
1013.386147	0.998987
1013.679464	0.999630
1013.972745	0.998286
1014.265992	0.997474
1014.559204	0.998421
1014.852380	0.999161
1015.145521	0.998943
1015.438628	0.998564
1015.731699	0.996826
1016.024736	0.997749
1016.317737	0.999277
1016.610703	0.999587
1016.903635	0.999327
1017.196531	0.998072
1017.489393	0.999831
1017.782219	0.999712
1018.075011	0.998429
1018.367768	0.997674
1018.660490	0.999016
1018.953177	0.999016
1019.245829	0.999016
