Dividing Wavelength (nm)	Counts (n)	Blue Motor Position (mm): 0.000000	Red Motor Position (mm): 17.400000	
326.493990	1.000269
326.888308	1.000269
327.282561	1.000269
327.676750	1.000421
328.070874	1.000452
328.464933	0.999975
328.858929	0.999946
329.252859	0.999994
329.646726	0.999653
330.040528	1.000428
330.434265	0.999903
330.827938	1.000460
331.221547	1.002218
331.615091	1.000641
332.008571	0.999761
332.401986	0.999508
332.795338	1.001160
333.188625	0.999151
333.581847	1.001560
333.975006	1.000590
334.368100	1.000239
334.761129	0.999926
335.154095	1.000602
335.546996	0.998389
335.939833	0.993918
336.332606	0.994189
336.725315	0.995078
337.117960	0.995661
337.510540	0.994199
337.903056	0.994589
338.295508	0.993927
338.687896	0.995632
339.080220	0.993951
339.472480	0.994716
339.864676	0.994247
340.256807	0.994819
340.648875	0.994759
341.040879	0.994174
341.432818	0.993067
341.824694	0.994744
342.216506	0.994278
342.608253	0.994506
342.999937	0.993138
343.391557	0.994812
343.783113	0.994873
344.174605	0.994838
344.566033	0.995202
344.957397	0.995169
345.348697	0.993536
345.739934	0.994397
346.131106	0.993926
346.522215	0.993609
346.913260	0.993490
347.304241	0.993503
347.695159	0.994036
348.086012	0.992720
348.476802	0.993434
348.867528	0.994152
349.258191	0.993422
349.648789	0.995021
350.039324	0.994607
350.429796	0.995000
350.820203	0.995069
351.210548	0.993151
351.600828	0.993684
351.991045	0.993999
352.381198	0.992682
352.771288	0.994122
353.161314	0.993372
353.551276	0.994952
353.941175	0.993952
354.331010	0.993889
354.720782	0.994182
355.110490	0.994213
355.500135	0.994639
355.889717	0.993901
356.279235	0.994019
356.668689	0.994208
357.058080	0.994804
357.447408	0.995816
357.836672	0.994242
358.225873	0.994212
358.615010	0.995506
359.004084	0.995268
359.393095	0.993931
359.782043	0.994611
360.170927	0.995881
360.559748	0.995203
360.948505	0.993495
361.337199	0.994953
361.725830	0.995483
362.114398	0.993705
362.502903	0.994353
362.891344	0.995902
363.279722	0.993391
363.668037	0.994737
364.056289	0.994598
364.444478	0.994447
364.832603	0.994827
365.220665	0.994702
365.608665	0.994188
365.996601	0.994739
366.384474	0.993614
366.772284	0.994236
367.160031	0.993842
367.547715	0.993686
367.935336	0.993874
368.322893	0.993912
368.710388	0.993415
369.097820	0.994172
369.485189	0.992761
369.872495	0.993561
370.259738	0.992402
370.646918	0.994267
371.034035	0.993590
371.421090	0.994283
371.808081	0.994745
372.195010	0.995383
372.581875	0.993928
372.968678	0.995205
373.355418	0.995141
373.742096	0.993592
374.128710	0.994954
374.515262	0.994228
374.901751	0.994429
375.288177	0.994033
375.674540	0.996117
376.060841	0.994793
376.447079	0.995689
376.833254	0.994360
377.219367	0.993373
377.605417	0.993696
377.991404	0.995575
378.377329	0.993043
378.763191	0.994448
379.148991	0.995707
379.534727	0.994213
379.920402	0.994172
380.306013	0.994875
380.691563	0.996218
381.077049	0.994638
381.462474	0.994643
381.847835	0.994973
382.233134	0.995086
382.618371	0.994766
383.003545	0.994843
383.388657	0.994972
383.773706	0.995349
384.158693	0.995270
384.543618	0.995419
384.928480	0.995504
385.313280	0.994770
385.698017	0.995307
386.082692	0.994641
386.467305	0.995287
386.851856	0.994719
387.236344	0.994606
387.620770	0.994209
388.005133	0.995179
388.389435	0.994923
388.773674	0.994839
389.157851	0.994986
389.541965	0.994481
389.926018	0.994923
390.310008	0.996292
390.693936	0.994886
391.077802	0.995465
391.461606	0.994615
391.845348	0.994543
392.229027	0.995381
392.612645	0.995137
392.996200	0.996175
393.379694	0.995218
393.763125	0.996024
394.146494	0.994552
394.529801	0.994317
394.913047	0.994843
395.296230	0.994434
395.679351	0.994490
396.062410	0.994116
396.445408	0.995285
396.828343	0.994325
397.211217	0.994307
397.594028	0.994882
397.976778	0.993744
398.359466	0.994287
398.742092	0.993600
399.124656	0.993585
399.507158	0.993053
399.889598	0.993022
400.271977	0.993268
400.654294	0.992856
401.036549	0.991464
401.418742	0.991774
401.800874	0.988968
402.182944	0.988189
402.564952	0.986817
402.946898	0.986594
403.328783	0.984939
403.710606	0.982466
404.092367	0.979398
404.474067	0.978071
404.855705	0.974440
405.237282	0.972707
405.618797	0.968282
406.000250	0.964640
406.381642	0.961281
406.762972	0.957251
407.144240	0.953875
407.525447	0.949701
407.906593	0.943851
408.287677	0.939218
408.668700	0.936085
409.049661	0.927256
409.430560	0.922621
409.811399	0.917411
410.192176	0.908966
410.572891	0.904189
410.953545	0.895771
411.334138	0.891411
411.714669	0.883496
412.095139	0.879454
412.475547	0.868853
412.855894	0.862006
413.236180	0.853263
413.616405	0.847647
413.996568	0.837371
414.376670	0.831318
414.756711	0.824815
415.136691	0.815336
415.516609	0.803846
415.896466	0.794307
416.276262	0.783421
416.655997	0.776496
417.035670	0.758642
417.415283	0.746764
417.794834	0.739663
418.174324	0.734369
418.553753	0.730048
418.933121	0.711177
419.312428	0.697780
419.691674	0.692566
420.070859	0.676638
420.449983	0.673326
420.829045	0.658334
421.208047	0.655898
421.586988	0.642803
421.965867	0.634144
422.344686	0.616746
422.723444	0.619176
423.102141	0.624053
423.480777	0.596384
423.859352	0.604508
424.237866	0.579389
424.616319	0.574051
424.994712	0.560314
425.373044	0.562810
425.751314	0.545416
426.129524	0.553216
426.507673	0.534230
426.885762	0.523159
427.263789	0.522594
427.641756	0.526575
428.019662	0.512540
428.397508	0.507170
428.775292	0.506380
429.153016	0.495526
429.530679	0.497888
429.908282	0.487536
430.285824	0.493804
430.663305	0.470403
431.040726	0.486961
431.418086	0.484776
431.795385	0.474240
432.172624	0.471075
432.549802	0.469173
432.926920	0.466204
433.303977	0.463928
433.680974	0.459084
434.057910	0.455837
434.434786	0.454079
434.811601	0.455178
435.188355	0.436495
435.565050	0.444486
435.941683	0.445104
436.318257	0.429103
436.694770	0.428364
437.071222	0.426210
437.447614	0.430081
437.823946	0.435472
438.200218	0.425041
438.576429	0.434119
438.952580	0.427189
439.328670	0.423549
439.704700	0.429624
440.080670	0.430243
440.456580	0.410971
440.832429	0.418900
441.208218	0.430024
441.583947	0.418438
441.959616	0.418734
442.335224	0.423135
442.710773	0.413863
443.086261	0.411954
443.461689	0.425537
443.837057	0.415665
444.212365	0.405678
444.587612	0.412225
444.962800	0.401937
445.337927	0.403826
445.712995	0.429650
446.088002	0.392058
446.462949	0.402711
446.837837	0.406689
447.212664	0.395872
447.587431	0.387301
447.962139	0.357845
448.336786	0.317331
448.711374	0.327896
449.085901	0.371290
449.460369	0.375933
449.834776	0.379281
450.209124	0.358682
450.583412	0.350893
450.957640	0.343887
451.331808	0.355164
451.705917	0.378915
452.079965	0.383275
452.453954	0.371396
452.827883	0.378663
453.201752	0.373389
453.575562	0.384352
453.949311	0.373122
454.323001	0.379283
454.696632	0.374873
455.070202	0.367384
455.443713	0.359255
455.817164	0.354400
456.190556	0.350490
456.563888	0.347053
456.937160	0.344588
457.310373	0.361664
457.683526	0.360263
458.056619	0.366170
458.429653	0.366922
458.802628	0.370132
459.175542	0.364892
459.548398	0.347499
459.921194	0.339607
460.293930	0.339856
460.666607	0.317637
461.039224	0.306026
461.411782	0.301698
461.784280	0.300683
462.156719	0.304808
462.529099	0.309542
462.901419	0.325383
463.273680	0.329902
463.645882	0.329199
464.018024	0.335183
464.390106	0.327673
464.762130	0.312800
465.134094	0.295887
465.505999	0.265113
465.877845	0.235578
466.249631	0.222657
466.621358	0.230140
466.993026	0.243773
467.364634	0.249949
467.736184	0.258950
468.107674	0.267709
468.479105	0.266550
468.850477	0.273339
469.221790	0.280365
469.593043	0.290777
469.964238	0.295405
470.335373	0.294890
470.706449	0.292865
471.077467	0.293693
471.448425	0.255811
471.819324	0.231437
472.190164	0.230840
472.560945	0.259536
472.931667	0.281817
473.302330	0.286008
473.672934	0.297588
474.043479	0.286070
474.413965	0.287747
474.784393	0.291349
475.154761	0.286531
475.525070	0.283598
475.895321	0.288940
476.265513	0.283320
476.635645	0.278803
477.005719	0.278942
477.375734	0.275192
477.745691	0.268807
478.115588	0.264806
478.485427	0.258483
478.855207	0.245582
479.224928	0.228031
479.594591	0.216451
479.964194	0.219900
480.333739	0.220781
480.703226	0.222335
481.072653	0.220669
481.442022	0.216572
481.811333	0.212969
482.180584	0.216586
482.549777	0.221664
482.918912	0.225250
483.287988	0.224808
483.657005	0.224645
484.025964	0.230905
484.394864	0.228401
484.763706	0.228850
485.132489	0.233569
485.501213	0.234387
485.869879	0.232781
486.238487	0.236194
486.607036	0.233838
486.975527	0.238520
487.343959	0.234481
487.712333	0.233332
488.080648	0.234650
488.448905	0.234050
488.817104	0.235385
489.185244	0.229778
489.553326	0.226746
489.921350	0.216503
490.289315	0.198980
490.657222	0.194078
491.025070	0.195217
491.392861	0.197077
491.760593	0.203047
492.128267	0.208398
492.495883	0.214217
492.863440	0.220210
493.230939	0.226602
493.598380	0.227867
493.965763	0.229984
494.333088	0.232510
494.700354	0.233866
495.067563	0.232684
495.434713	0.236302
495.801805	0.233935
496.168839	0.235596
496.535815	0.236978
496.902733	0.236879
497.269593	0.238442
497.636395	0.236370
498.003139	0.236339
498.369825	0.239590
498.736453	0.235806
499.103023	0.237488
499.469535	0.237121
499.835989	0.237256
500.202385	0.237953
500.568723	0.241319
500.935003	0.236704
501.301226	0.240535
501.667390	0.235195
502.033497	0.233213
502.399546	0.236310
502.765537	0.237688
503.131470	0.236459
503.497345	0.232465
503.863163	0.241330
504.228923	0.234426
504.594625	0.233076
504.960269	0.238144
505.325856	0.233655
505.691385	0.237909
506.056856	0.234790
506.422270	0.234319
506.787625	0.236625
507.152924	0.234109
507.518164	0.234238
507.883347	0.236068
508.248472	0.237991
508.613540	0.233038
508.978550	0.235603
509.343503	0.235870
509.708398	0.233568
510.073236	0.231380
510.438016	0.231047
510.802738	0.232181
511.167403	0.231384
511.532010	0.233054
511.896561	0.228695
512.261053	0.227526
512.625488	0.229516
512.989866	0.229827
513.354186	0.229954
513.718449	0.231849
514.082655	0.228229
514.446803	0.230439
514.810894	0.228003
515.174927	0.230874
515.538904	0.230242
515.902822	0.227009
516.266684	0.229466
516.630488	0.230963
516.994235	0.229594
517.357925	0.228192
517.721558	0.226547
518.085133	0.225909
518.448651	0.226176
518.812112	0.228461
519.175516	0.227977
519.538863	0.225659
519.902152	0.227401
520.265385	0.223839
520.628560	0.225951
520.991678	0.226289
521.354739	0.225071
521.717743	0.226211
522.080690	0.226793
522.443580	0.224128
522.806413	0.225242
523.169189	0.224348
523.531908	0.223354
523.894569	0.226647
524.257174	0.226765
524.619722	0.224426
524.982213	0.225725
525.344647	0.224558
525.707025	0.225550
526.069345	0.223460
526.431608	0.225428
526.793815	0.223200
527.155964	0.227402
527.518057	0.225919
527.880093	0.227279
528.242072	0.225792
528.603995	0.227701
528.965860	0.229510
529.327669	0.228309
529.689421	0.229127
530.051117	0.229994
530.412755	0.227616
530.774337	0.230200
531.135862	0.230492
531.497331	0.229689
531.858743	0.232646
532.220098	0.229309
532.581396	0.231879
532.942638	0.232344
533.303824	0.233247
533.664953	0.233162
534.026025	0.234610
534.387040	0.232861
534.747999	0.232533
535.108902	0.231417
535.469748	0.236602
535.830537	0.234326
536.191270	0.234734
536.551947	0.234142
536.912567	0.234311
537.273131	0.236113
537.633638	0.236206
537.994089	0.236637
538.354483	0.237705
538.714821	0.234682
539.075103	0.234323
539.435328	0.235174
539.795497	0.238947
540.155609	0.235575
540.515665	0.233808
540.875665	0.239111
541.235609	0.237985
541.595496	0.237944
541.955328	0.234318
542.315102	0.237009
542.674821	0.238092
543.034483	0.238200
543.394090	0.237739
543.753640	0.239899
544.113134	0.234655
544.472571	0.238128
544.831953	0.234813
545.191278	0.238931
545.550548	0.238367
545.909761	0.235168
546.268918	0.235692
546.628019	0.234289
546.987064	0.236846
547.346053	0.238981
547.704986	0.236664
548.063863	0.237006
548.422684	0.237015
548.781449	0.238882
549.140158	0.236837
549.498811	0.239508
549.857408	0.242710
550.215949	0.237504
550.574434	0.240510
550.932864	0.238279
551.291237	0.237130
551.649555	0.238246
552.007817	0.238127
552.366022	0.239074
552.724173	0.239527
553.082267	0.239495
553.440305	0.236301
553.798288	0.240934
554.156215	0.237379
554.514086	0.238253
554.871902	0.241101
555.229661	0.240632
555.587365	0.240966
555.945014	0.243790
556.302606	0.240203
556.660143	0.242945
557.017625	0.239343
557.375050	0.241645
557.732421	0.238705
558.089735	0.240928
558.446994	0.240925
558.804197	0.240032
559.161345	0.239850
559.518437	0.243381
559.875474	0.240951
560.232455	0.240566
560.589381	0.241927
560.946251	0.241648
561.303065	0.239482
561.659825	0.240864
562.016528	0.242075
562.373177	0.245149
562.729770	0.242511
563.086307	0.244530
563.442789	0.242365
563.799216	0.245137
564.155587	0.243890
564.511904	0.245016
564.868164	0.245130
565.224370	0.244974
565.580520	0.246917
565.936615	0.246490
566.292654	0.249535
566.648638	0.246607
567.004567	0.247646
567.360441	0.248168
567.716260	0.250253
568.072023	0.247914
568.427732	0.248324
568.783385	0.251226
569.138982	0.249139
569.494525	0.248674
569.850013	0.251747
570.205445	0.250070
570.560823	0.252422
570.916145	0.254703
571.271412	0.253003
571.626625	0.254212
571.981782	0.254548
572.336884	0.255536
572.691931	0.255497
573.046923	0.256456
573.401860	0.257827
573.756743	0.259501
574.111570	0.258497
574.466342	0.258819
574.821059	0.257910
575.175722	0.260682
575.530330	0.260641
575.884882	0.260917
576.239380	0.263000
576.593823	0.263819
576.948211	0.263117
577.302544	0.266037
577.656823	0.265466
578.011047	0.265750
578.365216	0.266477
578.719330	0.268629
579.073389	0.268445
579.427394	0.269487
579.781344	0.270401
580.135239	0.271778
580.489080	0.271406
580.842866	0.274308
581.196597	0.274727
581.550273	0.272974
581.903895	0.274075
582.257463	0.271880
582.610975	0.275517
582.964434	0.274657
583.317837	0.277517
583.671186	0.277707
584.024481	0.277609
584.377721	0.279971
584.730906	0.280830
585.084037	0.279760
585.437113	0.281824
585.790135	0.281156
586.143103	0.284237
586.496016	0.285557
586.848874	0.282727
587.201679	0.283520
587.554428	0.286855
587.907124	0.285760
588.259765	0.286205
588.612352	0.286727
588.964884	0.290586
589.317362	0.290346
589.669786	0.289980
590.022155	0.288459
590.374470	0.288039
590.726731	0.290190
591.078937	0.294604
591.431090	0.291109
591.783188	0.295833
592.135232	0.295775
592.487222	0.295572
592.839157	0.294028
593.191038	0.296112
593.542866	0.298147
593.894639	0.301961
594.246358	0.299779
594.598022	0.298935
594.949633	0.303154
595.301190	0.303612
595.652692	0.302745
596.004141	0.298638
596.355535	0.306888
596.706876	0.307487
597.058162	0.309710
597.409395	0.307127
597.760573	0.304754
598.111698	0.308067
598.462768	0.308208
598.813785	0.309876
599.164748	0.310978
599.515657	0.311216
599.866511	0.314562
600.217312	0.309876
600.568060	0.315500
600.918753	0.311913
601.269392	0.312659
601.619978	0.315864
601.970510	0.313629
602.320988	0.313863
602.671412	0.311287
603.021783	0.314100
603.372100	0.315508
603.722363	0.314778
604.072572	0.315849
604.422728	0.315730
604.772830	0.317755
605.122878	0.317265
605.472872	0.317378
605.822813	0.316301
606.172701	0.318758
606.522534	0.316264
606.872314	0.316125
607.222041	0.316908
607.571714	0.315261
607.921333	0.316406
608.270899	0.316343
608.620411	0.312930
608.969870	0.316953
609.319276	0.316867
609.668627	0.317181
610.017926	0.315362
610.367171	0.314123
610.716362	0.314724
611.065500	0.314611
611.414585	0.313707
611.763616	0.314341
612.112594	0.314306
612.461518	0.314071
612.810389	0.311715
613.159207	0.314232
613.507971	0.316237
613.856682	0.311569
614.205340	0.313620
614.553945	0.309877
614.902496	0.314025
615.250994	0.311815
615.599439	0.312563
615.947830	0.312269
616.296169	0.313110
616.644454	0.312311
616.992686	0.312726
617.340864	0.310547
617.688990	0.314426
618.037063	0.311168
618.385082	0.312853
618.733048	0.309816
619.080961	0.311678
619.428821	0.311375
619.776628	0.310638
620.124382	0.312851
620.472083	0.312820
620.819731	0.312690
621.167326	0.316317
621.514868	0.316198
621.862357	0.320309
622.209793	0.320293
622.557176	0.322065
622.904506	0.323256
623.251783	0.325018
623.599007	0.327601
623.946179	0.327257
624.293297	0.329145
624.640363	0.333316
624.987376	0.333402
625.334336	0.336304
625.681243	0.338491
626.028097	0.339006
626.374899	0.340199
626.721647	0.340322
627.068343	0.343538
627.414987	0.344448
627.761577	0.346732
628.108115	0.345195
628.454600	0.350083
628.801032	0.347477
629.147412	0.349465
629.493739	0.349880
629.840014	0.353453
630.186236	0.350180
630.532405	0.356098
630.878521	0.353679
631.224585	0.355700
631.570597	0.359370
631.916556	0.357663
632.262462	0.358069
632.608316	0.359762
632.954117	0.360791
633.299866	0.361995
633.645562	0.362058
633.991206	0.366449
634.336797	0.369511
634.682336	0.371524
635.027823	0.373237
635.373257	0.373751
635.718639	0.377440
636.063968	0.376873
636.409245	0.382424
636.754470	0.382762
637.099642	0.385447
637.444762	0.388625
637.789829	0.387539
638.134845	0.391116
638.479808	0.391786
638.824719	0.391776
639.169577	0.395979
639.514383	0.394510
639.859137	0.399273
640.203839	0.399057
640.548489	0.399536
640.893086	0.401170
641.237632	0.402249
641.582125	0.400964
641.926566	0.402639
642.270955	0.402666
642.615292	0.402927
642.959576	0.401859
643.303809	0.402763
643.647990	0.402531
643.992118	0.402810
644.336195	0.406930
644.680219	0.404539
645.024192	0.405197
645.368112	0.398906
645.711981	0.398166
646.055797	0.393257
646.399562	0.395259
646.743274	0.387564
647.086935	0.384882
647.430544	0.384930
647.774101	0.384077
648.117606	0.384071
648.461059	0.384197
648.804460	0.386431
649.147810	0.392019
649.491108	0.393925
649.834354	0.395109
650.177548	0.400141
650.520690	0.405985
650.863781	0.406929
651.206820	0.406515
651.549807	0.411379
651.892742	0.414501
652.235626	0.414170
652.578458	0.415627
652.921238	0.421362
653.263967	0.419380
653.606644	0.423071
653.949269	0.423191
654.291843	0.426949
654.634365	0.423496
654.976836	0.427000
655.319255	0.426652
655.661622	0.428762
656.003938	0.428707
656.346203	0.431795
656.688416	0.429650
657.030577	0.433360
657.372687	0.434718
657.714746	0.435434
658.056753	0.433058
658.398708	0.436541
658.740612	0.437490
659.082465	0.433760
659.424266	0.434744
659.766016	0.433656
660.107715	0.436067
660.449362	0.435178
660.790958	0.436068
661.132503	0.436363
661.473996	0.433751
661.815438	0.435134
662.156829	0.435112
662.498168	0.436410
662.839456	0.437436
663.180693	0.435382
663.521879	0.434668
663.863013	0.436201
664.204097	0.434624
664.545129	0.432065
664.886110	0.431595
665.227040	0.429183
665.567918	0.431279
665.908746	0.429466
666.249522	0.429116
666.590248	0.430453
666.930922	0.428461
667.271545	0.427205
667.612118	0.427547
667.952639	0.429087
668.293109	0.428279
668.633528	0.430811
668.973896	0.430591
669.314213	0.430948
669.654480	0.432595
669.994695	0.432613
670.334859	0.433816
670.674973	0.434489
671.015035	0.434056
671.355047	0.433512
671.695008	0.434949
672.034918	0.437143
672.374777	0.436285
672.714585	0.437375
673.054342	0.437285
673.394049	0.437395
673.733705	0.435259
674.073310	0.435990
674.412864	0.439355
674.752368	0.439467
675.091820	0.440189
675.431223	0.444451
675.770574	0.444299
676.109875	0.447241
676.449125	0.447325
676.788324	0.449666
677.127473	0.454801
677.466571	0.454539
677.805619	0.456366
678.144616	0.457477
678.483562	0.459436
678.822458	0.461653
679.161303	0.462973
679.500098	0.462555
679.838842	0.464702
680.177535	0.464284
680.516179	0.462916
680.854771	0.461844
681.193314	0.455161
681.531805	0.446966
681.870247	0.435060
682.208638	0.427445
682.546978	0.426597
682.885268	0.428913
683.223508	0.434828
683.561697	0.438268
683.899836	0.441222
684.237925	0.444547
684.575963	0.446755
684.913951	0.450194
685.251889	0.445893
685.589776	0.447751
685.927614	0.450460
686.265401	0.444701
686.603137	0.445836
686.940824	0.439770
687.278460	0.438123
687.616046	0.437403
687.953582	0.432426
688.291068	0.433442
688.628504	0.429429
688.965889	0.431416
689.303224	0.435881
689.640510	0.439854
689.977745	0.445943
690.314930	0.453732
690.652065	0.457900
690.989150	0.465806
691.326185	0.472084
691.663170	0.476492
692.000105	0.483746
692.336990	0.490320
692.673825	0.493654
693.010610	0.500045
693.347345	0.505237
693.684030	0.507099
694.020665	0.512223
694.357251	0.520276
694.693786	0.520133
695.030272	0.524033
695.366707	0.527997
695.703093	0.531540
696.039429	0.529220
696.375716	0.530993
696.711952	0.533984
697.048139	0.535692
697.384276	0.537728
697.720363	0.535579
698.056400	0.534803
698.392388	0.540448
698.728326	0.543571
699.064214	0.546586
699.400053	0.546878
699.735842	0.550773
700.071581	0.553469
700.407270	0.556131
700.742910	0.558126
701.078501	0.565565
701.414042	0.565883
701.749533	0.568465
702.084974	0.577615
702.420366	0.570295
702.755709	0.577292
703.091002	0.585117
703.426246	0.578592
703.761440	0.585190
704.096584	0.589765
704.431679	0.586932
704.766725	0.588464
705.101721	0.590472
705.436668	0.586269
705.771565	0.593124
706.106413	0.590058
706.441212	0.585643
706.775961	0.583571
707.110661	0.586814
707.445311	0.583470
707.779913	0.580090
708.114465	0.578796
708.448967	0.575683
708.783421	0.567503
709.117825	0.561879
709.452180	0.562471
709.786485	0.555805
710.120742	0.545974
710.454949	0.547672
710.789107	0.539761
711.123216	0.531168
711.457275	0.532767
711.791286	0.523788
712.125247	0.521849
712.459159	0.533219
712.793023	0.525508
713.126837	0.529216
713.460602	0.530700
713.794318	0.540180
714.127985	0.538084
714.461602	0.548161
714.795171	0.552081
715.128691	0.559542
715.462162	0.567429
715.795584	0.572672
716.128957	0.575991
716.462281	0.581784
716.795556	0.585743
717.128782	0.590167
717.461960	0.600536
717.795088	0.598603
718.128167	0.604843
718.461198	0.613352
718.794180	0.614764
719.127113	0.617207
719.459997	0.620516
719.792833	0.627091
720.125619	0.628097
720.458357	0.633253
720.791046	0.632942
721.123686	0.637637
721.456278	0.644275
721.788821	0.640496
722.121315	0.645998
722.453761	0.649819
722.786158	0.647762
723.118506	0.643752
723.450805	0.652007
723.783056	0.648439
724.115259	0.645272
724.447412	0.644602
724.779518	0.646254
725.111574	0.645119
725.443582	0.641109
725.775542	0.643090
726.107453	0.634940
726.439315	0.635250
726.771129	0.633373
727.102895	0.626678
727.434612	0.619345
727.766281	0.617676
728.097901	0.616864
728.429473	0.616655
728.760996	0.615147
729.092471	0.614670
729.423897	0.619016
729.755276	0.618208
730.086606	0.618047
730.417887	0.612226
730.749120	0.603318
731.080305	0.593831
731.411442	0.590564
731.742530	0.595022
732.073570	0.594272
732.404562	0.586660
732.735506	0.587969
733.066401	0.592672
733.397249	0.601615
733.728048	0.613323
734.058798	0.625719
734.389501	0.636723
734.720156	0.646627
735.050762	0.654083
735.381320	0.654171
735.711831	0.664760
736.042293	0.669884
736.372707	0.664690
736.703073	0.669531
737.033391	0.671841
737.363661	0.668716
737.693883	0.663941
738.024056	0.662534
738.354182	0.663065
738.684260	0.652797
739.014290	0.648519
739.344272	0.648952
739.674207	0.642282
740.004093	0.642244
740.333931	0.643056
740.663722	0.642385
740.993464	0.644085
741.323159	0.646838
741.652806	0.652570
741.982405	0.657696
742.311956	0.661476
742.641460	0.663363
742.970915	0.667330
743.300323	0.674460
743.629683	0.681257
743.958996	0.683001
744.288260	0.688063
744.617477	0.693365
744.946647	0.695496
745.275768	0.700167
745.604842	0.700828
745.933869	0.710446
746.262847	0.710826
746.591778	0.703921
746.920662	0.710306
747.249498	0.716773
747.578286	0.708031
747.907027	0.703324
748.235720	0.705503
748.564365	0.699708
748.892963	0.700489
749.221514	0.702914
749.550017	0.708042
749.878473	0.707405
750.206881	0.714487
750.535242	0.715772
750.863555	0.714789
751.191821	0.716122
751.520039	0.719238
751.848210	0.724228
752.176334	0.716737
752.504411	0.715478
752.832440	0.723325
753.160421	0.727395
753.488356	0.725814
753.816243	0.724165
754.144082	0.731679
754.471875	0.735338
754.799620	0.730862
755.127318	0.732137
755.454969	0.731816
755.782572	0.731994
756.110129	0.737202
756.437638	0.739841
756.765100	0.735484
757.092515	0.733543
757.419882	0.732533
757.747203	0.737595
758.074477	0.736957
758.401703	0.733112
758.728882	0.728673
759.056014	0.728405
759.383099	0.727536
759.710138	0.727900
760.037129	0.724868
760.364073	0.718551
760.690970	0.721506
761.017820	0.726416
761.344623	0.722697
761.671379	0.713502
761.998088	0.701393
762.324751	0.678703
762.651366	0.637579
762.977935	0.570529
763.304456	0.518136
763.630931	0.509123
763.957359	0.547896
764.283740	0.592283
764.610074	0.620122
764.936362	0.650587
765.262602	0.677146
765.588796	0.698693
765.914943	0.716667
766.241044	0.734781
766.567097	0.741768
766.893104	0.750750
767.219064	0.756497
767.544978	0.764050
767.870845	0.777378
768.196665	0.781670
768.522438	0.778565
768.848165	0.780576
769.173846	0.790018
769.499479	0.793607
769.825066	0.797389
770.150607	0.802208
770.476101	0.797859
770.801548	0.798862
771.126949	0.810858
771.452303	0.814111
771.777611	0.812930
772.102872	0.811825
772.428087	0.817898
772.753256	0.820884
773.078378	0.823535
773.403453	0.833594
773.728482	0.836233
774.053465	0.829247
774.378401	0.833041
774.703291	0.841972
775.028135	0.841126
775.352932	0.843027
775.677683	0.845804
776.002388	0.846541
776.327046	0.845380
776.651658	0.848999
776.976224	0.852428
777.300743	0.852847
777.625216	0.854956
777.949643	0.856056
778.274024	0.856784
778.598359	0.858169
778.922647	0.857233
779.246889	0.856922
779.571086	0.861545
779.895236	0.863806
780.219339	0.860217
780.543397	0.857427
780.867409	0.855777
781.191374	0.858432
781.515294	0.860586
781.839167	0.858799
782.162995	0.862698
782.486776	0.859506
782.810511	0.860669
783.134201	0.864500
783.457844	0.861257
783.781441	0.864578
784.104993	0.869864
784.428498	0.870464
784.751958	0.866280
785.075372	0.869460
785.398739	0.872371
785.722061	0.869177
786.045337	0.864367
786.368568	0.868272
786.691752	0.872372
787.014891	0.857362
787.337983	0.848504
787.661030	0.840848
787.984031	0.823952
788.306987	0.810179
788.629897	0.813013
788.952760	0.816175
789.275579	0.821229
789.598351	0.836731
789.921078	0.848567
790.243759	0.851688
790.566395	0.855973
790.888984	0.862856
791.211529	0.868604
791.534027	0.871735
791.856480	0.873576
792.178888	0.878358
792.501249	0.881309
792.823566	0.882492
793.145836	0.882871
793.468062	0.884098
793.790241	0.884317
794.112375	0.883397
794.434464	0.877879
794.756507	0.877547
795.078505	0.878132
795.400457	0.871770
795.722364	0.860610
796.044226	0.852249
796.366042	0.851707
796.687812	0.855122
797.009538	0.851503
797.331218	0.853727
797.652852	0.859754
797.974442	0.863842
798.295986	0.864348
798.617484	0.866955
798.938938	0.870279
799.260346	0.876272
799.581709	0.877326
799.903026	0.879835
800.224299	0.879883
800.545526	0.884061
800.866708	0.887898
801.187845	0.891933
801.508936	0.891173
801.829983	0.889188
802.150984	0.893071
802.471940	0.897604
802.792851	0.896475
803.113717	0.898198
803.434538	0.895376
803.755314	0.897902
804.076045	0.899835
804.396731	0.900216
804.717372	0.900104
805.037967	0.902198
805.358518	0.899851
805.679024	0.896293
805.999485	0.896683
806.319901	0.897171
806.640272	0.898540
806.960598	0.896585
807.280879	0.892953
807.601115	0.891606
807.921306	0.895247
808.241453	0.895789
808.561554	0.893558
808.881611	0.894104
809.201623	0.896477
809.521590	0.896240
809.841513	0.896801
810.161390	0.896518
810.481223	0.896756
810.801011	0.901614
811.120755	0.903088
811.440453	0.900890
811.760107	0.899362
812.079716	0.900327
812.399281	0.904026
812.718801	0.906251
813.038276	0.907290
813.357707	0.906474
813.677093	0.903614
813.996434	0.907271
814.315731	0.908122
814.634983	0.910213
814.954191	0.906755
815.273354	0.904973
815.592473	0.901740
815.911547	0.901773
816.230577	0.899472
816.549562	0.896661
816.868502	0.896033
817.187399	0.893517
817.506250	0.887057
817.825058	0.889547
818.143821	0.885739
818.462539	0.880815
818.781213	0.873013
819.099843	0.860732
819.418429	0.845476
819.736970	0.829476
820.055466	0.809555
820.373919	0.784739
820.692327	0.751075
821.010691	0.715950
821.329011	0.638308
821.647286	0.523314
821.965517	0.409005
822.283704	0.366070
822.601847	0.367105
822.919945	0.402974
823.237999	0.436833
823.556010	0.483324
823.873976	0.539625
824.191897	0.589620
824.509775	0.633225
824.827609	0.678649
825.145398	0.700295
825.463144	0.704130
825.780845	0.687066
826.098502	0.667745
826.416116	0.621954
826.733685	0.578323
827.051210	0.569218
827.368692	0.583840
827.686129	0.621897
828.003522	0.674942
828.320872	0.723091
828.638177	0.766088
828.955439	0.799985
829.272656	0.820594
829.589830	0.838813
829.906960	0.854168
830.224046	0.866395
830.541088	0.877747
830.858086	0.881373
831.175041	0.887845
831.491952	0.885838
831.808819	0.883451
832.125642	0.876599
832.442421	0.861780
832.759157	0.840423
833.075849	0.793201
833.392497	0.729890
833.709101	0.688959
834.025662	0.698253
834.342179	0.728995
834.658653	0.769008
834.975083	0.805355
835.291469	0.831630
835.607811	0.853775
835.924110	0.870985
836.240366	0.887788
836.556578	0.902476
836.872746	0.909076
837.188871	0.913693
837.504952	0.919423
837.820990	0.924484
838.136984	0.927654
838.452935	0.929627
838.768842	0.932805
839.084706	0.924404
839.400526	0.898684
839.716303	0.858233
840.032037	0.836508
840.347727	0.839599
840.663373	0.857440
840.978977	0.879905
841.294537	0.902242
841.610054	0.918692
841.925527	0.926285
842.240957	0.932817
842.556344	0.940496
842.871687	0.945336
843.186987	0.949523
843.502244	0.950477
843.817458	0.951338
844.132629	0.955759
844.447756	0.960259
844.762840	0.961641
845.077881	0.960599
845.392879	0.960128
845.707833	0.962940
846.022745	0.964796
846.337613	0.964229
846.652438	0.966354
846.967221	0.964988
847.281960	0.964945
847.596656	0.967609
847.911309	0.966085
848.225919	0.967789
848.540485	0.968707
848.855009	0.969128
849.169490	0.968740
849.483928	0.969543
849.798323	0.969385
850.112675	0.969864
850.426984	0.970894
850.741251	0.970005
851.055474	0.970559
851.369654	0.967727
851.683792	0.968811
851.997887	0.969545
852.311938	0.970083
852.625947	0.969874
852.939914	0.968899
853.253837	0.969546
853.567718	0.971403
853.881555	0.970977
854.195350	0.967897
854.509103	0.970602
854.822812	0.970493
855.136479	0.969862
855.450103	0.970235
855.763685	0.968380
856.077224	0.968647
856.390720	0.971126
856.704173	0.970976
857.017584	0.968535
857.330953	0.967115
857.644278	0.967297
857.957561	0.967856
858.270802	0.969072
858.584000	0.968493
858.897155	0.966445
859.210268	0.967597
859.523339	0.967520
859.836367	0.969806
860.149352	0.971443
860.462295	0.968712
860.775195	0.969971
861.088054	0.969441
861.400869	0.969929
861.713642	0.971657
862.026373	0.970390
862.339062	0.970510
862.651708	0.967796
862.964312	0.968441
863.276873	0.970226
863.589392	0.968135
863.901869	0.966286
864.214303	0.966145
864.526696	0.963684
864.839045	0.963657
865.151353	0.962624
865.463619	0.962852
865.775842	0.961971
866.088023	0.962359
866.400162	0.962579
866.712258	0.962932
867.024313	0.961834
867.336325	0.964022
867.648296	0.963469
867.960224	0.963402
868.272110	0.960980
868.583954	0.963764
868.895755	0.964266
869.207515	0.961952
869.519233	0.959315
869.830909	0.961439
870.142542	0.962366
870.454134	0.962859
870.765684	0.959531
871.077191	0.957873
871.388657	0.959407
871.700081	0.959112
872.011463	0.958130
872.322803	0.958096
872.634101	0.956842
872.945357	0.954546
873.256571	0.953240
873.567744	0.952759
873.878874	0.954224
874.189963	0.953045
874.501010	0.951290
874.812015	0.949907
875.122979	0.952154
875.433900	0.953730
875.744780	0.953984
876.055618	0.950958
876.366415	0.950210
876.677169	0.950954
876.987882	0.952275
877.298554	0.951187
877.609183	0.947469
877.919771	0.944187
878.230317	0.942611
878.540822	0.940027
878.851285	0.935863
879.161707	0.927946
879.472087	0.914720
879.782425	0.897865
880.092722	0.864372
880.402977	0.811402
880.713191	0.751526
881.023363	0.692020
881.333494	0.657388
881.643583	0.629830
881.953631	0.629151
882.263637	0.658589
882.573602	0.697911
882.883526	0.724379
883.193408	0.747184
883.503248	0.770112
883.813048	0.797472
884.122806	0.826625
884.432522	0.850320
884.742197	0.870599
885.051831	0.881174
885.361424	0.890644
885.670975	0.903259
885.980485	0.913632
886.289954	0.919730
886.599382	0.924136
886.908768	0.927648
887.218113	0.934036
887.527417	0.939417
887.836680	0.941853
888.145901	0.943197
888.455082	0.945345
888.764221	0.950418
889.073319	0.952395
889.382376	0.953699
889.691392	0.952996
890.000366	0.952734
890.309300	0.954667
890.618193	0.953223
890.927044	0.951849
891.235855	0.951777
891.544625	0.952587
891.853353	0.952255
892.162041	0.949708
892.470687	0.942416
892.779293	0.938263
893.087858	0.933643
893.396381	0.926902
893.704864	0.912618
894.013306	0.888562
894.321707	0.861204
894.630068	0.847594
894.938387	0.842326
895.246665	0.843543
895.554903	0.856546
895.863100	0.869538
896.171256	0.887202
896.479371	0.907961
896.787446	0.919223
897.095480	0.925289
897.403473	0.928638
897.711425	0.932395
898.019336	0.940198
898.327207	0.941887
898.635038	0.945255
898.942827	0.944944
899.250576	0.948812
899.558284	0.952730
899.865952	0.954372
900.173579	0.955427
900.481165	0.955932
900.788711	0.959987
901.096216	0.961176
901.403681	0.962211
901.711105	0.963306
902.018489	0.963351
902.325832	0.963334
902.633135	0.960848
902.940397	0.955098
903.247619	0.943651
903.554800	0.917726
903.861941	0.878053
904.169041	0.842873
904.476101	0.824580
904.783121	0.826357
905.090100	0.842418
905.397039	0.863832
905.703938	0.886559
906.010796	0.905868
906.317614	0.922964
906.624391	0.933684
906.931129	0.943684
907.237826	0.952012
907.544483	0.959111
907.851099	0.962819
908.157675	0.968388
908.464211	0.969855
908.770707	0.972615
909.077163	0.973958
909.383578	0.973960
909.689954	0.975090
909.996289	0.976247
910.302584	0.977636
910.608839	0.979013
910.915054	0.977685
911.221229	0.977627
911.527363	0.976586
911.833458	0.977444
912.139513	0.977486
912.445527	0.974828
912.751502	0.973910
913.057436	0.972056
913.363331	0.970585
913.669186	0.965800
913.975000	0.961877
914.280775	0.955068
914.586510	0.948003
914.892205	0.935501
915.197859	0.914676
915.503475	0.886581
915.809050	0.866507
916.114585	0.861842
916.420081	0.858401
916.725536	0.854069
917.030952	0.863467
917.336328	0.876616
917.641665	0.891542
917.946961	0.906548
918.252218	0.919522
918.557435	0.926627
918.862612	0.935911
919.167750	0.942191
919.472848	0.947262
919.777906	0.952738
920.082925	0.958913
920.387904	0.963191
920.692843	0.963160
920.997743	0.963828
921.302603	0.966844
921.607423	0.969283
921.912204	0.972588
922.216946	0.971680
922.521647	0.973413
922.826310	0.975505
923.130932	0.977503
923.435516	0.978431
923.740059	0.979230
924.044564	0.979697
924.349028	0.980628
924.653454	0.983171
924.957840	0.984851
925.262186	0.984558
925.566493	0.983137
925.870761	0.985663
926.174989	0.986641
926.479178	0.987614
926.783328	0.989259
927.087438	0.989045
927.391509	0.988599
927.695541	0.990249
927.999533	0.989266
928.303486	0.989390
928.607400	0.990446
928.911275	0.989662
929.215110	0.989939
929.518906	0.990058
929.822663	0.990975
930.126381	0.991801
930.430060	0.989496
930.733699	0.990954
931.037299	0.989901
931.340861	0.991434
931.644383	0.989866
931.947866	0.989472
932.251309	0.991110
932.554714	0.990403
932.858080	0.989756
933.161407	0.990524
933.464694	0.991496
933.767943	0.989981
934.071153	0.992144
934.374323	0.991884
934.677455	0.991980
934.980548	0.992323
935.283602	0.990794
935.586617	0.991262
935.889593	0.991037
936.192530	0.991205
936.495428	0.990412
936.798287	0.992283
937.101108	0.990728
937.403890	0.989428
937.706632	0.989225
938.009336	0.987610
938.312002	0.985485
938.614628	0.985005
938.917216	0.984162
939.219765	0.982391
939.522275	0.982654
939.824747	0.983211
940.127179	0.984291
940.429573	0.985564
940.731929	0.983994
941.034246	0.984094
941.336524	0.986634
941.638763	0.986401
941.940964	0.986732
942.243126	0.986943
942.545250	0.987963
942.847335	0.987898
943.149381	0.987953
943.451389	0.988259
943.753359	0.989464
944.055290	0.991056
944.357182	0.989731
944.659036	0.989191
944.960851	0.989842
945.262628	0.989896
945.564367	0.991171
945.866067	0.990062
946.167729	0.990956
946.469352	0.989253
946.770937	0.989985
947.072484	0.990553
947.373992	0.989695
947.675462	0.990793
947.976893	0.991181
948.278286	0.989791
948.579641	0.991734
948.880958	0.990629
949.182236	0.991912
949.483476	0.992000
949.784678	0.989787
950.085841	0.991291
950.386967	0.991325
950.688054	0.991720
950.989103	0.991648
951.290114	0.988286
951.591087	0.988954
951.892021	0.989104
952.192917	0.990127
952.493776	0.988442
952.794596	0.989156
953.095378	0.988137
953.396122	0.988472
953.696828	0.988131
953.997496	0.990465
954.298126	0.990538
954.598718	0.991132
954.899272	0.990431
955.199788	0.990872
955.500266	0.992048
955.800706	0.993412
956.101108	0.994217
956.401472	0.994322
956.701798	0.994389
957.002087	0.993863
957.302337	0.993572
957.602550	0.995480
957.902724	0.994985
958.202861	0.995925
958.502960	0.996041
958.803022	0.994127
959.103045	0.995651
959.403031	0.996802
959.702979	0.995800
960.002889	0.996595
960.302762	0.994168
960.602596	0.995914
960.902393	0.994258
961.202153	0.996359
961.501875	0.997646
961.801559	0.996252
962.101205	0.996393
962.400814	0.996038
962.700385	0.996962
962.999918	0.996731
963.299414	0.997360
963.598873	0.996164
963.898293	0.996270
964.197677	0.996402
964.497022	0.997442
964.796331	0.996889
965.095601	0.997211
965.394835	0.997691
965.694030	0.997306
965.993189	0.997610
966.292309	0.996108
966.591393	0.998164
966.890439	0.998540
967.189447	0.997336
967.488419	0.997544
967.787353	0.995412
968.086249	0.996919
968.385108	0.997389
968.683930	0.998326
968.982714	0.998606
969.281462	0.997014
969.580172	0.997415
969.878844	0.998013
970.177480	0.997460
970.476078	0.997051
970.774639	0.996950
971.073162	0.997867
971.371649	0.996308
971.670098	0.996975
971.968510	0.997927
972.266885	0.995601
972.565223	0.996213
972.863524	0.995907
973.161788	0.997205
973.460014	0.997693
973.758204	0.996742
974.056356	0.996494
974.354471	0.994338
974.652550	0.996295
974.950591	0.995071
975.248595	0.997473
975.546563	0.997380
975.844493	0.999293
976.142386	0.996890
976.440243	0.997777
976.738062	0.996767
977.035845	0.998139
977.333590	0.996680
977.631299	0.997616
977.928971	0.996389
978.226606	0.996151
978.524204	0.996647
978.821765	0.998278
979.119290	0.997230
979.416777	0.997008
979.714228	0.997604
980.011642	0.996114
980.309020	0.997366
980.606360	0.998332
980.903664	0.998379
981.200931	0.995962
981.498162	0.994192
981.795356	0.995258
982.092513	0.993340
982.389633	0.994737
982.686717	0.992318
982.983764	0.991899
983.280775	0.990367
983.577749	0.990037
983.874686	0.992246
984.171587	0.991922
984.468451	0.993922
984.765279	0.994769
985.062070	0.994809
985.358824	0.995619
985.655543	0.994979
985.952224	0.996478
986.248869	0.996828
986.545478	0.996868
986.842050	0.999495
987.138586	0.995724
987.435086	0.997921
987.731549	0.999223
988.027975	0.997550
988.324366	0.997905
988.620719	0.998658
988.917037	0.996827
989.213318	0.999000
989.509563	0.999472
989.805772	0.999008
990.101944	0.998134
990.398080	0.998228
990.694180	0.998529
990.990244	0.997675
991.286271	0.998868
991.582262	0.998810
991.878217	0.997712
992.174136	0.999157
992.470019	0.998366
992.765865	0.998989
993.061676	0.997636
993.357450	0.998822
993.653188	0.997170
993.948890	0.997104
994.244556	0.997959
994.540186	0.998970
994.835780	0.996433
995.131337	0.998360
995.426859	0.996959
995.722345	0.997837
996.017795	0.996323
996.313208	0.996304
996.608586	0.995630
996.903928	0.997485
997.199234	0.997057
997.494504	0.996854
997.789738	0.996197
998.084936	0.996334
998.380099	0.997291
998.675225	0.997943
998.970316	0.999909
999.265371	0.997457
999.560390	0.998421
999.855373	0.999793
1000.150320	0.998420
1000.445232	0.998109
1000.740108	0.998825
1001.034948	0.998417
1001.329752	0.999752
1001.624521	0.999434
1001.919254	0.997697
1002.213951	0.999865
1002.508613	0.998551
1002.803239	0.999082
1003.097829	0.999167
1003.392384	0.999669
1003.686903	0.999567
1003.981386	0.999423
1004.275834	0.998936
1004.570246	0.998684
1004.864623	0.999656
1005.158964	0.999437
1005.453270	0.999337
1005.747540	0.997877
1006.041775	0.999341
1006.335974	0.999177
1006.630138	1.000127
1006.924266	0.999034
1007.218359	1.000743
1007.512416	0.999990
1007.806438	1.000096
1008.100425	0.999302
1008.394376	0.999606
1008.688292	0.999799
1008.982172	1.000668
1009.276017	0.999362
1009.569827	1.000611
1009.863602	1.000240
1010.157341	1.000416
1010.451045	0.999375
1010.744714	0.999241
1011.038347	0.998668
1011.331945	0.999773
1011.625508	0.999128
1011.919036	0.999522
1012.212528	0.999223
1012.505986	0.997428
1012.799408	0.998280
1013.092795	0.999378
1013.386147	0.999332
1013.679464	0.999383
1013.972745	0.999065
1014.265992	0.997717
1014.559204	0.999701
1014.852380	0.999522
1015.145521	0.999372
1015.438628	1.000280
1015.731699	0.999774
1016.024736	0.998575
1016.317737	0.999456
1016.610703	0.998460
1016.903635	0.999868
1017.196531	0.999742
1017.489393	1.000127
1017.782219	0.999064
1018.075011	0.999682
1018.367768	0.999091
1018.660490	1.000485
1018.953177	1.000485
1019.245829	1.000485
