Dividing Wavelength (nm)	Counts (n)	Blue Motor Position (mm): 0.000000	Red Motor Position (mm): 25.700000	
326.493990	0.999614
326.888308	0.999614
327.282561	0.999614
327.676750	1.000370
328.070874	0.998383
328.464933	0.999698
328.858929	0.998872
329.252859	0.999121
329.646726	0.998427
330.040528	0.999301
330.434265	0.999255
330.827938	1.001487
331.221547	0.999847
331.615091	0.998937
332.008571	1.000206
332.401986	0.998243
332.795338	0.999697
333.188625	0.998807
333.581847	0.999303
333.975006	0.998764
334.368100	0.998927
334.761129	0.999048
335.154095	1.000397
335.546996	0.997765
335.939833	0.994257
336.332606	0.994229
336.725315	0.994678
337.117960	0.995206
337.510540	0.995201
337.903056	0.994819
338.295508	0.992824
338.687896	0.994394
339.080220	0.995087
339.472480	0.994754
339.864676	0.993927
340.256807	0.994125
340.648875	0.995026
341.040879	0.995497
341.432818	0.994248
341.824694	0.995566
342.216506	0.994476
342.608253	0.995371
342.999937	0.993033
343.391557	0.994438
343.783113	0.992652
344.174605	0.994749
344.566033	0.994675
344.957397	0.993610
345.348697	0.992930
345.739934	0.994889
346.131106	0.993629
346.522215	0.993626
346.913260	0.994735
347.304241	0.993758
347.695159	0.993193
348.086012	0.993009
348.476802	0.994125
348.867528	0.994946
349.258191	0.993051
349.648789	0.995307
350.039324	0.995271
350.429796	0.995150
350.820203	0.996037
351.210548	0.994175
351.600828	0.993833
351.991045	0.994419
352.381198	0.993257
352.771288	0.993530
353.161314	0.994488
353.551276	0.995446
353.941175	0.994766
354.331010	0.992734
354.720782	0.995560
355.110490	0.993884
355.500135	0.994496
355.889717	0.994404
356.279235	0.994724
356.668689	0.993964
357.058080	0.993898
357.447408	0.995275
357.836672	0.994744
358.225873	0.994460
358.615010	0.994431
359.004084	0.995302
359.393095	0.994917
359.782043	0.994919
360.170927	0.994269
360.559748	0.995001
360.948505	0.993701
361.337199	0.993714
361.725830	0.994026
362.114398	0.994766
362.502903	0.994227
362.891344	0.995273
363.279722	0.993623
363.668037	0.996300
364.056289	0.993844
364.444478	0.995187
364.832603	0.993938
365.220665	0.994277
365.608665	0.993799
365.996601	0.994127
366.384474	0.994054
366.772284	0.994753
367.160031	0.992906
367.547715	0.994383
367.935336	0.994734
368.322893	0.993458
368.710388	0.994072
369.097820	0.993889
369.485189	0.994110
369.872495	0.993603
370.259738	0.992449
370.646918	0.995015
371.034035	0.994338
371.421090	0.994122
371.808081	0.993788
372.195010	0.995688
372.581875	0.994552
372.968678	0.993364
373.355418	0.994300
373.742096	0.995222
374.128710	0.995574
374.515262	0.994777
374.901751	0.994568
375.288177	0.995380
375.674540	0.995768
376.060841	0.993871
376.447079	0.996216
376.833254	0.994705
377.219367	0.994463
377.605417	0.995586
377.991404	0.994872
378.377329	0.995687
378.763191	0.994225
379.148991	0.997141
379.534727	0.995929
379.920402	0.995357
380.306013	0.996019
380.691563	0.996993
381.077049	0.996524
381.462474	0.995757
381.847835	0.995156
382.233134	0.995959
382.618371	0.996035
383.003545	0.995590
383.388657	0.996372
383.773706	0.996184
384.158693	0.995958
384.543618	0.996295
384.928480	0.997266
385.313280	0.996740
385.698017	0.997233
386.082692	0.996683
386.467305	0.995864
386.851856	0.996779
387.236344	0.996166
387.620770	0.996003
388.005133	0.997405
388.389435	0.997277
388.773674	0.996003
389.157851	0.996603
389.541965	0.996808
389.926018	0.996400
390.310008	0.997500
390.693936	0.996061
391.077802	0.997119
391.461606	0.997094
391.845348	0.996864
392.229027	0.997346
392.612645	0.996326
392.996200	0.998789
393.379694	0.997066
393.763125	0.997357
394.146494	0.997602
394.529801	0.997008
394.913047	0.997892
395.296230	0.997664
395.679351	0.997513
396.062410	0.996466
396.445408	0.998287
396.828343	0.997896
397.211217	0.997844
397.594028	0.998000
397.976778	0.997477
398.359466	0.997047
398.742092	0.996713
399.124656	0.996950
399.507158	0.998348
399.889598	0.997281
400.271977	0.996685
400.654294	0.997582
401.036549	0.997958
401.418742	0.998250
401.800874	0.997050
402.182944	0.997415
402.564952	0.996653
402.946898	0.997770
403.328783	0.998346
403.710606	0.997089
404.092367	0.997465
404.474067	0.998606
404.855705	0.996883
405.237282	0.997629
405.618797	0.997617
406.000250	0.997234
406.381642	0.997959
406.762972	0.997264
407.144240	0.998648
407.525447	0.997983
407.906593	0.997731
408.287677	0.998237
408.668700	0.998440
409.049661	0.996694
409.430560	0.998057
409.811399	0.997761
410.192176	0.997331
410.572891	0.997934
410.953545	0.997692
411.334138	0.996960
411.714669	0.998090
412.095139	0.997922
412.475547	0.998515
412.855894	0.998175
413.236180	0.998065
413.616405	0.997533
413.996568	0.998775
414.376670	0.997432
414.756711	0.997531
415.136691	0.997944
415.516609	0.998104
415.896466	0.997156
416.276262	0.996881
416.655997	0.997936
417.035670	0.997435
417.415283	0.998059
417.794834	0.997512
418.174324	0.997573
418.553753	0.998028
418.933121	0.997837
419.312428	0.998415
419.691674	0.998055
420.070859	0.998397
420.449983	0.998460
420.829045	0.997157
421.208047	0.998875
421.586988	0.998754
421.965867	0.997385
422.344686	0.998394
422.723444	0.997401
423.102141	0.997858
423.480777	0.998518
423.859352	0.998361
424.237866	0.997511
424.616319	0.998152
424.994712	0.997516
425.373044	0.997912
425.751314	0.997975
426.129524	0.997017
426.507673	0.997914
426.885762	0.998470
427.263789	0.998220
427.641756	0.996959
428.019662	0.998079
428.397508	0.997384
428.775292	0.997365
429.153016	0.998035
429.530679	0.997604
429.908282	0.998524
430.285824	0.997305
430.663305	0.996088
431.040726	0.997158
431.418086	0.998821
431.795385	0.997643
432.172624	0.996480
432.549802	0.997853
432.926920	0.997500
433.303977	0.996067
433.680974	0.997102
434.057910	0.996653
434.434786	0.996427
434.811601	0.996711
435.188355	0.995526
435.565050	0.994846
435.941683	0.996318
436.318257	0.996332
436.694770	0.994482
437.071222	0.993788
437.447614	0.994320
437.823946	0.993645
438.200218	0.993172
438.576429	0.992109
438.952580	0.992330
439.328670	0.990817
439.704700	0.989631
440.080670	0.988912
440.456580	0.987132
440.832429	0.986058
441.208218	0.984960
441.583947	0.983259
441.959616	0.981944
442.335224	0.980642
442.710773	0.979896
443.086261	0.977064
443.461689	0.975030
443.837057	0.972460
444.212365	0.970987
444.587612	0.968356
444.962800	0.965547
445.337927	0.963852
445.712995	0.962095
446.088002	0.957940
446.462949	0.955663
446.837837	0.953026
447.212664	0.949648
447.587431	0.945163
447.962139	0.937813
448.336786	0.929853
448.711374	0.927671
449.085901	0.928972
449.460369	0.926405
449.834776	0.921289
450.209124	0.914208
450.583412	0.907503
450.957640	0.902547
451.331808	0.898871
451.705917	0.897594
452.079965	0.892597
452.453954	0.885942
452.827883	0.881871
453.201752	0.875805
453.575562	0.873009
453.949311	0.863030
454.323001	0.858702
454.696632	0.851843
455.070202	0.842665
455.443713	0.834090
455.817164	0.826706
456.190556	0.817434
456.563888	0.809219
456.937160	0.802782
457.310373	0.800580
457.683526	0.793043
458.056619	0.787268
458.429653	0.779751
458.802628	0.773174
459.175542	0.764484
459.548398	0.749688
459.921194	0.739081
460.293930	0.731518
460.666607	0.711499
461.039224	0.698700
461.411782	0.689466
461.784280	0.680727
462.156719	0.674654
462.529099	0.668145
462.901419	0.667679
463.273680	0.660769
463.645882	0.653044
464.018024	0.646268
464.390106	0.634789
464.762130	0.618932
465.134094	0.600800
465.505999	0.576808
465.877845	0.552235
466.249631	0.537420
466.621358	0.531624
466.993026	0.529686
467.364634	0.523948
467.736184	0.520914
468.107674	0.517890
468.479105	0.507772
468.850477	0.506222
469.221790	0.502041
469.593043	0.501185
469.964238	0.496298
470.335373	0.488297
470.706449	0.479839
471.077467	0.474089
471.448425	0.439278
471.819324	0.414793
472.190164	0.407983
472.560945	0.423218
472.931667	0.432645
473.302330	0.430036
473.672934	0.434251
474.043479	0.418378
474.413965	0.414208
474.784393	0.411646
475.154761	0.401529
475.525070	0.393879
475.895321	0.394500
476.265513	0.384110
476.635645	0.375716
477.005719	0.370628
477.375734	0.363551
477.745691	0.353313
478.115588	0.345624
478.485427	0.335557
478.855207	0.320726
479.224928	0.301988
479.594591	0.288143
479.964194	0.286403
480.333739	0.283020
480.703226	0.280118
481.072653	0.276240
481.442022	0.269252
481.811333	0.263244
482.180584	0.263881
482.549777	0.265200
482.918912	0.266002
483.287988	0.263258
483.657005	0.260583
484.025964	0.264490
484.394864	0.259525
484.763706	0.258219
485.132489	0.260906
485.501213	0.260003
485.869879	0.256690
486.238487	0.258212
486.607036	0.254866
486.975527	0.257946
487.343959	0.252597
487.712333	0.250622
488.080648	0.251061
488.448905	0.249120
488.817104	0.249639
489.185244	0.243222
489.553326	0.239427
489.921350	0.228662
490.289315	0.210949
490.657222	0.205467
491.025070	0.206013
491.392861	0.207476
491.760593	0.212563
492.128267	0.217647
492.495883	0.222779
492.863440	0.228433
493.230939	0.234273
493.598380	0.235111
493.965763	0.237486
494.333088	0.239151
494.700354	0.240228
495.067563	0.239243
495.434713	0.242214
495.801805	0.239922
496.168839	0.241054
496.535815	0.242192
496.902733	0.242228
497.269593	0.243589
497.636395	0.241296
498.003139	0.241277
498.369825	0.244308
498.736453	0.240710
499.103023	0.241754
499.469535	0.241120
499.835989	0.241333
500.202385	0.242148
500.568723	0.245399
500.935003	0.240376
501.301226	0.244401
501.667390	0.239035
502.033497	0.237083
502.399546	0.239633
502.765537	0.241283
503.131470	0.239833
503.497345	0.236296
503.863163	0.244662
504.228923	0.237592
504.594625	0.236265
504.960269	0.241676
505.325856	0.236657
505.691385	0.241091
506.056856	0.237919
506.422270	0.237417
506.787625	0.239503
507.152924	0.237127
507.518164	0.237495
507.883347	0.239150
508.248472	0.240704
508.613540	0.235786
508.978550	0.238230
509.343503	0.238730
509.708398	0.236145
510.073236	0.233876
510.438016	0.233828
510.802738	0.234570
511.167403	0.233764
511.532010	0.235507
511.896561	0.231114
512.261053	0.229958
512.625488	0.231836
512.989866	0.232295
513.354186	0.232425
513.718449	0.234139
514.082655	0.230510
514.446803	0.232930
514.810894	0.230205
515.174927	0.233214
515.538904	0.232492
515.902822	0.229072
516.266684	0.231689
516.630488	0.233052
516.994235	0.231682
517.357925	0.230489
517.721558	0.228610
518.085133	0.228252
518.448651	0.228580
518.812112	0.230555
519.175516	0.230203
519.538863	0.227687
519.902152	0.229591
520.265385	0.226199
520.628560	0.228000
520.991678	0.228722
521.354739	0.227431
521.717743	0.228582
522.080690	0.228850
522.443580	0.226337
522.806413	0.227295
523.169189	0.226589
523.531908	0.225402
523.894569	0.229204
524.257174	0.229119
524.619722	0.226607
524.982213	0.227748
525.344647	0.226825
525.707025	0.227787
526.069345	0.225884
526.431608	0.227589
526.793815	0.225273
527.155964	0.229505
527.518057	0.228466
527.880093	0.229427
528.242072	0.227879
528.603995	0.229820
528.965860	0.231602
529.327669	0.230572
529.689421	0.231113
530.051117	0.232556
530.412755	0.230065
530.774337	0.232395
531.135862	0.232438
531.497331	0.231994
531.858743	0.234479
532.220098	0.231528
532.581396	0.233964
532.942638	0.234498
533.303824	0.235478
533.664953	0.235322
534.026025	0.236889
534.387040	0.234784
534.747999	0.234864
535.108902	0.233825
535.469748	0.238643
535.830537	0.236626
536.191270	0.236978
536.551947	0.236399
536.912567	0.236565
537.273131	0.238315
537.633638	0.238505
537.994089	0.238829
538.354483	0.240042
538.714821	0.236701
539.075103	0.236474
539.435328	0.237259
539.795497	0.240957
540.155609	0.237853
540.515665	0.236010
540.875665	0.241653
541.235609	0.240028
541.595496	0.240105
541.955328	0.236551
542.315102	0.239281
542.674821	0.240357
543.034483	0.240438
543.394090	0.239799
543.753640	0.242158
544.113134	0.237200
544.472571	0.240136
544.831953	0.237044
545.191278	0.241245
545.550548	0.240568
545.909761	0.237589
546.268918	0.238143
546.628019	0.236565
546.987064	0.239233
547.346053	0.241091
547.704986	0.239231
548.063863	0.239551
548.422684	0.239471
548.781449	0.241299
549.140158	0.238888
549.498811	0.241699
549.857408	0.245091
550.215949	0.239798
550.574434	0.242664
550.932864	0.240633
551.291237	0.239386
551.649555	0.240775
552.007817	0.240381
552.366022	0.241117
552.724173	0.241802
553.082267	0.241892
553.440305	0.238818
553.798288	0.243267
554.156215	0.239773
554.514086	0.240594
554.871902	0.243788
555.229661	0.242754
555.587365	0.243389
555.945014	0.245865
556.302606	0.242884
556.660143	0.245315
557.017625	0.241773
557.375050	0.244300
557.732421	0.241223
558.089735	0.243157
558.446994	0.243486
558.804197	0.242487
559.161345	0.242501
559.518437	0.245858
559.875474	0.243616
560.232455	0.243079
560.589381	0.244255
560.946251	0.244213
561.303065	0.241759
561.659825	0.243314
562.016528	0.244737
562.373177	0.247589
562.729770	0.244841
563.086307	0.247198
563.442789	0.245012
563.799216	0.247751
564.155587	0.246458
564.511904	0.247369
564.868164	0.247667
565.224370	0.247325
565.580520	0.249479
565.936615	0.248946
566.292654	0.251923
566.648638	0.249137
567.004567	0.249744
567.360441	0.250345
567.716260	0.252729
568.072023	0.250271
568.427732	0.251247
568.783385	0.253597
569.138982	0.251878
569.494525	0.251261
569.850013	0.254340
570.205445	0.252747
570.560823	0.254966
570.916145	0.257078
571.271412	0.255503
571.626625	0.256796
571.981782	0.257509
572.336884	0.258189
572.691931	0.257828
573.046923	0.259041
573.401860	0.260267
573.756743	0.261904
574.111570	0.260931
574.466342	0.261252
574.821059	0.260528
575.175722	0.263172
575.530330	0.263464
575.884882	0.263195
576.239380	0.265267
576.593823	0.265909
576.948211	0.265307
577.302544	0.268516
577.656823	0.268037
578.011047	0.268380
578.365216	0.268639
578.719330	0.271036
579.073389	0.270662
579.427394	0.271884
579.781344	0.272772
580.135239	0.274295
580.489080	0.274228
580.842866	0.277015
581.196597	0.276795
581.550273	0.275380
581.903895	0.276579
582.257463	0.274517
582.610975	0.277705
582.964434	0.276991
583.317837	0.280188
583.671186	0.280270
584.024481	0.280322
584.377721	0.282962
584.730906	0.283512
585.084037	0.282587
585.437113	0.284697
585.790135	0.283907
586.143103	0.286893
586.496016	0.287798
586.848874	0.285347
587.201679	0.285926
587.554428	0.289334
587.907124	0.288266
588.259765	0.289081
588.612352	0.289310
588.964884	0.293386
589.317362	0.292610
589.669786	0.292553
590.022155	0.291105
590.374470	0.290517
590.726731	0.292919
591.078937	0.297402
591.431090	0.293505
591.783188	0.297940
592.135232	0.298447
592.487222	0.298107
592.839157	0.296419
593.191038	0.298387
593.542866	0.300809
593.894639	0.304408
594.246358	0.302328
594.598022	0.301955
594.949633	0.305332
595.301190	0.305993
595.652692	0.305085
596.004141	0.301421
596.355535	0.309484
596.706876	0.309842
597.058162	0.312617
597.409395	0.309646
597.760573	0.307244
598.111698	0.310473
598.462768	0.311187
598.813785	0.312273
599.164748	0.313612
599.515657	0.313619
599.866511	0.317194
600.217312	0.312507
600.568060	0.317791
600.918753	0.314691
601.269392	0.315183
601.619978	0.318625
601.970510	0.316174
602.320988	0.316388
602.671412	0.313992
603.021783	0.316368
603.372100	0.317962
603.722363	0.317460
604.072572	0.318057
604.422728	0.318213
604.772830	0.320092
605.122878	0.319877
605.472872	0.320208
605.822813	0.318903
606.172701	0.321432
606.522534	0.318760
606.872314	0.318711
607.222041	0.319553
607.571714	0.318131
607.921333	0.319215
608.270899	0.318807
608.620411	0.316007
608.969870	0.320086
609.319276	0.319788
609.668627	0.319417
610.017926	0.318058
610.367171	0.316555
610.716362	0.317384
611.065500	0.317569
611.414585	0.316208
611.763616	0.317093
612.112594	0.317472
612.461518	0.317060
612.810389	0.314470
613.159207	0.316573
613.507971	0.318688
613.856682	0.314258
614.205340	0.316005
614.553945	0.312613
614.902496	0.316716
615.250994	0.314487
615.599439	0.315430
615.947830	0.314808
616.296169	0.316162
616.644454	0.315404
616.992686	0.315603
617.340864	0.313086
617.688990	0.317003
618.037063	0.313646
618.385082	0.315207
618.733048	0.312171
619.080961	0.314516
619.428821	0.314076
619.776628	0.313422
620.124382	0.315405
620.472083	0.315493
620.819731	0.315500
621.167326	0.318984
621.514868	0.318864
621.862357	0.322878
622.209793	0.322463
622.557176	0.324629
622.904506	0.325953
623.251783	0.328008
623.599007	0.330369
623.946179	0.330084
624.293297	0.331678
624.640363	0.335769
624.987376	0.336479
625.334336	0.338437
625.681243	0.341245
626.028097	0.341604
626.374899	0.342602
626.721647	0.342834
627.068343	0.346494
627.414987	0.347263
627.761577	0.349246
628.108115	0.347515
628.454600	0.352796
628.801032	0.350268
629.147412	0.352306
629.493739	0.352733
629.840014	0.355636
630.186236	0.353057
630.532405	0.358316
630.878521	0.356344
631.224585	0.358308
631.570597	0.361790
631.916556	0.360326
632.262462	0.360516
632.608316	0.362518
632.954117	0.363348
633.299866	0.364181
633.645562	0.364754
633.991206	0.369162
634.336797	0.371902
634.682336	0.374026
635.027823	0.375974
635.373257	0.376136
635.718639	0.380106
636.063968	0.378758
636.409245	0.384792
636.754470	0.385568
637.099642	0.387745
637.444762	0.391082
637.789829	0.390515
638.134845	0.393722
638.479808	0.394520
638.824719	0.394281
639.169577	0.398295
639.514383	0.397113
639.859137	0.401657
640.203839	0.401449
640.548489	0.402093
640.893086	0.403480
641.237632	0.405207
641.582125	0.403452
641.926566	0.404737
642.270955	0.405123
642.615292	0.405221
642.959576	0.404256
643.303809	0.404850
643.647990	0.404444
643.992118	0.405074
644.336195	0.408325
644.680219	0.406823
645.024192	0.407851
645.368112	0.401409
645.711981	0.400354
646.055797	0.395419
646.399562	0.397940
646.743274	0.390225
647.086935	0.387649
647.430544	0.387217
647.774101	0.386191
648.117606	0.386006
648.461059	0.386459
648.804460	0.388922
649.147810	0.394395
649.491108	0.396071
649.834354	0.397507
650.177548	0.402400
650.520690	0.408496
650.863781	0.409501
651.206820	0.409283
651.549807	0.413226
651.892742	0.417506
652.235626	0.416715
652.578458	0.418066
652.921238	0.423853
653.263967	0.421544
653.606644	0.425769
653.949269	0.425241
654.291843	0.428810
654.634365	0.425720
654.976836	0.429395
655.319255	0.429181
655.661622	0.431086
656.003938	0.430905
656.346203	0.434172
656.688416	0.431784
657.030577	0.435351
657.372687	0.436660
657.714746	0.437681
658.056753	0.434931
658.398708	0.438769
658.740612	0.439634
659.082465	0.436076
659.424266	0.436225
659.766016	0.435982
660.107715	0.438338
660.449362	0.437799
660.790958	0.438243
661.132503	0.437985
661.473996	0.436250
661.815438	0.436997
662.156829	0.437379
662.498168	0.438023
662.839456	0.439281
663.180693	0.437853
663.521879	0.437249
663.863013	0.438214
664.204097	0.436788
664.545129	0.433513
664.886110	0.433898
665.227040	0.431057
665.567918	0.433778
665.908746	0.432156
666.249522	0.431866
666.590248	0.432609
666.930922	0.430812
667.271545	0.429275
667.612118	0.429964
667.952639	0.431287
668.293109	0.430074
668.633528	0.432716
668.973896	0.432282
669.314213	0.433182
669.654480	0.434389
669.994695	0.435436
670.334859	0.435900
670.674973	0.436234
671.015035	0.436233
671.355047	0.436350
671.695008	0.437242
672.034918	0.438738
672.374777	0.438651
672.714585	0.439326
673.054342	0.439249
673.394049	0.439669
673.733705	0.436939
674.073310	0.438603
674.412864	0.441520
674.752368	0.442029
675.091820	0.441868
675.431223	0.446352
675.770574	0.446210
676.109875	0.449772
676.449125	0.449270
676.788324	0.451191
677.127473	0.456564
677.466571	0.456944
677.805619	0.458594
678.144616	0.459125
678.483562	0.460933
678.822458	0.463945
679.161303	0.464542
679.500098	0.464694
679.838842	0.466460
680.177535	0.466195
680.516179	0.464982
680.854771	0.464507
681.193314	0.457860
681.531805	0.448747
681.870247	0.437619
682.208638	0.429448
682.546978	0.428867
682.885268	0.430832
683.223508	0.436884
683.561697	0.440368
683.899836	0.443242
684.237925	0.446693
684.575963	0.448969
684.913951	0.451917
685.251889	0.447903
685.589776	0.449692
685.927614	0.452261
686.265401	0.446512
686.603137	0.447366
686.940824	0.441976
687.278460	0.440642
687.616046	0.439627
687.953582	0.434558
688.291068	0.435890
688.628504	0.431487
688.965889	0.433701
689.303224	0.437825
689.640510	0.442210
689.977745	0.447474
690.314930	0.455740
690.652065	0.460564
690.989150	0.467815
691.326185	0.473760
691.663170	0.478597
692.000105	0.485046
692.336990	0.492705
692.673825	0.495475
693.010610	0.502403
693.347345	0.507571
693.684030	0.508476
694.020665	0.514233
694.357251	0.522215
694.693786	0.522353
695.030272	0.526044
695.366707	0.529375
695.703093	0.533288
696.039429	0.531031
696.375716	0.532423
696.711952	0.535654
697.048139	0.537216
697.384276	0.538962
697.720363	0.537506
698.056400	0.536738
698.392388	0.542349
698.728326	0.545192
699.064214	0.548174
699.400053	0.548453
699.735842	0.552221
700.071581	0.555016
700.407270	0.558560
700.742910	0.560564
701.078501	0.566912
701.414042	0.567289
701.749533	0.570259
702.084974	0.579701
702.420366	0.571195
702.755709	0.578640
703.091002	0.587135
703.426246	0.579852
703.761440	0.586214
704.096584	0.590292
704.431679	0.588085
704.766725	0.589805
705.101721	0.591399
705.436668	0.587742
705.771565	0.594496
706.106413	0.591461
706.441212	0.586786
706.775961	0.585417
707.110661	0.588575
707.445311	0.584676
707.779913	0.581381
708.114465	0.580138
708.448967	0.577593
708.783421	0.569073
709.117825	0.563385
709.452180	0.563021
709.786485	0.557537
710.120742	0.547577
710.454949	0.549693
710.789107	0.542154
711.123216	0.532667
711.457275	0.534183
711.791286	0.525499
712.125247	0.524688
712.459159	0.534938
712.793023	0.527448
713.126837	0.531645
713.460602	0.532264
713.794318	0.541719
714.127985	0.539722
714.461602	0.550161
714.795171	0.553824
715.128691	0.560976
715.462162	0.568498
715.795584	0.574281
716.128957	0.576968
716.462281	0.583896
716.795556	0.586860
717.128782	0.592743
717.461960	0.601787
717.795088	0.599606
718.128167	0.606745
718.461198	0.614499
718.794180	0.615187
719.127113	0.618818
719.459997	0.622206
719.792833	0.628212
720.125619	0.629945
720.458357	0.635611
720.791046	0.634734
721.123686	0.638154
721.456278	0.645511
721.788821	0.642715
722.121315	0.646879
722.453761	0.651271
722.786158	0.648510
723.118506	0.645810
723.450805	0.652753
723.783056	0.649094
724.115259	0.646592
724.447412	0.646385
724.779518	0.647141
725.111574	0.646108
725.443582	0.642175
725.775542	0.643695
726.107453	0.636321
726.439315	0.635863
726.771129	0.635533
727.102895	0.628294
727.434612	0.620137
727.766281	0.618911
728.097901	0.618333
728.429473	0.617893
728.760996	0.616151
729.092471	0.616694
729.423897	0.619994
729.755276	0.619856
730.086606	0.619748
730.417887	0.613220
730.749120	0.605061
731.080305	0.595324
731.411442	0.591334
731.742530	0.597308
732.073570	0.595465
732.404562	0.587733
732.735506	0.589601
733.066401	0.594037
733.397249	0.603184
733.728048	0.615173
734.058798	0.627332
734.389501	0.637874
734.720156	0.647475
735.050762	0.655154
735.381320	0.656996
735.711831	0.665955
736.042293	0.669801
736.372707	0.665625
736.703073	0.670092
737.033391	0.673573
737.363661	0.670079
737.693883	0.665332
738.024056	0.664622
738.354182	0.664421
738.684260	0.653431
739.014290	0.649880
739.344272	0.650554
739.674207	0.644115
740.004093	0.643718
740.333931	0.644582
740.663722	0.644121
740.993464	0.644619
741.323159	0.649235
741.652806	0.653511
741.982405	0.658336
742.311956	0.663082
742.641460	0.665243
742.970915	0.669141
743.300323	0.676194
743.629683	0.682539
743.958996	0.685123
744.288260	0.688618
744.617477	0.694858
744.946647	0.696167
745.275768	0.701347
745.604842	0.701145
745.933869	0.711023
746.262847	0.712292
746.591778	0.705214
746.920662	0.711671
747.249498	0.718155
747.578286	0.709493
747.907027	0.705463
748.235720	0.706792
748.564365	0.701486
748.892963	0.700627
749.221514	0.704532
749.550017	0.709585
749.878473	0.708486
750.206881	0.715561
750.535242	0.716014
750.863555	0.716027
751.191821	0.716705
751.520039	0.720415
751.848210	0.724863
752.176334	0.717994
752.504411	0.717030
752.832440	0.724730
753.160421	0.728596
753.488356	0.727301
753.816243	0.724459
754.144082	0.733288
754.471875	0.736314
754.799620	0.731681
755.127318	0.733128
755.454969	0.733121
755.782572	0.732339
756.110129	0.737106
756.437638	0.739216
756.765100	0.736578
757.092515	0.734605
757.419882	0.733956
757.747203	0.738465
758.074477	0.738736
758.401703	0.735841
758.728882	0.729961
759.056014	0.729430
759.383099	0.728853
759.710138	0.729392
760.037129	0.725359
760.364073	0.719734
760.690970	0.722582
761.017820	0.728273
761.344623	0.723661
761.671379	0.714979
761.998088	0.704161
762.324751	0.680407
762.651366	0.639033
762.977935	0.572213
763.304456	0.520569
763.630931	0.511623
763.957359	0.549661
764.283740	0.594909
764.610074	0.621169
764.936362	0.651441
765.262602	0.678516
765.588796	0.700154
765.914943	0.717946
766.241044	0.736212
766.567097	0.742228
766.893104	0.752243
767.219064	0.758642
767.544978	0.764776
767.870845	0.778518
768.196665	0.782175
768.522438	0.779167
768.848165	0.781161
769.173846	0.791155
769.499479	0.794932
769.825066	0.798072
770.150607	0.803220
770.476101	0.798667
770.801548	0.799116
771.126949	0.810883
771.452303	0.814684
771.777611	0.813759
772.102872	0.812265
772.428087	0.818438
772.753256	0.822275
773.078378	0.824249
773.403453	0.831856
773.728482	0.837330
774.053465	0.831064
774.378401	0.833638
774.703291	0.842192
775.028135	0.842201
775.352932	0.843146
775.677683	0.845825
776.002388	0.846928
776.327046	0.846481
776.651658	0.849074
776.976224	0.852279
777.300743	0.853300
777.625216	0.856321
777.949643	0.857399
778.274024	0.857310
778.598359	0.859145
778.922647	0.857258
779.246889	0.858243
779.571086	0.862414
779.895236	0.864640
780.219339	0.861216
780.543397	0.858025
780.867409	0.857562
781.191374	0.859930
781.515294	0.860708
781.839167	0.859031
782.162995	0.861918
782.486776	0.860021
782.810511	0.861170
783.134201	0.863945
783.457844	0.860863
783.781441	0.865479
784.104993	0.870820
784.428498	0.871675
784.751958	0.866385
785.075372	0.869606
785.398739	0.872897
785.722061	0.870111
786.045337	0.864680
786.368568	0.869373
786.691752	0.872289
787.014891	0.857560
787.337983	0.848877
787.661030	0.841626
787.984031	0.824462
788.306987	0.811836
788.629897	0.813411
788.952760	0.817308
789.275579	0.822097
789.598351	0.837493
789.921078	0.849145
790.243759	0.850212
790.566395	0.856719
790.888984	0.863317
791.211529	0.868128
791.534027	0.871559
791.856480	0.875270
792.178888	0.879511
792.501249	0.882426
792.823566	0.883009
793.145836	0.882652
793.468062	0.884615
793.790241	0.883683
794.112375	0.883417
794.434464	0.878152
794.756507	0.878192
795.078505	0.876437
795.400457	0.872441
795.722364	0.861019
796.044226	0.853039
796.366042	0.852356
796.687812	0.855721
797.009538	0.852491
797.331218	0.855131
797.652852	0.859708
797.974442	0.865375
798.295986	0.864099
798.617484	0.867003
798.938938	0.870373
799.260346	0.877021
799.581709	0.877520
799.903026	0.881182
800.224299	0.880984
800.545526	0.884445
800.866708	0.889579
801.187845	0.892659
801.508936	0.892568
801.829983	0.890172
802.150984	0.892411
802.471940	0.898644
802.792851	0.896741
803.113717	0.899064
803.434538	0.895622
803.755314	0.898910
804.076045	0.900442
804.396731	0.900016
804.717372	0.900133
805.037967	0.901760
805.358518	0.900026
805.679024	0.896522
805.999485	0.896965
806.319901	0.897010
806.640272	0.898640
806.960598	0.896350
807.280879	0.894082
807.601115	0.892008
807.921306	0.897163
808.241453	0.896704
808.561554	0.893919
808.881611	0.894337
809.201623	0.896837
809.521590	0.895944
809.841513	0.897421
810.161390	0.895995
810.481223	0.899144
810.801011	0.902340
811.120755	0.902984
811.440453	0.901694
811.760107	0.901041
812.079716	0.901326
812.399281	0.905088
812.718801	0.906555
813.038276	0.907322
813.357707	0.907142
813.677093	0.904202
813.996434	0.907039
814.315731	0.909405
814.634983	0.909701
814.954191	0.908319
815.273354	0.905182
815.592473	0.901741
815.911547	0.900817
816.230577	0.899320
816.549562	0.895949
816.868502	0.897535
817.187399	0.893132
817.506250	0.888317
817.825058	0.890423
818.143821	0.886546
818.462539	0.881874
818.781213	0.874405
819.099843	0.861983
819.418429	0.847321
819.736970	0.830996
820.055466	0.810768
820.373919	0.785215
820.692327	0.752669
821.010691	0.718679
821.329011	0.642068
821.647286	0.527421
821.965517	0.413906
822.283704	0.371103
822.601847	0.373146
822.919945	0.409137
823.237999	0.441768
823.556010	0.487935
823.873976	0.543946
824.191897	0.593601
824.509775	0.636346
824.827609	0.682073
825.145398	0.703619
825.463144	0.705809
825.780845	0.689548
826.098502	0.670894
826.416116	0.624784
826.733685	0.581634
827.051210	0.573208
827.368692	0.588141
827.686129	0.625105
828.003522	0.677419
828.320872	0.724354
828.638177	0.768287
828.955439	0.800343
829.272656	0.822263
829.589830	0.839893
829.906960	0.855257
830.224046	0.868020
830.541088	0.878867
830.858086	0.882007
831.175041	0.887770
831.491952	0.886988
831.808819	0.884686
832.125642	0.877537
832.442421	0.862343
832.759157	0.841869
833.075849	0.795710
833.392497	0.731761
833.709101	0.691355
834.025662	0.701223
834.342179	0.732835
834.658653	0.771489
834.975083	0.806877
835.291469	0.832709
835.607811	0.854774
835.924110	0.871075
836.240366	0.887626
836.556578	0.901653
836.872746	0.908105
837.188871	0.915135
837.504952	0.920972
837.820990	0.922999
838.136984	0.927692
838.452935	0.931043
838.768842	0.931866
839.084706	0.925537
839.400526	0.900465
839.716303	0.859701
840.032037	0.838522
840.347727	0.840483
840.663373	0.858996
840.978977	0.881076
841.294537	0.903555
841.610054	0.919872
841.925527	0.926077
842.240957	0.933963
842.556344	0.940283
842.871687	0.946074
843.186987	0.949612
843.502244	0.949776
843.817458	0.950919
844.132629	0.955583
844.447756	0.960748
844.762840	0.961726
845.077881	0.960008
845.392879	0.961580
845.707833	0.963320
846.022745	0.964986
846.337613	0.965640
846.652438	0.965717
846.967221	0.964593
847.281960	0.965196
847.596656	0.966714
847.911309	0.964715
848.225919	0.968086
848.540485	0.967878
848.855009	0.968187
849.169490	0.967913
849.483928	0.968746
849.798323	0.968991
850.112675	0.970425
850.426984	0.969456
850.741251	0.969404
851.055474	0.970247
851.369654	0.967570
851.683792	0.970202
851.997887	0.970579
852.311938	0.971884
852.625947	0.970092
852.939914	0.968609
853.253837	0.968754
853.567718	0.970108
853.881555	0.970347
854.195350	0.967879
854.509103	0.970752
854.822812	0.968389
855.136479	0.970306
855.450103	0.969945
855.763685	0.967866
856.077224	0.968541
856.390720	0.970307
856.704173	0.969851
857.017584	0.968185
857.330953	0.966463
857.644278	0.968076
857.957561	0.968918
858.270802	0.969057
858.584000	0.968220
858.897155	0.966422
859.210268	0.967130
859.523339	0.968184
859.836367	0.970314
860.149352	0.969727
860.462295	0.968767
860.775195	0.969599
861.088054	0.969430
861.400869	0.969827
861.713642	0.969971
862.026373	0.970360
862.339062	0.971340
862.651708	0.968117
862.964312	0.968463
863.276873	0.969838
863.589392	0.968831
863.901869	0.966585
864.214303	0.965546
864.526696	0.963641
864.839045	0.963695
865.151353	0.962717
865.463619	0.962590
865.775842	0.963021
866.088023	0.962898
866.400162	0.961951
866.712258	0.962336
867.024313	0.962810
867.336325	0.963788
867.648296	0.962849
867.960224	0.962716
868.272110	0.962895
868.583954	0.962974
868.895755	0.964819
869.207515	0.962203
869.519233	0.959524
869.830909	0.960419
870.142542	0.962499
870.454134	0.962335
870.765684	0.961037
871.077191	0.957899
871.388657	0.958483
871.700081	0.957263
872.011463	0.958277
872.322803	0.957330
872.634101	0.957224
872.945357	0.955143
873.256571	0.953069
873.567744	0.952973
873.878874	0.953780
874.189963	0.952542
874.501010	0.952235
874.812015	0.949805
875.122979	0.952056
875.433900	0.953988
875.744780	0.954618
876.055618	0.951510
876.366415	0.950980
876.677169	0.950375
876.987882	0.951497
877.298554	0.951787
877.609183	0.948417
877.919771	0.945506
878.230317	0.942641
878.540822	0.941547
878.851285	0.936030
879.161707	0.927978
879.472087	0.915822
879.782425	0.901391
880.092722	0.866963
880.402977	0.814854
880.713191	0.754783
881.023363	0.696360
881.333494	0.663533
881.643583	0.635640
881.953631	0.635187
882.263637	0.664061
882.573602	0.703589
882.883526	0.728628
883.193408	0.751852
883.503248	0.773485
883.813048	0.800519
884.122806	0.829425
884.432522	0.853176
884.742197	0.872603
885.051831	0.882626
885.361424	0.892929
885.670975	0.904304
885.980485	0.914201
886.289954	0.920054
886.599382	0.925549
886.908768	0.930702
887.218113	0.935059
887.527417	0.940742
887.836680	0.942691
888.145901	0.943888
888.455082	0.947810
888.764221	0.951703
889.073319	0.953694
889.382376	0.953662
889.691392	0.954456
890.000366	0.951846
890.309300	0.954502
890.618193	0.953083
890.927044	0.950943
891.235855	0.952205
891.544625	0.952053
891.853353	0.952890
892.162041	0.949555
892.470687	0.944363
892.779293	0.938345
893.087858	0.934906
893.396381	0.927067
893.704864	0.914529
894.013306	0.890229
894.321707	0.864883
894.630068	0.850083
894.938387	0.845678
895.246665	0.847455
895.554903	0.858528
895.863100	0.873037
896.171256	0.889013
896.479371	0.907954
896.787446	0.921246
897.095480	0.926252
897.403473	0.930267
897.711425	0.932630
898.019336	0.940917
898.327207	0.942552
898.635038	0.946470
898.942827	0.945999
899.250576	0.948720
899.558284	0.954060
899.865952	0.954187
900.173579	0.955991
900.481165	0.956078
900.788711	0.960799
901.096216	0.962108
901.403681	0.962236
901.711105	0.962868
902.018489	0.963705
902.325832	0.963379
902.633135	0.963037
902.940397	0.956800
903.247619	0.944573
903.554800	0.920218
903.861941	0.880240
904.169041	0.845627
904.476101	0.829471
904.783121	0.829332
905.090100	0.846100
905.397039	0.866524
905.703938	0.887878
906.010796	0.905955
906.317614	0.924491
906.624391	0.935638
906.931129	0.945499
907.237826	0.951969
907.544483	0.960104
907.851099	0.962729
908.157675	0.967994
908.464211	0.970627
908.770707	0.972841
909.077163	0.974433
909.383578	0.974620
909.689954	0.975734
909.996289	0.976014
910.302584	0.977541
910.608839	0.980015
910.915054	0.978603
911.221229	0.978796
911.527363	0.976641
911.833458	0.977517
912.139513	0.977897
912.445527	0.976383
912.751502	0.974132
913.057436	0.972492
913.363331	0.970876
913.669186	0.966974
913.975000	0.962261
914.280775	0.955844
914.586510	0.949967
914.892205	0.936458
915.197859	0.915886
915.503475	0.888464
915.809050	0.869814
916.114585	0.865055
916.420081	0.862260
916.725536	0.857888
917.030952	0.866855
917.336328	0.879470
917.641665	0.893626
917.946961	0.909240
918.252218	0.921329
918.557435	0.929157
918.862612	0.936645
919.167750	0.943306
919.472848	0.948723
919.777906	0.953568
920.082925	0.958833
920.387904	0.962094
920.692843	0.963827
920.997743	0.964070
921.302603	0.968195
921.607423	0.969046
921.912204	0.970767
922.216946	0.972015
922.521647	0.972849
922.826310	0.975272
923.130932	0.977569
923.435516	0.978320
923.740059	0.979425
924.044564	0.978740
924.349028	0.980779
924.653454	0.982038
924.957840	0.985425
925.262186	0.984666
925.566493	0.984022
925.870761	0.984905
926.174989	0.986233
926.479178	0.988124
926.783328	0.988309
927.087438	0.988724
927.391509	0.988609
927.695541	0.989901
927.999533	0.989804
928.303486	0.989795
928.607400	0.990497
928.911275	0.990473
929.215110	0.989294
929.518906	0.990746
929.822663	0.989431
930.126381	0.990695
930.430060	0.990621
930.733699	0.990220
931.037299	0.989332
931.340861	0.990202
931.644383	0.988316
931.947866	0.988676
932.251309	0.990465
932.554714	0.990081
932.858080	0.989258
933.161407	0.990974
933.464694	0.991346
933.767943	0.989218
934.071153	0.991101
934.374323	0.992227
934.677455	0.992199
934.980548	0.991188
935.283602	0.990216
935.586617	0.990456
935.889593	0.990318
936.192530	0.990836
936.495428	0.990461
936.798287	0.991351
937.101108	0.990869
937.403890	0.989605
937.706632	0.989470
938.009336	0.986307
938.312002	0.985140
938.614628	0.984607
938.917216	0.982890
939.219765	0.981420
939.522275	0.983824
939.824747	0.983505
940.127179	0.983660
940.429573	0.983926
940.731929	0.983894
941.034246	0.984539
941.336524	0.986262
941.638763	0.985815
941.940964	0.986343
942.243126	0.986009
942.545250	0.987960
942.847335	0.988312
943.149381	0.988207
943.451389	0.988528
943.753359	0.987599
944.055290	0.989770
944.357182	0.989389
944.659036	0.988015
944.960851	0.989935
945.262628	0.989796
945.564367	0.990652
945.866067	0.989422
946.167729	0.990771
946.469352	0.989935
946.770937	0.989251
947.072484	0.989506
947.373992	0.990301
947.675462	0.989619
947.976893	0.989913
948.278286	0.989749
948.579641	0.991525
948.880958	0.989449
949.182236	0.991728
949.483476	0.991243
949.784678	0.991552
950.085841	0.990135
950.386967	0.990344
950.688054	0.990611
950.989103	0.990602
951.290114	0.989442
951.591087	0.989334
951.892021	0.989273
952.192917	0.988917
952.493776	0.988592
952.794596	0.987377
953.095378	0.987881
953.396122	0.987035
953.696828	0.987013
953.997496	0.989938
954.298126	0.991042
954.598718	0.990209
954.899272	0.990632
955.199788	0.991341
955.500266	0.991503
955.800706	0.992922
956.101108	0.993395
956.401472	0.993127
956.701798	0.993875
957.002087	0.992234
957.302337	0.993881
957.602550	0.993795
957.902724	0.994489
958.202861	0.995339
958.502960	0.994441
958.803022	0.993952
959.103045	0.995618
959.403031	0.996140
959.702979	0.994271
960.002889	0.995655
960.302762	0.994774
960.602596	0.995547
960.902393	0.994117
961.202153	0.996529
961.501875	0.996790
961.801559	0.995521
962.101205	0.996501
962.400814	0.995520
962.700385	0.996564
962.999918	0.995574
963.299414	0.996613
963.598873	0.995170
963.898293	0.995945
964.197677	0.995425
964.497022	0.995895
964.796331	0.997210
965.095601	0.995010
965.394835	0.996538
965.694030	0.996902
965.993189	0.996964
966.292309	0.997651
966.591393	0.996860
966.890439	0.997408
967.189447	0.996832
967.488419	0.996562
967.787353	0.995253
968.086249	0.996290
968.385108	0.997022
968.683930	0.996691
968.982714	0.995731
969.281462	0.996594
969.580172	0.995437
969.878844	0.997441
970.177480	0.996970
970.476078	0.996981
970.774639	0.997072
971.073162	0.996465
971.371649	0.995590
971.670098	0.995963
971.968510	0.997129
972.266885	0.995992
972.565223	0.995416
972.863524	0.996246
973.161788	0.995957
973.460014	0.996814
973.758204	0.995100
974.056356	0.995723
974.354471	0.993975
974.652550	0.995934
974.950591	0.995212
975.248595	0.996404
975.546563	0.996677
975.844493	0.998154
976.142386	0.996101
976.440243	0.997747
976.738062	0.996820
977.035845	0.997454
977.333590	0.997467
977.631299	0.997678
977.928971	0.996886
978.226606	0.996823
978.524204	0.995618
978.821765	0.998743
979.119290	0.996308
979.416777	0.996598
979.714228	0.996559
980.011642	0.995441
980.309020	0.997535
980.606360	0.996269
980.903664	0.998041
981.200931	0.995001
981.498162	0.994704
981.795356	0.995631
982.092513	0.994237
982.389633	0.993484
982.686717	0.991120
982.983764	0.991792
983.280775	0.989972
983.577749	0.990228
983.874686	0.992324
984.171587	0.991328
984.468451	0.994104
984.765279	0.994265
985.062070	0.994496
985.358824	0.995199
985.655543	0.994128
985.952224	0.996424
986.248869	0.996382
986.545478	0.997249
986.842050	0.997802
987.138586	0.995105
987.435086	0.996852
987.731549	0.999491
988.027975	0.996450
988.324366	0.997186
988.620719	0.997907
988.917037	0.995764
989.213318	0.998007
989.509563	0.998413
989.805772	0.997441
990.101944	0.998449
990.398080	0.996264
990.694180	0.996700
990.990244	0.996509
991.286271	0.997911
991.582262	0.998357
991.878217	0.997261
992.174136	0.997329
992.470019	0.996879
992.765865	0.997830
993.061676	0.998269
993.357450	0.997076
993.653188	0.995943
993.948890	0.996973
994.244556	0.996261
994.540186	0.997563
994.835780	0.995530
995.131337	0.997350
995.426859	0.996804
995.722345	0.996690
996.017795	0.996022
996.313208	0.996384
996.608586	0.996557
996.903928	0.996022
997.199234	0.995616
997.494504	0.996470
997.789738	0.996260
998.084936	0.996124
998.380099	0.997969
998.675225	0.996769
998.970316	0.997650
999.265371	0.997703
999.560390	0.997094
999.855373	0.998161
1000.150320	0.997553
1000.445232	0.997538
1000.740108	0.998071
1001.034948	0.998455
1001.329752	0.998608
1001.624521	0.998767
1001.919254	0.997629
1002.213951	0.998747
1002.508613	0.998330
1002.803239	0.998881
1003.097829	0.998772
1003.392384	0.999413
1003.686903	0.997492
1003.981386	0.998128
1004.275834	0.998601
1004.570246	0.998005
1004.864623	0.999061
1005.158964	0.999018
1005.453270	0.998786
1005.747540	0.996619
1006.041775	0.997521
1006.335974	0.998644
1006.630138	0.999260
1006.924266	0.999062
1007.218359	1.001083
1007.512416	0.998518
1007.806438	0.999677
1008.100425	0.999052
1008.394376	0.998382
1008.688292	0.998038
1008.982172	0.999873
1009.276017	0.998973
1009.569827	0.997940
1009.863602	0.999064
1010.157341	0.999825
1010.451045	0.998709
1010.744714	0.998495
1011.038347	0.998716
1011.331945	0.997497
1011.625508	0.996703
1011.919036	0.999345
1012.212528	0.998323
1012.505986	0.996979
1012.799408	0.997815
1013.092795	0.998244
1013.386147	0.998242
1013.679464	0.998278
1013.972745	0.998048
1014.265992	0.996887
1014.559204	0.998260
1014.852380	0.998320
1015.145521	0.998685
1015.438628	0.998975
1015.731699	0.998715
1016.024736	0.999553
1016.317737	0.997645
1016.610703	0.998213
1016.903635	0.998650
1017.196531	0.997645
1017.489393	0.999128
1017.782219	0.997939
1018.075011	0.998853
1018.367768	0.998802
1018.660490	0.999080
1018.953177	0.999080
1019.245829	0.999080
