Dividing Wavelength (nm)	Counts (n)	Blue Motor Position (mm): 0.000000	Red Motor Position (mm): 7.400000	
326.493990	1.000711
326.888308	1.000711
327.282561	1.000711
327.676750	1.001339
328.070874	1.000079
328.464933	1.001390
328.858929	1.000114
329.252859	1.002266
329.646726	1.000032
330.040528	1.001775
330.434265	1.000217
330.827938	1.001961
331.221547	1.001216
331.615091	1.000207
332.008571	1.000610
332.401986	1.000099
332.795338	1.000497
333.188625	0.999448
333.581847	1.001661
333.975006	1.000543
334.368100	1.000525
334.761129	1.001255
335.154095	1.002657
335.546996	0.999268
335.939833	0.994372
336.332606	0.993327
336.725315	0.995504
337.117960	0.995674
337.510540	0.994474
337.903056	0.994507
338.295508	0.993452
338.687896	0.994631
339.080220	0.994924
339.472480	0.993424
339.864676	0.994141
340.256807	0.994389
340.648875	0.995191
341.040879	0.994611
341.432818	0.993497
341.824694	0.994646
342.216506	0.994566
342.608253	0.994753
342.999937	0.993874
343.391557	0.993915
343.783113	0.994431
344.174605	0.995171
344.566033	0.995058
344.957397	0.993247
345.348697	0.993176
345.739934	0.994796
346.131106	0.994737
346.522215	0.993976
346.913260	0.993391
347.304241	0.994386
347.695159	0.993708
348.086012	0.992853
348.476802	0.995054
348.867528	0.994343
349.258191	0.992968
349.648789	0.993510
350.039324	0.994096
350.429796	0.994861
350.820203	0.994232
351.210548	0.995136
351.600828	0.993266
351.991045	0.993601
352.381198	0.994238
352.771288	0.993920
353.161314	0.993989
353.551276	0.995969
353.941175	0.992838
354.331010	0.993622
354.720782	0.993874
355.110490	0.993695
355.500135	0.993645
355.889717	0.992290
356.279235	0.993284
356.668689	0.993433
357.058080	0.994285
357.447408	0.994549
357.836672	0.994782
358.225873	0.994490
358.615010	0.993464
359.004084	0.995008
359.393095	0.993731
359.782043	0.993929
360.170927	0.994262
360.559748	0.994101
360.948505	0.993694
361.337199	0.993425
361.725830	0.994359
362.114398	0.992109
362.502903	0.993203
362.891344	0.994206
363.279722	0.992520
363.668037	0.993998
364.056289	0.993546
364.444478	0.993561
364.832603	0.992581
365.220665	0.992116
365.608665	0.992888
365.996601	0.992724
366.384474	0.992561
366.772284	0.992620
367.160031	0.990332
367.547715	0.990954
367.935336	0.992653
368.322893	0.991251
368.710388	0.991572
369.097820	0.992492
369.485189	0.991148
369.872495	0.991359
370.259738	0.990234
370.646918	0.993285
371.034035	0.992852
371.421090	0.992005
371.808081	0.990336
372.195010	0.992205
372.581875	0.991635
372.968678	0.990873
373.355418	0.989468
373.742096	0.988350
374.128710	0.989203
374.515262	0.987261
374.901751	0.985753
375.288177	0.984382
375.674540	0.981245
376.060841	0.978928
376.447079	0.977521
376.833254	0.973736
377.219367	0.970461
377.605417	0.966268
377.991404	0.963977
378.377329	0.959107
378.763191	0.954520
379.148991	0.949273
379.534727	0.944554
379.920402	0.938444
380.306013	0.932623
380.691563	0.924055
381.077049	0.916940
381.462474	0.912139
381.847835	0.903030
382.233134	0.895405
382.618371	0.890615
383.003545	0.878260
383.388657	0.872612
383.773706	0.864599
384.158693	0.856689
384.543618	0.847492
384.928480	0.838317
385.313280	0.826279
385.698017	0.822415
386.082692	0.809123
386.467305	0.802814
386.851856	0.793716
387.236344	0.785251
387.620770	0.774370
388.005133	0.766644
388.389435	0.758431
388.773674	0.750975
389.157851	0.740157
389.541965	0.733681
389.926018	0.735174
390.310008	0.720228
390.693936	0.713826
391.077802	0.703817
391.461606	0.702001
391.845348	0.688655
392.229027	0.687236
392.612645	0.681612
392.996200	0.667543
393.379694	0.658431
393.763125	0.647098
394.146494	0.649358
394.529801	0.637764
394.913047	0.630170
395.296230	0.632917
395.679351	0.623505
396.062410	0.618084
396.445408	0.620826
396.828343	0.615284
397.211217	0.609876
397.594028	0.622456
397.976778	0.611136
398.359466	0.607472
398.742092	0.602098
399.124656	0.614247
399.507158	0.602599
399.889598	0.599139
400.271977	0.589869
400.654294	0.594823
401.036549	0.592756
401.418742	0.597214
401.800874	0.582358
402.182944	0.580362
402.564952	0.570818
402.946898	0.573191
403.328783	0.572783
403.710606	0.584821
404.092367	0.560109
404.474067	0.564656
404.855705	0.563087
405.237282	0.572606
405.618797	0.558968
406.000250	0.554357
406.381642	0.544760
406.762972	0.549455
407.144240	0.548594
407.525447	0.549150
407.906593	0.541337
408.287677	0.536842
408.668700	0.544892
409.049661	0.538058
409.430560	0.533960
409.811399	0.542026
410.192176	0.524215
410.572891	0.531324
410.953545	0.519186
411.334138	0.532968
411.714669	0.525547
412.095139	0.537007
412.475547	0.522076
412.855894	0.523520
413.236180	0.522857
413.616405	0.527820
413.996568	0.518607
414.376670	0.524571
414.756711	0.529566
415.136691	0.526257
415.516609	0.517807
415.896466	0.513759
416.276262	0.509943
416.655997	0.512215
417.035670	0.493592
417.415283	0.485611
417.794834	0.489996
418.174324	0.494817
418.553753	0.504643
418.933121	0.486335
419.312428	0.479838
419.691674	0.485590
420.070859	0.474579
420.449983	0.482376
420.829045	0.472510
421.208047	0.480707
421.586988	0.474769
421.965867	0.473299
422.344686	0.462457
422.723444	0.474692
423.102141	0.491223
423.480777	0.464350
423.859352	0.484194
424.237866	0.461854
424.616319	0.462826
424.994712	0.453650
425.373044	0.464514
425.751314	0.452611
426.129524	0.468084
426.507673	0.451971
426.885762	0.445666
427.263789	0.451776
427.641756	0.460952
428.019662	0.451632
428.397508	0.450566
428.775292	0.455108
429.153016	0.446408
429.530679	0.453593
429.908282	0.446206
430.285824	0.455899
430.663305	0.434581
431.040726	0.455350
431.418086	0.456296
431.795385	0.447145
432.172624	0.446009
432.549802	0.446726
432.926920	0.445738
433.303977	0.445080
433.680974	0.442268
434.057910	0.440928
434.434786	0.440559
434.811601	0.442674
435.188355	0.424876
435.565050	0.434575
435.941683	0.435574
436.318257	0.420424
436.694770	0.420564
437.071222	0.418656
437.447614	0.423283
437.823946	0.429754
438.200218	0.419622
438.576429	0.429143
438.952580	0.421828
439.328670	0.418556
439.704700	0.425435
440.080670	0.426609
440.456580	0.407434
440.832429	0.415608
441.208218	0.426464
441.583947	0.415606
441.959616	0.415636
442.335224	0.420268
442.710773	0.411110
443.086261	0.409203
443.461689	0.423468
443.837057	0.413159
444.212365	0.403084
444.587612	0.409809
444.962800	0.399610
445.337927	0.401180
445.712995	0.427638
446.088002	0.389987
446.462949	0.400114
446.837837	0.404347
447.212664	0.393385
447.587431	0.385496
447.962139	0.355861
448.336786	0.315022
448.711374	0.325555
449.085901	0.369462
449.460369	0.373810
449.834776	0.377378
450.209124	0.356418
450.583412	0.349426
450.957640	0.342167
451.331808	0.353105
451.705917	0.376850
452.079965	0.381400
452.453954	0.369566
452.827883	0.376692
453.201752	0.371219
453.575562	0.382928
453.949311	0.371158
454.323001	0.377419
454.696632	0.372867
455.070202	0.365407
455.443713	0.357567
455.817164	0.352300
456.190556	0.348475
456.563888	0.345288
456.937160	0.342520
457.310373	0.359745
457.683526	0.358659
458.056619	0.364571
458.429653	0.365256
458.802628	0.368082
459.175542	0.363153
459.548398	0.345490
459.921194	0.337649
460.293930	0.338186
460.666607	0.315176
461.039224	0.303566
461.411782	0.299326
461.784280	0.298710
462.156719	0.302857
462.529099	0.307358
462.901419	0.323333
463.273680	0.327806
463.645882	0.326977
464.018024	0.332824
464.390106	0.325910
464.762130	0.310590
465.134094	0.293583
465.505999	0.262588
465.877845	0.233177
466.249631	0.220108
466.621358	0.227640
466.993026	0.241536
467.364634	0.247292
467.736184	0.256185
468.107674	0.264930
468.479105	0.264018
468.850477	0.270927
469.221790	0.277326
469.593043	0.287793
469.964238	0.292659
470.335373	0.291941
470.706449	0.290208
471.077467	0.291137
471.448425	0.252926
471.819324	0.228704
472.190164	0.227833
472.560945	0.256781
472.931667	0.279057
473.302330	0.282882
473.672934	0.295194
474.043479	0.283133
474.413965	0.284683
474.784393	0.288192
475.154761	0.283404
475.525070	0.280475
475.895321	0.286316
476.265513	0.280360
476.635645	0.275906
477.005719	0.276034
477.375734	0.272490
477.745691	0.265986
478.115588	0.262212
478.485427	0.255995
478.855207	0.242637
479.224928	0.225188
479.594591	0.213221
479.964194	0.216806
480.333739	0.218023
480.703226	0.219570
481.072653	0.217662
481.442022	0.213358
481.811333	0.210030
482.180584	0.213404
482.549777	0.218694
482.918912	0.222043
483.287988	0.221971
483.657005	0.221552
484.025964	0.227768
484.394864	0.225528
484.763706	0.226028
485.132489	0.231002
485.501213	0.231673
485.869879	0.230039
486.238487	0.233418
486.607036	0.231216
486.975527	0.235348
487.343959	0.231668
487.712333	0.230565
488.080648	0.232079
488.448905	0.231427
488.817104	0.232591
489.185244	0.227009
489.553326	0.224140
489.921350	0.214003
490.289315	0.196300
490.657222	0.191277
491.025070	0.192577
491.392861	0.194565
491.760593	0.200380
492.128267	0.205922
492.495883	0.211439
492.863440	0.217588
493.230939	0.224266
493.598380	0.225257
493.965763	0.227695
494.333088	0.229921
494.700354	0.231246
495.067563	0.230266
495.434713	0.233331
495.801805	0.231399
496.168839	0.232956
496.535815	0.234380
496.902733	0.234188
497.269593	0.235894
497.636395	0.233891
498.003139	0.233966
498.369825	0.236973
498.736453	0.233416
499.103023	0.234462
499.469535	0.234300
499.835989	0.234636
500.202385	0.235510
500.568723	0.238835
500.935003	0.233891
501.301226	0.238273
501.667390	0.232549
502.033497	0.230589
502.399546	0.233436
502.765537	0.235539
503.131470	0.234031
503.497345	0.230212
503.863163	0.238912
504.228923	0.231793
504.594625	0.230453
504.960269	0.235933
505.325856	0.231285
505.691385	0.235633
506.056856	0.232192
506.422270	0.231721
506.787625	0.234076
507.152924	0.231535
507.518164	0.232312
507.883347	0.233697
508.248472	0.235671
508.613540	0.230474
508.978550	0.232930
509.343503	0.233580
509.708398	0.230919
510.073236	0.228832
510.438016	0.228644
510.802738	0.229343
511.167403	0.228747
511.532010	0.230639
511.896561	0.225975
512.261053	0.224578
512.625488	0.226954
512.989866	0.226806
513.354186	0.227349
513.718449	0.229273
514.082655	0.225634
514.446803	0.228039
514.810894	0.225421
515.174927	0.228153
515.538904	0.227647
515.902822	0.224625
516.266684	0.226891
516.630488	0.228165
516.994235	0.226926
517.357925	0.225589
517.721558	0.224074
518.085133	0.223444
518.448651	0.223445
518.812112	0.225559
519.175516	0.225181
519.538863	0.223182
519.902152	0.224758
520.265385	0.221720
520.628560	0.223380
520.991678	0.223624
521.354739	0.222458
521.717743	0.223793
522.080690	0.224073
522.443580	0.221486
522.806413	0.222446
523.169189	0.221630
523.531908	0.220775
523.894569	0.224318
524.257174	0.224221
524.619722	0.222086
524.982213	0.223071
525.344647	0.221826
525.707025	0.222878
526.069345	0.220789
526.431608	0.222557
526.793815	0.220611
527.155964	0.224705
527.518057	0.223630
527.880093	0.224802
528.242072	0.223184
528.603995	0.225244
528.965860	0.227024
529.327669	0.225862
529.689421	0.226789
530.051117	0.227338
530.412755	0.225179
530.774337	0.227487
531.135862	0.227802
531.497331	0.227138
531.858743	0.229994
532.220098	0.226713
532.581396	0.229140
532.942638	0.229716
533.303824	0.230419
533.664953	0.230495
534.026025	0.231938
534.387040	0.230226
534.747999	0.230220
535.108902	0.228687
535.469748	0.233920
535.830537	0.231751
536.191270	0.232121
536.551947	0.231849
536.912567	0.231810
537.273131	0.233613
537.633638	0.233555
537.994089	0.234138
538.354483	0.235021
538.714821	0.231923
539.075103	0.231994
539.435328	0.232845
539.795497	0.236405
540.155609	0.232987
540.515665	0.230907
540.875665	0.236846
541.235609	0.235314
541.595496	0.235343
541.955328	0.232177
542.315102	0.234406
542.674821	0.235682
543.034483	0.235606
543.394090	0.235312
543.753640	0.237325
544.113134	0.232383
544.472571	0.235475
544.831953	0.232488
545.191278	0.236517
545.550548	0.236170
545.909761	0.232808
546.268918	0.233388
546.628019	0.231813
546.987064	0.234537
547.346053	0.236514
547.704986	0.234323
548.063863	0.234518
548.422684	0.234783
548.781449	0.236493
549.140158	0.234210
549.498811	0.237033
549.857408	0.240251
550.215949	0.234994
550.574434	0.237786
550.932864	0.236027
551.291237	0.234656
551.649555	0.236197
552.007817	0.235766
552.366022	0.236822
552.724173	0.236867
553.082267	0.237497
553.440305	0.234013
553.798288	0.238529
554.156215	0.235302
554.514086	0.235732
554.871902	0.238916
555.229661	0.238177
555.587365	0.238719
555.945014	0.241242
556.302606	0.238006
556.660143	0.240479
557.017625	0.237099
557.375050	0.239324
557.732421	0.236231
558.089735	0.238396
558.446994	0.238275
558.804197	0.237673
559.161345	0.237590
559.518437	0.241034
559.875474	0.238733
560.232455	0.238376
560.589381	0.239337
560.946251	0.239546
561.303065	0.236779
561.659825	0.238604
562.016528	0.239849
562.373177	0.242686
562.729770	0.240071
563.086307	0.242299
563.442789	0.239905
563.799216	0.242892
564.155587	0.241631
564.511904	0.242992
564.868164	0.242794
565.224370	0.242860
565.580520	0.244197
565.936615	0.244433
566.292654	0.247071
566.648638	0.244294
567.004567	0.245069
567.360441	0.245699
567.716260	0.247927
568.072023	0.245607
568.427732	0.246360
568.783385	0.248845
569.138982	0.246734
569.494525	0.246432
569.850013	0.249533
570.205445	0.247791
570.560823	0.250179
570.916145	0.252368
571.271412	0.250407
571.626625	0.252148
571.981782	0.252263
572.336884	0.253217
572.691931	0.253215
573.046923	0.254431
573.401860	0.255577
573.756743	0.256888
574.111570	0.255881
574.466342	0.256595
574.821059	0.255942
575.175722	0.258472
575.530330	0.258167
575.884882	0.258248
576.239380	0.260682
576.593823	0.260914
576.948211	0.260655
577.302544	0.263777
577.656823	0.263454
578.011047	0.263293
578.365216	0.264222
578.719330	0.266423
579.073389	0.266044
579.427394	0.267218
579.781344	0.268146
580.135239	0.269341
580.489080	0.268930
580.842866	0.271695
581.196597	0.271905
581.550273	0.270354
581.903895	0.271648
582.257463	0.270083
582.610975	0.273005
582.964434	0.272697
583.317837	0.275333
583.671186	0.275068
584.024481	0.275539
584.377721	0.278124
584.730906	0.278563
585.084037	0.277992
585.437113	0.279679
585.790135	0.279259
586.143103	0.281993
586.496016	0.283377
586.848874	0.280617
587.201679	0.280919
587.554428	0.284980
587.907124	0.283203
588.259765	0.283877
588.612352	0.284582
588.964884	0.288396
589.317362	0.288136
589.669786	0.287980
590.022155	0.286608
590.374470	0.285624
590.726731	0.287871
591.078937	0.292396
591.431090	0.289097
591.783188	0.293174
592.135232	0.293637
592.487222	0.293612
592.839157	0.291773
593.191038	0.294248
593.542866	0.296111
593.894639	0.299404
594.246358	0.297454
594.598022	0.296862
594.949633	0.300679
595.301190	0.300936
595.652692	0.300485
596.004141	0.296838
596.355535	0.304358
596.706876	0.305095
597.058162	0.307707
597.409395	0.304963
597.760573	0.302606
598.111698	0.305883
598.462768	0.306350
598.813785	0.307511
599.164748	0.308777
599.515657	0.309139
599.866511	0.312498
600.217312	0.307426
600.568060	0.313231
600.918753	0.309526
601.269392	0.310535
601.619978	0.313314
601.970510	0.311394
602.320988	0.311338
602.671412	0.309403
603.021783	0.311607
603.372100	0.312965
603.722363	0.312588
604.072572	0.313509
604.422728	0.313283
604.772830	0.315340
605.122878	0.314915
605.472872	0.315739
605.822813	0.313894
606.172701	0.316776
606.522534	0.314422
606.872314	0.313918
607.222041	0.314702
607.571714	0.313512
607.921333	0.314543
608.270899	0.314170
608.620411	0.311131
608.969870	0.314856
609.319276	0.315237
609.668627	0.315209
610.017926	0.313164
610.367171	0.311984
610.716362	0.312855
611.065500	0.312971
611.414585	0.311724
611.763616	0.312500
612.112594	0.312710
612.461518	0.312042
612.810389	0.309808
613.159207	0.311985
613.507971	0.313901
613.856682	0.309658
614.205340	0.311121
614.553945	0.307792
614.902496	0.311999
615.250994	0.309668
615.599439	0.310709
615.947830	0.309981
616.296169	0.311056
616.644454	0.310330
616.992686	0.310586
617.340864	0.308417
617.688990	0.312229
618.037063	0.308541
618.385082	0.310290
618.733048	0.307427
619.080961	0.309495
619.428821	0.309001
619.776628	0.308801
620.124382	0.311107
620.472083	0.310636
620.819731	0.310493
621.167326	0.314122
621.514868	0.313942
621.862357	0.318290
622.209793	0.317811
622.557176	0.320163
622.904506	0.320854
623.251783	0.323027
623.599007	0.325767
623.946179	0.325134
624.293297	0.327419
624.640363	0.330891
624.987376	0.331730
625.334336	0.334366
625.681243	0.336781
626.028097	0.336888
626.374899	0.337925
626.721647	0.338368
627.068343	0.341490
627.414987	0.342743
627.761577	0.344737
628.108115	0.343038
628.454600	0.348221
628.801032	0.345396
629.147412	0.347645
629.493739	0.348320
629.840014	0.351380
630.186236	0.348507
630.532405	0.354214
630.878521	0.351998
631.224585	0.353768
631.570597	0.357529
631.916556	0.355775
632.262462	0.356314
632.608316	0.358339
632.954117	0.359012
633.299866	0.359791
633.645562	0.360080
633.991206	0.364317
634.336797	0.367878
634.682336	0.369527
635.027823	0.371643
635.373257	0.371966
635.718639	0.375279
636.063968	0.374935
636.409245	0.380729
636.754470	0.380789
637.099642	0.383606
637.444762	0.386402
637.789829	0.385709
638.134845	0.389567
638.479808	0.390074
638.824719	0.389696
639.169577	0.394358
639.514383	0.392547
639.859137	0.397255
640.203839	0.397345
640.548489	0.397733
640.893086	0.398854
641.237632	0.400685
641.582125	0.399046
641.926566	0.400418
642.270955	0.400801
642.615292	0.401031
642.959576	0.399898
643.303809	0.400445
643.647990	0.400269
643.992118	0.401110
644.336195	0.404280
644.680219	0.402730
645.024192	0.403623
645.368112	0.397277
645.711981	0.395926
646.055797	0.391692
646.399562	0.393799
646.743274	0.385492
647.086935	0.383609
647.430544	0.383132
647.774101	0.382378
648.117606	0.382103
648.461059	0.382402
648.804460	0.384696
649.147810	0.389871
649.491108	0.391663
649.834354	0.393557
650.177548	0.398897
650.520690	0.404239
650.863781	0.405441
651.206820	0.404504
651.549807	0.408954
651.892742	0.413441
652.235626	0.412861
652.578458	0.413559
652.921238	0.419722
653.263967	0.417470
653.606644	0.421523
653.949269	0.420997
654.291843	0.425323
654.634365	0.421979
654.976836	0.425139
655.319255	0.425164
655.661622	0.427119
656.003938	0.427277
656.346203	0.429781
656.688416	0.427618
657.030577	0.431619
657.372687	0.433207
657.714746	0.433838
658.056753	0.431181
658.398708	0.434850
658.740612	0.435597
659.082465	0.432008
659.424266	0.432294
659.766016	0.431679
660.107715	0.434512
660.449362	0.433564
660.790958	0.433957
661.132503	0.434607
661.473996	0.432275
661.815438	0.433233
662.156829	0.433497
662.498168	0.434331
662.839456	0.435638
663.180693	0.433488
663.521879	0.433025
663.863013	0.434613
664.204097	0.433121
664.545129	0.429538
664.886110	0.430386
665.227040	0.427027
665.567918	0.429890
665.908746	0.427941
666.249522	0.427748
666.590248	0.428557
666.930922	0.426922
667.271545	0.425574
667.612118	0.426034
667.952639	0.427291
668.293109	0.426145
668.633528	0.429098
668.973896	0.428914
669.314213	0.429428
669.654480	0.430496
669.994695	0.431602
670.334859	0.432003
670.674973	0.432145
671.015035	0.431685
671.355047	0.431912
671.695008	0.433226
672.034918	0.435234
672.374777	0.434676
672.714585	0.435398
673.054342	0.435250
673.394049	0.435298
673.733705	0.433570
674.073310	0.434232
674.412864	0.437636
674.752368	0.438271
675.091820	0.438303
675.431223	0.442656
675.770574	0.442434
676.109875	0.445827
676.449125	0.445805
676.788324	0.447927
677.127473	0.453305
677.466571	0.453153
677.805619	0.454206
678.144616	0.455558
678.483562	0.457375
678.822458	0.460087
679.161303	0.461535
679.500098	0.461005
679.838842	0.463105
680.177535	0.462697
680.516179	0.460896
680.854771	0.460091
681.193314	0.453596
681.531805	0.444906
681.870247	0.433089
682.208638	0.425969
682.546978	0.424695
682.885268	0.426892
683.223508	0.433152
683.561697	0.436569
683.899836	0.439024
684.237925	0.443044
684.575963	0.445092
684.913951	0.447921
685.251889	0.444547
685.589776	0.445666
685.927614	0.448700
686.265401	0.443146
686.603137	0.443532
686.940824	0.438149
687.278460	0.436816
687.616046	0.435471
687.953582	0.431066
688.291068	0.432201
688.628504	0.427525
688.965889	0.430432
689.303224	0.434275
689.640510	0.437708
689.977745	0.444151
690.314930	0.451558
690.652065	0.456593
690.989150	0.463726
691.326185	0.470432
691.663170	0.474445
692.000105	0.482271
692.336990	0.488569
692.673825	0.491949
693.010610	0.498402
693.347345	0.504223
693.684030	0.504866
694.020665	0.510784
694.357251	0.518980
694.693786	0.518468
695.030272	0.522819
695.366707	0.526293
695.703093	0.529939
696.039429	0.527547
696.375716	0.528946
696.711952	0.532154
697.048139	0.534486
697.384276	0.535588
697.720363	0.533978
698.056400	0.534157
698.392388	0.538740
698.728326	0.541877
699.064214	0.544775
699.400053	0.545104
699.735842	0.548908
700.071581	0.551963
700.407270	0.555046
700.742910	0.557828
701.078501	0.563638
701.414042	0.564499
701.749533	0.566988
702.084974	0.576054
702.420366	0.567640
702.755709	0.576375
703.091002	0.584304
703.426246	0.576837
703.761440	0.583343
704.096584	0.588058
704.431679	0.585080
704.766725	0.587352
705.101721	0.588551
705.436668	0.585127
705.771565	0.591770
706.106413	0.588748
706.441212	0.584245
706.775961	0.582544
707.110661	0.585330
707.445311	0.581363
707.779913	0.579027
708.114465	0.577680
708.448967	0.574134
708.783421	0.565979
709.117825	0.561072
709.452180	0.561894
709.786485	0.554896
710.120742	0.544292
710.454949	0.546137
710.789107	0.537837
711.123216	0.530157
711.457275	0.530865
711.791286	0.521690
712.125247	0.521189
712.459159	0.531711
712.793023	0.523855
713.126837	0.528459
713.460602	0.528742
713.794318	0.537800
714.127985	0.536903
714.461602	0.547083
714.795171	0.550270
715.128691	0.557981
715.462162	0.565734
715.795584	0.571076
716.128957	0.574039
716.462281	0.580732
716.795556	0.584243
717.128782	0.589461
717.461960	0.599073
717.795088	0.598061
718.128167	0.603659
718.461198	0.612482
718.794180	0.613524
719.127113	0.615145
719.459997	0.619237
719.792833	0.625970
720.125619	0.626726
720.458357	0.632811
720.791046	0.632106
721.123686	0.636170
721.456278	0.642362
721.788821	0.639415
722.121315	0.643231
722.453761	0.648241
722.786158	0.646468
723.118506	0.643018
723.450805	0.650923
723.783056	0.646633
724.115259	0.644095
724.447412	0.643266
724.779518	0.644825
725.111574	0.643653
725.443582	0.640474
725.775542	0.641410
726.107453	0.633215
726.439315	0.633563
726.771129	0.632355
727.102895	0.625145
727.434612	0.618544
727.766281	0.616421
728.097901	0.615264
728.429473	0.614808
728.760996	0.613430
729.092471	0.613596
729.423897	0.617651
729.755276	0.615962
730.086606	0.616765
730.417887	0.611270
730.749120	0.601240
731.080305	0.592132
731.411442	0.588985
731.742530	0.593580
732.073570	0.592209
732.404562	0.584596
732.735506	0.586087
733.066401	0.591725
733.397249	0.600581
733.728048	0.611655
734.058798	0.624178
734.389501	0.634983
734.720156	0.644567
735.050762	0.653021
735.381320	0.653782
735.711831	0.662618
736.042293	0.667860
736.372707	0.663921
736.703073	0.669047
737.033391	0.671451
737.363661	0.667028
737.693883	0.662498
738.024056	0.661424
738.354182	0.662138
738.684260	0.651175
739.014290	0.646883
739.344272	0.648397
739.674207	0.641638
740.004093	0.640758
740.333931	0.641863
740.663722	0.641727
740.993464	0.641723
741.323159	0.645009
741.652806	0.650728
741.982405	0.655759
742.311956	0.659995
742.641460	0.662259
742.970915	0.666058
743.300323	0.674133
743.629683	0.680472
743.958996	0.681742
744.288260	0.686309
744.617477	0.692616
744.946647	0.694074
745.275768	0.699712
745.604842	0.698362
745.933869	0.709348
746.262847	0.709623
746.591778	0.703881
746.920662	0.709449
747.249498	0.715830
747.578286	0.707065
747.907027	0.702940
748.235720	0.703491
748.564365	0.698791
748.892963	0.698299
749.221514	0.701768
749.550017	0.705931
749.878473	0.705903
750.206881	0.712538
750.535242	0.714051
750.863555	0.713670
751.191821	0.715561
751.520039	0.718320
751.848210	0.722565
752.176334	0.715992
752.504411	0.714802
752.832440	0.722991
753.160421	0.726324
753.488356	0.724623
753.816243	0.723171
754.144082	0.731074
754.471875	0.733670
754.799620	0.729841
755.127318	0.731279
755.454969	0.730885
755.782572	0.729276
756.110129	0.734894
756.437638	0.737662
756.765100	0.734384
757.092515	0.732621
757.419882	0.731739
757.747203	0.737140
758.074477	0.735751
758.401703	0.733017
758.728882	0.728940
759.056014	0.727542
759.383099	0.726446
759.710138	0.727419
760.037129	0.723568
760.364073	0.716961
760.690970	0.720092
761.017820	0.725143
761.344623	0.721622
761.671379	0.712308
761.998088	0.700900
762.324751	0.677822
762.651366	0.635999
762.977935	0.567857
763.304456	0.516212
763.630931	0.507187
763.957359	0.545114
764.283740	0.590051
764.610074	0.617524
764.936362	0.649279
765.262602	0.675148
765.588796	0.697941
765.914943	0.715089
766.241044	0.733548
766.567097	0.740585
766.893104	0.750108
767.219064	0.755958
767.544978	0.763599
767.870845	0.775699
768.196665	0.780396
768.522438	0.778450
768.848165	0.779831
769.173846	0.788552
769.499479	0.793423
769.825066	0.796668
770.150607	0.800879
770.476101	0.797286
770.801548	0.798059
771.126949	0.809393
771.452303	0.813385
771.777611	0.811855
772.102872	0.810484
772.428087	0.816825
772.753256	0.820091
773.078378	0.822689
773.403453	0.830981
773.728482	0.834949
774.053465	0.829671
774.378401	0.832049
774.703291	0.840905
775.028135	0.839912
775.352932	0.841844
775.677683	0.845210
776.002388	0.845237
776.327046	0.844600
776.651658	0.848546
776.976224	0.851705
777.300743	0.852534
777.625216	0.853616
777.949643	0.856218
778.274024	0.856021
778.598359	0.858181
778.922647	0.856533
779.246889	0.856224
779.571086	0.860295
779.895236	0.862936
780.219339	0.860242
780.543397	0.857556
780.867409	0.854644
781.191374	0.858353
781.515294	0.858802
781.839167	0.859109
782.162995	0.860811
782.486776	0.858209
782.810511	0.859307
783.134201	0.862866
783.457844	0.860822
783.781441	0.863695
784.104993	0.870181
784.428498	0.869473
784.751958	0.866159
785.075372	0.867731
785.398739	0.871685
785.722061	0.867509
786.045337	0.863662
786.368568	0.868640
786.691752	0.871002
787.014891	0.856307
787.337983	0.848434
787.661030	0.840015
787.984031	0.823279
788.306987	0.808801
788.629897	0.811342
788.952760	0.816035
789.275579	0.820183
789.598351	0.835821
789.921078	0.847580
790.243759	0.850490
790.566395	0.855482
790.888984	0.863068
791.211529	0.867235
791.534027	0.871532
791.856480	0.872944
792.178888	0.877929
792.501249	0.880691
792.823566	0.882486
793.145836	0.881987
793.468062	0.884362
793.790241	0.884018
794.112375	0.881730
794.434464	0.877240
794.756507	0.877391
795.078505	0.877216
795.400457	0.871056
795.722364	0.858893
796.044226	0.851709
796.366042	0.849997
796.687812	0.854018
797.009538	0.851031
797.331218	0.853340
797.652852	0.858040
797.974442	0.863661
798.295986	0.861986
798.617484	0.866848
798.938938	0.870791
799.260346	0.874528
799.581709	0.876541
799.903026	0.878604
800.224299	0.880297
800.545526	0.883045
800.866708	0.888082
801.187845	0.891401
801.508936	0.891678
801.829983	0.889225
802.150984	0.892006
802.471940	0.897100
802.792851	0.896567
803.113717	0.896313
803.434538	0.896083
803.755314	0.898053
804.076045	0.899170
804.396731	0.900214
804.717372	0.899352
805.037967	0.901621
805.358518	0.898766
805.679024	0.895551
805.999485	0.895791
806.319901	0.896213
806.640272	0.897326
806.960598	0.895890
807.280879	0.892866
807.601115	0.890942
807.921306	0.895039
808.241453	0.894964
808.561554	0.894055
808.881611	0.892167
809.201623	0.896185
809.521590	0.895368
809.841513	0.896882
810.161390	0.896411
810.481223	0.896475
810.801011	0.900407
811.120755	0.901799
811.440453	0.901002
811.760107	0.899495
812.079716	0.899721
812.399281	0.903275
812.718801	0.904527
813.038276	0.906288
813.357707	0.906253
813.677093	0.902848
813.996434	0.907149
814.315731	0.907490
814.634983	0.908800
814.954191	0.907423
815.273354	0.904196
815.592473	0.900570
815.911547	0.900232
816.230577	0.897522
816.549562	0.893956
816.868502	0.895686
817.187399	0.892290
817.506250	0.887144
817.825058	0.889941
818.143821	0.885884
818.462539	0.880290
818.781213	0.872797
819.099843	0.860272
819.418429	0.844110
819.736970	0.828594
820.055466	0.807226
820.373919	0.782620
820.692327	0.748940
821.010691	0.713142
821.329011	0.634600
821.647286	0.517948
821.965517	0.403296
822.283704	0.359868
822.601847	0.361075
822.919945	0.396155
823.237999	0.431103
823.556010	0.478630
823.873976	0.534765
824.191897	0.585843
824.509775	0.629542
824.827609	0.674944
825.145398	0.697907
825.463144	0.700440
825.780845	0.684096
826.098502	0.664442
826.416116	0.618415
826.733685	0.573799
827.051210	0.564640
827.368692	0.579839
827.686129	0.618430
828.003522	0.672487
828.320872	0.719854
828.638177	0.763626
828.955439	0.796521
829.272656	0.819889
829.589830	0.837338
829.906960	0.852796
830.224046	0.864017
830.541088	0.875615
830.858086	0.879791
831.175041	0.885447
831.491952	0.886093
831.808819	0.881537
832.125642	0.875348
832.442421	0.860308
832.759157	0.837976
833.075849	0.791115
833.392497	0.727163
833.709101	0.685919
834.025662	0.695546
834.342179	0.727220
834.658653	0.766490
834.975083	0.803408
835.291469	0.828840
835.607811	0.852406
835.924110	0.869884
836.240366	0.886075
836.556578	0.900346
836.872746	0.907051
837.188871	0.912510
837.504952	0.919427
837.820990	0.923154
838.136984	0.927309
838.452935	0.929498
838.768842	0.930516
839.084706	0.924257
839.400526	0.898307
839.716303	0.857776
840.032037	0.834463
840.347727	0.838554
840.663373	0.857358
840.978977	0.878242
841.294537	0.902048
841.610054	0.917038
841.925527	0.925509
842.240957	0.932949
842.556344	0.940329
842.871687	0.945292
843.186987	0.950133
843.502244	0.950322
843.817458	0.952214
844.132629	0.955695
844.447756	0.960613
844.762840	0.960709
845.077881	0.959546
845.392879	0.960747
845.707833	0.962638
846.022745	0.965108
846.337613	0.964624
846.652438	0.965657
846.967221	0.963975
847.281960	0.964979
847.596656	0.967065
847.911309	0.966203
848.225919	0.968598
848.540485	0.968829
848.855009	0.968780
849.169490	0.968017
849.483928	0.968842
849.798323	0.968842
850.112675	0.969898
850.426984	0.969682
850.741251	0.969335
851.055474	0.969992
851.369654	0.968438
851.683792	0.969666
851.997887	0.970512
852.311938	0.970262
852.625947	0.968420
852.939914	0.968139
853.253837	0.968574
853.567718	0.971466
853.881555	0.970578
854.195350	0.967935
854.509103	0.970103
854.822812	0.970673
855.136479	0.969891
855.450103	0.970124
855.763685	0.968804
856.077224	0.969104
856.390720	0.970559
856.704173	0.970887
857.017584	0.968261
857.330953	0.966253
857.644278	0.968260
857.957561	0.968937
858.270802	0.968880
858.584000	0.968568
858.897155	0.967107
859.210268	0.967063
859.523339	0.968872
859.836367	0.970438
860.149352	0.969981
860.462295	0.968582
860.775195	0.971195
861.088054	0.968841
861.400869	0.969720
861.713642	0.970046
862.026373	0.968837
862.339062	0.971212
862.651708	0.968409
862.964312	0.967965
863.276873	0.969934
863.589392	0.968245
863.901869	0.966863
864.214303	0.964468
864.526696	0.964472
864.839045	0.964052
865.151353	0.961913
865.463619	0.962246
865.775842	0.962682
866.088023	0.962437
866.400162	0.961812
866.712258	0.962161
867.024313	0.962171
867.336325	0.963022
867.648296	0.962972
867.960224	0.962615
868.272110	0.961694
868.583954	0.962886
868.895755	0.963848
869.207515	0.961263
869.519233	0.959402
869.830909	0.961157
870.142542	0.962525
870.454134	0.961257
870.765684	0.958939
871.077191	0.957521
871.388657	0.957916
871.700081	0.957619
872.011463	0.957819
872.322803	0.956919
872.634101	0.955638
872.945357	0.954040
873.256571	0.952405
873.567744	0.952304
873.878874	0.953573
874.189963	0.951663
874.501010	0.951352
874.812015	0.949292
875.122979	0.950822
875.433900	0.952416
875.744780	0.953794
876.055618	0.950782
876.366415	0.948802
876.677169	0.948936
876.987882	0.950995
877.298554	0.950415
877.609183	0.946848
877.919771	0.943853
878.230317	0.942270
878.540822	0.940325
878.851285	0.934038
879.161707	0.925799
879.472087	0.913477
879.782425	0.896886
880.092722	0.861908
880.402977	0.808992
880.713191	0.746784
881.023363	0.685496
881.333494	0.650840
881.643583	0.622534
881.953631	0.622966
882.263637	0.651918
882.573602	0.691543
882.883526	0.717389
883.193408	0.741703
883.503248	0.766083
883.813048	0.793176
884.122806	0.823430
884.432522	0.847551
884.742197	0.866441
885.051831	0.878701
885.361424	0.889773
885.670975	0.901302
885.980485	0.912007
886.289954	0.918722
886.599382	0.922901
886.908768	0.926929
887.218113	0.933497
887.527417	0.937719
887.836680	0.940417
888.145901	0.942929
888.455082	0.946101
888.764221	0.949240
889.073319	0.951764
889.382376	0.951533
889.691392	0.952783
890.000366	0.952491
890.309300	0.953273
890.618193	0.952260
890.927044	0.950736
891.235855	0.950995
891.544625	0.950903
891.853353	0.951648
892.162041	0.947834
892.470687	0.942126
892.779293	0.936891
893.087858	0.932114
893.396381	0.924835
893.704864	0.911517
894.013306	0.886174
894.321707	0.860372
894.630068	0.844831
894.938387	0.839694
895.246665	0.840608
895.554903	0.854842
895.863100	0.866831
896.171256	0.884693
896.479371	0.904323
896.787446	0.915735
897.095480	0.923607
897.403473	0.927044
897.711425	0.932491
898.019336	0.938432
898.327207	0.941441
898.635038	0.944477
898.942827	0.944654
899.250576	0.946757
899.558284	0.951791
899.865952	0.952896
900.173579	0.953962
900.481165	0.954164
900.788711	0.959054
901.096216	0.960870
901.403681	0.960617
901.711105	0.962031
902.018489	0.962949
902.325832	0.961956
902.633135	0.960683
902.940397	0.954974
903.247619	0.943403
903.554800	0.916342
903.861941	0.875499
904.169041	0.838483
904.476101	0.820456
904.783121	0.822535
905.090100	0.837524
905.397039	0.860524
905.703938	0.882913
906.010796	0.904131
906.317614	0.920789
906.624391	0.932554
906.931129	0.943462
907.237826	0.951135
907.544483	0.958532
907.851099	0.961929
908.157675	0.967802
908.464211	0.968793
908.770707	0.972544
909.077163	0.973812
909.383578	0.974323
909.689954	0.975082
909.996289	0.975067
910.302584	0.977056
910.608839	0.979062
910.915054	0.978285
911.221229	0.977779
911.527363	0.975862
911.833458	0.977268
912.139513	0.977517
912.445527	0.974584
912.751502	0.973628
913.057436	0.971451
913.363331	0.969539
913.669186	0.964918
913.975000	0.960071
914.280775	0.954105
914.586510	0.947315
914.892205	0.933466
915.197859	0.911374
915.503475	0.883594
915.809050	0.863247
916.114585	0.856485
916.420081	0.853499
916.725536	0.850514
917.030952	0.859138
917.336328	0.872611
917.641665	0.887463
917.946961	0.904080
918.252218	0.916015
918.557435	0.925113
918.862612	0.934324
919.167750	0.939960
919.472848	0.944704
919.777906	0.951835
920.082925	0.956148
920.387904	0.960467
920.692843	0.961616
920.997743	0.963199
921.302603	0.966724
921.607423	0.968128
921.912204	0.971336
922.216946	0.971542
922.521647	0.972779
922.826310	0.975235
923.130932	0.976752
923.435516	0.978201
923.740059	0.979005
924.044564	0.978304
924.349028	0.979349
924.653454	0.983235
924.957840	0.984591
925.262186	0.983675
925.566493	0.983977
925.870761	0.984658
926.174989	0.986340
926.479178	0.989197
926.783328	0.988918
927.087438	0.988909
927.391509	0.987269
927.695541	0.990822
927.999533	0.988464
928.303486	0.991185
928.607400	0.992161
928.911275	0.989468
929.215110	0.990366
929.518906	0.991192
929.822663	0.990403
930.126381	0.991737
930.430060	0.990481
930.733699	0.991054
931.037299	0.989170
931.340861	0.990926
931.644383	0.990870
931.947866	0.989477
932.251309	0.990830
932.554714	0.989523
932.858080	0.990006
933.161407	0.989739
933.464694	0.991657
933.767943	0.990033
934.071153	0.990815
934.374323	0.992884
934.677455	0.990757
934.980548	0.992501
935.283602	0.990865
935.586617	0.991598
935.889593	0.991433
936.192530	0.992339
936.495428	0.990545
936.798287	0.989844
937.101108	0.990654
937.403890	0.988646
937.706632	0.989079
938.009336	0.986805
938.312002	0.985236
938.614628	0.984640
938.917216	0.983513
939.219765	0.980783
939.522275	0.982738
939.824747	0.981839
940.127179	0.982803
940.429573	0.984830
940.731929	0.983488
941.034246	0.985305
941.336524	0.986516
941.638763	0.985767
941.940964	0.985944
942.243126	0.986360
942.545250	0.986463
942.847335	0.988330
943.149381	0.988281
943.451389	0.987911
943.753359	0.987477
944.055290	0.990483
944.357182	0.989778
944.659036	0.988940
944.960851	0.989950
945.262628	0.989077
945.564367	0.991435
945.866067	0.989615
946.167729	0.990916
946.469352	0.989073
946.770937	0.990112
947.072484	0.990094
947.373992	0.989976
947.675462	0.989676
947.976893	0.990706
948.278286	0.990816
948.579641	0.992492
948.880958	0.990557
949.182236	0.991185
949.483476	0.991480
949.784678	0.990729
950.085841	0.990802
950.386967	0.990829
950.688054	0.991489
950.989103	0.991839
951.290114	0.989519
951.591087	0.989921
951.892021	0.990051
952.192917	0.988519
952.493776	0.987834
952.794596	0.987779
953.095378	0.987461
953.396122	0.987618
953.696828	0.988053
953.997496	0.989777
954.298126	0.991518
954.598718	0.990267
954.899272	0.991635
955.199788	0.990755
955.500266	0.992268
955.800706	0.992808
956.101108	0.992636
956.401472	0.993875
956.701798	0.993188
957.002087	0.993056
957.302337	0.993856
957.602550	0.994755
957.902724	0.994926
958.202861	0.995972
958.502960	0.996157
958.803022	0.994797
959.103045	0.996724
959.403031	0.995973
959.702979	0.996022
960.002889	0.995247
960.302762	0.994882
960.602596	0.996863
960.902393	0.995795
961.202153	0.996713
961.501875	0.996938
961.801559	0.995861
962.101205	0.996177
962.400814	0.997358
962.700385	0.998261
962.999918	0.995469
963.299414	0.997471
963.598873	0.995777
963.898293	0.996292
964.197677	0.995475
964.497022	0.997203
964.796331	0.997684
965.095601	0.997740
965.394835	0.996779
965.694030	0.997674
965.993189	0.997723
966.292309	0.997162
966.591393	0.996957
966.890439	0.996784
967.189447	0.997566
967.488419	0.998612
967.787353	0.997476
968.086249	0.996518
968.385108	0.996511
968.683930	0.997323
968.982714	0.997562
969.281462	0.998183
969.580172	0.998731
969.878844	0.997639
970.177480	0.997431
970.476078	0.996793
970.774639	0.996956
971.073162	0.997672
971.371649	0.996183
971.670098	0.996423
971.968510	0.998176
972.266885	0.997238
972.565223	0.997133
972.863524	0.995560
973.161788	0.996371
973.460014	0.997663
973.758204	0.996451
974.056356	0.996380
974.354471	0.994314
974.652550	0.996921
974.950591	0.996854
975.248595	0.996582
975.546563	0.996139
975.844493	0.997938
976.142386	0.998001
976.440243	0.998666
976.738062	0.998442
977.035845	0.997562
977.333590	0.997531
977.631299	0.998234
977.928971	0.996891
978.226606	0.997835
978.524204	0.995862
978.821765	0.998005
979.119290	0.997173
979.416777	0.997722
979.714228	0.998879
980.011642	0.996515
980.309020	0.997294
980.606360	0.997990
980.903664	0.998511
981.200931	0.996800
981.498162	0.996152
981.795356	0.995468
982.092513	0.994599
982.389633	0.995296
982.686717	0.991567
982.983764	0.991671
983.280775	0.990624
983.577749	0.990785
983.874686	0.991476
984.171587	0.992174
984.468451	0.994945
984.765279	0.994600
985.062070	0.995024
985.358824	0.995749
985.655543	0.994792
985.952224	0.996951
986.248869	0.997170
986.545478	0.997631
986.842050	0.999882
987.138586	0.996894
987.435086	0.996793
987.731549	0.998031
988.027975	0.999165
988.324366	0.998902
988.620719	0.997295
988.917037	0.995974
989.213318	0.998274
989.509563	0.999682
989.805772	0.998625
990.101944	0.999019
990.398080	0.997609
990.694180	0.998759
990.990244	0.998294
991.286271	0.998603
991.582262	0.998374
991.878217	0.998243
992.174136	0.999796
992.470019	0.999497
992.765865	0.999314
993.061676	0.998114
993.357450	0.998255
993.653188	0.995773
993.948890	0.997737
994.244556	0.997771
994.540186	0.998193
994.835780	0.997114
995.131337	0.998262
995.426859	0.996503
995.722345	0.998145
996.017795	0.996629
996.313208	0.995514
996.608586	0.996536
996.903928	0.997630
997.199234	0.996833
997.494504	0.996448
997.789738	0.996917
998.084936	0.996007
998.380099	0.999243
998.675225	0.997974
998.970316	0.999213
999.265371	0.999596
999.560390	0.999117
999.855373	0.998309
1000.150320	0.999456
1000.445232	0.999391
1000.740108	0.999588
1001.034948	0.998620
1001.329752	0.999371
1001.624521	0.999412
1001.919254	0.998366
1002.213951	0.999314
1002.508613	0.998494
1002.803239	0.999224
1003.097829	0.999193
1003.392384	0.999979
1003.686903	0.999157
1003.981386	0.999148
1004.275834	0.999641
1004.570246	0.999275
1004.864623	0.999170
1005.158964	1.000393
1005.453270	0.999832
1005.747540	0.997476
1006.041775	0.998891
1006.335974	0.999920
1006.630138	0.999850
1006.924266	0.999628
1007.218359	1.000230
1007.512416	0.999962
1007.806438	1.000508
1008.100425	1.000744
1008.394376	0.999153
1008.688292	1.000071
1008.982172	1.000110
1009.276017	0.999567
1009.569827	0.998870
1009.863602	0.999194
1010.157341	1.000710
1010.451045	0.999459
1010.744714	0.999455
1011.038347	1.000036
1011.331945	0.999682
1011.625508	0.997937
1011.919036	0.999899
1012.212528	0.998977
1012.505986	0.997935
1012.799408	0.999796
1013.092795	1.000052
1013.386147	0.999835
1013.679464	0.999715
1013.972745	0.998615
1014.265992	0.998702
1014.559204	0.999868
1014.852380	0.999932
1015.145521	0.999368
1015.438628	1.000094
1015.731699	0.999552
1016.024736	0.999259
1016.317737	0.998624
1016.610703	0.999292
1016.903635	0.999560
1017.196531	0.998896
1017.489393	0.999639
1017.782219	0.999207
1018.075011	0.998806
1018.367768	0.999279
1018.660490	1.000326
1018.953177	1.000326
1019.245829	1.000326
