Dividing Wavelength (nm)	Counts (n)	Blue Motor Position (mm): 0.000000	Red Motor Position (mm): 13.400000	
326.493990	0.999553
326.888308	0.999553
327.282561	0.999553
327.676750	0.999076
328.070874	0.998893
328.464933	0.999701
328.858929	0.999084
329.252859	0.998898
329.646726	0.998730
330.040528	1.000473
330.434265	1.000071
330.827938	1.000305
331.221547	0.999911
331.615091	0.999637
332.008571	1.000631
332.401986	0.999155
332.795338	1.000531
333.188625	0.998747
333.581847	0.999055
333.975006	0.999298
334.368100	0.999372
334.761129	1.001173
335.154095	1.000582
335.546996	0.997332
335.939833	0.992298
336.332606	0.994214
336.725315	0.994162
337.117960	0.994120
337.510540	0.994028
337.903056	0.994535
338.295508	0.993061
338.687896	0.993189
339.080220	0.993618
339.472480	0.992972
339.864676	0.993673
340.256807	0.993632
340.648875	0.993683
341.040879	0.993539
341.432818	0.993606
341.824694	0.993347
342.216506	0.994666
342.608253	0.993355
342.999937	0.993692
343.391557	0.994137
343.783113	0.992464
344.174605	0.994275
344.566033	0.995535
344.957397	0.993188
345.348697	0.992787
345.739934	0.993450
346.131106	0.992457
346.522215	0.993324
346.913260	0.991912
347.304241	0.993739
347.695159	0.993765
348.086012	0.992937
348.476802	0.992832
348.867528	0.993483
349.258191	0.991923
349.648789	0.994525
350.039324	0.992796
350.429796	0.993939
350.820203	0.993585
351.210548	0.993348
351.600828	0.994629
351.991045	0.993787
352.381198	0.992770
352.771288	0.994390
353.161314	0.992924
353.551276	0.995890
353.941175	0.992864
354.331010	0.993469
354.720782	0.992652
355.110490	0.993869
355.500135	0.993823
355.889717	0.993895
356.279235	0.993644
356.668689	0.994232
357.058080	0.992348
357.447408	0.994559
357.836672	0.994331
358.225873	0.995050
358.615010	0.993589
359.004084	0.994724
359.393095	0.993518
359.782043	0.993617
360.170927	0.994315
360.559748	0.994867
360.948505	0.992632
361.337199	0.992994
361.725830	0.993566
362.114398	0.993210
362.502903	0.994601
362.891344	0.994998
363.279722	0.992486
363.668037	0.992828
364.056289	0.993679
364.444478	0.994894
364.832603	0.993603
365.220665	0.993221
365.608665	0.993376
365.996601	0.993455
366.384474	0.993600
366.772284	0.992679
367.160031	0.991908
367.547715	0.991841
367.935336	0.993342
368.322893	0.993210
368.710388	0.992541
369.097820	0.993273
369.485189	0.992309
369.872495	0.992730
370.259738	0.992301
370.646918	0.992414
371.034035	0.993371
371.421090	0.990891
371.808081	0.991139
372.195010	0.993545
372.581875	0.993221
372.968678	0.992463
373.355418	0.992516
373.742096	0.992819
374.128710	0.993055
374.515262	0.991807
374.901751	0.992010
375.288177	0.993138
375.674540	0.994601
376.060841	0.992968
376.447079	0.993498
376.833254	0.993144
377.219367	0.993436
377.605417	0.993135
377.991404	0.993112
378.377329	0.991735
378.763191	0.992354
379.148991	0.993189
379.534727	0.993258
379.920402	0.993554
380.306013	0.993083
380.691563	0.993902
381.077049	0.992037
381.462474	0.993200
381.847835	0.992785
382.233134	0.992895
382.618371	0.993908
383.003545	0.993006
383.388657	0.992359
383.773706	0.994233
384.158693	0.993514
384.543618	0.993281
384.928480	0.993662
385.313280	0.992783
385.698017	0.993598
386.082692	0.993684
386.467305	0.993197
386.851856	0.992421
387.236344	0.992859
387.620770	0.991742
388.005133	0.992141
388.389435	0.992260
388.773674	0.990154
389.157851	0.990015
389.541965	0.987388
389.926018	0.987168
390.310008	0.985587
390.693936	0.982708
391.077802	0.980822
391.461606	0.978037
391.845348	0.975067
392.229027	0.972434
392.612645	0.966907
392.996200	0.963897
393.379694	0.958256
393.763125	0.953514
394.146494	0.947723
394.529801	0.941585
394.913047	0.936126
395.296230	0.930985
395.679351	0.923467
396.062410	0.916053
396.445408	0.911604
396.828343	0.902379
397.211217	0.895213
397.594028	0.891253
397.976778	0.879856
398.359466	0.872223
398.742092	0.861847
399.124656	0.858904
399.507158	0.847202
399.889598	0.838849
400.271977	0.825984
400.654294	0.818667
401.036549	0.810109
401.418742	0.803006
401.800874	0.787345
402.182944	0.777823
402.564952	0.763822
402.946898	0.757072
403.328783	0.749115
403.710606	0.746095
404.092367	0.722219
404.474067	0.718119
404.855705	0.708129
405.237282	0.707994
405.618797	0.690240
406.000250	0.679181
406.381642	0.665072
406.762972	0.661195
407.144240	0.652918
407.525447	0.646711
407.906593	0.634160
408.287677	0.623631
408.668700	0.624126
409.049661	0.612552
409.430560	0.603792
409.811399	0.605083
410.192176	0.583789
410.572891	0.585924
410.953545	0.570747
411.334138	0.578250
411.714669	0.567987
412.095139	0.574657
412.475547	0.556758
412.855894	0.555075
413.236180	0.551079
413.616405	0.553577
413.996568	0.542272
414.376670	0.545393
414.756711	0.547931
415.136691	0.542688
415.516609	0.532915
415.896466	0.526993
416.276262	0.521544
416.655997	0.522449
417.035670	0.502802
417.415283	0.493110
417.794834	0.497617
418.174324	0.501502
418.553753	0.510474
418.933121	0.492386
419.312428	0.484624
419.691674	0.489708
420.070859	0.478942
420.449983	0.485981
420.829045	0.474755
421.208047	0.483756
421.586988	0.477005
421.965867	0.475222
422.344686	0.463976
422.723444	0.476508
423.102141	0.492856
423.480777	0.465895
423.859352	0.485839
424.237866	0.463168
424.616319	0.464079
424.994712	0.455135
425.373044	0.465199
425.751314	0.453378
426.129524	0.470058
426.507673	0.453383
426.885762	0.447357
427.263789	0.452626
427.641756	0.462079
428.019662	0.452345
428.397508	0.451012
428.775292	0.455292
429.153016	0.447523
429.530679	0.454382
429.908282	0.447013
430.285824	0.456493
430.663305	0.434987
431.040726	0.456621
431.418086	0.456495
431.795385	0.448155
432.172624	0.446680
432.549802	0.448187
432.926920	0.446764
433.303977	0.445711
433.680974	0.442733
434.057910	0.441513
434.434786	0.441147
434.811601	0.443306
435.188355	0.425258
435.565050	0.434776
435.941683	0.436684
436.318257	0.421182
436.694770	0.421510
437.071222	0.419382
437.447614	0.423923
437.823946	0.430526
438.200218	0.419869
438.576429	0.429630
438.952580	0.422443
439.328670	0.419362
439.704700	0.426061
440.080670	0.426533
440.456580	0.408137
440.832429	0.415778
441.208218	0.426789
441.583947	0.416050
441.959616	0.415934
442.335224	0.420794
442.710773	0.411719
443.086261	0.409892
443.461689	0.423999
443.837057	0.413458
444.212365	0.403565
444.587612	0.410531
444.962800	0.400407
445.337927	0.402069
445.712995	0.428576
446.088002	0.390161
446.462949	0.401101
446.837837	0.405330
447.212664	0.394631
447.587431	0.386071
447.962139	0.356477
448.336786	0.315700
448.711374	0.326354
449.085901	0.369741
449.460369	0.374468
449.834776	0.377682
450.209124	0.357567
450.583412	0.350377
450.957640	0.343009
451.331808	0.354102
451.705917	0.377759
452.079965	0.381971
452.453954	0.370399
452.827883	0.377409
453.201752	0.372118
453.575562	0.383405
453.949311	0.371782
454.323001	0.378062
454.696632	0.373674
455.070202	0.366657
455.443713	0.358381
455.817164	0.353452
456.190556	0.349067
456.563888	0.345746
456.937160	0.343531
457.310373	0.361009
457.683526	0.359488
458.056619	0.365282
458.429653	0.365968
458.802628	0.369268
459.175542	0.363524
459.548398	0.346097
459.921194	0.338588
460.293930	0.338706
460.666607	0.316307
461.039224	0.304572
461.411782	0.300563
461.784280	0.299723
462.156719	0.303866
462.529099	0.308428
462.901419	0.324376
463.273680	0.328771
463.645882	0.328109
464.018024	0.334144
464.390106	0.326699
464.762130	0.311581
465.134094	0.294954
465.505999	0.264154
465.877845	0.234651
466.249631	0.221441
466.621358	0.228875
466.993026	0.242786
467.364634	0.248913
467.736184	0.257553
468.107674	0.266284
468.479105	0.265527
468.850477	0.272187
469.221790	0.279014
469.593043	0.289119
469.964238	0.294275
470.335373	0.293678
470.706449	0.291673
471.077467	0.292480
471.448425	0.254429
471.819324	0.230012
472.190164	0.229444
472.560945	0.258376
472.931667	0.280200
473.302330	0.284551
473.672934	0.296426
474.043479	0.284571
474.413965	0.286396
474.784393	0.290154
475.154761	0.284997
475.525070	0.282043
475.895321	0.287826
476.265513	0.281828
476.635645	0.277280
477.005719	0.277339
477.375734	0.273728
477.745691	0.267056
478.115588	0.263579
478.485427	0.257317
478.855207	0.244078
479.224928	0.226424
479.594591	0.214761
479.964194	0.218255
480.333739	0.219212
480.703226	0.220916
481.072653	0.219368
481.442022	0.214938
481.811333	0.211225
482.180584	0.214793
482.549777	0.220172
482.918912	0.223522
483.287988	0.223184
483.657005	0.222675
484.025964	0.229180
484.394864	0.226439
484.763706	0.227392
485.132489	0.232217
485.501213	0.232930
485.869879	0.231268
486.238487	0.234671
486.607036	0.232331
486.975527	0.236969
487.343959	0.232711
487.712333	0.231910
488.080648	0.233592
488.448905	0.232383
488.817104	0.233816
489.185244	0.228217
489.553326	0.225379
489.921350	0.215190
490.289315	0.197458
490.657222	0.192673
491.025070	0.193877
491.392861	0.195951
491.760593	0.201581
492.128267	0.207309
492.495883	0.212598
492.863440	0.219106
493.230939	0.225229
493.598380	0.226769
493.965763	0.228858
494.333088	0.231191
494.700354	0.232820
495.067563	0.231714
495.434713	0.234949
495.801805	0.232607
496.168839	0.234186
496.535815	0.235778
496.902733	0.235296
497.269593	0.237278
497.636395	0.234840
498.003139	0.235318
498.369825	0.238380
498.736453	0.234670
499.103023	0.236153
499.469535	0.235497
499.835989	0.235712
500.202385	0.236540
500.568723	0.239991
500.935003	0.235406
501.301226	0.239463
501.667390	0.233754
502.033497	0.231724
502.399546	0.234837
502.765537	0.236546
503.131470	0.234991
503.497345	0.231206
503.863163	0.239924
504.228923	0.232994
504.594625	0.231389
504.960269	0.237175
505.325856	0.232244
505.691385	0.236543
506.056856	0.233477
506.422270	0.232688
506.787625	0.235225
507.152924	0.232728
507.518164	0.232868
507.883347	0.234578
508.248472	0.236475
508.613540	0.231620
508.978550	0.233871
509.343503	0.234754
509.708398	0.232172
510.073236	0.229786
510.438016	0.229783
510.802738	0.230609
511.167403	0.229744
511.532010	0.231760
511.896561	0.227024
512.261053	0.225701
512.625488	0.228042
512.989866	0.228198
513.354186	0.228654
513.718449	0.230200
514.082655	0.226855
514.446803	0.229164
514.810894	0.226709
515.174927	0.229303
515.538904	0.228672
515.902822	0.225635
516.266684	0.228172
516.630488	0.229397
516.994235	0.228035
517.357925	0.226459
517.721558	0.225291
518.085133	0.224558
518.448651	0.224864
518.812112	0.226996
519.175516	0.226411
519.538863	0.224176
519.902152	0.225537
520.265385	0.222759
520.628560	0.224470
520.991678	0.224851
521.354739	0.223538
521.717743	0.224685
522.080690	0.225553
522.443580	0.222604
522.806413	0.223539
523.169189	0.222869
523.531908	0.222056
523.894569	0.225518
524.257174	0.225575
524.619722	0.223071
524.982213	0.224038
525.344647	0.222869
525.707025	0.223908
526.069345	0.221851
526.431608	0.223512
526.793815	0.221623
527.155964	0.225982
527.518057	0.224794
527.880093	0.225816
528.242072	0.224489
528.603995	0.226365
528.965860	0.227917
529.327669	0.226781
529.689421	0.227727
530.051117	0.228516
530.412755	0.226140
530.774337	0.228696
531.135862	0.229022
531.497331	0.228415
531.858743	0.231044
532.220098	0.227789
532.581396	0.230411
532.942638	0.230963
533.303824	0.231796
533.664953	0.231701
534.026025	0.233502
534.387040	0.231187
534.747999	0.231243
535.108902	0.229998
535.469748	0.235061
535.830537	0.233090
536.191270	0.233548
536.551947	0.232826
536.912567	0.232760
537.273131	0.234678
537.633638	0.234958
537.994089	0.235272
538.354483	0.236148
538.714821	0.233151
539.075103	0.233150
539.435328	0.233831
539.795497	0.237477
540.155609	0.233862
540.515665	0.232233
540.875665	0.237834
541.235609	0.236293
541.595496	0.236680
541.955328	0.232817
542.315102	0.235949
542.674821	0.236633
543.034483	0.236678
543.394090	0.236460
543.753640	0.238328
544.113134	0.233406
544.472571	0.236555
544.831953	0.233351
545.191278	0.237672
545.550548	0.236927
545.909761	0.233820
546.268918	0.234695
546.628019	0.232687
546.987064	0.235681
547.346053	0.237535
547.704986	0.235428
548.063863	0.235479
548.422684	0.235870
548.781449	0.237678
549.140158	0.235201
549.498811	0.238026
549.857408	0.241300
550.215949	0.236285
550.574434	0.238976
550.932864	0.237128
551.291237	0.235625
551.649555	0.237019
552.007817	0.236893
552.366022	0.237760
552.724173	0.237855
553.082267	0.238070
553.440305	0.235172
553.798288	0.239381
554.156215	0.236081
554.514086	0.236704
554.871902	0.239846
555.229661	0.239333
555.587365	0.239855
555.945014	0.242418
556.302606	0.239092
556.660143	0.241866
557.017625	0.238013
557.375050	0.240469
557.732421	0.237471
558.089735	0.239450
558.446994	0.239302
558.804197	0.238838
559.161345	0.238494
559.518437	0.242030
559.875474	0.239935
560.232455	0.239189
560.589381	0.240504
560.946251	0.240442
561.303065	0.238081
561.659825	0.239641
562.016528	0.241180
562.373177	0.243823
562.729770	0.241040
563.086307	0.243276
563.442789	0.240887
563.799216	0.243753
564.155587	0.242693
564.511904	0.243735
564.868164	0.244025
565.224370	0.243873
565.580520	0.245322
565.936615	0.245268
566.292654	0.248497
566.648638	0.245564
567.004567	0.246221
567.360441	0.246847
567.716260	0.248879
568.072023	0.246877
568.427732	0.247393
568.783385	0.250079
569.138982	0.247839
569.494525	0.247609
569.850013	0.250447
570.205445	0.248779
570.560823	0.251255
570.916145	0.253501
571.271412	0.251686
571.626625	0.252978
571.981782	0.253431
572.336884	0.254358
572.691931	0.254100
573.046923	0.255331
573.401860	0.256634
573.756743	0.258042
574.111570	0.257250
574.466342	0.257516
574.821059	0.256808
575.175722	0.259717
575.530330	0.258885
575.884882	0.259436
576.239380	0.261578
576.593823	0.262156
576.948211	0.261356
577.302544	0.264984
577.656823	0.264628
578.011047	0.264578
578.365216	0.264913
578.719330	0.267224
579.073389	0.266931
579.427394	0.268259
579.781344	0.269095
580.135239	0.270426
580.489080	0.270165
580.842866	0.273226
581.196597	0.273124
581.550273	0.271723
581.903895	0.272728
582.257463	0.270811
582.610975	0.274189
582.964434	0.273646
583.317837	0.276037
583.671186	0.276535
584.024481	0.276533
584.377721	0.278905
584.730906	0.279620
585.084037	0.279023
585.437113	0.280733
585.790135	0.280083
586.143103	0.283101
586.496016	0.283880
586.848874	0.281638
587.201679	0.282366
587.554428	0.285825
587.907124	0.284460
588.259765	0.284789
588.612352	0.285786
588.964884	0.289305
589.317362	0.288980
589.669786	0.288958
590.022155	0.287595
590.374470	0.286981
590.726731	0.288822
591.078937	0.293428
591.431090	0.289586
591.783188	0.294009
592.135232	0.294338
592.487222	0.294664
592.839157	0.292927
593.191038	0.295015
593.542866	0.296902
593.894639	0.300448
594.246358	0.298304
594.598022	0.297789
594.949633	0.301499
595.301190	0.302285
595.652692	0.301590
596.004141	0.298157
596.355535	0.305698
596.706876	0.306260
597.058162	0.308692
597.409395	0.306063
597.760573	0.303503
598.111698	0.306693
598.462768	0.307047
598.813785	0.308685
599.164748	0.309944
599.515657	0.310235
599.866511	0.313567
600.217312	0.308611
600.568060	0.314405
600.918753	0.310632
601.269392	0.311603
601.619978	0.314882
601.970510	0.312554
602.320988	0.312561
602.671412	0.310143
603.021783	0.312763
603.372100	0.313869
603.722363	0.313620
604.072572	0.314717
604.422728	0.314408
604.772830	0.316741
605.122878	0.316192
605.472872	0.316489
605.822813	0.314893
606.172701	0.317510
606.522534	0.315150
606.872314	0.315034
607.222041	0.315847
607.571714	0.313889
607.921333	0.315610
608.270899	0.315309
608.620411	0.312242
608.969870	0.315977
609.319276	0.315974
609.668627	0.315866
610.017926	0.314287
610.367171	0.313060
610.716362	0.313779
611.065500	0.313966
611.414585	0.312713
611.763616	0.313223
612.112594	0.313564
612.461518	0.313012
612.810389	0.310478
613.159207	0.313183
613.507971	0.314475
613.856682	0.310549
614.205340	0.312354
614.553945	0.309055
614.902496	0.312569
615.250994	0.311220
615.599439	0.311441
615.947830	0.311374
616.296169	0.311993
616.644454	0.311636
616.992686	0.311726
617.340864	0.309388
617.688990	0.312930
618.037063	0.309825
618.385082	0.311644
618.733048	0.308558
619.080961	0.310623
619.428821	0.310088
619.776628	0.309804
620.124382	0.311607
620.472083	0.312014
620.819731	0.311606
621.167326	0.315081
621.514868	0.315012
621.862357	0.319317
622.209793	0.318819
622.557176	0.321424
622.904506	0.322246
623.251783	0.324490
623.599007	0.326838
623.946179	0.325933
624.293297	0.328168
624.640363	0.332201
624.987376	0.332806
625.334336	0.335183
625.681243	0.337227
626.028097	0.338220
626.374899	0.339253
626.721647	0.339349
627.068343	0.342756
627.414987	0.343763
627.761577	0.345740
628.108115	0.343667
628.454600	0.349167
628.801032	0.346372
629.147412	0.348698
629.493739	0.349110
629.840014	0.352129
630.186236	0.349762
630.532405	0.355252
630.878521	0.352876
631.224585	0.354749
631.570597	0.358495
631.916556	0.356717
632.262462	0.357172
632.608316	0.359251
632.954117	0.359924
633.299866	0.360845
633.645562	0.360881
633.991206	0.365354
634.336797	0.368199
634.682336	0.370977
635.027823	0.372722
635.373257	0.373003
635.718639	0.376467
636.063968	0.375758
636.409245	0.381891
636.754470	0.381865
637.099642	0.384177
637.444762	0.387820
637.789829	0.386841
638.134845	0.390085
638.479808	0.390750
638.824719	0.390866
639.169577	0.394747
639.514383	0.393633
639.859137	0.398594
640.203839	0.397873
640.548489	0.398417
640.893086	0.399733
641.237632	0.401360
641.582125	0.399708
641.926566	0.401834
642.270955	0.401906
642.615292	0.401897
642.959576	0.400773
643.303809	0.401550
643.647990	0.400997
643.992118	0.401427
644.336195	0.405385
644.680219	0.403897
645.024192	0.404128
645.368112	0.398054
645.711981	0.397397
646.055797	0.392350
646.399562	0.394694
646.743274	0.386969
647.086935	0.383775
647.430544	0.384214
647.774101	0.383097
648.117606	0.382953
648.461059	0.383166
648.804460	0.385445
649.147810	0.390558
649.491108	0.392764
649.834354	0.394165
650.177548	0.399643
650.520690	0.405215
650.863781	0.406292
651.206820	0.405178
651.549807	0.410044
651.892742	0.413996
652.235626	0.413433
652.578458	0.414162
652.921238	0.420953
653.263967	0.418167
653.606644	0.422612
653.949269	0.422003
654.291843	0.426203
654.634365	0.422566
654.976836	0.425619
655.319255	0.425964
655.661622	0.427597
656.003938	0.427833
656.346203	0.430699
656.688416	0.428963
657.030577	0.431830
657.372687	0.433916
657.714746	0.435128
658.056753	0.431303
658.398708	0.435584
658.740612	0.436492
659.082465	0.433046
659.424266	0.433549
659.766016	0.432631
660.107715	0.435471
660.449362	0.434390
660.790958	0.434834
661.132503	0.435738
661.473996	0.433533
661.815438	0.434175
662.156829	0.434059
662.498168	0.434821
662.839456	0.436826
663.180693	0.434042
663.521879	0.434115
663.863013	0.435090
664.204097	0.433690
664.545129	0.430136
664.886110	0.430884
665.227040	0.428084
665.567918	0.430440
665.908746	0.428595
666.249522	0.427943
666.590248	0.429499
666.930922	0.427691
667.271545	0.426484
667.612118	0.426026
667.952639	0.427717
668.293109	0.426665
668.633528	0.429417
668.973896	0.429775
669.314213	0.430011
669.654480	0.431569
669.994695	0.431992
670.334859	0.433056
670.674973	0.432737
671.015035	0.433351
671.355047	0.432883
671.695008	0.433916
672.034918	0.435617
672.374777	0.435305
672.714585	0.436433
673.054342	0.436209
673.394049	0.436367
673.733705	0.433586
674.073310	0.435368
674.412864	0.437593
674.752368	0.439095
675.091820	0.439124
675.431223	0.443456
675.770574	0.443132
676.109875	0.446336
676.449125	0.446036
676.788324	0.448361
677.127473	0.454245
677.466571	0.453379
677.805619	0.455538
678.144616	0.456459
678.483562	0.457907
678.822458	0.460716
679.161303	0.461815
679.500098	0.461895
679.838842	0.463681
680.177535	0.463740
680.516179	0.461937
680.854771	0.460994
681.193314	0.454608
681.531805	0.445957
681.870247	0.434385
682.208638	0.426749
682.546978	0.425691
682.885268	0.427507
683.223508	0.433439
683.561697	0.437298
683.899836	0.439795
684.237925	0.443563
684.575963	0.446112
684.913951	0.448932
685.251889	0.444625
685.589776	0.446898
685.927614	0.449084
686.265401	0.443315
686.603137	0.444750
686.940824	0.438604
687.278460	0.437216
687.616046	0.436607
687.953582	0.431113
688.291068	0.433089
688.628504	0.428466
688.965889	0.430556
689.303224	0.434816
689.640510	0.438978
689.977745	0.444672
690.314930	0.452029
690.652065	0.456647
690.989150	0.464289
691.326185	0.470853
691.663170	0.475309
692.000105	0.482601
692.336990	0.489936
692.673825	0.491816
693.010610	0.498774
693.347345	0.504506
693.684030	0.506009
694.020665	0.511009
694.357251	0.519944
694.693786	0.519101
695.030272	0.523534
695.366707	0.526805
695.703093	0.530450
696.039429	0.528037
696.375716	0.529956
696.711952	0.532550
697.048139	0.534108
697.384276	0.536701
697.720363	0.534604
698.056400	0.533765
698.392388	0.539691
698.728326	0.542327
699.064214	0.545234
699.400053	0.545294
699.735842	0.549393
700.071581	0.552237
700.407270	0.555428
700.742910	0.558109
701.078501	0.564679
701.414042	0.563878
701.749533	0.568181
702.084974	0.576563
702.420366	0.568581
702.755709	0.575899
703.091002	0.584228
703.426246	0.577624
703.761440	0.583528
704.096584	0.588423
704.431679	0.585694
704.766725	0.587207
705.101721	0.589398
705.436668	0.584897
705.771565	0.592575
706.106413	0.588552
706.441212	0.584043
706.775961	0.582712
707.110661	0.585776
707.445311	0.581975
707.779913	0.579588
708.114465	0.578211
708.448967	0.574635
708.783421	0.567062
709.117825	0.560659
709.452180	0.561739
709.786485	0.554651
710.120742	0.545041
710.454949	0.547174
710.789107	0.538598
711.123216	0.529575
711.457275	0.531334
711.791286	0.522548
712.125247	0.521382
712.459159	0.532114
712.793023	0.524217
713.126837	0.528646
713.460602	0.529469
713.794318	0.538346
714.127985	0.537548
714.461602	0.547665
714.795171	0.550909
715.128691	0.559063
715.462162	0.565878
715.795584	0.571751
716.128957	0.574554
716.462281	0.580971
716.795556	0.585408
717.128782	0.588955
717.461960	0.599660
717.795088	0.597189
718.128167	0.604115
718.461198	0.612743
718.794180	0.613813
719.127113	0.615734
719.459997	0.619421
719.792833	0.626725
720.125619	0.626817
720.458357	0.633461
720.791046	0.632488
721.123686	0.635872
721.456278	0.643794
721.788821	0.639828
722.121315	0.644322
722.453761	0.648363
722.786158	0.645490
723.118506	0.642954
723.450805	0.650853
723.783056	0.647270
724.115259	0.644154
724.447412	0.643765
724.779518	0.644762
725.111574	0.644163
725.443582	0.639522
725.775542	0.641734
726.107453	0.633448
726.439315	0.633770
726.771129	0.631997
727.102895	0.625091
727.434612	0.617902
727.766281	0.616305
728.097901	0.616023
728.429473	0.615013
728.760996	0.612876
729.092471	0.613391
729.423897	0.617890
729.755276	0.616762
730.086606	0.616533
730.417887	0.611117
730.749120	0.602030
731.080305	0.592924
731.411442	0.588857
731.742530	0.594041
732.073570	0.592532
732.404562	0.585221
732.735506	0.586547
733.066401	0.591457
733.397249	0.600083
733.728048	0.611898
734.058798	0.624666
734.389501	0.634053
734.720156	0.644863
735.050762	0.652918
735.381320	0.654946
735.711831	0.662767
736.042293	0.668277
736.372707	0.663958
736.703073	0.668166
737.033391	0.669985
737.363661	0.667591
737.693883	0.663026
738.024056	0.661385
738.354182	0.662196
738.684260	0.650828
739.014290	0.647438
739.344272	0.647903
739.674207	0.640879
740.004093	0.640532
740.333931	0.641816
740.663722	0.640990
740.993464	0.642305
741.323159	0.646478
741.652806	0.650890
741.982405	0.656009
742.311956	0.659937
742.641460	0.662472
742.970915	0.665803
743.300323	0.673164
743.629683	0.681226
743.958996	0.683060
744.288260	0.686801
744.617477	0.691951
744.946647	0.694186
745.275768	0.700110
745.604842	0.698809
745.933869	0.708814
746.262847	0.709184
746.591778	0.703085
746.920662	0.709305
747.249498	0.715500
747.578286	0.707116
747.907027	0.703604
748.235720	0.704033
748.564365	0.699758
748.892963	0.699228
749.221514	0.701310
749.550017	0.707589
749.878473	0.706870
750.206881	0.713195
750.535242	0.714312
750.863555	0.714023
751.191821	0.714778
751.520039	0.717860
751.848210	0.722892
752.176334	0.715453
752.504411	0.715327
752.832440	0.721871
753.160421	0.726829
753.488356	0.724904
753.816243	0.722735
754.144082	0.730616
754.471875	0.734805
754.799620	0.729295
755.127318	0.731562
755.454969	0.730734
755.782572	0.730855
756.110129	0.736150
756.437638	0.737644
756.765100	0.733887
757.092515	0.732897
757.419882	0.731850
757.747203	0.736511
758.074477	0.735711
758.401703	0.734222
758.728882	0.728499
759.056014	0.727128
759.383099	0.726582
759.710138	0.727096
760.037129	0.724203
760.364073	0.718479
760.690970	0.720292
761.017820	0.725696
761.344623	0.721524
761.671379	0.713166
761.998088	0.701175
762.324751	0.678350
762.651366	0.636502
762.977935	0.569059
763.304456	0.516922
763.630931	0.506984
763.957359	0.546304
764.283740	0.591104
764.610074	0.618541
764.936362	0.649312
765.262602	0.675988
765.588796	0.697562
765.914943	0.715722
766.241044	0.733085
766.567097	0.740294
766.893104	0.749342
767.219064	0.755819
767.544978	0.762043
767.870845	0.776176
768.196665	0.780973
768.522438	0.778081
768.848165	0.780075
769.173846	0.788432
769.499479	0.792033
769.825066	0.795868
770.150607	0.802002
770.476101	0.796646
770.801548	0.798234
771.126949	0.809595
771.452303	0.813488
771.777611	0.812325
772.102872	0.811450
772.428087	0.817156
772.753256	0.820192
773.078378	0.822082
773.403453	0.831938
773.728482	0.835678
774.053465	0.829372
774.378401	0.831902
774.703291	0.840020
775.028135	0.840441
775.352932	0.842001
775.677683	0.844289
776.002388	0.846072
776.327046	0.844267
776.651658	0.848392
776.976224	0.852021
777.300743	0.851588
777.625216	0.854740
777.949643	0.855471
778.274024	0.855964
778.598359	0.857360
778.922647	0.855947
779.246889	0.857551
779.571086	0.860942
779.895236	0.862989
780.219339	0.859650
780.543397	0.857045
780.867409	0.854869
781.191374	0.858070
781.515294	0.859634
781.839167	0.857196
782.162995	0.861526
782.486776	0.858286
782.810511	0.858650
783.134201	0.862650
783.457844	0.860339
783.781441	0.863588
784.104993	0.869125
784.428498	0.870122
784.751958	0.864092
785.075372	0.868128
785.398739	0.870729
785.722061	0.868258
786.045337	0.862493
786.368568	0.868136
786.691752	0.870514
787.014891	0.856996
787.337983	0.847656
787.661030	0.838788
787.984031	0.822199
788.306987	0.809548
788.629897	0.811700
788.952760	0.815382
789.275579	0.819758
789.598351	0.835134
789.921078	0.849236
790.243759	0.848936
790.566395	0.855174
790.888984	0.863006
791.211529	0.867548
791.534027	0.870210
791.856480	0.873041
792.178888	0.877182
792.501249	0.880730
792.823566	0.881052
793.145836	0.881626
793.468062	0.883662
793.790241	0.883498
794.112375	0.881418
794.434464	0.877044
794.756507	0.876528
795.078505	0.876693
795.400457	0.870519
795.722364	0.858384
796.044226	0.852383
796.366042	0.851943
796.687812	0.854344
797.009538	0.850410
797.331218	0.852690
797.652852	0.858584
797.974442	0.862675
798.295986	0.863357
798.617484	0.866412
798.938938	0.870058
799.260346	0.874824
799.581709	0.876713
799.903026	0.879078
800.224299	0.880176
800.545526	0.882613
800.866708	0.888440
801.187845	0.890485
801.508936	0.891034
801.829983	0.888604
802.150984	0.891940
802.471940	0.896851
802.792851	0.896422
803.113717	0.897491
803.434538	0.894868
803.755314	0.898152
804.076045	0.898408
804.396731	0.898959
804.717372	0.898468
805.037967	0.900871
805.358518	0.898484
805.679024	0.894869
805.999485	0.895782
806.319901	0.895547
806.640272	0.897262
806.960598	0.895378
807.280879	0.892915
807.601115	0.890628
807.921306	0.895685
808.241453	0.894634
808.561554	0.892911
808.881611	0.892564
809.201623	0.895691
809.521590	0.895342
809.841513	0.896349
810.161390	0.895750
810.481223	0.896775
810.801011	0.900696
811.120755	0.901804
811.440453	0.900579
811.760107	0.899350
812.079716	0.900215
812.399281	0.903655
812.718801	0.905316
813.038276	0.906853
813.357707	0.905361
813.677093	0.902893
813.996434	0.906198
814.315731	0.908324
814.634983	0.908998
814.954191	0.905830
815.273354	0.903762
815.592473	0.900280
815.911547	0.901032
816.230577	0.897063
816.549562	0.894837
816.868502	0.895114
817.187399	0.892110
817.506250	0.886291
817.825058	0.889233
818.143821	0.884394
818.462539	0.880272
818.781213	0.871447
819.099843	0.859707
819.418429	0.843957
819.736970	0.828224
820.055466	0.808193
820.373919	0.782381
820.692327	0.748954
821.010691	0.713905
821.329011	0.636629
821.647286	0.520078
821.965517	0.405949
822.283704	0.363028
822.601847	0.363510
822.919945	0.399372
823.237999	0.433564
823.556010	0.480805
823.873976	0.536552
824.191897	0.587816
824.509775	0.631055
824.827609	0.676269
825.145398	0.699184
825.463144	0.701404
825.780845	0.684621
826.098502	0.666238
826.416116	0.620329
826.733685	0.575429
827.051210	0.566584
827.368692	0.581619
827.686129	0.619212
828.003522	0.672792
828.320872	0.720273
828.638177	0.764404
828.955439	0.797867
829.272656	0.819704
829.589830	0.836590
829.906960	0.852437
830.224046	0.865208
830.541088	0.875687
830.858086	0.879899
831.175041	0.886172
831.491952	0.884185
831.808819	0.883482
832.125642	0.876187
832.442421	0.861043
832.759157	0.838906
833.075849	0.792564
833.392497	0.727994
833.709101	0.686313
834.025662	0.696663
834.342179	0.728080
834.658653	0.768113
834.975083	0.804152
835.291469	0.830175
835.607811	0.852523
835.924110	0.868325
836.240366	0.886889
836.556578	0.899630
836.872746	0.907807
837.188871	0.913694
837.504952	0.919262
837.820990	0.922189
838.136984	0.927255
838.452935	0.928700
838.768842	0.931112
839.084706	0.923545
839.400526	0.898572
839.716303	0.857251
840.032037	0.833973
840.347727	0.838113
840.663373	0.856853
840.978977	0.878659
841.294537	0.900881
841.610054	0.917002
841.925527	0.925065
842.240957	0.932504
842.556344	0.938749
842.871687	0.945231
843.186987	0.949340
843.502244	0.949689
843.817458	0.951767
844.132629	0.955113
844.447756	0.959729
844.762840	0.960227
845.077881	0.959610
845.392879	0.958745
845.707833	0.962858
846.022745	0.964064
846.337613	0.964376
846.652438	0.965810
846.967221	0.963608
847.281960	0.963107
847.596656	0.964947
847.911309	0.965101
848.225919	0.968027
848.540485	0.966593
848.855009	0.968406
849.169490	0.967928
849.483928	0.968928
849.798323	0.969329
850.112675	0.967947
850.426984	0.968622
850.741251	0.969203
851.055474	0.969397
851.369654	0.967493
851.683792	0.967605
851.997887	0.970004
852.311938	0.969006
852.625947	0.969860
852.939914	0.966608
853.253837	0.968309
853.567718	0.970538
853.881555	0.969623
854.195350	0.967301
854.509103	0.968584
854.822812	0.969784
855.136479	0.969051
855.450103	0.969528
855.763685	0.967690
856.077224	0.968101
856.390720	0.969107
856.704173	0.969588
857.017584	0.968170
857.330953	0.966002
857.644278	0.968441
857.957561	0.968583
858.270802	0.967490
858.584000	0.967794
858.897155	0.965623
859.210268	0.967011
859.523339	0.968580
859.836367	0.969262
860.149352	0.970428
860.462295	0.968715
860.775195	0.969543
861.088054	0.968037
861.400869	0.969848
861.713642	0.969791
862.026373	0.969172
862.339062	0.969104
862.651708	0.967642
862.964312	0.967185
863.276873	0.968975
863.589392	0.968242
863.901869	0.966072
864.214303	0.965314
864.526696	0.964054
864.839045	0.963070
865.151353	0.961822
865.463619	0.961451
865.775842	0.961587
866.088023	0.961702
866.400162	0.962656
866.712258	0.962926
867.024313	0.962224
867.336325	0.961607
867.648296	0.963004
867.960224	0.961593
868.272110	0.960974
868.583954	0.963696
868.895755	0.963407
869.207515	0.961216
869.519233	0.958427
869.830909	0.960513
870.142542	0.961270
870.454134	0.960978
870.765684	0.959469
871.077191	0.957078
871.388657	0.959413
871.700081	0.956859
872.011463	0.957666
872.322803	0.957492
872.634101	0.956051
872.945357	0.953988
873.256571	0.952448
873.567744	0.951510
873.878874	0.953463
874.189963	0.951637
874.501010	0.950623
874.812015	0.947663
875.122979	0.950363
875.433900	0.951829
875.744780	0.952659
876.055618	0.950609
876.366415	0.949119
876.677169	0.950709
876.987882	0.950928
877.298554	0.951069
877.609183	0.946623
877.919771	0.943795
878.230317	0.941236
878.540822	0.939320
878.851285	0.933234
879.161707	0.925629
879.472087	0.914053
879.782425	0.896967
880.092722	0.862516
880.402977	0.810280
880.713191	0.748239
881.023363	0.688052
881.333494	0.654048
881.643583	0.626561
881.953631	0.625552
882.263637	0.654183
882.573602	0.693950
882.883526	0.720512
883.193408	0.743625
883.503248	0.767336
883.813048	0.794350
884.122806	0.824939
884.432522	0.848580
884.742197	0.869509
885.051831	0.878378
885.361424	0.889699
885.670975	0.901525
885.980485	0.911749
886.289954	0.917923
886.599382	0.922874
886.908768	0.927277
887.218113	0.933562
887.527417	0.937882
887.836680	0.941276
888.145901	0.941763
888.455082	0.944748
888.764221	0.949199
889.073319	0.952151
889.382376	0.951579
889.691392	0.952446
890.000366	0.951487
890.309300	0.952071
890.618193	0.952913
890.927044	0.951125
891.235855	0.950884
891.544625	0.951057
891.853353	0.950464
892.162041	0.948369
892.470687	0.940858
892.779293	0.935670
893.087858	0.932909
893.396381	0.924735
893.704864	0.911295
894.013306	0.887189
894.321707	0.860525
894.630068	0.844676
894.938387	0.839728
895.246665	0.841514
895.554903	0.855173
895.863100	0.868249
896.171256	0.885128
896.479371	0.903123
896.787446	0.918023
897.095480	0.923478
897.403473	0.926740
897.711425	0.930539
898.019336	0.938960
898.327207	0.941067
898.635038	0.944676
898.942827	0.943812
899.250576	0.946917
899.558284	0.950291
899.865952	0.953797
900.173579	0.953738
900.481165	0.954223
900.788711	0.958799
901.096216	0.961311
901.403681	0.960828
901.711105	0.961840
902.018489	0.962046
902.325832	0.961180
902.633135	0.961159
902.940397	0.953824
903.247619	0.943116
903.554800	0.916537
903.861941	0.876327
904.169041	0.839230
904.476101	0.822366
904.783121	0.822647
905.090100	0.839368
905.397039	0.861783
905.703938	0.884039
906.010796	0.904647
906.317614	0.920725
906.624391	0.932746
906.931129	0.942205
907.237826	0.950371
907.544483	0.958951
907.851099	0.962015
908.157675	0.968088
908.464211	0.969282
908.770707	0.970711
909.077163	0.973692
909.383578	0.975108
909.689954	0.974725
909.996289	0.976065
910.302584	0.977608
910.608839	0.979021
910.915054	0.977744
911.221229	0.977115
911.527363	0.975762
911.833458	0.976583
912.139513	0.976118
912.445527	0.974549
912.751502	0.973296
913.057436	0.971749
913.363331	0.968899
913.669186	0.965203
913.975000	0.959486
914.280775	0.954584
914.586510	0.946305
914.892205	0.933398
915.197859	0.911774
915.503475	0.884262
915.809050	0.865242
916.114585	0.858039
916.420081	0.855638
916.725536	0.851844
917.030952	0.861189
917.336328	0.873606
917.641665	0.889207
917.946961	0.904894
918.252218	0.916648
918.557435	0.924334
918.862612	0.935881
919.167750	0.939851
919.472848	0.946270
919.777906	0.951675
920.082925	0.956274
920.387904	0.960898
920.692843	0.961330
920.997743	0.962877
921.302603	0.966119
921.607423	0.968018
921.912204	0.971614
922.216946	0.971166
922.521647	0.972710
922.826310	0.974338
923.130932	0.976193
923.435516	0.977162
923.740059	0.977526
924.044564	0.977622
924.349028	0.980348
924.653454	0.982048
924.957840	0.984231
925.262186	0.983396
925.566493	0.983392
925.870761	0.982157
926.174989	0.985360
926.479178	0.988472
926.783328	0.987198
927.087438	0.987825
927.391509	0.987540
927.695541	0.989395
927.999533	0.989435
928.303486	0.989392
928.607400	0.991185
928.911275	0.989333
929.215110	0.989788
929.518906	0.990331
929.822663	0.989095
930.126381	0.991139
930.430060	0.990366
930.733699	0.989914
931.037299	0.988684
931.340861	0.989794
931.644383	0.988850
931.947866	0.989085
932.251309	0.991058
932.554714	0.990330
932.858080	0.990609
933.161407	0.989643
933.464694	0.990116
933.767943	0.989722
934.071153	0.991512
934.374323	0.991802
934.677455	0.990416
934.980548	0.990556
935.283602	0.990876
935.586617	0.990816
935.889593	0.990710
936.192530	0.990953
936.495428	0.990098
936.798287	0.991374
937.101108	0.989852
937.403890	0.988275
937.706632	0.988415
938.009336	0.985915
938.312002	0.984642
938.614628	0.984803
938.917216	0.983366
939.219765	0.981088
939.522275	0.982136
939.824747	0.981995
940.127179	0.982555
940.429573	0.983844
940.731929	0.982540
941.034246	0.984030
941.336524	0.984834
941.638763	0.986364
941.940964	0.985560
942.243126	0.985026
942.545250	0.986778
942.847335	0.987531
943.149381	0.988335
943.451389	0.988369
943.753359	0.987839
944.055290	0.990886
944.357182	0.988904
944.659036	0.988633
944.960851	0.989410
945.262628	0.990066
945.564367	0.990285
945.866067	0.990072
946.167729	0.988887
946.469352	0.989474
946.770937	0.988526
947.072484	0.990195
947.373992	0.990028
947.675462	0.990062
947.976893	0.989266
948.278286	0.989948
948.579641	0.991850
948.880958	0.990257
949.182236	0.990905
949.483476	0.990040
949.784678	0.991161
950.085841	0.990422
950.386967	0.989828
950.688054	0.990361
950.989103	0.991244
951.290114	0.988234
951.591087	0.989380
951.892021	0.989598
952.192917	0.987902
952.493776	0.987144
952.794596	0.986853
953.095378	0.986916
953.396122	0.986899
953.696828	0.987538
953.997496	0.988141
954.298126	0.990043
954.598718	0.990602
954.899272	0.989705
955.199788	0.990107
955.500266	0.991108
955.800706	0.992495
956.101108	0.992648
956.401472	0.992319
956.701798	0.993890
957.002087	0.992939
957.302337	0.992583
957.602550	0.994974
957.902724	0.993954
958.202861	0.994677
958.502960	0.995187
958.803022	0.993992
959.103045	0.995823
959.403031	0.995974
959.702979	0.995127
960.002889	0.995256
960.302762	0.993771
960.602596	0.995931
960.902393	0.993926
961.202153	0.996834
961.501875	0.996444
961.801559	0.994675
962.101205	0.996158
962.400814	0.996497
962.700385	0.996196
962.999918	0.995995
963.299414	0.996050
963.598873	0.996244
963.898293	0.995746
964.197677	0.996510
964.497022	0.995824
964.796331	0.996837
965.095601	0.996282
965.394835	0.996302
965.694030	0.996282
965.993189	0.996337
966.292309	0.996278
966.591393	0.997637
966.890439	0.997547
967.189447	0.995959
967.488419	0.996988
967.787353	0.995732
968.086249	0.995539
968.385108	0.997223
968.683930	0.996731
968.982714	0.998123
969.281462	0.996676
969.580172	0.996623
969.878844	0.996760
970.177480	0.995910
970.476078	0.996853
970.774639	0.997519
971.073162	0.997221
971.371649	0.996115
971.670098	0.996687
971.968510	0.996983
972.266885	0.994542
972.565223	0.996640
972.863524	0.995215
973.161788	0.996550
973.460014	0.997136
973.758204	0.994525
974.056356	0.996103
974.354471	0.994737
974.652550	0.996418
974.950591	0.995705
975.248595	0.996247
975.546563	0.996156
975.844493	0.998628
976.142386	0.996243
976.440243	0.998087
976.738062	0.996764
977.035845	0.997581
977.333590	0.996601
977.631299	0.996256
977.928971	0.996571
978.226606	0.996575
978.524204	0.996326
978.821765	0.997698
979.119290	0.996978
979.416777	0.995720
979.714228	0.996166
980.011642	0.996655
980.309020	0.997027
980.606360	0.996517
980.903664	0.997069
981.200931	0.996410
981.498162	0.993923
981.795356	0.994099
982.092513	0.992490
982.389633	0.994834
982.686717	0.990591
982.983764	0.990645
983.280775	0.990652
983.577749	0.990117
983.874686	0.991339
984.171587	0.991641
984.468451	0.993419
984.765279	0.993743
985.062070	0.994706
985.358824	0.994885
985.655543	0.993584
985.952224	0.995538
986.248869	0.995665
986.545478	0.996620
986.842050	0.997446
987.138586	0.995270
987.435086	0.996858
987.731549	0.998763
988.027975	0.997263
988.324366	0.996507
988.620719	0.996808
988.917037	0.995820
989.213318	0.997042
989.509563	0.998275
989.805772	0.998031
990.101944	0.997899
990.398080	0.996944
990.694180	0.996880
990.990244	0.997997
991.286271	0.997520
991.582262	0.997324
991.878217	0.997989
992.174136	0.999863
992.470019	0.998200
992.765865	0.997337
993.061676	0.998560
993.357450	0.997002
993.653188	0.996469
993.948890	0.996701
994.244556	0.997678
994.540186	0.996931
994.835780	0.996542
995.131337	0.997768
995.426859	0.997422
995.722345	0.996707
996.017795	0.995409
996.313208	0.995970
996.608586	0.995082
996.903928	0.996203
997.199234	0.995795
997.494504	0.996685
997.789738	0.996230
998.084936	0.995634
998.380099	0.997661
998.675225	0.997504
998.970316	0.998663
999.265371	0.998181
999.560390	0.997407
999.855373	0.998807
1000.150320	0.998487
1000.445232	0.999745
1000.740108	0.997560
1001.034948	0.998151
1001.329752	0.998271
1001.624521	0.998674
1001.919254	0.996734
1002.213951	0.997757
1002.508613	0.998326
1002.803239	0.998345
1003.097829	0.998233
1003.392384	0.998458
1003.686903	0.998441
1003.981386	0.998058
1004.275834	0.999759
1004.570246	0.997817
1004.864623	0.999162
1005.158964	0.998724
1005.453270	0.998302
1005.747540	0.996851
1006.041775	0.998125
1006.335974	0.999427
1006.630138	0.998307
1006.924266	0.999103
1007.218359	0.999339
1007.512416	0.998161
1007.806438	0.999005
1008.100425	0.999522
1008.394376	0.997463
1008.688292	0.999107
1008.982172	1.000032
1009.276017	0.998918
1009.569827	0.999005
1009.863602	0.998269
1010.157341	0.999385
1010.451045	0.998802
1010.744714	0.998765
1011.038347	0.998813
1011.331945	0.999245
1011.625508	0.997234
1011.919036	0.998379
1012.212528	0.998697
1012.505986	0.996670
1012.799408	0.997900
1013.092795	0.999894
1013.386147	0.998838
1013.679464	0.999249
1013.972745	0.998273
1014.265992	0.996942
1014.559204	0.997719
1014.852380	0.998240
1015.145521	0.998652
1015.438628	0.998900
1015.731699	0.997748
1016.024736	0.998441
1016.317737	0.998808
1016.610703	0.997916
1016.903635	0.999533
1017.196531	0.996773
1017.489393	0.999881
1017.782219	0.998933
1018.075011	0.999458
1018.367768	0.999654
1018.660490	0.999525
1018.953177	0.999525
1019.245829	0.999525
