Dividing Wavelength (nm)	Counts (n)	Blue Motor Position (mm): 0.000000	Red Motor Position (mm): 11.100000	
326.493990	1.000555
326.888308	1.000555
327.282561	1.000555
327.676750	0.998623
328.070874	0.999713
328.464933	1.000190
328.858929	0.999032
329.252859	1.000029
329.646726	0.998910
330.040528	0.999176
330.434265	0.998563
330.827938	1.000467
331.221547	1.000604
331.615091	0.999349
332.008571	1.000496
332.401986	0.998902
332.795338	0.999711
333.188625	0.998615
333.581847	1.000060
333.975006	0.999693
334.368100	0.998682
334.761129	0.999721
335.154095	0.999672
335.546996	0.996765
335.939833	0.992249
336.332606	0.993561
336.725315	0.993507
337.117960	0.994003
337.510540	0.993629
337.903056	0.994148
338.295508	0.993529
338.687896	0.993353
339.080220	0.993850
339.472480	0.993637
339.864676	0.993269
340.256807	0.993046
340.648875	0.994518
341.040879	0.994588
341.432818	0.993022
341.824694	0.994413
342.216506	0.993714
342.608253	0.993159
342.999937	0.993822
343.391557	0.993567
343.783113	0.992955
344.174605	0.993600
344.566033	0.994169
344.957397	0.993740
345.348697	0.993468
345.739934	0.993826
346.131106	0.992995
346.522215	0.993788
346.913260	0.993148
347.304241	0.993349
347.695159	0.993377
348.086012	0.993628
348.476802	0.993718
348.867528	0.994384
349.258191	0.992130
349.648789	0.994286
350.039324	0.992789
350.429796	0.994444
350.820203	0.993736
351.210548	0.994225
351.600828	0.992435
351.991045	0.994266
352.381198	0.993178
352.771288	0.991952
353.161314	0.992897
353.551276	0.995068
353.941175	0.992577
354.331010	0.992802
354.720782	0.994220
355.110490	0.992587
355.500135	0.994291
355.889717	0.992770
356.279235	0.993056
356.668689	0.993128
357.058080	0.992888
357.447408	0.994643
357.836672	0.994337
358.225873	0.992660
358.615010	0.994326
359.004084	0.994715
359.393095	0.993079
359.782043	0.993126
360.170927	0.993875
360.559748	0.993716
360.948505	0.992348
361.337199	0.992944
361.725830	0.994026
362.114398	0.994011
362.502903	0.993733
362.891344	0.993917
363.279722	0.993353
363.668037	0.992651
364.056289	0.992766
364.444478	0.994084
364.832603	0.992953
365.220665	0.992082
365.608665	0.992924
365.996601	0.992663
366.384474	0.993093
366.772284	0.992065
367.160031	0.990751
367.547715	0.991310
367.935336	0.992791
368.322893	0.992691
368.710388	0.992175
369.097820	0.992227
369.485189	0.992205
369.872495	0.990502
370.259738	0.990885
370.646918	0.993468
371.034035	0.992628
371.421090	0.993181
371.808081	0.992568
372.195010	0.991937
372.581875	0.992246
372.968678	0.992281
373.355418	0.992763
373.742096	0.992641
374.128710	0.992784
374.515262	0.992096
374.901751	0.992332
375.288177	0.991704
375.674540	0.992450
376.060841	0.991663
376.447079	0.992644
376.833254	0.993054
377.219367	0.992388
377.605417	0.992673
377.991404	0.992348
378.377329	0.991697
378.763191	0.992100
379.148991	0.992167
379.534727	0.992827
379.920402	0.991636
380.306013	0.992641
380.691563	0.993370
381.077049	0.990663
381.462474	0.991523
381.847835	0.990547
382.233134	0.990216
382.618371	0.989756
383.003545	0.987619
383.388657	0.986022
383.773706	0.985535
384.158693	0.982129
384.543618	0.979365
384.928480	0.977252
385.313280	0.973675
385.698017	0.971204
386.082692	0.966430
386.467305	0.962053
386.851856	0.957865
387.236344	0.952479
387.620770	0.947048
388.005133	0.943377
388.389435	0.937912
388.773674	0.931665
389.157851	0.924184
389.541965	0.918267
389.926018	0.913750
390.310008	0.905554
390.693936	0.897048
391.077802	0.888637
391.461606	0.882670
391.845348	0.871133
392.229027	0.865307
392.612645	0.856675
392.996200	0.843235
393.379694	0.833154
393.763125	0.821196
394.146494	0.814940
394.529801	0.801915
394.913047	0.789937
395.296230	0.784480
395.679351	0.771546
396.062410	0.760233
396.445408	0.755114
396.828343	0.743895
397.211217	0.733502
397.594028	0.734532
397.976778	0.718610
398.359466	0.709423
398.742092	0.698024
399.124656	0.700480
399.507158	0.685545
399.889598	0.676990
400.271977	0.664398
400.654294	0.661885
401.036549	0.655050
401.418742	0.653539
401.800874	0.635041
402.182944	0.628529
402.564952	0.616182
402.946898	0.614535
403.328783	0.610543
403.710606	0.617529
404.092367	0.590630
404.474067	0.592098
404.855705	0.587581
405.237282	0.594289
405.618797	0.578582
406.000250	0.571630
406.381642	0.560307
406.762972	0.563311
407.144240	0.560054
407.525447	0.559440
407.906593	0.550326
408.287677	0.544618
408.668700	0.551125
409.049661	0.544204
409.430560	0.539279
409.811399	0.546846
410.192176	0.528164
410.572891	0.534298
410.953545	0.522597
411.334138	0.535133
411.714669	0.528179
412.095139	0.538782
412.475547	0.523652
412.855894	0.525336
413.236180	0.524662
413.616405	0.529328
413.996568	0.519544
414.376670	0.525568
414.756711	0.531065
415.136691	0.527448
415.516609	0.518682
415.896466	0.514474
416.276262	0.510457
416.655997	0.512579
417.035670	0.494160
417.415283	0.486048
417.794834	0.490372
418.174324	0.495456
418.553753	0.505127
418.933121	0.487028
419.312428	0.481073
419.691674	0.486706
420.070859	0.475494
420.449983	0.483013
420.829045	0.472502
421.208047	0.481454
421.586988	0.475636
421.965867	0.473455
422.344686	0.463083
422.723444	0.475361
423.102141	0.491780
423.480777	0.464759
423.859352	0.485371
424.237866	0.462295
424.616319	0.463250
424.994712	0.454600
425.373044	0.464473
425.751314	0.452319
426.129524	0.468091
426.507673	0.452619
426.885762	0.446706
427.263789	0.451379
427.641756	0.461476
428.019662	0.451229
428.397508	0.450526
428.775292	0.454755
429.153016	0.447245
429.530679	0.453231
429.908282	0.446909
430.285824	0.456908
430.663305	0.435052
431.040726	0.456012
431.418086	0.456111
431.795385	0.447694
432.172624	0.446108
432.549802	0.447500
432.926920	0.446068
433.303977	0.445217
433.680974	0.442110
434.057910	0.440998
434.434786	0.440418
434.811601	0.443183
435.188355	0.425405
435.565050	0.434549
435.941683	0.436507
436.318257	0.421051
436.694770	0.421048
437.071222	0.419770
437.447614	0.423341
437.823946	0.429627
438.200218	0.419879
438.576429	0.428994
438.952580	0.422576
439.328670	0.418716
439.704700	0.425453
440.080670	0.426894
440.456580	0.408127
440.832429	0.415669
441.208218	0.426777
441.583947	0.415442
441.959616	0.415808
442.335224	0.420590
442.710773	0.411226
443.086261	0.409596
443.461689	0.423368
443.837057	0.413441
444.212365	0.402918
444.587612	0.410243
444.962800	0.400326
445.337927	0.401702
445.712995	0.427778
446.088002	0.390272
446.462949	0.400574
446.837837	0.405104
447.212664	0.394296
447.587431	0.385487
447.962139	0.356191
448.336786	0.315622
448.711374	0.326182
449.085901	0.369439
449.460369	0.374442
449.834776	0.377453
450.209124	0.357172
450.583412	0.349763
450.957640	0.342739
451.331808	0.354082
451.705917	0.377519
452.079965	0.381643
452.453954	0.369826
452.827883	0.377164
453.201752	0.371758
453.575562	0.383457
453.949311	0.371835
454.323001	0.377653
454.696632	0.373261
455.070202	0.366206
455.443713	0.358142
455.817164	0.353144
456.190556	0.348738
456.563888	0.345685
456.937160	0.343060
457.310373	0.360256
457.683526	0.358992
458.056619	0.364981
458.429653	0.365476
458.802628	0.369172
459.175542	0.363143
459.548398	0.345964
459.921194	0.337982
460.293930	0.338428
460.666607	0.315892
461.039224	0.304166
461.411782	0.299839
461.784280	0.299215
462.156719	0.303240
462.529099	0.307803
462.901419	0.323550
463.273680	0.328358
463.645882	0.327448
464.018024	0.333356
464.390106	0.325686
464.762130	0.310593
465.134094	0.294186
465.505999	0.263460
465.877845	0.233817
466.249631	0.220917
466.621358	0.228398
466.993026	0.242040
467.364634	0.248438
467.736184	0.257233
468.107674	0.265869
468.479105	0.264741
468.850477	0.271613
469.221790	0.278522
469.593043	0.288631
469.964238	0.293657
470.335373	0.292660
470.706449	0.291049
471.077467	0.291540
471.448425	0.253770
471.819324	0.229767
472.190164	0.228860
472.560945	0.257425
472.931667	0.279422
473.302330	0.283957
473.672934	0.295537
474.043479	0.284066
474.413965	0.285792
474.784393	0.289298
475.154761	0.284157
475.525070	0.280875
475.895321	0.287433
476.265513	0.281086
476.635645	0.276659
477.005719	0.277071
477.375734	0.273364
477.745691	0.266477
478.115588	0.262883
478.485427	0.256419
478.855207	0.243363
479.224928	0.225997
479.594591	0.214052
479.964194	0.217539
480.333739	0.218572
480.703226	0.220255
481.072653	0.218481
481.442022	0.214110
481.811333	0.210727
482.180584	0.214335
482.549777	0.219537
482.918912	0.222603
483.287988	0.222580
483.657005	0.222230
484.025964	0.228550
484.394864	0.225711
484.763706	0.226355
485.132489	0.231478
485.501213	0.232339
485.869879	0.230571
486.238487	0.233956
486.607036	0.231631
486.975527	0.236200
487.343959	0.232239
487.712333	0.231061
488.080648	0.232651
488.448905	0.231673
488.817104	0.233247
489.185244	0.227600
489.553326	0.224713
489.921350	0.214454
490.289315	0.197166
490.657222	0.191936
491.025070	0.193525
491.392861	0.195199
491.760593	0.200888
492.128267	0.206466
492.495883	0.211990
492.863440	0.218275
493.230939	0.224886
493.598380	0.225975
493.965763	0.228201
494.333088	0.230587
494.700354	0.232078
495.067563	0.230787
495.434713	0.234293
495.801805	0.231986
496.168839	0.233612
496.535815	0.234900
496.902733	0.234636
497.269593	0.236642
497.636395	0.234466
498.003139	0.234516
498.369825	0.237656
498.736453	0.234014
499.103023	0.235376
499.469535	0.234621
499.835989	0.235198
500.202385	0.236034
500.568723	0.239497
500.935003	0.234503
501.301226	0.238455
501.667390	0.233117
502.033497	0.231159
502.399546	0.234414
502.765537	0.235950
503.131470	0.234371
503.497345	0.230540
503.863163	0.239372
504.228923	0.232140
504.594625	0.231337
504.960269	0.236531
505.325856	0.231801
505.691385	0.236156
506.056856	0.232798
506.422270	0.232407
506.787625	0.234592
507.152924	0.232140
507.518164	0.232401
507.883347	0.234363
508.248472	0.235951
508.613540	0.230985
508.978550	0.233691
509.343503	0.234124
509.708398	0.231752
510.073236	0.229305
510.438016	0.229460
510.802738	0.230098
511.167403	0.228996
511.532010	0.231305
511.896561	0.226601
512.261053	0.225443
512.625488	0.227239
512.989866	0.227843
513.354186	0.228199
513.718449	0.230102
514.082655	0.226253
514.446803	0.228213
514.810894	0.226433
515.174927	0.228825
515.538904	0.228132
515.902822	0.225023
516.266684	0.227498
516.630488	0.228811
516.994235	0.227326
517.357925	0.226138
517.721558	0.224575
518.085133	0.224107
518.448651	0.224249
518.812112	0.226242
519.175516	0.225908
519.538863	0.223549
519.902152	0.225287
520.265385	0.221870
520.628560	0.223971
520.991678	0.224391
521.354739	0.223309
521.717743	0.224448
522.080690	0.224707
522.443580	0.222129
522.806413	0.222908
523.169189	0.222548
523.531908	0.220995
523.894569	0.224997
524.257174	0.224669
524.619722	0.222520
524.982213	0.223602
525.344647	0.222479
525.707025	0.223529
526.069345	0.221422
526.431608	0.223098
526.793815	0.221025
527.155964	0.225101
527.518057	0.223887
527.880093	0.225511
528.242072	0.223776
528.603995	0.225755
528.965860	0.227444
529.327669	0.226374
529.689421	0.227120
530.051117	0.227979
530.412755	0.225560
530.774337	0.227840
531.135862	0.228329
531.497331	0.227520
531.858743	0.230489
532.220098	0.227406
532.581396	0.229925
532.942638	0.230276
533.303824	0.231190
533.664953	0.231094
534.026025	0.232651
534.387040	0.230987
534.747999	0.230528
535.108902	0.229690
535.469748	0.234432
535.830537	0.232439
536.191270	0.232798
536.551947	0.232334
536.912567	0.232326
537.273131	0.234407
537.633638	0.234136
537.994089	0.234669
538.354483	0.235799
538.714821	0.232595
539.075103	0.232206
539.435328	0.233037
539.795497	0.237026
540.155609	0.233610
540.515665	0.231852
540.875665	0.237339
541.235609	0.235960
541.595496	0.236034
541.955328	0.232567
542.315102	0.235113
542.674821	0.236220
543.034483	0.236041
543.394090	0.236102
543.753640	0.237928
544.113134	0.232959
544.472571	0.235990
544.831953	0.232970
545.191278	0.237038
545.550548	0.236659
545.909761	0.233449
546.268918	0.234142
546.628019	0.232404
546.987064	0.235303
547.346053	0.237069
547.704986	0.234855
548.063863	0.234975
548.422684	0.235317
548.781449	0.237129
549.140158	0.234870
549.498811	0.237828
549.857408	0.240867
550.215949	0.235508
550.574434	0.238509
550.932864	0.236460
551.291237	0.235327
551.649555	0.236584
552.007817	0.236026
552.366022	0.237356
552.724173	0.237346
553.082267	0.238014
553.440305	0.234570
553.798288	0.239330
554.156215	0.235377
554.514086	0.236257
554.871902	0.239431
555.229661	0.238554
555.587365	0.239179
555.945014	0.241876
556.302606	0.238366
556.660143	0.241081
557.017625	0.237449
557.375050	0.239953
557.732421	0.237147
558.089735	0.238976
558.446994	0.239020
558.804197	0.238275
559.161345	0.238217
559.518437	0.241559
559.875474	0.239266
560.232455	0.238651
560.589381	0.240105
560.946251	0.239921
561.303065	0.237751
561.659825	0.239319
562.016528	0.240419
562.373177	0.243374
562.729770	0.240772
563.086307	0.242862
563.442789	0.240538
563.799216	0.243536
564.155587	0.242099
564.511904	0.243137
564.868164	0.243467
565.224370	0.243284
565.580520	0.244970
565.936615	0.244950
566.292654	0.247857
566.648638	0.244875
567.004567	0.245628
567.360441	0.246482
567.716260	0.248213
568.072023	0.246011
568.427732	0.246938
568.783385	0.249647
569.138982	0.247399
569.494525	0.247032
569.850013	0.250014
570.205445	0.248386
570.560823	0.250739
570.916145	0.252842
571.271412	0.251076
571.626625	0.252390
571.981782	0.253005
572.336884	0.254016
572.691931	0.253630
573.046923	0.254986
573.401860	0.255932
573.756743	0.257630
574.111570	0.256565
574.466342	0.257124
574.821059	0.256408
575.175722	0.259066
575.530330	0.258604
575.884882	0.259105
576.239380	0.261352
576.593823	0.261690
576.948211	0.261156
577.302544	0.264093
577.656823	0.263569
578.011047	0.264185
578.365216	0.264631
578.719330	0.266442
579.073389	0.266490
579.427394	0.267999
579.781344	0.268769
580.135239	0.270185
580.489080	0.269841
580.842866	0.272471
581.196597	0.272560
581.550273	0.271131
581.903895	0.272315
582.257463	0.270492
582.610975	0.273898
582.964434	0.272972
583.317837	0.275672
583.671186	0.275768
584.024481	0.275781
584.377721	0.278635
584.730906	0.279279
585.084037	0.278358
585.437113	0.280359
585.790135	0.279352
586.143103	0.282593
586.496016	0.283983
586.848874	0.281050
587.201679	0.281926
587.554428	0.285238
587.907124	0.283972
588.259765	0.284631
588.612352	0.285090
588.964884	0.288890
589.317362	0.288384
589.669786	0.288533
590.022155	0.287050
590.374470	0.286366
590.726731	0.288601
591.078937	0.293094
591.431090	0.289357
591.783188	0.293601
592.135232	0.294444
592.487222	0.294164
592.839157	0.292227
593.191038	0.294675
593.542866	0.296564
593.894639	0.300340
594.246358	0.298203
594.598022	0.297311
594.949633	0.301188
595.301190	0.301488
595.652692	0.301422
596.004141	0.297316
596.355535	0.304855
596.706876	0.305757
597.058162	0.308506
597.409395	0.305313
597.760573	0.303258
598.111698	0.306122
598.462768	0.307005
598.813785	0.308029
599.164748	0.309718
599.515657	0.309776
599.866511	0.313283
600.217312	0.308495
600.568060	0.314116
600.918753	0.310302
601.269392	0.311025
601.619978	0.314394
601.970510	0.311973
602.320988	0.311917
602.671412	0.309814
603.021783	0.312223
603.372100	0.313452
603.722363	0.313514
604.072572	0.314173
604.422728	0.313933
604.772830	0.316358
605.122878	0.315522
605.472872	0.316005
605.822813	0.314613
606.172701	0.317284
606.522534	0.314484
606.872314	0.314275
607.222041	0.315334
607.571714	0.313612
607.921333	0.314912
608.270899	0.314648
608.620411	0.311290
608.969870	0.315144
609.319276	0.315639
609.668627	0.315548
610.017926	0.313592
610.367171	0.312645
610.716362	0.313264
611.065500	0.313306
611.414585	0.312218
611.763616	0.312690
612.112594	0.312936
612.461518	0.312558
612.810389	0.309969
613.159207	0.312483
613.507971	0.314583
613.856682	0.309869
614.205340	0.311856
614.553945	0.308473
614.902496	0.312271
615.250994	0.310722
615.599439	0.311262
615.947830	0.310175
616.296169	0.311749
616.644454	0.311157
616.992686	0.311259
617.340864	0.308881
617.688990	0.312524
618.037063	0.309224
618.385082	0.310724
618.733048	0.307436
619.080961	0.310221
619.428821	0.309708
619.776628	0.309128
620.124382	0.311545
620.472083	0.311407
620.819731	0.311102
621.167326	0.314730
621.514868	0.314332
621.862357	0.318896
622.209793	0.318408
622.557176	0.320610
622.904506	0.321501
623.251783	0.324101
623.599007	0.326016
623.946179	0.325939
624.293297	0.327718
624.640363	0.331649
624.987376	0.332047
625.334336	0.334796
625.681243	0.337114
626.028097	0.337499
626.374899	0.338605
626.721647	0.338974
627.068343	0.342267
627.414987	0.342728
627.761577	0.345063
628.108115	0.343827
628.454600	0.349036
628.801032	0.346246
629.147412	0.348402
629.493739	0.348498
629.840014	0.351879
630.186236	0.349150
630.532405	0.354478
630.878521	0.352394
631.224585	0.354267
631.570597	0.358135
631.916556	0.356512
632.262462	0.356423
632.608316	0.358920
632.954117	0.359864
633.299866	0.360021
633.645562	0.360740
633.991206	0.365175
634.336797	0.368178
634.682336	0.369834
635.027823	0.372143
635.373257	0.372416
635.718639	0.375938
636.063968	0.375010
636.409245	0.380955
636.754470	0.381483
637.099642	0.383708
637.444762	0.387136
637.789829	0.386183
638.134845	0.390211
638.479808	0.390632
638.824719	0.390220
639.169577	0.394433
639.514383	0.393494
639.859137	0.397585
640.203839	0.397680
640.548489	0.397935
640.893086	0.399005
641.237632	0.401044
641.582125	0.399668
641.926566	0.400723
642.270955	0.401353
642.615292	0.401304
642.959576	0.400745
643.303809	0.400923
643.647990	0.400489
643.992118	0.401051
644.336195	0.404776
644.680219	0.403317
645.024192	0.403751
645.368112	0.397605
645.711981	0.396622
646.055797	0.391528
646.399562	0.394078
646.743274	0.385877
647.086935	0.383530
647.430544	0.383847
647.774101	0.382742
648.117606	0.382420
648.461059	0.382208
648.804460	0.385028
649.147810	0.390292
649.491108	0.392096
649.834354	0.393107
650.177548	0.399452
650.520690	0.404178
650.863781	0.405912
651.206820	0.404830
651.549807	0.409414
651.892742	0.413636
652.235626	0.413128
652.578458	0.413689
652.921238	0.420098
653.263967	0.417778
653.606644	0.421948
653.949269	0.421443
654.291843	0.425171
654.634365	0.421723
654.976836	0.425923
655.319255	0.425759
655.661622	0.427298
656.003938	0.427345
656.346203	0.430782
656.688416	0.428060
657.030577	0.431410
657.372687	0.433311
657.714746	0.434276
658.056753	0.431276
658.398708	0.435202
658.740612	0.436325
659.082465	0.432602
659.424266	0.432824
659.766016	0.432286
660.107715	0.435037
660.449362	0.433626
660.790958	0.434376
661.132503	0.435536
661.473996	0.432523
661.815438	0.433459
662.156829	0.434140
662.498168	0.434877
662.839456	0.436246
663.180693	0.434101
663.521879	0.433786
663.863013	0.434659
664.204097	0.432837
664.545129	0.429371
664.886110	0.430241
665.227040	0.427207
665.567918	0.430516
665.908746	0.428516
666.249522	0.428184
666.590248	0.428734
666.930922	0.426910
667.271545	0.425949
667.612118	0.426178
667.952639	0.427503
668.293109	0.425879
668.633528	0.429805
668.973896	0.429098
669.314213	0.429493
669.654480	0.431156
669.994695	0.431566
670.334859	0.432183
670.674973	0.432474
671.015035	0.432897
671.355047	0.432543
671.695008	0.433621
672.034918	0.435663
672.374777	0.434654
672.714585	0.436059
673.054342	0.436082
673.394049	0.436167
673.733705	0.433360
674.073310	0.435211
674.412864	0.437957
674.752368	0.438539
675.091820	0.438586
675.431223	0.442820
675.770574	0.443133
676.109875	0.446186
676.449125	0.446142
676.788324	0.447753
677.127473	0.453834
677.466571	0.452640
677.805619	0.454593
678.144616	0.455542
678.483562	0.457249
678.822458	0.460131
679.161303	0.461312
679.500098	0.461276
679.838842	0.463589
680.177535	0.463065
680.516179	0.462032
680.854771	0.460550
681.193314	0.454084
681.531805	0.445504
681.870247	0.433660
682.208638	0.426167
682.546978	0.425361
682.885268	0.426653
683.223508	0.434057
683.561697	0.436613
683.899836	0.439635
684.237925	0.443478
684.575963	0.445130
684.913951	0.448449
685.251889	0.444101
685.589776	0.446269
685.927614	0.448930
686.265401	0.443322
686.603137	0.444493
686.940824	0.438355
687.278460	0.436655
687.616046	0.436393
687.953582	0.430510
688.291068	0.432732
688.628504	0.428328
688.965889	0.429976
689.303224	0.434505
689.640510	0.438523
689.977745	0.443760
690.314930	0.452350
690.652065	0.456749
690.989150	0.464039
691.326185	0.470472
691.663170	0.475211
692.000105	0.482204
692.336990	0.489473
692.673825	0.491883
693.010610	0.498820
693.347345	0.503904
693.684030	0.506418
694.020665	0.510663
694.357251	0.518952
694.693786	0.518780
695.030272	0.523256
695.366707	0.527012
695.703093	0.530067
696.039429	0.527821
696.375716	0.529877
696.711952	0.532353
697.048139	0.534122
697.384276	0.536404
697.720363	0.534395
698.056400	0.533971
698.392388	0.539622
698.728326	0.542121
699.064214	0.544832
699.400053	0.545464
699.735842	0.549263
700.071581	0.551996
700.407270	0.555179
700.742910	0.557317
701.078501	0.563768
701.414042	0.564074
701.749533	0.567182
702.084974	0.576580
702.420366	0.568291
702.755709	0.575993
703.091002	0.583949
703.426246	0.577822
703.761440	0.582916
704.096584	0.588310
704.431679	0.584485
704.766725	0.586983
705.101721	0.588602
705.436668	0.584611
705.771565	0.591285
706.106413	0.589042
706.441212	0.584264
706.775961	0.582269
707.110661	0.585169
707.445311	0.581104
707.779913	0.579094
708.114465	0.577376
708.448967	0.573903
708.783421	0.566054
709.117825	0.560708
709.452180	0.560837
709.786485	0.554690
710.120742	0.545009
710.454949	0.546756
710.789107	0.538821
711.123216	0.529582
711.457275	0.531177
711.791286	0.522364
712.125247	0.520655
712.459159	0.531213
712.793023	0.524776
713.126837	0.528769
713.460602	0.529040
713.794318	0.538224
714.127985	0.537486
714.461602	0.547261
714.795171	0.550453
715.128691	0.558323
715.462162	0.565693
715.795584	0.570437
716.128957	0.574146
716.462281	0.581276
716.795556	0.584321
717.128782	0.589851
717.461960	0.599055
717.795088	0.597167
718.128167	0.603915
718.461198	0.612635
718.794180	0.613442
719.127113	0.615301
719.459997	0.619491
719.792833	0.625868
720.125619	0.626612
720.458357	0.633163
720.791046	0.632560
721.123686	0.635663
721.456278	0.643500
721.788821	0.640014
722.121315	0.644354
722.453761	0.648476
722.786158	0.646040
723.118506	0.642109
723.450805	0.650243
723.783056	0.647239
724.115259	0.643262
724.447412	0.643742
724.779518	0.645049
725.111574	0.643870
725.443582	0.639278
725.775542	0.641555
726.107453	0.633973
726.439315	0.633018
726.771129	0.631282
727.102895	0.624905
727.434612	0.618098
727.766281	0.616362
728.097901	0.615630
728.429473	0.614411
728.760996	0.613281
729.092471	0.613455
729.423897	0.617409
729.755276	0.616675
730.086606	0.616843
730.417887	0.611141
730.749120	0.602179
731.080305	0.592768
731.411442	0.588731
731.742530	0.593486
732.073570	0.592559
732.404562	0.585011
732.735506	0.586047
733.066401	0.591155
733.397249	0.600037
733.728048	0.611800
734.058798	0.624076
734.389501	0.634950
734.720156	0.644471
735.050762	0.653258
735.381320	0.653013
735.711831	0.663493
736.042293	0.667165
736.372707	0.663814
736.703073	0.668025
737.033391	0.670302
737.363661	0.667576
737.693883	0.662540
738.024056	0.661953
738.354182	0.661802
738.684260	0.651069
739.014290	0.647106
739.344272	0.648467
739.674207	0.641755
740.004093	0.640410
740.333931	0.641379
740.663722	0.641320
740.993464	0.641885
741.323159	0.645838
741.652806	0.650751
741.982405	0.655400
742.311956	0.659575
742.641460	0.661775
742.970915	0.666735
743.300323	0.673083
743.629683	0.680322
743.958996	0.681826
744.288260	0.686632
744.617477	0.692501
744.946647	0.692863
745.275768	0.698330
745.604842	0.699692
745.933869	0.709272
746.262847	0.709752
746.591778	0.703280
746.920662	0.709142
747.249498	0.716554
747.578286	0.707229
747.907027	0.702628
748.235720	0.704075
748.564365	0.698768
748.892963	0.698179
749.221514	0.701209
749.550017	0.707402
749.878473	0.705779
750.206881	0.712911
750.535242	0.713124
750.863555	0.713576
751.191821	0.714653
751.520039	0.718198
751.848210	0.723035
752.176334	0.715338
752.504411	0.714266
752.832440	0.722831
753.160421	0.726139
753.488356	0.724137
753.816243	0.722101
754.144082	0.730878
754.471875	0.734496
754.799620	0.730108
755.127318	0.731399
755.454969	0.730791
755.782572	0.730351
756.110129	0.735449
756.437638	0.737718
756.765100	0.734558
757.092515	0.732399
757.419882	0.731247
757.747203	0.736783
758.074477	0.735235
758.401703	0.733147
758.728882	0.727886
759.056014	0.727147
759.383099	0.724240
759.710138	0.728220
760.037129	0.723437
760.364073	0.716906
760.690970	0.719450
761.017820	0.725185
761.344623	0.721551
761.671379	0.711839
761.998088	0.700816
762.324751	0.677795
762.651366	0.636054
762.977935	0.569182
763.304456	0.516311
763.630931	0.506884
763.957359	0.545788
764.283740	0.589969
764.610074	0.618404
764.936362	0.648851
765.262602	0.675876
765.588796	0.696878
765.914943	0.716293
766.241044	0.732690
766.567097	0.740157
766.893104	0.749482
767.219064	0.755942
767.544978	0.762680
767.870845	0.776240
768.196665	0.779044
768.522438	0.777964
768.848165	0.779983
769.173846	0.787880
769.499479	0.792507
769.825066	0.795899
770.150607	0.801570
770.476101	0.796315
770.801548	0.798093
771.126949	0.809023
771.452303	0.812034
771.777611	0.812293
772.102872	0.811856
772.428087	0.816176
772.753256	0.820316
773.078378	0.821411
773.403453	0.830400
773.728482	0.834803
774.053465	0.828861
774.378401	0.831724
774.703291	0.840618
775.028135	0.839934
775.352932	0.842574
775.677683	0.844236
776.002388	0.844980
776.327046	0.843510
776.651658	0.847369
776.976224	0.851763
777.300743	0.851166
777.625216	0.853843
777.949643	0.856140
778.274024	0.855792
778.598359	0.856752
778.922647	0.856182
779.246889	0.856048
779.571086	0.860530
779.895236	0.862857
780.219339	0.860228
780.543397	0.856738
780.867409	0.855540
781.191374	0.857012
781.515294	0.857646
781.839167	0.858223
782.162995	0.861053
782.486776	0.858539
782.810511	0.858368
783.134201	0.862813
783.457844	0.861061
783.781441	0.864129
784.104993	0.868725
784.428498	0.869751
784.751958	0.865565
785.075372	0.867333
785.398739	0.871140
785.722061	0.866835
786.045337	0.862888
786.368568	0.868224
786.691752	0.870536
787.014891	0.856149
787.337983	0.847023
787.661030	0.840065
787.984031	0.822287
788.306987	0.809401
788.629897	0.811286
788.952760	0.815924
789.275579	0.820338
789.598351	0.835613
789.921078	0.847691
790.243759	0.850553
790.566395	0.855391
790.888984	0.862489
791.211529	0.866734
791.534027	0.870396
791.856480	0.873742
792.178888	0.878020
792.501249	0.880997
792.823566	0.881753
793.145836	0.881804
793.468062	0.883556
793.790241	0.883363
794.112375	0.882392
794.434464	0.876728
794.756507	0.876555
795.078505	0.876626
795.400457	0.870533
795.722364	0.859297
796.044226	0.852099
796.366042	0.850972
796.687812	0.853879
797.009538	0.850133
797.331218	0.852727
797.652852	0.858149
797.974442	0.863058
798.295986	0.863525
798.617484	0.865696
798.938938	0.869279
799.260346	0.874365
799.581709	0.877742
799.903026	0.878083
800.224299	0.878799
800.545526	0.882464
800.866708	0.886683
801.187845	0.892314
801.508936	0.891180
801.829983	0.888848
802.150984	0.891170
802.471940	0.897033
802.792851	0.895658
803.113717	0.897067
803.434538	0.894154
803.755314	0.898079
804.076045	0.898802
804.396731	0.899092
804.717372	0.898465
805.037967	0.900830
805.358518	0.898509
805.679024	0.895776
805.999485	0.895238
806.319901	0.896272
806.640272	0.896836
806.960598	0.896108
807.280879	0.892653
807.601115	0.890892
807.921306	0.895152
808.241453	0.894756
808.561554	0.893607
808.881611	0.892795
809.201623	0.895387
809.521590	0.894747
809.841513	0.896540
810.161390	0.894413
810.481223	0.896647
810.801011	0.900450
811.120755	0.901716
811.440453	0.900688
811.760107	0.899144
812.079716	0.899709
812.399281	0.903009
812.718801	0.904899
813.038276	0.906746
813.357707	0.905369
813.677093	0.903362
813.996434	0.906519
814.315731	0.907195
814.634983	0.908435
814.954191	0.906769
815.273354	0.904252
815.592473	0.901066
815.911547	0.900653
816.230577	0.898358
816.549562	0.895228
816.868502	0.895413
817.187399	0.891846
817.506250	0.886690
817.825058	0.889332
818.143821	0.884243
818.462539	0.880007
818.781213	0.871542
819.099843	0.860132
819.418429	0.843927
819.736970	0.826807
820.055466	0.807447
820.373919	0.781220
820.692327	0.748805
821.010691	0.713520
821.329011	0.634959
821.647286	0.518560
821.965517	0.403958
822.283704	0.361017
822.601847	0.361854
822.919945	0.397582
823.237999	0.431620
823.556010	0.479530
823.873976	0.535499
824.191897	0.586839
824.509775	0.630281
824.827609	0.675612
825.145398	0.698030
825.463144	0.701440
825.780845	0.684237
826.098502	0.664810
826.416116	0.618951
826.733685	0.573891
827.051210	0.565750
827.368692	0.580775
827.686129	0.618637
828.003522	0.671966
828.320872	0.719813
828.638177	0.765035
828.955439	0.797674
829.272656	0.819236
829.589830	0.836214
829.906960	0.852966
830.224046	0.864164
830.541088	0.874830
830.858086	0.879284
831.175041	0.887108
831.491952	0.884989
831.808819	0.882091
832.125642	0.874733
832.442421	0.860245
832.759157	0.837772
833.075849	0.791554
833.392497	0.727660
833.709101	0.685558
834.025662	0.695605
834.342179	0.727236
834.658653	0.766307
834.975083	0.802744
835.291469	0.828194
835.607811	0.852811
835.924110	0.868855
836.240366	0.884822
836.556578	0.899290
836.872746	0.908289
837.188871	0.913291
837.504952	0.919161
837.820990	0.922473
838.136984	0.925825
838.452935	0.928864
838.768842	0.930554
839.084706	0.923106
839.400526	0.897517
839.716303	0.856532
840.032037	0.834558
840.347727	0.837871
840.663373	0.856516
840.978977	0.878188
841.294537	0.900873
841.610054	0.917677
841.925527	0.925885
842.240957	0.931784
842.556344	0.939549
842.871687	0.944496
843.186987	0.948609
843.502244	0.950173
843.817458	0.950921
844.132629	0.955460
844.447756	0.960196
844.762840	0.959998
845.077881	0.959061
845.392879	0.958812
845.707833	0.962521
846.022745	0.963839
846.337613	0.965377
846.652438	0.964941
846.967221	0.964707
847.281960	0.963615
847.596656	0.967422
847.911309	0.965205
848.225919	0.967406
848.540485	0.967656
848.855009	0.968170
849.169490	0.968203
849.483928	0.968250
849.798323	0.968380
850.112675	0.969103
850.426984	0.969260
850.741251	0.968844
851.055474	0.970399
851.369654	0.968600
851.683792	0.968510
851.997887	0.968992
852.311938	0.970313
852.625947	0.968887
852.939914	0.966874
853.253837	0.968002
853.567718	0.970112
853.881555	0.969949
854.195350	0.967035
854.509103	0.969153
854.822812	0.968399
855.136479	0.969349
855.450103	0.969728
855.763685	0.968209
856.077224	0.968156
856.390720	0.969320
856.704173	0.969739
857.017584	0.968453
857.330953	0.964900
857.644278	0.968480
857.957561	0.968296
858.270802	0.967766
858.584000	0.968140
858.897155	0.966155
859.210268	0.966768
859.523339	0.967281
859.836367	0.968966
860.149352	0.969141
860.462295	0.967614
860.775195	0.969792
861.088054	0.968218
861.400869	0.968997
861.713642	0.969145
862.026373	0.970060
862.339062	0.970236
862.651708	0.968012
862.964312	0.968320
863.276873	0.968901
863.589392	0.967804
863.901869	0.965709
864.214303	0.965068
864.526696	0.963453
864.839045	0.963978
865.151353	0.960924
865.463619	0.962030
865.775842	0.962977
866.088023	0.962347
866.400162	0.960844
866.712258	0.961854
867.024313	0.961396
867.336325	0.962822
867.648296	0.962828
867.960224	0.961329
868.272110	0.961238
868.583954	0.963803
868.895755	0.963640
869.207515	0.961406
869.519233	0.958561
869.830909	0.959934
870.142542	0.962477
870.454134	0.959641
870.765684	0.960575
871.077191	0.958335
871.388657	0.958767
871.700081	0.956498
872.011463	0.958367
872.322803	0.956972
872.634101	0.956541
872.945357	0.953376
873.256571	0.953602
873.567744	0.951703
873.878874	0.952316
874.189963	0.950003
874.501010	0.950919
874.812015	0.948755
875.122979	0.949624
875.433900	0.951857
875.744780	0.952461
876.055618	0.949594
876.366415	0.948996
876.677169	0.948428
876.987882	0.951288
877.298554	0.949371
877.609183	0.946619
877.919771	0.943928
878.230317	0.940495
878.540822	0.940309
878.851285	0.933341
879.161707	0.925203
879.472087	0.912545
879.782425	0.896918
880.092722	0.861798
880.402977	0.809208
880.713191	0.747289
881.023363	0.686331
881.333494	0.651549
881.643583	0.624207
881.953631	0.623993
882.263637	0.652557
882.573602	0.692009
882.883526	0.718215
883.193408	0.743496
883.503248	0.765897
883.813048	0.794985
884.122806	0.823597
884.432522	0.847305
884.742197	0.867590
885.051831	0.878904
885.361424	0.889463
885.670975	0.901219
885.980485	0.911562
886.289954	0.917271
886.599382	0.922899
886.908768	0.926367
887.218113	0.932915
887.527417	0.936961
887.836680	0.940978
888.145901	0.943507
888.455082	0.944576
888.764221	0.949910
889.073319	0.951734
889.382376	0.951537
889.691392	0.951575
890.000366	0.951543
890.309300	0.952684
890.618193	0.952628
890.927044	0.949880
891.235855	0.950603
891.544625	0.950588
891.853353	0.950559
892.162041	0.948525
892.470687	0.942274
892.779293	0.936635
893.087858	0.932452
893.396381	0.924613
893.704864	0.910456
894.013306	0.885702
894.321707	0.859439
894.630068	0.844703
894.938387	0.839769
895.246665	0.840980
895.554903	0.853906
895.863100	0.867598
896.171256	0.884762
896.479371	0.904224
896.787446	0.917481
897.095480	0.923318
897.403473	0.926317
897.711425	0.931707
898.019336	0.937996
898.327207	0.942790
898.635038	0.944190
898.942827	0.942283
899.250576	0.946696
899.558284	0.950390
899.865952	0.952750
900.173579	0.954498
900.481165	0.955479
900.788711	0.958787
901.096216	0.961061
901.403681	0.960334
901.711105	0.962689
902.018489	0.961978
902.325832	0.961584
902.633135	0.961181
902.940397	0.953704
903.247619	0.942696
903.554800	0.916278
903.861941	0.875516
904.169041	0.838328
904.476101	0.820417
904.783121	0.822007
905.090100	0.838304
905.397039	0.860530
905.703938	0.882536
906.010796	0.902929
906.317614	0.920062
906.624391	0.931993
906.931129	0.942466
907.237826	0.950001
907.544483	0.958021
907.851099	0.961224
908.157675	0.966679
908.464211	0.968516
908.770707	0.971570
909.077163	0.972972
909.383578	0.974648
909.689954	0.974526
909.996289	0.975015
910.302584	0.977168
910.608839	0.978150
910.915054	0.976435
911.221229	0.978186
911.527363	0.975426
911.833458	0.977039
912.139513	0.976047
912.445527	0.975451
912.751502	0.973987
913.057436	0.971493
913.363331	0.969504
913.669186	0.965425
913.975000	0.959802
914.280775	0.953285
914.586510	0.947172
914.892205	0.933761
915.197859	0.911442
915.503475	0.883485
915.809050	0.863941
916.114585	0.857945
916.420081	0.854828
916.725536	0.850866
917.030952	0.858870
917.336328	0.872955
917.641665	0.888886
917.946961	0.903885
918.252218	0.915203
918.557435	0.924311
918.862612	0.933911
919.167750	0.940078
919.472848	0.944548
919.777906	0.949993
920.082925	0.955994
920.387904	0.960490
920.692843	0.961542
920.997743	0.962482
921.302603	0.966572
921.607423	0.968184
921.912204	0.970775
922.216946	0.971363
922.521647	0.972926
922.826310	0.974110
923.130932	0.975639
923.435516	0.978216
923.740059	0.978263
924.044564	0.978283
924.349028	0.980430
924.653454	0.981082
924.957840	0.985046
925.262186	0.983006
925.566493	0.982578
925.870761	0.983797
926.174989	0.984722
926.479178	0.987725
926.783328	0.987862
927.087438	0.987177
927.391509	0.988109
927.695541	0.988997
927.999533	0.988064
928.303486	0.989434
928.607400	0.990137
928.911275	0.988627
929.215110	0.990075
929.518906	0.990151
929.822663	0.989381
930.126381	0.990880
930.430060	0.989679
930.733699	0.989331
931.037299	0.989070
931.340861	0.989928
931.644383	0.989810
931.947866	0.989372
932.251309	0.989722
932.554714	0.988864
932.858080	0.990110
933.161407	0.989916
933.464694	0.990129
933.767943	0.989342
934.071153	0.989728
934.374323	0.991323
934.677455	0.991090
934.980548	0.991663
935.283602	0.990673
935.586617	0.991000
935.889593	0.990498
936.192530	0.990236
936.495428	0.991390
936.798287	0.990593
937.101108	0.989697
937.403890	0.988679
937.706632	0.988614
938.009336	0.986283
938.312002	0.985833
938.614628	0.983591
938.917216	0.982739
939.219765	0.981986
939.522275	0.982186
939.824747	0.982680
940.127179	0.981911
940.429573	0.984521
940.731929	0.982856
941.034246	0.983282
941.336524	0.985319
941.638763	0.985662
941.940964	0.986167
942.243126	0.985954
942.545250	0.986576
942.847335	0.987771
943.149381	0.987325
943.451389	0.987392
943.753359	0.987314
944.055290	0.991384
944.357182	0.990254
944.659036	0.987734
944.960851	0.990148
945.262628	0.988695
945.564367	0.989773
945.866067	0.989386
946.167729	0.989234
946.469352	0.989781
946.770937	0.988171
947.072484	0.990246
947.373992	0.988576
947.675462	0.989031
947.976893	0.990102
948.278286	0.989950
948.579641	0.990689
948.880958	0.989853
949.182236	0.990196
949.483476	0.991358
949.784678	0.990233
950.085841	0.991802
950.386967	0.990445
950.688054	0.990158
950.989103	0.991308
951.290114	0.989858
951.591087	0.989576
951.892021	0.989314
952.192917	0.989144
952.493776	0.988097
952.794596	0.987628
953.095378	0.987152
953.396122	0.987199
953.696828	0.987170
953.997496	0.990089
954.298126	0.990374
954.598718	0.990868
954.899272	0.989932
955.199788	0.989707
955.500266	0.991143
955.800706	0.992669
956.101108	0.993619
956.401472	0.992777
956.701798	0.994961
957.002087	0.993330
957.302337	0.992483
957.602550	0.994155
957.902724	0.994555
958.202861	0.995825
958.502960	0.994954
958.803022	0.993542
959.103045	0.996165
959.403031	0.995864
959.702979	0.995673
960.002889	0.995628
960.302762	0.994727
960.602596	0.995837
960.902393	0.994078
961.202153	0.996815
961.501875	0.997174
961.801559	0.996339
962.101205	0.995757
962.400814	0.996729
962.700385	0.994961
962.999918	0.995466
963.299414	0.995802
963.598873	0.995982
963.898293	0.996138
964.197677	0.995830
964.497022	0.996070
964.796331	0.997452
965.095601	0.995910
965.394835	0.995449
965.694030	0.996485
965.993189	0.997194
966.292309	0.996571
966.591393	0.998328
966.890439	0.997249
967.189447	0.996817
967.488419	0.997896
967.787353	0.995314
968.086249	0.996485
968.385108	0.995512
968.683930	0.997347
968.982714	0.997910
969.281462	0.997645
969.580172	0.996684
969.878844	0.996712
970.177480	0.996086
970.476078	0.997277
970.774639	0.996570
971.073162	0.997910
971.371649	0.996593
971.670098	0.995790
971.968510	0.997928
972.266885	0.995842
972.565223	0.996140
972.863524	0.995554
973.161788	0.996523
973.460014	0.997405
973.758204	0.996679
974.056356	0.995496
974.354471	0.994945
974.652550	0.996115
974.950591	0.995011
975.248595	0.996721
975.546563	0.996885
975.844493	0.997550
976.142386	0.996373
976.440243	0.998817
976.738062	0.996808
977.035845	0.996226
977.333590	0.997704
977.631299	0.997780
977.928971	0.997329
978.226606	0.996940
978.524204	0.995298
978.821765	0.998519
979.119290	0.996703
979.416777	0.995856
979.714228	0.996110
980.011642	0.995567
980.309020	0.996487
980.606360	0.996927
980.903664	0.997921
981.200931	0.996757
981.498162	0.995155
981.795356	0.994979
982.092513	0.993242
982.389633	0.994921
982.686717	0.991899
982.983764	0.990929
983.280775	0.989944
983.577749	0.989841
983.874686	0.990450
984.171587	0.991701
984.468451	0.994291
984.765279	0.994909
985.062070	0.993057
985.358824	0.995597
985.655543	0.993967
985.952224	0.995644
986.248869	0.996247
986.545478	0.996552
986.842050	0.997025
987.138586	0.995819
987.435086	0.996864
987.731549	0.998252
988.027975	0.998251
988.324366	0.997663
988.620719	0.997626
988.917037	0.995027
989.213318	0.997608
989.509563	0.998490
989.805772	0.998196
990.101944	0.998309
990.398080	0.997583
990.694180	0.996831
990.990244	0.996611
991.286271	0.997269
991.582262	0.998891
991.878217	0.997466
992.174136	0.999388
992.470019	0.998669
992.765865	0.997091
993.061676	0.998482
993.357450	0.996941
993.653188	0.997153
993.948890	0.998232
994.244556	0.997677
994.540186	0.997283
994.835780	0.996789
995.131337	0.996297
995.426859	0.997142
995.722345	0.997837
996.017795	0.995204
996.313208	0.996074
996.608586	0.995529
996.903928	0.996461
997.199234	0.995868
997.494504	0.997609
997.789738	0.995982
998.084936	0.997061
998.380099	0.998824
998.675225	0.996717
998.970316	0.998297
999.265371	0.998051
999.560390	0.997991
999.855373	0.998100
1000.150320	0.997612
1000.445232	0.997726
1000.740108	0.998703
1001.034948	0.998211
1001.329752	0.998424
1001.624521	0.998941
1001.919254	0.998280
1002.213951	0.998027
1002.508613	0.998005
1002.803239	0.999410
1003.097829	0.999274
1003.392384	0.999881
1003.686903	0.998705
1003.981386	0.998907
1004.275834	0.998462
1004.570246	0.998842
1004.864623	0.998544
1005.158964	0.999287
1005.453270	0.998355
1005.747540	0.997549
1006.041775	0.997327
1006.335974	1.000268
1006.630138	0.999113
1006.924266	0.998892
1007.218359	0.999975
1007.512416	1.000126
1007.806438	1.000526
1008.100425	0.998874
1008.394376	0.999633
1008.688292	0.999370
1008.982172	1.000416
1009.276017	0.999523
1009.569827	0.998411
1009.863602	0.997945
1010.157341	0.998601
1010.451045	0.998369
1010.744714	0.999252
1011.038347	1.000472
1011.331945	0.997602
1011.625508	0.997770
1011.919036	0.998092
1012.212528	0.998772
1012.505986	0.998219
1012.799408	0.998268
1013.092795	0.999287
1013.386147	0.998207
1013.679464	0.998953
1013.972745	0.998847
1014.265992	0.996843
1014.559204	0.998830
1014.852380	0.998913
1015.145521	0.998778
1015.438628	0.998698
1015.731699	0.998356
1016.024736	0.999182
1016.317737	0.998896
1016.610703	0.998443
1016.903635	0.999175
1017.196531	0.998630
1017.489393	0.999400
1017.782219	0.998733
1018.075011	0.998291
1018.367768	1.000081
1018.660490	0.999165
1018.953177	0.999165
1019.245829	0.999165
