Dividing Wavelength (nm)	Counts (n)	Blue Motor Position (mm): 0.000000	Red Motor Position (mm): 17.200000	
326.493990	1.000625
326.888308	1.000625
327.282561	1.000625
327.676750	0.999470
328.070874	1.000397
328.464933	1.000124
328.858929	0.999878
329.252859	0.999927
329.646726	0.999889
330.040528	1.000461
330.434265	0.999564
330.827938	1.001134
331.221547	1.000904
331.615091	1.000520
332.008571	0.999819
332.401986	1.000018
332.795338	0.999872
333.188625	0.998774
333.581847	1.001207
333.975006	0.999342
334.368100	0.999470
334.761129	1.001143
335.154095	1.000084
335.546996	0.998810
335.939833	0.993117
336.332606	0.994031
336.725315	0.995287
337.117960	0.994216
337.510540	0.994230
337.903056	0.994477
338.295508	0.993657
338.687896	0.994933
339.080220	0.994290
339.472480	0.993982
339.864676	0.995076
340.256807	0.994875
340.648875	0.995206
341.040879	0.994993
341.432818	0.993777
341.824694	0.993749
342.216506	0.995232
342.608253	0.993596
342.999937	0.992794
343.391557	0.993853
343.783113	0.993560
344.174605	0.994273
344.566033	0.995248
344.957397	0.993180
345.348697	0.994010
345.739934	0.994593
346.131106	0.994769
346.522215	0.993856
346.913260	0.993569
347.304241	0.993797
347.695159	0.993649
348.086012	0.992623
348.476802	0.993790
348.867528	0.994281
349.258191	0.992254
349.648789	0.995061
350.039324	0.993634
350.429796	0.994108
350.820203	0.994393
351.210548	0.993572
351.600828	0.993799
351.991045	0.993636
352.381198	0.992995
352.771288	0.992966
353.161314	0.992757
353.551276	0.994600
353.941175	0.993452
354.331010	0.993513
354.720782	0.995130
355.110490	0.994208
355.500135	0.994221
355.889717	0.994010
356.279235	0.992897
356.668689	0.993125
357.058080	0.993496
357.447408	0.994674
357.836672	0.994862
358.225873	0.994068
358.615010	0.994025
359.004084	0.994458
359.393095	0.994269
359.782043	0.993846
360.170927	0.994739
360.559748	0.994656
360.948505	0.993257
361.337199	0.994357
361.725830	0.993556
362.114398	0.993721
362.502903	0.994204
362.891344	0.994723
363.279722	0.993933
363.668037	0.995440
364.056289	0.993936
364.444478	0.993821
364.832603	0.993539
365.220665	0.993271
365.608665	0.992441
365.996601	0.993745
366.384474	0.993951
366.772284	0.994603
367.160031	0.992393
367.547715	0.992123
367.935336	0.994178
368.322893	0.994728
368.710388	0.992884
369.097820	0.993548
369.485189	0.993135
369.872495	0.992968
370.259738	0.992302
370.646918	0.994294
371.034035	0.993712
371.421090	0.993464
371.808081	0.993011
372.195010	0.993987
372.581875	0.994367
372.968678	0.993575
373.355418	0.993742
373.742096	0.993807
374.128710	0.994868
374.515262	0.993049
374.901751	0.993655
375.288177	0.993793
375.674540	0.995103
376.060841	0.993538
376.447079	0.994945
376.833254	0.994086
377.219367	0.994761
377.605417	0.994516
377.991404	0.994433
378.377329	0.994429
378.763191	0.993853
379.148991	0.995627
379.534727	0.994813
379.920402	0.994290
380.306013	0.994692
380.691563	0.995923
381.077049	0.994248
381.462474	0.995571
381.847835	0.993916
382.233134	0.993745
382.618371	0.995043
383.003545	0.994927
383.388657	0.993571
383.773706	0.995127
384.158693	0.994892
384.543618	0.994986
384.928480	0.995099
385.313280	0.994063
385.698017	0.995608
386.082692	0.996091
386.467305	0.995192
386.851856	0.994678
387.236344	0.993688
387.620770	0.994324
388.005133	0.994209
388.389435	0.996221
388.773674	0.995524
389.157851	0.995347
389.541965	0.994962
389.926018	0.994851
390.310008	0.995428
390.693936	0.995156
391.077802	0.995283
391.461606	0.994045
391.845348	0.995485
392.229027	0.995782
392.612645	0.994813
392.996200	0.995799
393.379694	0.994716
393.763125	0.995835
394.146494	0.995907
394.529801	0.993937
394.913047	0.995224
395.296230	0.995033
395.679351	0.995379
396.062410	0.994478
396.445408	0.993990
396.828343	0.994132
397.211217	0.994628
397.594028	0.993847
397.976778	0.993087
398.359466	0.993602
398.742092	0.993654
399.124656	0.992544
399.507158	0.993255
399.889598	0.992441
400.271977	0.992549
400.654294	0.991603
401.036549	0.991422
401.418742	0.989842
401.800874	0.987551
402.182944	0.986058
402.564952	0.983566
402.946898	0.983572
403.328783	0.981060
403.710606	0.978916
404.092367	0.975186
404.474067	0.972928
404.855705	0.970254
405.237282	0.967115
405.618797	0.962314
406.000250	0.957388
406.381642	0.953646
406.762972	0.949597
407.144240	0.945427
407.525447	0.941101
407.906593	0.934850
408.287677	0.929202
408.668700	0.925984
409.049661	0.917479
409.430560	0.911189
409.811399	0.905884
410.192176	0.895392
410.572891	0.890916
410.953545	0.881337
411.334138	0.877665
411.714669	0.868566
412.095139	0.864876
412.475547	0.853246
412.855894	0.845399
413.236180	0.837102
413.616405	0.830899
413.996568	0.819738
414.376670	0.813225
414.756711	0.807285
415.136691	0.797708
415.516609	0.785120
415.896466	0.774675
416.276262	0.764648
416.655997	0.757027
417.035670	0.738130
417.415283	0.726052
417.794834	0.719218
418.174324	0.713432
418.553753	0.710541
418.933121	0.690576
419.312428	0.678907
419.691674	0.671938
420.070859	0.656725
420.449983	0.653398
420.829045	0.638242
421.208047	0.636581
421.586988	0.623349
421.965867	0.614677
422.344686	0.597842
422.723444	0.601283
423.102141	0.607078
423.480777	0.578817
423.859352	0.588090
424.237866	0.562846
424.616319	0.557638
424.994712	0.544097
425.373044	0.547579
425.751314	0.530985
426.129524	0.539459
426.507673	0.520367
426.885762	0.510279
427.263789	0.509370
427.641756	0.514553
428.019662	0.501593
428.397508	0.496491
428.775292	0.496379
429.153016	0.485903
429.530679	0.488785
429.908282	0.479100
430.285824	0.486090
430.663305	0.462793
431.040726	0.480274
431.418086	0.478532
431.795385	0.468181
432.172624	0.464926
432.549802	0.464147
432.926920	0.461104
433.303977	0.459462
433.680974	0.454817
434.057910	0.451881
434.434786	0.451092
434.811601	0.452381
435.188355	0.433927
435.565050	0.442272
435.941683	0.443050
436.318257	0.427480
436.694770	0.426340
437.071222	0.424954
437.447614	0.428702
437.823946	0.434341
438.200218	0.423841
438.576429	0.433208
438.952580	0.426149
439.328670	0.422917
439.704700	0.428679
440.080670	0.429358
440.456580	0.410831
440.832429	0.418806
441.208218	0.429117
441.583947	0.417979
441.959616	0.417773
442.335224	0.422597
442.710773	0.413351
443.086261	0.411609
443.461689	0.425726
443.837057	0.415495
444.212365	0.404418
444.587612	0.411946
444.962800	0.401807
445.337927	0.402856
445.712995	0.429609
446.088002	0.391887
446.462949	0.401845
446.837837	0.406213
447.212664	0.395651
447.587431	0.386822
447.962139	0.357702
448.336786	0.317142
448.711374	0.327490
449.085901	0.370973
449.460369	0.375467
449.834776	0.378903
450.209124	0.358525
450.583412	0.350796
450.957640	0.343971
451.331808	0.355252
451.705917	0.378617
452.079965	0.382766
452.453954	0.371059
452.827883	0.377959
453.201752	0.372929
453.575562	0.384549
453.949311	0.373005
454.323001	0.379143
454.696632	0.374804
455.070202	0.367827
455.443713	0.359083
455.817164	0.354024
456.190556	0.349964
456.563888	0.346631
456.937160	0.344667
457.310373	0.361660
457.683526	0.360364
458.056619	0.366363
458.429653	0.366558
458.802628	0.370172
459.175542	0.364357
459.548398	0.346944
459.921194	0.339906
460.293930	0.339619
460.666607	0.317479
461.039224	0.305512
461.411782	0.301320
461.784280	0.300588
462.156719	0.304743
462.529099	0.309182
462.901419	0.325179
463.273680	0.330042
463.645882	0.328820
464.018024	0.335306
464.390106	0.327650
464.762130	0.312404
465.134094	0.295509
465.505999	0.264926
465.877845	0.235588
466.249631	0.222474
466.621358	0.230219
466.993026	0.243879
467.364634	0.249976
467.736184	0.258911
468.107674	0.267496
468.479105	0.266523
468.850477	0.273339
469.221790	0.279896
469.593043	0.290470
469.964238	0.295497
470.335373	0.294739
470.706449	0.292596
471.077467	0.293440
471.448425	0.255645
471.819324	0.231510
472.190164	0.230937
472.560945	0.259469
472.931667	0.281735
473.302330	0.285519
473.672934	0.297442
474.043479	0.285807
474.413965	0.287642
474.784393	0.290987
475.154761	0.286158
475.525070	0.283183
475.895321	0.289171
476.265513	0.283073
476.635645	0.278479
477.005719	0.278672
477.375734	0.275276
477.745691	0.268530
478.115588	0.264994
478.485427	0.258454
478.855207	0.245628
479.224928	0.227943
479.594591	0.216341
479.964194	0.219766
480.333739	0.220862
480.703226	0.222364
481.072653	0.220803
481.442022	0.216493
481.811333	0.212748
482.180584	0.216631
482.549777	0.221666
482.918912	0.224961
483.287988	0.224804
483.657005	0.224400
484.025964	0.230571
484.394864	0.227955
484.763706	0.228598
485.132489	0.233438
485.501213	0.234469
485.869879	0.232699
486.238487	0.235985
486.607036	0.233404
486.975527	0.238260
487.343959	0.234026
487.712333	0.233134
488.080648	0.234889
488.448905	0.233759
488.817104	0.235034
489.185244	0.229573
489.553326	0.226531
489.921350	0.216249
490.289315	0.198812
490.657222	0.193670
491.025070	0.195147
491.392861	0.197428
491.760593	0.202766
492.128267	0.208360
492.495883	0.214001
492.863440	0.220316
493.230939	0.226363
493.598380	0.227699
493.965763	0.229944
494.333088	0.232562
494.700354	0.233568
495.067563	0.232570
495.434713	0.235965
495.801805	0.234099
496.168839	0.235300
496.535815	0.236551
496.902733	0.236919
497.269593	0.238231
497.636395	0.236049
498.003139	0.236148
498.369825	0.239508
498.736453	0.235899
499.103023	0.237375
499.469535	0.236598
499.835989	0.237033
500.202385	0.237932
500.568723	0.241147
500.935003	0.236294
501.301226	0.240319
501.667390	0.234841
502.033497	0.232963
502.399546	0.236010
502.765537	0.237560
503.131470	0.236130
503.497345	0.232482
503.863163	0.241523
504.228923	0.234236
504.594625	0.232774
504.960269	0.238225
505.325856	0.233828
505.691385	0.237784
506.056856	0.234664
506.422270	0.234001
506.787625	0.236610
507.152924	0.233814
507.518164	0.234507
507.883347	0.236166
508.248472	0.237966
508.613540	0.232881
508.978550	0.235288
509.343503	0.235696
509.708398	0.233860
510.073236	0.231198
510.438016	0.231132
510.802738	0.232094
511.167403	0.231037
511.532010	0.233053
511.896561	0.228440
512.261053	0.227391
512.625488	0.229351
512.989866	0.229796
513.354186	0.229888
513.718449	0.231830
514.082655	0.228093
514.446803	0.230280
514.810894	0.228088
515.174927	0.230586
515.538904	0.229983
515.902822	0.226807
516.266684	0.229389
516.630488	0.230640
516.994235	0.229078
517.357925	0.228046
517.721558	0.226371
518.085133	0.225874
518.448651	0.226130
518.812112	0.228235
519.175516	0.227684
519.538863	0.225435
519.902152	0.227176
520.265385	0.223743
520.628560	0.225755
520.991678	0.226083
521.354739	0.224924
521.717743	0.226329
522.080690	0.226526
522.443580	0.224010
522.806413	0.225075
523.169189	0.224241
523.531908	0.223176
523.894569	0.226629
524.257174	0.226671
524.619722	0.224294
524.982213	0.225509
525.344647	0.224384
525.707025	0.225425
526.069345	0.223392
526.431608	0.224916
526.793815	0.223089
527.155964	0.227188
527.518057	0.225893
527.880093	0.227044
528.242072	0.225772
528.603995	0.227465
528.965860	0.229240
529.327669	0.228057
529.689421	0.229050
530.051117	0.229747
530.412755	0.227580
530.774337	0.229798
531.135862	0.230063
531.497331	0.229584
531.858743	0.232493
532.220098	0.229233
532.581396	0.231669
532.942638	0.232046
533.303824	0.233044
533.664953	0.233015
534.026025	0.234435
534.387040	0.232616
534.747999	0.232308
535.108902	0.231380
535.469748	0.236204
535.830537	0.234201
536.191270	0.234716
536.551947	0.234069
536.912567	0.234057
537.273131	0.235895
537.633638	0.236060
537.994089	0.236719
538.354483	0.237675
538.714821	0.234315
539.075103	0.234191
539.435328	0.235006
539.795497	0.238778
540.155609	0.235288
540.515665	0.233528
540.875665	0.238997
541.235609	0.237780
541.595496	0.237567
541.955328	0.234188
542.315102	0.236976
542.674821	0.237742
543.034483	0.237979
543.394090	0.237940
543.753640	0.239742
544.113134	0.234536
544.472571	0.237852
544.831953	0.234714
545.191278	0.238801
545.550548	0.238554
545.909761	0.235012
546.268918	0.235878
546.628019	0.233961
546.987064	0.236756
547.346053	0.238551
547.704986	0.236468
548.063863	0.236754
548.422684	0.237227
548.781449	0.238666
549.140158	0.236416
549.498811	0.239414
549.857408	0.242326
550.215949	0.237450
550.574434	0.240264
550.932864	0.238102
551.291237	0.236855
551.649555	0.238300
552.007817	0.238038
552.366022	0.238989
552.724173	0.239111
553.082267	0.239540
553.440305	0.236351
553.798288	0.240595
554.156215	0.237298
554.514086	0.237823
554.871902	0.241276
555.229661	0.240032
555.587365	0.240890
555.945014	0.243332
556.302606	0.240099
556.660143	0.242778
557.017625	0.239264
557.375050	0.241626
557.732421	0.238328
558.089735	0.240648
558.446994	0.240917
558.804197	0.239822
559.161345	0.239814
559.518437	0.243135
559.875474	0.241062
560.232455	0.240227
560.589381	0.241619
560.946251	0.241853
561.303065	0.239168
561.659825	0.240930
562.016528	0.242232
562.373177	0.244713
562.729770	0.242277
563.086307	0.244335
563.442789	0.242152
563.799216	0.244979
564.155587	0.243721
564.511904	0.244697
564.868164	0.244788
565.224370	0.244614
565.580520	0.246517
565.936615	0.246642
566.292654	0.249484
566.648638	0.246389
567.004567	0.247490
567.360441	0.248020
567.716260	0.250083
568.072023	0.247642
568.427732	0.248567
568.783385	0.250864
569.138982	0.249178
569.494525	0.248570
569.850013	0.251750
570.205445	0.249889
570.560823	0.252516
570.916145	0.254309
571.271412	0.252556
571.626625	0.254424
571.981782	0.254692
572.336884	0.255718
572.691931	0.255335
573.046923	0.256422
573.401860	0.257523
573.756743	0.259522
574.111570	0.258220
574.466342	0.258807
574.821059	0.257800
575.175722	0.260798
575.530330	0.260454
575.884882	0.260414
576.239380	0.263029
576.593823	0.263216
576.948211	0.262346
577.302544	0.265740
577.656823	0.265281
578.011047	0.265456
578.365216	0.266219
578.719330	0.268106
579.073389	0.267961
579.427394	0.269280
579.781344	0.270103
580.135239	0.271721
580.489080	0.271337
580.842866	0.274440
581.196597	0.274361
581.550273	0.272875
581.903895	0.273876
582.257463	0.271709
582.610975	0.275176
582.964434	0.274773
583.317837	0.276863
583.671186	0.277736
584.024481	0.277329
584.377721	0.279908
584.730906	0.280658
585.084037	0.279676
585.437113	0.281636
585.790135	0.281233
586.143103	0.284116
586.496016	0.285134
586.848874	0.283132
587.201679	0.283238
587.554428	0.286419
587.907124	0.285210
588.259765	0.285966
588.612352	0.286449
588.964884	0.290326
589.317362	0.289970
589.669786	0.289995
590.022155	0.288376
590.374470	0.288108
590.726731	0.289977
591.078937	0.294364
591.431090	0.290690
591.783188	0.294926
592.135232	0.295562
592.487222	0.295550
592.839157	0.294038
593.191038	0.296364
593.542866	0.297862
593.894639	0.301401
594.246358	0.299037
594.598022	0.298903
594.949633	0.302496
595.301190	0.303470
595.652692	0.302357
596.004141	0.298711
596.355535	0.306833
596.706876	0.307026
597.058162	0.309606
597.409395	0.306795
597.760573	0.304766
598.111698	0.308277
598.462768	0.308153
598.813785	0.309423
599.164748	0.311045
599.515657	0.311425
599.866511	0.314530
600.217312	0.310036
600.568060	0.315239
600.918753	0.311665
601.269392	0.312352
601.619978	0.315701
601.970510	0.313587
602.320988	0.313723
602.671412	0.311405
603.021783	0.313955
603.372100	0.315093
603.722363	0.314700
604.072572	0.315783
604.422728	0.315757
604.772830	0.317485
605.122878	0.317066
605.472872	0.317257
605.822813	0.316069
606.172701	0.318429
606.522534	0.316375
606.872314	0.316034
607.222041	0.316771
607.571714	0.314942
607.921333	0.316465
608.270899	0.316123
608.620411	0.313185
608.969870	0.317181
609.319276	0.317241
609.668627	0.316776
610.017926	0.315326
610.367171	0.313865
610.716362	0.314847
611.065500	0.315034
611.414585	0.313670
611.763616	0.314004
612.112594	0.314819
612.461518	0.313966
612.810389	0.311696
613.159207	0.313767
613.507971	0.315821
613.856682	0.311621
614.205340	0.313472
614.553945	0.310115
614.902496	0.313858
615.250994	0.311888
615.599439	0.312465
615.947830	0.312215
616.296169	0.313245
616.644454	0.312342
616.992686	0.312332
617.340864	0.310559
617.688990	0.313824
618.037063	0.310620
618.385082	0.312724
618.733048	0.309662
619.080961	0.311843
619.428821	0.310952
619.776628	0.310556
620.124382	0.312438
620.472083	0.312699
620.819731	0.312495
621.167326	0.316090
621.514868	0.315841
621.862357	0.320392
622.209793	0.319842
622.557176	0.321852
622.904506	0.322996
623.251783	0.325511
623.599007	0.327586
623.946179	0.327001
624.293297	0.329365
624.640363	0.332805
624.987376	0.333748
625.334336	0.336546
625.681243	0.338728
626.028097	0.339312
626.374899	0.339635
626.721647	0.340552
627.068343	0.343243
627.414987	0.344908
627.761577	0.346572
628.108115	0.345129
628.454600	0.350060
628.801032	0.347129
629.147412	0.349684
629.493739	0.350064
629.840014	0.353014
630.186236	0.350515
630.532405	0.355610
630.878521	0.353412
631.224585	0.355396
631.570597	0.359431
631.916556	0.357781
632.262462	0.358152
632.608316	0.360237
632.954117	0.360696
633.299866	0.361401
633.645562	0.362031
633.991206	0.366465
634.336797	0.369401
634.682336	0.371528
635.027823	0.373259
635.373257	0.373521
635.718639	0.377856
636.063968	0.376170
636.409245	0.382142
636.754470	0.382960
637.099642	0.385126
637.444762	0.388361
637.789829	0.387786
638.134845	0.390989
638.479808	0.391730
638.824719	0.391637
639.169577	0.395765
639.514383	0.394277
639.859137	0.399063
640.203839	0.398491
640.548489	0.399141
640.893086	0.400573
641.237632	0.402382
641.582125	0.400678
641.926566	0.402303
642.270955	0.402584
642.615292	0.403029
642.959576	0.401957
643.303809	0.402499
643.647990	0.402004
643.992118	0.402507
644.336195	0.406467
644.680219	0.404634
645.024192	0.405249
645.368112	0.398975
645.711981	0.397774
646.055797	0.392812
646.399562	0.395414
646.743274	0.387716
647.086935	0.384902
647.430544	0.385014
647.774101	0.384072
648.117606	0.383801
648.461059	0.384135
648.804460	0.385959
649.147810	0.391926
649.491108	0.393582
649.834354	0.394847
650.177548	0.400562
650.520690	0.406013
650.863781	0.407116
651.206820	0.405785
651.549807	0.411211
651.892742	0.414382
652.235626	0.414374
652.578458	0.415243
652.921238	0.421283
653.263967	0.419119
653.606644	0.423392
653.949269	0.423140
654.291843	0.427239
654.634365	0.423345
654.976836	0.426502
655.319255	0.426803
655.661622	0.428543
656.003938	0.428421
656.346203	0.431563
656.688416	0.429397
657.030577	0.432717
657.372687	0.434985
657.714746	0.435120
658.056753	0.432350
658.398708	0.436830
658.740612	0.437392
659.082465	0.434182
659.424266	0.434108
659.766016	0.434051
660.107715	0.436523
660.449362	0.435384
660.790958	0.435947
661.132503	0.436514
661.473996	0.433939
661.815438	0.434469
662.156829	0.435210
662.498168	0.436011
662.839456	0.437012
663.180693	0.435087
663.521879	0.434730
663.863013	0.436463
664.204097	0.434402
664.545129	0.431201
664.886110	0.431715
665.227040	0.428567
665.567918	0.431054
665.908746	0.429767
666.249522	0.429057
666.590248	0.430275
666.930922	0.428200
667.271545	0.427394
667.612118	0.427463
667.952639	0.428676
668.293109	0.427972
668.633528	0.430123
668.973896	0.430655
669.314213	0.430742
669.654480	0.431982
669.994695	0.433070
670.334859	0.433160
670.674973	0.434240
671.015035	0.433875
671.355047	0.433777
671.695008	0.435359
672.034918	0.436735
672.374777	0.436368
672.714585	0.437052
673.054342	0.437349
673.394049	0.437501
673.733705	0.434802
674.073310	0.436298
674.412864	0.439049
674.752368	0.439534
675.091820	0.439430
675.431223	0.444538
675.770574	0.444161
676.109875	0.446878
676.449125	0.447127
676.788324	0.449085
677.127473	0.455110
677.466571	0.454377
677.805619	0.456436
678.144616	0.456833
678.483562	0.458956
678.822458	0.461391
679.161303	0.462679
679.500098	0.463065
679.838842	0.464434
680.177535	0.464128
680.516179	0.462831
680.854771	0.461821
681.193314	0.455322
681.531805	0.446406
681.870247	0.435246
682.208638	0.427438
682.546978	0.426345
682.885268	0.428244
683.223508	0.434449
683.561697	0.438205
683.899836	0.440827
684.237925	0.443971
684.575963	0.447290
684.913951	0.450230
685.251889	0.445833
685.589776	0.446934
685.927614	0.449917
686.265401	0.444121
686.603137	0.445439
686.940824	0.439288
687.278460	0.437841
687.616046	0.437036
687.953582	0.432323
688.291068	0.433315
688.628504	0.429611
688.965889	0.431209
689.303224	0.435627
689.640510	0.439741
689.977745	0.445408
690.314930	0.453173
690.652065	0.457404
690.989150	0.465521
691.326185	0.471717
691.663170	0.476311
692.000105	0.483416
692.336990	0.489787
692.673825	0.492925
693.010610	0.499799
693.347345	0.505011
693.684030	0.506702
694.020665	0.512141
694.357251	0.520644
694.693786	0.520088
695.030272	0.524345
695.366707	0.528188
695.703093	0.531932
696.039429	0.528634
696.375716	0.530747
696.711952	0.533368
697.048139	0.535638
697.384276	0.537780
697.720363	0.535327
698.056400	0.534866
698.392388	0.540299
698.728326	0.543658
699.064214	0.546743
699.400053	0.546850
699.735842	0.549962
700.071581	0.553221
700.407270	0.556594
700.742910	0.558697
701.078501	0.565268
701.414042	0.565406
701.749533	0.568818
702.084974	0.577256
702.420366	0.569417
702.755709	0.577130
703.091002	0.585110
703.426246	0.578471
703.761440	0.584242
704.096584	0.589940
704.431679	0.586097
704.766725	0.587890
705.101721	0.590560
705.436668	0.585712
705.771565	0.593063
706.106413	0.589276
706.441212	0.584892
706.775961	0.583771
707.110661	0.587242
707.445311	0.582532
707.779913	0.580041
708.114465	0.578518
708.448967	0.575731
708.783421	0.567496
709.117825	0.561455
709.452180	0.562119
709.786485	0.555407
710.120742	0.546181
710.454949	0.547602
710.789107	0.539214
711.123216	0.530908
711.457275	0.532753
711.791286	0.523248
712.125247	0.522457
712.459159	0.532786
712.793023	0.525727
713.126837	0.529943
713.460602	0.530417
713.794318	0.539374
714.127985	0.538354
714.461602	0.548431
714.795171	0.552060
715.128691	0.560188
715.462162	0.566951
715.795584	0.571945
716.128957	0.576015
716.462281	0.581583
716.795556	0.585382
717.128782	0.589929
717.461960	0.601112
717.795088	0.598627
718.128167	0.604823
718.461198	0.613735
718.794180	0.613717
719.127113	0.617191
719.459997	0.619592
719.792833	0.626812
720.125619	0.627699
720.458357	0.633599
720.791046	0.633714
721.123686	0.636856
721.456278	0.643945
721.788821	0.641068
722.121315	0.645443
722.453761	0.650146
722.786158	0.647553
723.118506	0.643964
723.450805	0.651275
723.783056	0.647590
724.115259	0.644464
724.447412	0.644618
724.779518	0.645767
725.111574	0.645132
725.443582	0.640079
725.775542	0.642252
726.107453	0.635363
726.439315	0.635014
726.771129	0.633973
727.102895	0.626283
727.434612	0.619368
727.766281	0.617405
728.097901	0.616868
728.429473	0.616119
728.760996	0.614666
729.092471	0.615327
729.423897	0.618304
729.755276	0.617623
730.086606	0.617641
730.417887	0.611629
730.749120	0.602969
731.080305	0.593617
731.411442	0.590196
731.742530	0.594225
732.073570	0.593315
732.404562	0.586547
732.735506	0.587499
733.066401	0.592049
733.397249	0.602482
733.728048	0.612846
734.058798	0.625590
734.389501	0.635777
734.720156	0.646108
735.050762	0.654385
735.381320	0.654514
735.711831	0.664430
736.042293	0.668972
736.372707	0.664643
736.703073	0.668763
737.033391	0.671286
737.363661	0.668496
737.693883	0.662955
738.024056	0.662644
738.354182	0.663898
738.684260	0.651573
739.014290	0.648483
739.344272	0.649250
739.674207	0.642651
740.004093	0.642191
740.333931	0.642178
740.663722	0.642131
740.993464	0.642794
741.323159	0.647103
741.652806	0.651745
741.982405	0.656652
742.311956	0.660824
742.641460	0.663149
742.970915	0.666654
743.300323	0.674901
743.629683	0.680960
743.958996	0.683202
744.288260	0.686971
744.617477	0.694385
744.946647	0.695443
745.275768	0.699899
745.604842	0.700367
745.933869	0.709599
746.262847	0.711155
746.591778	0.704020
746.920662	0.710728
747.249498	0.717124
747.578286	0.707789
747.907027	0.703911
748.235720	0.704979
748.564365	0.699879
748.892963	0.699028
749.221514	0.702229
749.550017	0.707663
749.878473	0.707392
750.206881	0.714384
750.535242	0.715275
750.863555	0.715434
751.191821	0.715812
751.520039	0.718663
751.848210	0.723429
752.176334	0.716551
752.504411	0.715586
752.832440	0.722810
753.160421	0.727502
753.488356	0.725498
753.816243	0.723375
754.144082	0.731346
754.471875	0.735864
754.799620	0.730918
755.127318	0.731490
755.454969	0.732089
755.782572	0.731009
756.110129	0.736290
756.437638	0.738867
756.765100	0.735264
757.092515	0.733283
757.419882	0.732240
757.747203	0.738009
758.074477	0.736035
758.401703	0.734405
758.728882	0.728940
759.056014	0.727482
759.383099	0.727282
759.710138	0.728961
760.037129	0.724541
760.364073	0.718611
760.690970	0.720457
761.017820	0.726659
761.344623	0.722040
761.671379	0.712662
761.998088	0.701526
762.324751	0.678811
762.651366	0.637098
762.977935	0.570353
763.304456	0.517620
763.630931	0.508727
763.957359	0.547620
764.283740	0.591394
764.610074	0.619634
764.936362	0.650323
765.262602	0.676066
765.588796	0.698151
765.914943	0.716761
766.241044	0.733791
766.567097	0.742480
766.893104	0.750740
767.219064	0.757177
767.544978	0.763516
767.870845	0.777307
768.196665	0.780359
768.522438	0.778914
768.848165	0.779132
769.173846	0.789106
769.499479	0.793328
769.825066	0.797294
770.150607	0.801746
770.476101	0.796849
770.801548	0.798267
771.126949	0.809364
771.452303	0.813008
771.777611	0.813807
772.102872	0.812189
772.428087	0.817409
772.753256	0.820807
773.078378	0.822882
773.403453	0.831435
773.728482	0.836204
774.053465	0.829837
774.378401	0.832016
774.703291	0.841288
775.028135	0.840966
775.352932	0.842220
775.677683	0.844800
776.002388	0.845599
776.327046	0.845091
776.651658	0.849049
776.976224	0.852260
777.300743	0.852364
777.625216	0.854727
777.949643	0.857133
778.274024	0.855914
778.598359	0.858371
778.922647	0.856889
779.246889	0.856645
779.571086	0.862177
779.895236	0.863789
780.219339	0.860836
780.543397	0.857892
780.867409	0.856782
781.191374	0.858643
781.515294	0.859497
781.839167	0.858165
782.162995	0.861990
782.486776	0.857803
782.810511	0.859017
783.134201	0.863262
783.457844	0.861207
783.781441	0.863276
784.104993	0.869890
784.428498	0.870190
784.751958	0.865807
785.075372	0.868020
785.398739	0.872100
785.722061	0.868569
786.045337	0.863680
786.368568	0.869141
786.691752	0.871052
787.014891	0.857523
787.337983	0.848182
787.661030	0.840552
787.984031	0.822972
788.306987	0.809909
788.629897	0.811963
788.952760	0.816242
789.275579	0.821059
789.598351	0.835874
789.921078	0.849451
790.243759	0.851080
790.566395	0.856408
790.888984	0.863223
791.211529	0.868865
791.534027	0.870342
791.856480	0.874296
792.178888	0.879387
792.501249	0.881000
792.823566	0.882229
793.145836	0.882317
793.468062	0.884463
793.790241	0.883856
794.112375	0.882119
794.434464	0.877435
794.756507	0.876803
795.078505	0.876972
795.400457	0.871512
795.722364	0.859665
796.044226	0.852216
796.366042	0.852027
796.687812	0.854907
797.009538	0.851262
797.331218	0.854125
797.652852	0.858916
797.974442	0.864210
798.295986	0.863306
798.617484	0.865579
798.938938	0.870496
799.260346	0.875603
799.581709	0.877015
799.903026	0.880210
800.224299	0.879721
800.545526	0.883365
800.866708	0.888441
801.187845	0.892348
801.508936	0.892150
801.829983	0.889430
802.150984	0.891624
802.471940	0.897008
802.792851	0.896207
803.113717	0.898270
803.434538	0.895979
803.755314	0.898024
804.076045	0.899238
804.396731	0.899797
804.717372	0.899099
805.037967	0.901623
805.358518	0.899113
805.679024	0.896381
805.999485	0.896461
806.319901	0.896646
806.640272	0.896951
806.960598	0.896243
807.280879	0.893066
807.601115	0.890621
807.921306	0.895696
808.241453	0.896839
808.561554	0.893757
808.881611	0.893876
809.201623	0.895589
809.521590	0.896242
809.841513	0.896294
810.161390	0.895572
810.481223	0.898108
810.801011	0.900649
811.120755	0.903235
811.440453	0.900619
811.760107	0.899989
812.079716	0.898765
812.399281	0.903857
812.718801	0.905494
813.038276	0.906214
813.357707	0.906624
813.677093	0.902777
813.996434	0.908149
814.315731	0.909051
814.634983	0.909358
814.954191	0.906694
815.273354	0.903790
815.592473	0.900016
815.911547	0.901753
816.230577	0.898885
816.549562	0.895445
816.868502	0.897657
817.187399	0.892828
817.506250	0.887531
817.825058	0.889737
818.143821	0.886106
818.462539	0.879836
818.781213	0.873727
819.099843	0.862009
819.418429	0.845113
819.736970	0.828661
820.055466	0.808703
820.373919	0.782788
820.692327	0.750722
821.010691	0.715389
821.329011	0.637451
821.647286	0.522707
821.965517	0.408817
822.283704	0.365715
822.601847	0.366941
822.919945	0.402672
823.237999	0.436461
823.556010	0.483463
823.873976	0.539567
824.191897	0.589788
824.509775	0.632374
824.827609	0.677845
825.145398	0.700593
825.463144	0.703708
825.780845	0.686815
826.098502	0.667390
826.416116	0.622166
826.733685	0.577527
827.051210	0.568909
827.368692	0.583762
827.686129	0.620837
828.003522	0.674585
828.320872	0.721635
828.638177	0.766113
828.955439	0.798325
829.272656	0.820746
829.589830	0.838225
829.906960	0.854646
830.224046	0.867237
830.541088	0.876952
830.858086	0.880303
831.175041	0.887644
831.491952	0.886383
831.808819	0.883587
832.125642	0.876201
832.442421	0.862007
832.759157	0.838201
833.075849	0.793642
833.392497	0.729554
833.709101	0.688841
834.025662	0.698685
834.342179	0.728752
834.658653	0.768901
834.975083	0.804921
835.291469	0.830466
835.607811	0.853700
835.924110	0.869778
836.240366	0.885868
836.556578	0.900982
836.872746	0.908492
837.188871	0.913828
837.504952	0.919267
837.820990	0.924174
838.136984	0.927069
838.452935	0.930431
838.768842	0.930738
839.084706	0.924459
839.400526	0.898083
839.716303	0.858968
840.032037	0.836268
840.347727	0.840330
840.663373	0.858183
840.978977	0.879152
841.294537	0.902575
841.610054	0.917884
841.925527	0.926195
842.240957	0.932159
842.556344	0.939659
842.871687	0.945268
843.186987	0.949817
843.502244	0.950010
843.817458	0.951815
844.132629	0.955267
844.447756	0.960715
844.762840	0.960854
845.077881	0.959488
845.392879	0.960063
845.707833	0.962897
846.022745	0.964033
846.337613	0.964464
846.652438	0.966652
846.967221	0.964624
847.281960	0.964937
847.596656	0.966957
847.911309	0.965088
848.225919	0.966635
848.540485	0.968348
848.855009	0.967824
849.169490	0.968135
849.483928	0.968446
849.798323	0.969182
850.112675	0.969757
850.426984	0.969548
850.741251	0.968714
851.055474	0.970450
851.369654	0.967893
851.683792	0.969574
851.997887	0.970541
852.311938	0.970648
852.625947	0.970242
852.939914	0.967567
853.253837	0.969032
853.567718	0.970461
853.881555	0.971146
854.195350	0.967958
854.509103	0.969554
854.822812	0.969740
855.136479	0.969537
855.450103	0.968834
855.763685	0.968055
856.077224	0.967451
856.390720	0.970865
856.704173	0.970479
857.017584	0.969566
857.330953	0.967439
857.644278	0.967965
857.957561	0.968854
858.270802	0.969027
858.584000	0.968370
858.897155	0.966619
859.210268	0.968235
859.523339	0.967518
859.836367	0.970840
860.149352	0.969302
860.462295	0.968461
860.775195	0.969742
861.088054	0.968641
861.400869	0.968923
861.713642	0.971008
862.026373	0.970151
862.339062	0.970362
862.651708	0.968426
862.964312	0.967241
863.276873	0.968810
863.589392	0.968451
863.901869	0.966018
864.214303	0.964854
864.526696	0.963848
864.839045	0.963319
865.151353	0.961443
865.463619	0.962531
865.775842	0.962650
866.088023	0.962471
866.400162	0.962372
866.712258	0.961726
867.024313	0.963141
867.336325	0.963021
867.648296	0.963537
867.960224	0.962556
868.272110	0.961756
868.583954	0.963526
868.895755	0.963845
869.207515	0.961583
869.519233	0.959132
869.830909	0.961301
870.142542	0.962535
870.454134	0.962932
870.765684	0.960289
871.077191	0.958333
871.388657	0.957997
871.700081	0.958609
872.011463	0.957759
872.322803	0.957947
872.634101	0.956861
872.945357	0.954404
873.256571	0.953626
873.567744	0.952683
873.878874	0.953149
874.189963	0.950739
874.501010	0.951838
874.812015	0.949718
875.122979	0.950750
875.433900	0.952860
875.744780	0.953643
876.055618	0.951078
876.366415	0.949182
876.677169	0.949003
876.987882	0.950491
877.298554	0.950639
877.609183	0.946493
877.919771	0.943457
878.230317	0.942928
878.540822	0.940486
878.851285	0.934752
879.161707	0.926613
879.472087	0.914604
879.782425	0.897933
880.092722	0.864896
880.402977	0.810844
880.713191	0.751112
881.023363	0.692544
881.333494	0.657364
881.643583	0.629538
881.953631	0.629197
882.263637	0.658061
882.573602	0.697041
882.883526	0.723706
883.193408	0.746741
883.503248	0.769400
883.813048	0.796365
884.122806	0.826051
884.432522	0.849870
884.742197	0.868976
885.051831	0.880922
885.361424	0.890583
885.670975	0.903375
885.980485	0.913523
886.289954	0.919790
886.599382	0.923713
886.908768	0.928112
887.218113	0.933949
887.527417	0.939478
887.836680	0.941489
888.145901	0.942585
888.455082	0.945766
888.764221	0.950626
889.073319	0.952709
889.382376	0.953018
889.691392	0.953158
890.000366	0.952019
890.309300	0.953919
890.618193	0.953096
890.927044	0.950083
891.235855	0.951236
891.544625	0.951909
891.853353	0.951983
892.162041	0.949202
892.470687	0.941912
892.779293	0.937098
893.087858	0.932750
893.396381	0.925277
893.704864	0.912523
894.013306	0.888705
894.321707	0.861837
894.630068	0.847948
894.938387	0.841257
895.246665	0.843132
895.554903	0.856104
895.863100	0.868966
896.171256	0.886422
896.479371	0.906657
896.787446	0.917952
897.095480	0.925957
897.403473	0.928059
897.711425	0.932008
898.019336	0.940456
898.327207	0.942967
898.635038	0.944383
898.942827	0.944201
899.250576	0.948804
899.558284	0.951826
899.865952	0.953811
900.173579	0.954338
900.481165	0.956279
900.788711	0.958826
901.096216	0.960745
901.403681	0.962022
901.711105	0.963261
902.018489	0.963610
902.325832	0.962225
902.633135	0.962304
902.940397	0.954603
903.247619	0.943323
903.554800	0.917462
903.861941	0.877109
904.169041	0.841978
904.476101	0.825300
904.783121	0.825341
905.090100	0.841592
905.397039	0.863690
905.703938	0.886677
906.010796	0.906027
906.317614	0.922646
906.624391	0.934308
906.931129	0.943434
907.237826	0.951568
907.544483	0.958996
907.851099	0.962516
908.157675	0.967125
908.464211	0.969074
908.770707	0.971586
909.077163	0.973930
909.383578	0.974730
909.689954	0.974947
909.996289	0.975554
910.302584	0.976656
910.608839	0.980298
910.915054	0.977812
911.221229	0.977915
911.527363	0.976568
911.833458	0.977530
912.139513	0.977403
912.445527	0.975762
912.751502	0.973662
913.057436	0.972381
913.363331	0.968726
913.669186	0.966097
913.975000	0.960623
914.280775	0.956115
914.586510	0.948357
914.892205	0.934419
915.197859	0.912592
915.503475	0.885862
915.809050	0.866753
916.114585	0.860947
916.420081	0.858357
916.725536	0.854842
917.030952	0.862778
917.336328	0.876238
917.641665	0.890792
917.946961	0.906601
918.252218	0.919322
918.557435	0.927561
918.862612	0.936088
919.167750	0.942408
919.472848	0.947221
919.777906	0.952123
920.082925	0.958080
920.387904	0.961237
920.692843	0.962134
920.997743	0.963949
921.302603	0.967944
921.607423	0.969908
921.912204	0.971695
922.216946	0.970983
922.521647	0.973465
922.826310	0.975477
923.130932	0.977610
923.435516	0.978175
923.740059	0.979262
924.044564	0.978340
924.349028	0.980430
924.653454	0.981976
924.957840	0.985287
925.262186	0.983174
925.566493	0.983183
925.870761	0.985244
926.174989	0.986425
926.479178	0.987535
926.783328	0.988707
927.087438	0.988259
927.391509	0.988491
927.695541	0.990136
927.999533	0.988718
928.303486	0.990458
928.607400	0.990831
928.911275	0.989605
929.215110	0.991034
929.518906	0.990284
929.822663	0.989334
930.126381	0.990660
930.430060	0.990474
930.733699	0.989687
931.037299	0.989386
931.340861	0.990343
931.644383	0.988631
931.947866	0.989456
932.251309	0.990566
932.554714	0.989496
932.858080	0.989037
933.161407	0.990350
933.464694	0.991626
933.767943	0.990288
934.071153	0.990477
934.374323	0.992274
934.677455	0.991061
934.980548	0.992020
935.283602	0.991014
935.586617	0.991481
935.889593	0.991318
936.192530	0.989924
936.495428	0.990481
936.798287	0.990837
937.101108	0.990240
937.403890	0.989004
937.706632	0.988667
938.009336	0.986436
938.312002	0.986321
938.614628	0.985856
938.917216	0.984170
939.219765	0.981922
939.522275	0.983153
939.824747	0.982998
940.127179	0.983804
940.429573	0.984245
940.731929	0.983987
941.034246	0.983488
941.336524	0.985275
941.638763	0.985878
941.940964	0.986434
942.243126	0.987539
942.545250	0.986529
942.847335	0.988316
943.149381	0.988772
943.451389	0.987780
943.753359	0.988735
944.055290	0.990232
944.357182	0.989281
944.659036	0.988929
944.960851	0.990005
945.262628	0.990382
945.564367	0.990418
945.866067	0.989558
946.167729	0.991060
946.469352	0.989256
946.770937	0.988368
947.072484	0.990343
947.373992	0.990204
947.675462	0.990112
947.976893	0.989965
948.278286	0.989811
948.579641	0.992111
948.880958	0.989707
949.182236	0.991314
949.483476	0.990773
949.784678	0.990252
950.085841	0.991927
950.386967	0.990698
950.688054	0.990583
950.989103	0.990457
951.290114	0.989379
951.591087	0.989854
951.892021	0.989628
952.192917	0.988581
952.493776	0.987488
952.794596	0.988333
953.095378	0.987573
953.396122	0.987264
953.696828	0.988128
953.997496	0.990064
954.298126	0.989841
954.598718	0.990738
954.899272	0.990713
955.199788	0.989498
955.500266	0.991792
955.800706	0.992325
956.101108	0.993271
956.401472	0.992942
956.701798	0.993831
957.002087	0.992306
957.302337	0.993810
957.602550	0.994760
957.902724	0.994703
958.202861	0.995466
958.502960	0.995621
958.803022	0.993722
959.103045	0.995630
959.403031	0.993971
959.702979	0.994799
960.002889	0.995925
960.302762	0.995391
960.602596	0.995615
960.902393	0.993876
961.202153	0.996261
961.501875	0.996847
961.801559	0.995772
962.101205	0.995361
962.400814	0.996701
962.700385	0.996356
962.999918	0.997294
963.299414	0.996672
963.598873	0.995102
963.898293	0.995551
964.197677	0.997057
964.497022	0.996312
964.796331	0.996981
965.095601	0.996884
965.394835	0.996055
965.694030	0.997306
965.993189	0.997522
966.292309	0.997355
966.591393	0.997538
966.890439	0.996823
967.189447	0.997293
967.488419	0.995847
967.787353	0.995879
968.086249	0.996887
968.385108	0.996556
968.683930	0.998133
968.982714	0.997382
969.281462	0.997050
969.580172	0.996252
969.878844	0.996428
970.177480	0.995990
970.476078	0.997002
970.774639	0.997579
971.073162	0.998000
971.371649	0.997005
971.670098	0.995543
971.968510	0.998128
972.266885	0.995423
972.565223	0.995580
972.863524	0.996173
973.161788	0.995715
973.460014	0.997194
973.758204	0.995664
974.056356	0.996655
974.354471	0.994703
974.652550	0.996338
974.950591	0.996027
975.248595	0.996575
975.546563	0.996572
975.844493	0.998102
976.142386	0.996793
976.440243	0.997227
976.738062	0.995868
977.035845	0.997795
977.333590	0.995686
977.631299	0.998087
977.928971	0.996222
978.226606	0.996018
978.524204	0.995278
978.821765	0.998339
979.119290	0.996635
979.416777	0.997419
979.714228	0.997022
980.011642	0.996036
980.309020	0.997138
980.606360	0.996544
980.903664	0.998073
981.200931	0.996240
981.498162	0.995486
981.795356	0.993533
982.092513	0.993311
982.389633	0.994522
982.686717	0.991982
982.983764	0.991736
983.280775	0.990565
983.577749	0.990601
983.874686	0.991834
984.171587	0.991156
984.468451	0.994936
984.765279	0.995075
985.062070	0.993951
985.358824	0.995379
985.655543	0.994276
985.952224	0.995737
986.248869	0.996085
986.545478	0.996351
986.842050	0.997955
987.138586	0.996082
987.435086	0.998305
987.731549	0.999249
988.027975	0.997773
988.324366	0.997128
988.620719	0.997100
988.917037	0.995788
989.213318	0.999170
989.509563	0.997862
989.805772	0.998869
990.101944	0.998699
990.398080	0.996799
990.694180	0.997635
990.990244	0.996924
991.286271	0.998853
991.582262	0.997324
991.878217	0.997755
992.174136	0.999675
992.470019	0.997872
992.765865	0.997825
993.061676	0.997021
993.357450	0.997661
993.653188	0.996760
993.948890	0.997657
994.244556	0.997815
994.540186	0.997319
994.835780	0.996074
995.131337	0.997665
995.426859	0.995662
995.722345	0.998327
996.017795	0.997366
996.313208	0.995842
996.608586	0.995893
996.903928	0.997456
997.199234	0.996229
997.494504	0.996557
997.789738	0.997084
998.084936	0.996589
998.380099	0.998604
998.675225	0.997844
998.970316	0.999021
999.265371	0.997999
999.560390	0.997631
999.855373	0.998083
1000.150320	0.998285
1000.445232	0.998415
1000.740108	0.997641
1001.034948	0.998735
1001.329752	0.999191
1001.624521	0.998892
1001.919254	0.997691
1002.213951	0.997841
1002.508613	0.997967
1002.803239	0.999693
1003.097829	0.998156
1003.392384	0.998733
1003.686903	0.998948
1003.981386	0.998893
1004.275834	0.998698
1004.570246	0.998764
1004.864623	0.999786
1005.158964	0.999478
1005.453270	0.999004
1005.747540	0.997541
1006.041775	0.998183
1006.335974	0.999405
1006.630138	0.999242
1006.924266	0.999058
1007.218359	1.000618
1007.512416	0.999234
1007.806438	0.998957
1008.100425	0.999475
1008.394376	0.998403
1008.688292	0.998422
1008.982172	1.000039
1009.276017	0.999029
1009.569827	0.998747
1009.863602	0.999482
1010.157341	0.998697
1010.451045	0.999966
1010.744714	0.998861
1011.038347	0.998807
1011.331945	0.998893
1011.625508	0.996784
1011.919036	0.998421
1012.212528	0.999118
1012.505986	0.998331
1012.799408	0.997347
1013.092795	0.999258
1013.386147	0.998608
1013.679464	0.998494
1013.972745	0.998721
1014.265992	0.998816
1014.559204	0.999239
1014.852380	0.998470
1015.145521	0.999974
1015.438628	0.998781
1015.731699	0.998184
1016.024736	0.999676
1016.317737	0.999088
1016.610703	0.998501
1016.903635	0.999849
1017.196531	0.998390
1017.489393	0.999580
1017.782219	0.998950
1018.075011	0.998405
1018.367768	0.999804
1018.660490	1.000143
1018.953177	1.000143
1019.245829	1.000143
